#   1 NUMBER                 Running object number                                     
#   2 MAG_AUTO               Kron-like elliptical aperture magnitude                    [mag]
#   3 X_IMAGE                Object position along x                                    [pixel]
#   4 Y_IMAGE                Object position along y                                    [pixel]
#   5 X_WORLD                Barycenter position along world x axis                     [deg]
#   6 Y_WORLD                Barycenter position along world y axis                     [deg]
#   7 A_WORLD                Profile RMS along major axis (world units)                 [deg]
#   8 B_WORLD                Profile RMS along minor axis (world units)                 [deg]
#   9 THETA_WORLD            Position angle (CCW/world-x)                               [deg]
#  10 FWHM_WORLD             FWHM assuming a gaussian core                              [deg]
#  11 ELONGATION             A_IMAGE/B_IMAGE                                           
#  12 ELLIPTICITY            1 - B_IMAGE/A_IMAGE                                       
         1 -14.8117    237.9835     40.9915   3.6966526769e+01   2.2715800492e+01     2.541585    0.3534492 -40.94  0.008544943    4.338    0.769
         2 -13.5340    249.6325     15.4880   3.0907800318e+01   2.3470141408e+01     2.004786    0.4858731 -40.74  0.008987783    2.952    0.661
         3 -12.3211    246.4247     33.6278   3.4707210522e+01   2.1974498647e+01     0.687784    0.3100575 -39.56  0.002751709    1.898    0.473
         4 -14.1980    242.8674     24.2868   3.3126295414e+01   2.3783594116e+01     1.695991    0.5640576 -45.61  0.008059343    2.405    0.584
         5 -14.6147    247.2240     76.8513   4.3541135010e+01   1.5936131600e+01     2.320769    0.6348824 -42.80  0.008929592    2.921    0.658
         6 -13.9018    247.6484     44.3882   3.6771802909e+01   2.0381864362e+01     1.593633    0.9790473  -8.55  0.007309711    3.573    0.720
         7 -12.5833    223.2207     22.8020   3.4460902191e+01   2.7942723449e+01    0.3033442     0.270779  80.43  0.002144919    1.202    0.168
         8  -9.8611    189.5544      6.9938   3.4007290536e+01   3.6938865430e+01     0.166281    0.1147631 -35.53 0.0006253787    1.538    0.350
         9  -9.7665    153.5271      4.0177   3.7272919904e+01   4.5492370849e+01    0.1694844    0.1232545 -28.04 0.0009091488    1.567    0.362
        10  -9.6167    197.6219     86.8101   5.2726913377e+01   2.4497820568e+01    0.2149111    0.1190763 -47.07 0.0009493631    1.749    0.428
        11 -10.9281    193.6477    248.6295   8.7089072740e+01  -3.7657219868e+00     0.314736    0.2210598 -47.83  0.001906477    1.886    0.470
        12 -10.6045    244.0507    236.0155   7.5707347345e+01  -8.5715147258e+00    0.1923173      0.15398 -36.18 0.0009261479    1.641    0.391
        13  -9.7611    240.2439    240.4508   7.7118832780e+01  -8.6986834814e+00    0.1462144   0.09984954  33.06 0.0007034941    1.641    0.391
        14  -9.8338    220.0039    240.0136   8.0703766956e+01  -6.0799991975e+00    0.1565683    0.1504051  28.45 0.0007570722    1.613    0.380
        15 -11.0376    230.8005    237.0800   7.8238405707e+01  -7.0676392924e+00    0.2806963    0.2507151 -71.46  0.001513173    2.276    0.561
        16 -11.0014    189.6254    234.6195   8.5663598610e+01  -1.0663077996e+00    0.2780329    0.2468416 -82.16  0.001542122    1.866    0.464
        17 -10.3903    206.9889    237.0354   8.2665617888e+01  -3.8973334956e+00    0.2242554    0.2030059  59.75  0.001470546    1.791    0.442
        18 -10.9191    203.5440    232.9052   8.2644663903e+01  -2.7949610971e+00    0.2323372      0.20933  64.06 0.0005619613    1.800    0.444
        19  -9.6090    237.2824    235.6293   7.6832579105e+01  -7.6863404416e+00    0.1003941   0.09420147 -33.28 0.0003801053    1.699    0.411
        20 -10.8288    216.1838    233.6777   8.0360503168e+01  -4.6607575384e+00    0.3186751    0.2121103 -41.57   0.00188357    1.754    0.430
        21 -10.4364    247.8305    233.8709   7.4688413711e+01  -8.7420700221e+00     0.146187    0.1244809 -11.02 0.0005319478    1.331    0.249
        22  -9.9512    225.7081    231.5623   7.8231685705e+01  -5.6296970982e+00    0.1803062     0.146104 -45.51 0.0007772805    1.759    0.431
        23 -10.7069    235.3885    229.0040   7.6037720883e+01  -6.5278673994e+00    0.3049289     0.178084 -38.46  0.001498792    1.795    0.443
        24 -10.0575    229.7317    228.3412   7.6943180815e+01  -5.6976805903e+00     0.206178    0.1377155 -40.82 0.0009902741    1.740    0.425
        25  -9.9308    211.7031    227.4972   8.0158578999e+01  -3.1191518790e+00    0.2174834    0.1048155 -37.71  0.001076828    2.064    0.515
        26  -9.9649    184.7807    227.7753   8.5514134150e+01   7.5408110647e-01    0.1620106    0.1531446  39.21   0.00104552    1.352    0.261
        27 -10.4802    199.0191    226.6337   8.2472588061e+01  -1.1684798136e+00    0.2201281    0.1826225 -50.35   0.00135198    1.635    0.388
        28 -10.9407    246.9959    226.2428   7.3518761135e+01  -7.6069130435e+00    0.2356107    0.1546201  22.84  0.001491945    1.439    0.305
        29 -11.2793    242.9943    223.4967   7.3733584188e+01  -6.7230472461e+00    0.2583549    0.2172196  53.36  0.001614004    2.136    0.532
        30 -10.5685    240.1919    220.4081   7.3680438134e+01  -5.9238698639e+00    0.3192565    0.1661921 -27.82  0.001726783    1.725    0.420
        31 -10.5466    206.0072    225.1889   8.0858087375e+01  -1.9530900773e+00    0.2645603    0.1722434 -40.75  0.001386961    1.670    0.401
        32 -10.2072    190.5710    225.7202   8.3999900297e+01   2.2565821105e-01    0.2297737     0.117949 -36.57  0.001113131    1.996    0.499
        33 -10.3378    217.0334    222.8754   7.8344641165e+01  -3.1616499678e+00    0.2721907    0.1728806 -52.72   0.00139615    2.456    0.593
        34 -11.6085    248.1961    216.9476   7.1672988139e+01  -6.4556817994e+00     0.428791    0.2688351 -36.77  0.002578489    1.593    0.372
        35 -10.5439    193.2569    218.6380   8.2242730596e+01   9.9268122254e-01    0.2292804    0.1581709 -47.36 0.0009686259    1.726    0.421
        36 -10.3711    219.9812    217.0180   7.6752662922e+01  -2.6756635090e+00    0.1989873    0.1639737  -5.76  0.001162663    1.046    0.044
        37 -11.3401    226.5291    213.1108   7.4831911807e+01  -2.9944289673e+00    0.4508056    0.2036693 -48.33  0.001917965    3.152    0.683
        38 -10.6975    205.3758    213.6100   7.8941838782e+01  -3.6139200922e-03    0.4122814    0.1636037 -44.54  0.001728041    2.744    0.636
        39  -9.2900    138.3035    214.6873   9.3314319768e+01   1.0407619151e+01    0.1339247    0.1045511  65.51 0.0003362158    1.614    0.380
        40 -11.0825    217.2393    211.4579   7.6265626907e+01  -1.4082262155e+00    0.2573796    0.1488187 -47.68  0.001283527    2.157    0.536
        41 -10.0843    241.5261    210.0232   7.1578279354e+01  -4.5801112597e+00    0.2419679    0.1470684 -47.24    0.0012882    2.172    0.540
        42 -10.3415    239.4350    206.2301   7.1249129926e+01  -3.7282424265e+00    0.2204416    0.1770328 -32.06  0.001419484    1.330    0.248
        43 -10.7982    247.2307    206.3861   6.9925654724e+01  -4.7977928141e+00    0.3295757    0.1702071 -47.59  0.001581686    2.653    0.623
        44 -10.6181    233.0224    212.8350   7.3599727549e+01  -3.8517709070e+00    0.3043098    0.1701466 -36.89  0.001649466    1.700    0.412
        45  -9.2285    183.0000    206.9901   8.2276520484e+01   4.6187534794e+00    0.2123708   0.07522223 -43.86 0.0007947235    2.889    0.654
        46  -9.9989    217.4767    204.9523   7.5022546779e+01  -3.9441729515e-01    0.1948475    0.1170724 -35.60 0.0007695738    1.568    0.362
        47 -10.1860    187.3208    202.9743   8.0641754739e+01   4.6434057392e+00    0.2078314    0.1138504 -62.64 0.0007049432    4.370    0.771
        48 -10.2754    250.2620    200.9593   6.8408965881e+01  -4.3923361498e+00    0.3390725    0.1378997 -36.06  0.001609996    2.130    0.531
        49 -10.5711    243.1392    200.8244   6.9599519869e+01  -3.4122757419e+00    0.2830394    0.1659256 -31.66  0.001577768    1.475    0.322
        50  -9.5582    235.4765    202.4721   7.1251987938e+01  -2.6035488514e+00     0.129214    0.1035001  -9.73 0.0008095565    1.002    0.002
        51 -11.0628    231.2924    193.5697   7.0316012705e+01  -5.9120953229e-01    0.3578652    0.1655629 -37.12  0.001687716    1.948    0.487
        52 -10.6866    237.4176    197.7038   7.0012356723e+01  -2.1332968317e+00    0.2449495     0.109165 -40.69  0.001140728    2.144    0.534
        53 -10.0450    197.5416    203.7064   7.8687532969e+01   2.8771438778e+00    0.2529993    0.1224796 -36.88  0.001138004    2.026    0.506
        54  -9.5773    176.3659    197.2021   8.1879595600e+01   7.5181445691e+00    0.1901657      0.13078 -51.71 0.0006389026    1.689    0.408
        55 -10.7748    246.2904    192.7265   6.7534428083e+01  -2.6025735325e+00    0.2867862    0.2065262 -55.84  0.001580976    2.209    0.547
        56 -10.9943    224.2891    191.7227   7.1235561836e+01   7.5866232757e-01    0.2966996    0.1665463 -39.82  0.001494867    1.698    0.411
        57 -10.1527    241.5499    191.3367   6.8080596759e+01  -1.7195028993e+00    0.2271494    0.1089329 -40.19 0.0007149785    1.944    0.486
        58 -10.0783    198.5799    190.3578   7.5934564761e+01   5.0776220760e+00    0.2561306    0.1277153 -44.18  0.001126474    2.040    0.510
        59 -10.0453    210.3906    188.2048   7.3176480995e+01   3.5340564190e+00    0.1902278     0.121294 -45.80 0.0009507976    1.698    0.411
        60 -10.4018    237.1071    186.6950   6.7957374553e+01  -3.3595812758e-01      0.26283    0.1657357 -27.37  0.001176649    1.382    0.277
        61 -11.1761    228.5715    201.2298   7.2263285310e+01  -1.4233266706e+00    0.3566233    0.1374385 -42.86  0.001406556    2.660    0.624
        62  -9.8211    215.3440    187.0997   7.2008240910e+01   2.9332610915e+00    0.1929097    0.1157404 -46.48 0.0009367198    1.834    0.455
        63 -10.2420    223.8811    183.6250   6.9725907426e+01   2.1807444057e+00    0.2649837    0.1611044 -48.23  0.001309217    1.913    0.477
        64 -10.5465    210.5297    182.2161   7.1961480677e+01   4.5669047882e+00     0.337874    0.1148606 -33.25   0.00114917    3.316    0.698
        65  -9.8899    203.2925    182.3522   7.3406218370e+01   5.7433213853e+00    0.1462627   0.09959726  -8.40 0.0003683497    1.678    0.404
        66  -9.5875    183.2934    182.6472   7.7577829502e+01   9.1154819142e+00    0.1352934     0.116848 -84.27 0.0007030897    1.682    0.405
        67 -10.0758    235.3998    180.6836   6.7078837095e+01   8.9967805685e-01    0.1819136    0.1559872 -57.49  0.001093885    1.635    0.389
        68 -10.9067    247.5663    177.8086   6.4442914540e+01  -4.3781865468e-01    0.3390884    0.1413658 -45.50  0.001448985    2.617    0.618
        69 -10.4140    226.8915    176.8392   6.7824474532e+01   2.8611122299e+00    0.3614792    0.1666459 -19.54  0.001230328    3.852    0.740
        70  -9.9043    219.3696    178.1948   6.9476019580e+01   3.8319572370e+00    0.1970317    0.1167814 -45.61 0.0009514145    1.774    0.436
        71 -10.5697    205.1744    176.6824   7.1886929408e+01   6.4577334355e+00    0.2777228    0.1868608 -32.03  0.001042582    1.377    0.274
        72 -10.0406    197.5810    176.3258   7.3329492067e+01   7.8274889796e+00    0.2649302    0.1300043 -44.62 0.0009861889    2.037    0.509
        73 -10.6506    241.6528    181.2622   6.6112669977e+01  -1.2771674101e-01      0.28377    0.2051753 -52.08  0.001587067    1.830    0.454
        74 -10.0382    223.5780    172.3759   6.7521745556e+01   4.1609815281e+00    0.2611747    0.1182487 -42.97   0.00112351    2.114    0.527
        75  -9.9851    228.0049    171.3187   6.6508939548e+01   3.6279090033e+00    0.2588056    0.1589052 -57.73  0.001151826    2.608    0.617
        76 -10.4191    101.0119    175.9935   9.5864625380e+01   2.4887818841e+01    0.2015257    0.1978078  80.42   -0.0106749    1.002    0.002
        77 -11.0158    245.5549    168.2728   6.2888406949e+01   1.4006244431e+00    0.2983711    0.1950501 -46.03  0.001233616    1.620    0.383
        78 -10.2039    218.6521    167.8254   6.7490410906e+01   5.7746156163e+00    0.3176387    0.1514826 -41.33  0.001394183    1.939    0.484
        79  -9.7235    212.0000    168.9998   6.8982283639e+01   6.6912483683e+00    0.2283863   0.07290195 -40.52 0.0007937884    2.883    0.653
        80  -9.6755    205.3104    168.6458   7.0199830600e+01   7.9113323080e+00    0.1354236    0.1135783 -72.51 0.0007043922    1.727    0.421
        81 -11.0071    240.7057    163.9814   6.2826405630e+01   2.8550042698e+00    0.3913772    0.1976316 -50.40  0.001517604    2.497    0.600
        82 -10.4182    237.5095    158.5815   6.2256236940e+01   4.2710686819e+00    0.2641107    0.1966068 -42.64  0.001075336    1.316    0.240
        83 -10.2948    191.4277    165.2778   7.2280788002e+01   1.1026865700e+01    0.2820957    0.1319035 -37.61  0.001131383    2.065    0.516
        84 -10.3882    212.9792    163.0232   6.7545555636e+01   7.6072775346e+00    0.3084459    0.1782011 -38.15  0.001463698    1.575    0.365
        85  -9.7352    199.4018    164.2337   7.0438032964e+01   9.7835513469e+00    0.2002039    0.1291149 -47.24 0.0009373573    1.612    0.380
        86 -10.3247    246.5235    161.9523   6.1461510850e+01   2.2887451357e+00    0.2747477     0.161859 -40.23  0.001039577    1.505    0.336
        87 -10.3207    245.5834    157.3284   6.0676087533e+01   3.1974761196e+00    0.2640418    0.1590788 -36.43  0.001212263    1.402    0.287
        88 -10.4758    205.5390    160.7293   6.8481529815e+01   9.3419554430e+00    0.2831421    0.1281699 -36.23  0.001143224    2.094    0.523
        89  -9.6762    226.5640    156.7582   6.3752685305e+01   6.3954170038e+00     0.197493    0.1175011 -45.69 0.0009526197    1.673    0.402
        90 -10.1284    196.6471    157.1685   6.9470485683e+01   1.1634543726e+01    0.2191098    0.1249523 -32.10 0.0009553975    1.741    0.426
        91  -9.8507    216.5024    156.0758   6.5415130400e+01   8.2530277739e+00    0.2213173    0.1253735 -39.39  0.001032504    1.596    0.373
        92  -9.6417    187.7754    154.9782   7.0807565350e+01   1.3723438897e+01    0.2024741    0.1150952 -40.36 0.0008759923    1.664    0.399
        93 -10.2006    233.6639    153.6723   6.1883733155e+01   5.7400899982e+00    0.2718169    0.1457344 -53.07  0.001171476    2.458    0.593
        94 -10.0517    241.8004    153.1912   6.0438685279e+01   4.4889949276e+00    0.2007967    0.1646319 -40.37 0.0008006073    1.201    0.167
        95 -10.8318    244.3551    149.4665   5.9260901486e+01   4.7014974699e+00    0.3167959    0.2058581 -42.59  0.001724092    1.405    0.288
        96  -9.6712    205.5233    153.4984   6.6924080577e+01   1.0697917117e+01    0.1443647    0.1288111 -20.96 0.0004181411    1.002    0.002
        97  -9.8913    221.4602    151.9077   6.3626736774e+01   8.1338271215e+00    0.2157929    0.1228996 -38.67  0.001019679    1.564    0.361
        98 -10.0736    229.5121    148.0076   6.1392613688e+01   7.4259278029e+00    0.2701139    0.1197344 -34.44   0.00103793    2.068    0.516
        99  -9.5316    202.5030    151.4948   6.7070411067e+01   1.1632320163e+01    0.1458704    0.1300384 -18.92 0.0008105676    1.022    0.021
       100  -9.6906    215.5966    148.8276   6.4019526815e+01   9.7315972118e+00    0.2075793    0.1210763 -47.27 0.0009508732    1.740    0.425
       101 -11.1331    235.1234    146.7177   6.0179937379e+01   6.6926760299e+00    0.4069439    0.2529202 -40.89  0.001365045    1.428    0.300
       102  -9.9783    223.8384    146.5467   6.2056745457e+01   8.6723741679e+00    0.2810311    0.1682663 -50.62  0.001320384    1.843    0.457
       103 -11.0677    243.6471    140.4031   5.7489537494e+01   6.3371094074e+00    0.4104764    0.1305787 -41.78  0.001555512    2.709    0.631
       104 -10.8891    242.2037    133.8130   5.6327558195e+01   7.6889414445e+00    0.3837152    0.1576851 -43.41  0.001384141    2.158    0.537
       105 -10.6528    230.2565    139.5188   5.9451397395e+01   8.7802607934e+00    0.6818858   0.08531296 -42.01  0.001548651    7.074    0.859
       106  -9.4852    214.2987    142.6264   6.2898173663e+01   1.1101160979e+01    0.1421308     0.108365 -65.05 0.0003995167    1.747    0.427
       107  -9.3090    250.6528    140.3329   5.6407109249e+01   5.2012702456e+00     0.128717   0.09589422 -62.08 0.0007049069    1.768    0.434
       108  -9.8668    207.6292    145.1975   6.4698726898e+01   1.1862874307e+01    0.2137551     0.123841 -30.90 0.0009522189    1.700    0.412
       109 -10.0752    218.8159    137.4346   6.0947392726e+01   1.1211859963e+01       0.2454     0.151564 -33.71  0.001186078    1.475    0.322
       110 -10.9808    234.9937    136.1978   5.7965578261e+01   8.5261293095e+00    0.3287718    0.1596127 -50.34  0.001395504    2.322    0.569
       111  -9.7695    225.3880    133.2819   5.8907836737e+01   1.0747928847e+01    0.1995058    0.1161208 -45.15 0.0009437911    1.606    0.377
       112 -10.1496    198.4637    131.5108   6.3339856508e+01   1.6212349184e+01    0.1468592    0.1342804 -29.37 0.0001341715    1.005    0.005
       113 -10.7947    250.5020    130.4942   5.4394538963e+01   6.8451940395e+00    0.2155402    0.1887317 -31.30  0.001296526    1.060    0.057
       114 -11.2017    248.0000    129.9937   5.4655294253e+01   7.3455658182e+00     0.309168    0.1552573 -40.87  0.001495364    1.674    0.403
       115 -11.3047    240.5942    125.5395   5.4814502433e+01   9.3610232507e+00    0.4203555    0.1625927 -41.42  0.001746315    2.200    0.545
       116 -10.0649    227.5405    124.2595   5.6568532841e+01   1.1935202945e+01    0.2743493    0.1171116 -42.24  0.001135543    2.065    0.516
       117  -9.9779    179.5529    124.2872   6.5414880730e+01   2.1478233532e+01    0.2966315     0.139073 -44.88  0.001134164    2.068    0.516
       118  -9.6769    192.3723    129.2144   6.3989404220e+01   1.7874036114e+01     0.218653    0.1290347 -48.55 0.0009076283    1.721    0.419
       119  -9.4828    164.6845    124.3470   6.8661351842e+01   2.4593577955e+01    0.1560792    0.1229826 -78.84 0.0007047722    1.721    0.419
       120 -10.6553    235.4774    122.9149   5.5026897558e+01   1.0715596700e+01     0.214474    0.1168324 -38.71  0.001026378    1.575    0.365
       121 -10.4255    231.4940    119.9680   5.4998526566e+01   1.1945578262e+01    0.2110828    0.1187556 -39.20 0.0005964623    1.538    0.350
       122 -10.6315    247.9698    118.5169   5.2250812134e+01   9.2416378847e+00    0.2195176    0.1524123 -39.04  0.001245376    1.203    0.169
       123  -9.9006    242.9796    119.0075   5.3067419870e+01   1.0033355742e+01     0.212356    0.1465783 -60.52  0.001123442    1.726    0.421
       124  -9.6118    209.1790    118.1876   5.8276619650e+01   1.6552067657e+01    0.1944208    0.1564871 -55.74 0.0004979298    1.301    0.232
       125  -9.7949    247.5948    112.7328   5.1082670199e+01   1.0251661048e+01    0.1867462    0.1041758 -44.89  0.000533837    1.556    0.357
       126 -11.3306    218.6766    110.5098   5.4907672817e+01   1.6028961710e+01    0.5550858    0.1307368 -41.70  0.001707183    3.685    0.729
       127  -9.8780    222.4679    104.9978   5.3051051755e+01   1.6229957153e+01    0.2223513    0.1226251 -38.73  0.001036858    1.608    0.378
       128  -9.5504    205.7627    105.0419   5.5776705511e+01   1.9605090744e+01    0.1956416    0.1110772 -39.50 0.0008777419    1.609    0.379
       129  -9.6019      7.5195    105.4887   1.1169519429e+02   5.3003770923e+01     0.128131    0.1041415 -62.26 6.217358e-05    1.019    0.019
       130  -9.7033    195.0000    113.0615   5.9627753871e+01   2.0395694296e+01    0.2458002    0.0786846 -39.35 0.0007972391    2.907    0.656
       131 -11.2195    229.8090    102.3896   5.1360123882e+01   1.5236435037e+01    0.3196144    0.1659881 -40.85  0.001219668    1.669    0.401
       132  -9.4640    200.7505    103.0062   5.6154886943e+01   2.1015502788e+01    0.1892444    0.1151453 -38.87 0.0005212004    1.521    0.343
       133 -10.0579    141.3067    102.6574   6.8555112303e+01   3.4079658287e+01    0.1560507    0.1236208 -79.33 0.0006208713    1.689    0.408
       134 -10.2200    221.4619     97.6029   5.1516708366e+01   1.7678022847e+01    0.2761278    0.1229703 -37.69 0.0007217576    2.016    0.504
       135  -9.3880    202.6624     98.2967   5.4687196303e+01   2.1441273609e+01    0.1448916    0.1079274 -71.94 0.0007031403    1.654    0.395
       136 -11.8515    241.9882     92.5422   4.7522932672e+01   1.4513543659e+01    0.3436362    0.1643878 -38.38  0.001259924    1.789    0.441
       137  -9.9330    194.8456     97.3284   5.5807731540e+01   2.3284599834e+01    0.2118747    0.1724208 -49.22 0.0007741911    1.179    0.152
       138  -9.6231    176.2220     96.9730   5.9223260901e+01   2.7440491740e+01    0.1971756    0.1177185 -39.41 0.0005733173    1.609    0.378
       139 -10.5074    235.5579     95.2892   4.8975497887e+01   1.5293690316e+01    0.2591747    0.1087904 -41.85 0.0009697934    2.028    0.507
       140  -9.4863    206.6912     94.3207   5.3060535372e+01   2.1275153074e+01    0.1447004    0.1042571 -67.12 0.0004411763    1.643    0.391
       141 -10.7702    236.9605     89.9739   4.7622428752e+01   1.5873467423e+01    0.2831898    0.1648251 -45.58 0.0009333713    1.495    0.331
       142 -11.8518    235.4654     86.4747   4.7051878531e+01   1.6713544719e+01    0.4882632    0.1492527 -40.52  0.001859386    2.715    0.632
       143 -10.2638     24.9917     90.0859   1.0271040287e+02   5.5460166236e+01    0.2008821    0.1654566 -43.17 0.0004134358    1.036    0.035
       144 -11.0456    226.2050     87.7023   4.8574869846e+01   1.8347524573e+01     0.364933    0.1893035 -36.09  0.001038747    1.766    0.434
       145 -12.4947    229.9532     80.4315   4.6434418870e+01   1.8743105974e+01    0.6063195    0.2258209 -41.24  0.002518672    2.289    0.563
       146  -9.4629    242.3094    248.3254   7.8053980501e+01  -9.9662555083e+00    0.1212317   0.07032274  -2.61 0.0006582142    1.655    0.396
       147  -9.7654    150.4930     79.4745   5.9870569716e+01   3.6436119287e+01    0.1455424    0.1445213 -77.83  3.79758e-05    1.026    0.025
       148  -9.6712    201.2278     77.9348   4.9955956571e+01   2.5169310078e+01    0.1886501    0.1078136 -38.92 0.0006896142    1.636    0.389
       149 -10.0697    166.6564     77.5027   5.5925140269e+01   3.3056533240e+01     0.257809    0.1346829 -36.66  0.001016585    1.901    0.474
       150  -9.6779    174.4709     77.4982   5.4421077289e+01   3.1259813936e+01    0.1434165    0.1377715 -65.47 4.241964e-05    1.019    0.019
       151  -9.6492    218.5016    247.9978   8.2279903499e+01  -6.9906814710e+00    0.1370781    0.1072687 -59.47 0.0008099286    2.484    0.597
       152  -9.7271    211.4835     76.0227   4.7955797113e+01   2.3253241184e+01     0.212116    0.1250265 -37.72  0.001028645    1.579    0.367
       153 -11.7667    237.4019     79.8154   4.5348783647e+01   1.7368109566e+01    0.3546485    0.1998673 -73.57  0.001548214    2.802    0.643
       154 -10.1260    210.3703    247.7056   8.3749471265e+01  -5.8906413391e+00    0.1640625    0.1473471  49.71  0.001114621    1.755    0.430
       155  -9.3840    223.6339     75.6977   4.6199748915e+01   2.0755778491e+01    0.1287582    0.1035965  17.87 0.0007034885    1.737    0.424
       156  -9.4367    206.2995     73.6731   4.8148828189e+01   2.4737530260e+01    0.1429947   0.09790877 -65.52 0.0007028583    1.636    0.389
       157 -11.0970    195.7739     72.1000   4.9363114245e+01   2.7302496578e+01    0.3176071    0.1887053 -37.07 0.0009798497    1.618    0.382
       158 -10.6570    221.9415     71.0068   4.5352205126e+01   2.1819858236e+01    0.2137954    0.1390861 -61.69 0.0006550597    1.620    0.383
       159 -10.1903    214.5008     70.0203   4.6116405135e+01   2.3534774470e+01    0.1998039   0.09314776 -54.72 0.0008092453    2.456    0.593
       160  -9.8874    163.3719     71.2190   5.4833489363e+01   3.4861833828e+01    0.2131739    0.1278399 -45.83 0.0009509019    1.702    0.413
       161 -12.0363    249.8356     54.1008   3.8544132058e+01   1.8676751766e+01     1.024187    0.1501305 -37.98  0.003316788    4.612    0.783
       162 -10.0645    203.5484     66.2545   4.6750207702e+01   2.6477061245e+01    0.2645882     0.117552 -40.58  0.001129303    2.061    0.515
       163  -9.5013    185.2432     72.9528   5.1300573251e+01   2.9540987342e+01    0.1845006    0.1151681 -38.38 0.0005890855    1.550    0.355
       164  -9.7607    139.0000     66.9776   5.8794490365e+01   4.1203741817e+01    0.2391748     0.082952 -35.79 0.0008028937    2.946    0.661
       165  -9.4486    212.3131     66.2993   4.5538155069e+01   2.4562460615e+01     0.126155    0.1051182  19.55  0.000398693    1.606    0.377
       166  -9.6189    157.7110     61.3647   5.3152867239e+01   3.7743504659e+01    0.1488322    0.1074765 -67.24  0.000702453    1.700    0.412
       167  -9.3644    233.3057    247.6276   7.9529939400e+01  -8.7974160731e+00   0.09687143   0.09444827   9.35 0.0007032169    1.762    0.432
       168 -10.2269    206.5706     58.6858   4.4499560316e+01   2.6925732707e+01    0.2530749    0.1286122 -30.40  0.001137519    2.106    0.525
       169 -11.9075    226.9994     56.3691   4.1431050212e+01   2.2896301222e+01    0.2633439    0.1959733 -47.05  0.001382774    1.193    0.162
       170 -11.7765    227.5800     51.7897   4.0351599807e+01   2.3407487061e+01    0.2774171    0.1283463 -43.61 0.0008836415    1.879    0.468
       171 -12.8219    232.6129     47.2271   3.8820328347e+01   2.2987996693e+01    0.4574538     0.250089 -55.89  0.002408134    1.730    0.422
       172  -9.4179    157.7167     54.6445   5.1216548016e+01   3.8743563179e+01    0.1422378    0.1081851  19.58 0.0007018304    1.665    0.400
       173  -9.4909    208.6633     39.3016   3.9640170698e+01   2.9086547291e+01    0.1360486   0.08600863 -67.97 0.0004886177    1.663    0.399
       174 -11.0913    228.4762     37.0123   3.7032277067e+01   2.5151630914e+01    0.1846677    0.1095488 -38.05 0.0008317926    1.580    0.367
       175 -10.2263    175.6013    246.7792   9.0362107027e+01  -9.4810396311e-01    0.1555153    0.1209537 -52.71 0.0009548416    1.716    0.417
       176 -12.1446    226.1861     30.9426   3.5942395993e+01   2.6370919741e+01    0.4344669    0.1739369 -23.71  0.001695543    3.923    0.745
       177 -10.3486    225.5948    242.8338   8.0139574133e+01  -7.1944006989e+00    0.1948557    0.1844862 -34.01   0.00132179    1.675    0.403
       178 -10.0179    125.5963     29.7911   4.9931637446e+01   4.9504073104e+01    0.2362003    0.1339753 -21.50  0.001123867    2.027    0.507
       179 -10.1489    159.1829     81.5977   5.8585672869e+01   3.4069708831e+01    0.2889003    0.1071314 -40.04   0.00100298    2.626    0.619
       180 -10.3438     30.4323     28.2515   8.1186198365e+01   6.7291130479e+01    0.2237726    0.1481994  -7.02 0.0007987412    1.400    0.286
       181 -10.3498    209.9680     26.0055   3.6426656265e+01   3.0408525323e+01    0.1499187    0.1278073 -79.77 0.0004120068    1.023    0.022
       182 -10.2025    202.1275    242.2743   8.4451179821e+01  -4.0010827332e+00    0.1977337    0.1686177 -68.75   0.00110019    2.097    0.523
       183  -9.5362    147.7562     20.0062   4.2758266186e+01   4.5371849203e+01    0.1611698    0.1118331 -26.81 0.0008868248    1.608    0.378
       184  -9.5556    169.3157    242.6507   9.1010471261e+01   6.1673304491e-01    0.1197506   0.09699482  60.12  0.000704737    1.728    0.421
       185 -10.4310    183.6302    240.2616   8.7759984633e+01  -1.0857790538e+00    0.3065804    0.2220806  65.78  0.001574454    2.699    0.629
