#   1 NUMBER                 Running object number                                     
#   2 MAG_AUTO               Kron-like elliptical aperture magnitude                    [mag]
#   3 X_IMAGE                Object position along x                                    [pixel]
#   4 Y_IMAGE                Object position along y                                    [pixel]
#   5 X_WORLD                Barycenter position along world x axis                     [deg]
#   6 Y_WORLD                Barycenter position along world y axis                     [deg]
#   7 A_WORLD                Profile RMS along major axis (world units)                 [deg]
#   8 B_WORLD                Profile RMS along minor axis (world units)                 [deg]
#   9 THETA_WORLD            Position angle (CCW/world-x)                               [deg]
#  10 FWHM_WORLD             FWHM assuming a gaussian core                              [deg]
#  11 ELONGATION             A_IMAGE/B_IMAGE                                           
#  12 ELLIPTICITY            1 - B_IMAGE/A_IMAGE                                       
         1 -10.5697     87.9436     24.3248   2.9418321046e+01   6.0147581909e+01    0.7805707    0.3672596 -54.31  0.002479454    4.460    0.776
         2 -12.0989     96.5182     22.1890   2.5839746098e+01   5.8443271223e+01    0.4356931      0.34237  50.38 0.0004142621    1.208    0.172
         3 -11.0095     21.1819     17.0149   5.7352281251e+01   7.2808235380e+01    0.3759291    0.2613419  25.63  0.001819068    1.545    0.353
         4  -9.6866      6.5296     14.7251   6.6437100620e+01   7.4515428898e+01    0.2668343    0.1892905 -74.20  0.001584492    1.922    0.480
         5 -11.3622    183.6184     13.7110   7.3930875495e+00   3.7155764656e+01    0.5149302    0.3232841 -31.53   0.00149198    1.562    0.360
         6 -12.2882    183.6178      4.5486   4.7126864980e+00   3.8047660864e+01    0.5065489    0.4489495  -7.54   0.00305331    1.326    0.246
         7 -12.3600    178.1560      7.7576   6.1783825588e+00   3.9116419427e+01    0.5204721    0.2999858 -82.75  0.001863082    1.839    0.456
         8 -10.9378    174.3118      2.6702   5.0181530658e+00   4.0555772936e+01     0.378771    0.2148819 -52.77   0.00132115    1.735    0.424
         9 -10.5787    178.3277      1.9147   4.4170129607e+00   3.9609553926e+01    0.3069486    0.2808069  36.95  0.001300264    1.271    0.213
        10 -10.4569    127.8055     14.3414   1.5296644783e+01   5.1513927444e+01    0.2674121    0.2405588  57.10 0.0005780205    1.041    0.039
        11 -10.9657     49.5612     13.8553   3.9166279600e+01   6.9334814372e+01    0.3172308    0.2604732  18.87 0.0008418837    1.118    0.106
        12 -10.7262     45.2928     12.3025   4.0404588601e+01   7.0285926855e+01    0.2922341    0.2099002 -27.91 0.0008926385    1.318    0.241
        13 -10.3731     34.9668     13.6666   4.6886719434e+01   7.1678181568e+01    0.2737774    0.2084803   1.85 0.0009486846    1.228    0.186
        14 -10.9069    191.7664     12.5435   6.2538038146e+00   3.5255348225e+01    0.2561867    0.1818102 -27.86  0.001400038    1.437    0.304
        15  -9.7287    114.6301      8.9107   1.5603471175e+01   5.5429347869e+01    0.2917108    0.1849039  69.09  0.000774015    1.525    0.344
        16 -11.0722    119.1765      9.0166   1.4762554956e+01   5.4258673333e+01    0.4662419    0.2319539 -28.81 0.0003301669    2.064    0.516
        17 -11.3799    123.8324      6.5439   1.2910360899e+01   5.3286517147e+01    0.3779002    0.2613289  88.80  0.001113605    1.582    0.368
        18 -10.7148     79.4305     11.9684   2.6087041920e+01   6.3595813993e+01    0.4463083    0.2599972  63.18  0.001425004    1.922    0.480
        19 -11.0404     74.7442      9.2696   2.6223010855e+01   6.4932646836e+01    0.4097027    0.2467237 -12.07  0.002012332    1.803    0.446
        20 -10.6150     78.0823      7.6732   2.4274155642e+01   6.4365003696e+01    0.2514075    0.2091121  22.74 0.0004850999    1.108    0.098
        21 -10.0700     27.6075     11.3239   4.9997810736e+01   7.3056100036e+01    0.2345942     0.192275 -18.40 0.0007778173    1.052    0.049
        22 -10.8671    104.4875      8.8196   1.7723744573e+01   5.7987989369e+01    0.4318431    0.3472202 -33.44  0.002414173    1.342    0.255
        23 -11.6391     56.7649      8.8013   3.2880193725e+01   6.8692249525e+01    0.4915114    0.3238658  24.84  0.002054698    1.502    0.334
        24  -9.9989     32.3140     10.1259   4.6352553337e+01   7.2614798035e+01    0.2305215    0.1828527 -24.10 0.0009503533    1.144    0.126
        25 -10.5894     69.6747      8.3092   2.7473084304e+01   6.6132686868e+01    0.3735195    0.2099739  -1.82  0.001682599    2.254    0.556
        26  -9.7873    212.9416      8.7754   3.4629192888e+00   3.0590580682e+01    0.1815671    0.1651008  60.93 0.0007525443    1.275    0.215
        27 -11.4119     97.0514      6.5213   1.8407170984e+01   6.0033776269e+01    0.4260907    0.2838252 -56.00  0.001489131    1.944    0.486
        28 -10.2343      3.4821      8.3849   6.5670537845e+01   7.5947192654e+01    0.2039337    0.1595301 -28.50 0.0006677326    1.027    0.027
        29 -11.8051     86.9375      6.5873   2.1071657912e+01   6.2444407344e+01    0.5669672    0.2615991  41.71  0.001515637    2.062    0.515
        30  -8.8977     40.2644      8.3469   4.0674142174e+01   7.1676732833e+01     0.131491   0.08713825  -1.40 0.0003480365    1.608    0.378
        31 -10.2850     22.0818      6.2231   5.0524227336e+01   7.4574846329e+01    0.3988433    0.1921098 -22.27  0.001235535    2.525    0.604
        32  -9.9591    242.9265      5.4699   7.2635563467e-01   2.4364166623e+01    0.1628948    0.1089679  87.94 0.0004314196    1.504    0.335
        33  -9.9552    203.6068      4.5195   3.0548565329e+00   3.3188884290e+01    0.2342266     0.197442  59.44 0.0008542924    1.323    0.244
        34 -10.2145    131.2863      3.3567   1.0446113120e+01   5.1629771713e+01     0.243922    0.2057057  76.58 0.0005432474    1.112    0.101
        35  -9.7357     16.6570      4.0030   5.2967209081e+01   7.5561704100e+01    0.2033549    0.1208552 -26.90  0.001165169    1.495    0.331
        36 -10.4200    159.3484      2.6770   6.5600043411e+00   4.4386651563e+01    0.2312142    0.1413655 -61.53 0.0008946317    1.721    0.419
        37 -11.2144    114.4772      1.8751   1.2642754054e+01   5.6084866047e+01    0.4450849    0.2071675  69.95  0.001045974    2.033    0.508
        38  -9.9795     37.6712      1.7761   3.7846554795e+01   7.2982383913e+01    0.2586157    0.1584575  40.18  0.001401196    1.618    0.382
        39  -9.0197    230.1704      1.6526   5.7629243948e-01   2.7436551311e+01    0.1620184    0.1016634  68.89 0.0005921773    1.687    0.407
        40  -8.6820     79.3149      1.3336   2.0516305503e+01   6.4699237334e+01    0.1459173   0.08735895  29.70 0.0007046519    1.687    0.407
        41 -10.3398     20.2039     95.1803   8.0415449890e+01   5.4898624599e+01    0.2361483     0.167837  52.55 0.0008732565    1.552    0.356
        42  -9.8935     15.8759     93.6904   8.1824832576e+01   5.5577798693e+01    0.3424456    0.1384707  40.05  0.001486655    2.695    0.629
        43 -10.4001    132.6254     92.6626   4.1637005594e+01   3.7667431974e+01    0.2904025    0.2760527  22.83 0.0005806718    1.074    0.069
        44  -9.0947    115.4775     89.9746   4.5585587220e+01   4.2023163912e+01    0.2093665    0.1369336 -69.06 0.0004782013    2.246    0.555
        45  -9.0781      2.1956     88.7859   8.6375673075e+01   5.7576803869e+01    0.1777118    0.1184665 -56.56 0.0005236755    1.318    0.241
        46  -9.3966     11.9678     86.2461   8.2254436116e+01   5.7699043960e+01    0.1745968    0.1520672 -63.62 0.0003640879    1.064    0.060
        47  -9.1032      5.7846     85.6516   8.4605573383e+01   5.8186472280e+01    0.1579709    0.1144152  32.41 0.0009361563    1.604    0.377
        48  -8.7525     76.3040     83.2976   5.6385664550e+01   5.1135387890e+01    0.1505252    0.1143091 -18.64 0.0003585915    1.584    0.369
        49 -11.4070     54.7396     78.8634   6.3356830591e+01   5.5462835877e+01    0.3321531    0.2691105 -78.33 0.0004799193    1.375    0.273
        50  -9.6881     28.6702     80.3302   7.4418781028e+01   5.7969912077e+01    0.1380478   0.09781939  69.17 0.0007051665    1.715    0.417
        51  -9.1580      6.1687     80.2023   8.3710306550e+01   5.9524871084e+01    0.1658155    0.1349539  77.44 0.0004262734    1.278    0.217
        52  -8.7888     88.6105     79.1781   5.0775051949e+01   4.9874130405e+01    0.1923018     0.138921 -37.27 0.0001347295    1.385    0.278
        53  -9.2312    144.2128     77.7165   3.4213305084e+01   3.7917865335e+01    0.2409309    0.1255828 -26.86 0.0004407319    2.343    0.573
        54  -9.6708     78.0077     78.0368   5.4177204833e+01   5.2064712099e+01    0.2177052    0.2075467 -27.73            0    1.022    0.022
        55 -10.0590      2.9832     75.1675   8.4316762854e+01   6.0920310941e+01    0.2223189    0.2005421   2.10  0.001506782    1.336    0.252
        56  -9.1210    128.7448     71.5499   3.6089355025e+01   4.2776254329e+01    0.2100133    0.1526723  64.13 0.0007493944    1.556    0.358
        57  -9.8203     63.8494     69.2581   5.6823570332e+01   5.6409481507e+01    0.2753162    0.1940671 -62.41  0.001173084    1.543    0.352
        58  -9.2778      7.9146     68.6956   8.1149079329e+01   6.2277850271e+01    0.1622154    0.1505911 -54.93 0.0004118911    1.129    0.114
        59  -9.5765     83.0474     68.0436   4.9068552669e+01   5.3372480171e+01    0.2169375    0.2102903 -17.99  0.001204939    1.030    0.029
        60  -9.7524    152.1650     66.4057   2.8860507779e+01   3.8003378376e+01    0.2557811    0.1827636 -40.83 0.0006702777    1.375    0.273
        61  -9.4157    140.2681     66.9689   3.1716575830e+01   4.0838796528e+01    0.2239551    0.2011127 -35.65  0.001148052    1.105    0.095
        62  -9.2816     45.0541     68.0000   6.4329755121e+01   5.9294275725e+01    0.2175484   0.08054529  28.07 0.0008070879    2.975    0.664
        63  -9.9965    192.0667     65.9155   2.1400146088e+01   2.8328152112e+01    0.2106767    0.1946712 -48.20 0.0003283843    1.020    0.019
        64 -10.2955     70.3942     65.6332   5.3013498254e+01   5.6161645747e+01    0.3120595    0.2506046  12.37  0.001118344    1.385    0.278
        65  -9.1003    204.0289     65.5075   1.9505455276e+01   2.5599003970e+01    0.1935286    0.1196195 -79.82 0.0008081018    2.397    0.583
        66 -10.6571     43.4082     62.7695   6.3491757399e+01   6.0718901843e+01    0.3979821    0.2638338 -25.53  0.001796389    1.694    0.410
        67 -10.3275     85.0187     63.7327   4.6843080601e+01   5.3906475821e+01    0.2587715    0.2378109 -40.46 0.0002122833    1.077    0.072
        68 -10.4950     86.4845     60.4994   4.5144464361e+01   5.4281410323e+01    0.5264986    0.3084079 -57.40  0.002138115    2.192    0.544
        69  -9.2407     75.2597     64.4600   5.0719872997e+01   5.5572237719e+01    0.1939043    0.1414952  50.84 0.0009301972    1.566    0.361
        70 -10.3683      4.1192     63.9668   8.2053188322e+01   6.3611208223e+01    0.2585869    0.2254991 -13.90  0.001062404    1.310    0.237
        71 -10.9932      3.5456     59.4395   8.1513340060e+01   6.4729152617e+01    0.3390538    0.2710222 -50.03  0.001138151    1.102    0.092
        72 -10.6101     98.8971     61.4222   4.1266676107e+01   5.1523813527e+01    0.5084813     0.326721 -64.94  0.002031802    2.363    0.577
        73  -9.9560    231.9344     60.5623   1.4705878454e+01   2.0168458220e+01    0.3357109    0.1702202  43.40  0.001495313    2.607    0.616
        74  -9.6027    114.3280     60.9339   3.6388892462e+01   4.8155199560e+01     0.210725    0.1902147 -29.14 0.0003110552    1.102    0.093
        75  -9.7406     34.8939     60.8384   6.6824337525e+01   6.2118489763e+01    0.1967984     0.162459 -31.44 0.0003067234    1.155    0.134
        76 -10.2342     13.9399     61.2334   7.6889863702e+01   6.3751326674e+01    0.2694088    0.1672408  -0.24  0.001446119    1.931    0.482
        77 -10.1891     57.4632     59.8359   5.6322017332e+01   5.9498463449e+01    0.2871684    0.2054999  16.41  0.001038807    1.590    0.371
        78 -11.8343     24.7768     57.3474   7.0675438917e+01   6.3887163539e+01    0.4750288    0.4421122 -47.97   0.00202072    1.098    0.089
        79 -10.0218     23.2575     50.7403   6.9542065285e+01   6.5551125604e+01     0.319708    0.1893193 -41.95  0.001209742    1.483    0.326
        80  -9.0773     92.1196     57.6397   4.2116981796e+01   5.3698834537e+01    0.2088307    0.1358376  33.50 0.0004028997    1.657    0.397
        81  -9.8722     77.9351     55.7727   4.6514449289e+01   5.6892683923e+01    0.2513047    0.2052927  60.94 0.0006457012    1.496    0.331
        82  -9.1860     45.4747     56.4926   6.0516096269e+01   6.1898850680e+01    0.1386107    0.1247508 -38.40 9.851042e-05    1.032    0.031
        83 -10.6582     63.5252     51.7260   5.0738764119e+01   6.0275703339e+01    0.3721596    0.2411321 -36.00   0.00179904    1.486    0.327
        84 -11.4237     70.3623     51.4764   4.7811676680e+01   5.9146634146e+01    0.5416155    0.4086136  65.84  0.002638618    1.881    0.468
        85  -8.7119    111.4777     51.5023   3.3733815251e+01   5.0506218872e+01    0.1530113    0.1431566  13.77 0.0008092945    1.070    0.065
        86  -8.6843     15.3172     51.3070   7.3806869242e+01   6.6016613044e+01    0.1382664   0.07841514 -38.00 0.0007029504    1.631    0.387
        87 -11.7680     94.0840     48.5646   3.7934197722e+01   5.4969645892e+01    0.2808309     0.230919 -28.60  0.000124024    1.204    0.170
        88  -8.8648    145.6500     49.7205   2.4744344606e+01   4.2351849622e+01    0.1567795    0.1133811  29.29 0.0004033341    1.645    0.392
        89  -9.0403     35.3363     48.8658   6.2772647455e+01   6.4803328552e+01    0.2080042    0.1003631 -46.06 0.0007890319    1.788    0.441
        90  -9.3099    148.5083     47.4062   2.3377181304e+01   4.1972750399e+01    0.1477367    0.1434963  74.07  6.88048e-05    1.018    0.018
        91 -10.7432     52.0591     46.2671   5.3674793841e+01   6.3198565212e+01    0.4327528    0.2614529  27.86  0.002097306    1.780    0.438
        92  -9.5939      7.0131     45.6191   7.6748500461e+01   6.7827343922e+01    0.2931272    0.1223153 -45.46  0.001306541    1.947    0.486
        93  -9.1638    142.0225     44.9997   2.3869869652e+01   4.3987264501e+01    0.1811193    0.1714906 -33.84 0.0004955236    1.071    0.066
        94 -11.7251     38.1029     37.0508   5.6791349431e+01   6.6986234768e+01    0.6391144    0.3939607  13.57  0.003223103    1.883    0.469
        95 -10.5226     37.8716     43.5477   5.9533907143e+01   6.5665830721e+01     0.375412    0.2505284  43.12  0.001967178    1.832    0.454
        96 -10.1829     32.7396     44.1257   6.2406079228e+01   6.6125388703e+01     0.335945    0.1837026  31.57  0.001370657    1.999    0.500
        97  -9.3268     20.7419     44.7751   6.9026493228e+01   6.7114143565e+01    0.1571414    0.1481385  70.29  0.000448055    1.319    0.242
        98 -10.6823    118.8920     42.7523   2.8386702943e+01   5.0145985962e+01     0.343455    0.2522384 -41.33 0.0004348483    1.403    0.287
        99  -8.8427     24.3763     44.2669   6.6896900140e+01   6.6918566865e+01    0.1377663   0.08475974 -26.99 0.0006989881    1.677    0.404
       100  -9.0022     71.4782     42.4937   4.3661021861e+01   6.0666924870e+01    0.1440458    0.1311877  -7.00 3.980613e-05    1.016    0.015
       101  -9.1593    237.2695     41.5632   9.5584240202e+00   2.1513701627e+01    0.1715422    0.1134098  53.13 0.0009436248    1.790    0.441
       102  -9.9767    107.7130     40.5842   3.0538859744e+01   5.3188206168e+01    0.4399993    0.1994846  41.74  0.001644283    2.349    0.574
       103  -9.1903     89.7401     39.4267   3.5603084118e+01   5.7482089730e+01    0.2533472    0.1714183 -10.56  0.001132457    1.814    0.449
       104  -9.8805      1.3234     39.7302   7.8453107606e+01   6.9440190572e+01    0.2046076   0.09768038 -69.06  0.000364422    1.817    0.450
       105  -9.2104    158.9825     39.5045   1.8801213296e+01   4.0405994426e+01    0.2134785    0.1067869  41.68 0.0004085274    2.395    0.582
       106  -9.5790     56.7461     39.2891   4.8583055051e+01   6.3853101203e+01     0.276672     0.116858  44.82  0.001082671    2.733    0.634
       107  -9.4003     30.1343     39.1968   6.1939679720e+01   6.7460709224e+01    0.1914757    0.1506404 -28.70 0.0003359654    1.133    0.118
       108  -8.5983    207.7431     38.2656   1.1699227545e+01   2.8472512043e+01    0.1349592   0.09156663 -58.39 0.0006812784    1.447    0.309
       109  -9.6661     96.0807     37.9897   3.2929817656e+01   5.6301251597e+01    0.2154133    0.2005296  19.10 0.0003510449    1.023    0.022
       110  -9.0304     82.0200     35.9303   3.6760059841e+01   5.9707011783e+01    0.1764657    0.1494303 -24.86 0.0003941294    1.157    0.136
       111 -10.5805     47.6611     34.4210   5.0731045356e+01   6.6192452370e+01    0.4638212    0.2648847 -22.97  0.002100027    2.104    0.525
       112  -9.4160     51.8111     33.1391   4.8110691410e+01   6.5794087897e+01    0.1925046    0.1804098 -20.78 0.0004836898    1.145    0.127
       113  -9.8833    173.8885     34.4605   1.4861802171e+01   3.7247104391e+01    0.2439978    0.1984898 -33.20 0.0005104162    1.227    0.185
       114  -9.3935    119.3060     35.0512   2.5287788484e+01   5.1176338537e+01    0.2037217     0.185595 -19.99 0.0004699432    1.127    0.113
       115  -8.7017     57.4902     35.4515   4.6521794513e+01   6.4444963008e+01    0.1397752     0.122907  -9.05 0.0008084109    1.030    0.029
       116  -9.7722     13.5081     33.9965   6.9553244208e+01   7.0042727321e+01    0.1974661   0.06517234 -42.73 0.0008102969    2.528    0.604
       117  -9.7700    139.0211     32.9998   2.0203870737e+01   4.6431586858e+01    0.2227069    0.2091135  61.77 0.0003451288    1.031    0.030
       118  -9.4071    153.9823     31.7204   1.7046782823e+01   4.2715772528e+01    0.2064895    0.1744117  68.36 0.0004261552    1.149    0.130
       119  -9.9482     83.3930     31.2888   3.4173679710e+01   6.0148357865e+01    0.4715166     0.179855  42.66  0.001732052    2.633    0.620
       120 -10.2248     17.5982     31.4723   6.6153978605e+01   7.0270959923e+01     0.215363    0.1740177 -38.63 0.0001978375    1.025    0.024
       121 -10.0254      3.7905     31.1898   7.4588760522e+01   7.1238120285e+01    0.2288893    0.1817514  34.25 0.0004320025    1.578    0.366
       122 -10.0793     64.7383     29.9866   4.0751716244e+01   6.4110289801e+01    0.2281965    0.1949703  31.40 0.0006591856    1.169    0.145
       123  -9.2957    149.3676     29.2690   1.6985621714e+01   4.4219802800e+01    0.1532507    0.1033232  38.11 0.0006995216    1.662    0.398
       124  -9.3792     59.5005     29.4972   4.2797273950e+01   6.5143993782e+01    0.1832844    0.1251439  26.69 0.0007407716    1.503    0.335
       125  -9.5062     60.6325     26.1127   4.0618915029e+01   6.5497686622e+01    0.2989776    0.1882792 -10.81  0.001289175    1.952    0.488
       126  -9.2041    153.1734     27.8253   1.5854932171e+01   4.3405476808e+01    0.1958085    0.1605334  42.39  0.000305508    1.284    0.221
       127  -9.3886    103.9961     28.2601   2.6438673432e+01   5.5867799485e+01     0.198056    0.1732293  49.67 0.0002113669    1.104    0.094
       128  -9.1818     42.2421     28.5747   5.0759219085e+01   6.8071578580e+01    0.1698473    0.1196994  14.47 0.0003066796    1.492    0.330
       129  -9.7647    160.8268     27.0188   1.4392754283e+01   4.1514535824e+01    0.2104455    0.1991179 -77.26 0.0007728036    1.017    0.017
       130 -10.3854    143.5407     27.8104   1.7489476565e+01   4.5914275822e+01    0.2940366   0.09918915  61.09  0.001017692    2.663    0.625
       131  -9.2617      8.1121    180.9100   9.1512485893e+01   3.5057298828e+01    0.1772421    0.1209229  65.33            0    1.183    0.155
       132  -9.6722    244.5017    180.5003   3.9361257184e+01   7.7145554867e-01    0.1210463   0.09706693  -6.39 -0.0002914351    1.071    0.066
       133  -9.3448    222.3071     26.3261   7.1587707937e+00   2.6572492641e+01    0.1232769   0.09933404  26.52 0.0003847876    1.651    0.394
       134  -9.8994    133.8722     25.8757   1.8578514872e+01   4.8658442680e+01    0.2217373    0.1899797  38.43  0.000429767    1.189    0.159
       135  -9.7015    120.7547     25.7629   2.1259505638e+01   5.2037038113e+01    0.2910072    0.1650445  42.01  0.001260936    1.814    0.449
       136  -9.1149     55.7008     25.5345   4.2557817774e+01   6.6469438479e+01    0.2324693      0.11502 -36.92 0.0007285201    1.942    0.485
       137  -9.1426     32.4358     26.4903   5.5162203960e+01   6.9758850050e+01    0.1297758    0.1110095 -23.54 0.0001422504    1.040    0.039
       138  -9.6185    129.0634     24.3481   1.8945881427e+01   5.0083118964e+01    0.2264461    0.1970282   9.59 0.0003961412    1.251    0.201
       139  -9.9540    111.7969     24.6575   2.2892737099e+01   5.4424281636e+01    0.2435719    0.1810417  71.34 0.0007421494    1.442    0.307
       140  -8.9559    239.3718     24.2442   5.2767467248e+00   2.3114467147e+01    0.1760174   0.09275975 -40.45  0.000339167    1.541    0.351
       141  -9.5416      2.5918     23.7814   7.2904343349e+01   7.2894784296e+01    0.1719871    0.1363772   4.72 0.0008191688    1.392    0.281
       142  -9.0768    245.5900     23.4460   4.6403181729e+00   2.1918581815e+01    0.1240205   0.09949511 -50.25 0.0001273255    1.013    0.012
       143  -9.6293    196.0449     22.7044   8.6902477301e+00   3.3121782002e+01    0.1912967    0.1681982 -82.56 0.0007613649    1.079    0.073
       144  -9.7124     72.8010     22.4981   3.3809377807e+01   6.3675765276e+01      0.22959    0.1844375 -22.79 0.0004570817    1.224    0.183
       145 -10.3999     38.3598     22.6769   4.9906120964e+01   6.9680710234e+01    0.2305572    0.1888518 -11.24 0.0002719479    1.077    0.071
       146  -9.1049     21.3984     22.1325   5.9764133270e+01   7.1818647318e+01    0.1670102     0.112788 -59.37 0.0006030681    1.715    0.417
       147  -9.8970     66.5739     20.8118   3.5390980560e+01   6.5173746682e+01    0.2234215    0.1761831  38.62 0.0002730535    1.234    0.190
       148  -9.2176    159.1733     20.1968   1.2375905292e+01   4.2721116296e+01    0.1972279    0.1535037 -61.26 0.0005048479    1.310    0.237
       149 -10.2032     31.2140     20.4684   5.2866469141e+01   7.1022810593e+01    0.3979064    0.1130219  35.72  0.001491533    3.689    0.729
       150  -9.1237     78.3415     19.2778   3.0177230768e+01   6.2942958443e+01     0.145926   0.09710807  23.95  0.000700458    1.623    0.384
       151  -9.1648     48.7198     19.5814   4.2790253647e+01   6.8612601139e+01    0.1594308    0.1242201  41.96 0.0002977702    1.431    0.301
       152 -10.6588     12.5090     17.8771   6.3651324461e+01   7.3450266449e+01    0.4926713     0.233718   4.65  0.002018038    2.675    0.626
       153  -9.4095    147.6550     17.9533   1.3305396839e+01   4.5965605490e+01    0.1922624    0.1762496 -35.97 0.0003346061    1.138    0.121
       154  -9.2482     70.2379     18.3600   3.2670108833e+01   6.4775973716e+01    0.1846656    0.1275508  57.66 0.0004191115    1.655    0.396
       155  -9.0069     20.5057    174.5200   8.8233933427e+01   3.5418307955e+01    0.1252747    0.0979071  70.25 4.779461e-05    1.050    0.047
       156 -10.3877     65.9983     16.2122   3.3194289662e+01   6.5924949108e+01    0.2279175    0.1810163  -8.70 0.0002560858    1.214    0.176
       157 -10.4660     85.3205     15.8242   2.6158738613e+01   6.1821416669e+01    0.3726479    0.2102015  52.96  0.001753701    1.662    0.398
       158  -9.0879     74.9806     15.9746   2.9677276108e+01   6.4090433455e+01    0.1642908    0.1466353   8.12 0.0003190339    1.041    0.039
       159  -8.9791     21.9916    169.7860   8.7549949095e+01   3.6362207024e+01    0.1541293   0.09423205  30.84  0.000869216    1.697    0.411
       160  -8.9152     39.9902    147.5029   8.0772622468e+01   3.9912246725e+01    0.1872657   0.08579255  52.86 0.0005257616    2.247    0.555
       161 -10.2050     25.4400    146.1282   8.4733630164e+01   4.1661769756e+01    0.2677696    0.1833034  24.63 0.0005802537    1.666    0.400
       162  -9.2699     28.7687    138.2114   8.2995579959e+01   4.3311006696e+01    0.1685076    0.1366552 -58.41 0.0003099295    1.276    0.216
       163  -8.7311     91.6242    137.5283   6.4309840233e+01   3.5412033082e+01     0.144564    0.1371168 -82.42 -7.260827e-05    1.031    0.031
       164  -9.3297     10.9197    133.1771   8.7761773408e+01   4.5998278438e+01    0.1968458    0.1435554  72.32 0.0008328313    1.236    0.191
       165  -9.4797     17.5021    132.0460   8.5716834657e+01   4.5792715172e+01    0.1923493    0.1105889 -79.52 0.0004218905    1.498    0.332
       166  -9.3399     58.8711    129.1650   7.2628928684e+01   4.2296910693e+01    0.1877724    0.1645106 -30.28 0.0003963034    1.329    0.247
       167  -8.5668     69.6577    118.6944   6.7302727024e+01   4.3468147550e+01    0.1491854    0.1109612 -26.80 0.0003918131    1.686    0.407
       168  -9.8194    114.0845     14.0116   1.7877842258e+01   5.5063468569e+01    0.5099059    0.1048809  63.00  0.001456019    4.207    0.762
       169 -10.7675     46.8228     26.6927   4.7459884343e+01   6.7729689544e+01    0.2302335    0.1973972 -21.20 0.0002789495    1.064    0.060
       170  -9.0165      6.8232    118.4206   8.7755004061e+01   4.9922948376e+01    0.1495564    0.1228823 -14.01 0.0004717686    1.558    0.358
       171 -10.0556     34.0457    116.1794   7.8619926006e+01   4.8379316461e+01    0.2229428    0.1730306 -73.70 0.0003830703    1.136    0.120
       172  -9.1129     13.4866    117.5125   8.5540981638e+01   4.9718754493e+01    0.1303306    0.1091143 -81.63  2.55194e-06    1.019    0.018
       173  -9.2540     91.7066    116.4350   5.9841990751e+01   4.0514433895e+01    0.1980164     0.148814  22.77 0.0004421794    1.531    0.347
       174  -9.2452     80.2967    114.0203   6.2887625151e+01   4.3013496800e+01    0.2076561    0.1773869 -57.69 0.0003274247    1.123    0.110
       175  -9.4403     95.8796    111.8810   5.7475830674e+01   4.0874500504e+01    0.2282552    0.2000571 -33.82 0.0005512874    1.197    0.165
       176  -8.8629      3.2208    111.6192   8.8312942999e+01   5.1825240352e+01    0.1512304     0.116196 -19.85 0.0005307211    1.649    0.394
       177  -8.7389     79.5075    110.5455   6.2357820936e+01   4.3999971206e+01    0.1481243    0.1418737 -57.81 0.0003215744    1.026    0.026
       178  -9.6037     19.0912    108.0095   8.2588884336e+01   5.1722446104e+01    0.1958712    0.1727943 -66.82   0.00123656    1.093    0.085
       179  -9.7391    162.5127     11.5520   9.0923429381e+00   4.2751308995e+01    0.1382649    0.1269763 -88.33 7.694255e-05    1.005    0.005
       180  -9.8868     13.4066    106.6274   8.4382792455e+01   5.2468138613e+01    0.3234362    0.1658608  63.45  0.001507056    2.223    0.550
       181 -10.4445      2.3693    104.4960   8.7948547048e+01   5.3646549735e+01    0.2777541    0.1697833 -55.58 0.0008374663    1.510    0.338
       182 -10.0059     78.6604    101.8855   6.0575145641e+01   4.6270490021e+01    0.5623163    0.1833249 -54.91  0.001830857    2.903    0.656
       183  -8.7080     86.5400    103.4261   5.8342959625e+01   4.4568705959e+01    0.1493053    0.1444892 -72.88 7.663926e-05    1.030    0.029
       184 -10.5803    246.5852    101.2295   2.2507332760e+01   1.1570257685e+01    0.1935042    0.1101534 -22.61 0.0009550353    1.705    0.414
       185  -8.4876    108.3078    101.2635   5.0940440839e+01   4.0995389287e+01    0.1510749    0.1226649  -2.29  0.000231428    1.529    0.346
       186  -9.8528     49.2851    101.1341   7.0717563781e+01   5.0602626872e+01     0.223425    0.1957127 -15.23  0.000530149    1.310    0.237
       187  -9.7308     29.0000     99.4569   7.7820781609e+01   5.3108112602e+01    0.3064162   0.06852395 -69.09 0.0009290206    3.889    0.743
       188  -8.8252    159.7821     98.3498   3.6686151264e+01   3.0321908064e+01    0.2105409    0.1409325  39.68  0.000401469    1.580    0.367
       189  -8.5605    108.2743     98.2576   5.0118673554e+01   4.1687277275e+01    0.1471035    0.1215446  -5.13 0.0006840589    1.462    0.316
       190  -9.5098    103.2700     97.1997   5.1348536763e+01   4.2930345307e+01    0.2631371    0.2335758  47.76   0.00134579    1.160    0.138
       191 -10.1535     64.2841     96.2048   6.4197724888e+01   4.9880793202e+01    0.3011918    0.2723607 -33.99  0.001126443    1.138    0.121
       192  -9.7946     61.1260     90.6200   6.3978037978e+01   5.1712634189e+01    0.3768005     0.195315 -63.45  0.001556451    1.965    0.491
       193 -10.9771      3.7715     96.2573   8.6624079813e+01   5.5635145811e+01    0.2257273    0.1830136 -79.25 0.0002744042    1.023    0.022
       194  -8.7387    143.4778     96.4604   3.9975323365e+01   3.4426392111e+01    0.1557324    0.1509889  -7.92 0.0002430827    1.032    0.031
       195  -8.7284     94.3256     96.2575   5.3912522437e+01   4.4872587794e+01    0.1500563     0.120524  -5.26  0.000268834    1.553    0.356
       196 -11.5923     41.5029     95.4372   7.2436000491e+01   5.2924439394e+01     0.472808    0.2359016  29.05  0.002110757    2.169    0.539
       197  -9.2592     51.3325     95.2893   6.8728570572e+01   5.1834799504e+01    0.1459187    0.1031614 -30.93 0.0002455382    1.627    0.385
