#   1 NUMBER                 Running object number                                     
#   2 MAG_AUTO               Kron-like elliptical aperture magnitude                    [mag]
#   3 X_IMAGE                Object position along x                                    [pixel]
#   4 Y_IMAGE                Object position along y                                    [pixel]
#   5 X_WORLD                Barycenter position along world x axis                     [deg]
#   6 Y_WORLD                Barycenter position along world y axis                     [deg]
#   7 A_WORLD                Profile RMS along major axis (world units)                 [deg]
#   8 B_WORLD                Profile RMS along minor axis (world units)                 [deg]
#   9 THETA_WORLD            Position angle (CCW/world-x)                               [deg]
#  10 FWHM_WORLD             FWHM assuming a gaussian core                              [deg]
#  11 ELONGATION             A_IMAGE/B_IMAGE                                           
#  12 ELLIPTICITY            1 - B_IMAGE/A_IMAGE                                       
         1 -13.8172      2.4233     11.1978   2.9194731419e+02   7.6246544544e+00    0.1919487   0.05031911 -63.63   0.01176854    4.488    0.777
         2 -14.0130    200.5121      9.3305   2.8961361538e+02   6.4136168409e+00   0.08646913   0.06121889 -15.30  0.008839149    1.753    0.430
         3 -13.5732    188.1962     27.1057   2.8986983547e+02   6.2890202572e+00   0.06313482   0.05406393  13.77   0.00647091    1.188    0.158
         4 -10.6029     84.0095    244.7708   2.9245505810e+02   4.4641254121e+00   0.02165552   0.01095235  57.08  0.001697439    2.946    0.661
         5 -10.9205    246.6056    249.5339   2.9058657171e+02   3.3991369554e+00   0.02393035   0.01137875  21.73  0.002014961    2.316    0.568
         6  -8.7273    156.3452    250.3108   2.9164466442e+02   3.9519915451e+00  0.007103511  0.005018837 -22.30 0.0007045558    1.705    0.414
         7 -11.3249    139.4544    249.4895   2.9183677978e+02   4.0662973729e+00   0.01709908   0.01627975  86.79  0.002114311    1.111    0.100
         8 -10.9215    126.4547    250.2887   2.9199361750e+02   4.1379633727e+00   0.02395944   0.00650836  32.37  0.001630336    3.245    0.692
         9 -10.3548     98.3399    249.5080   2.9231719346e+02   4.3213631320e+00   0.01392583   0.01021546  73.56  0.001415505    1.720    0.419
        10 -10.3967     82.1585    249.1307   2.9250391518e+02   4.4260200520e+00   0.01509341   0.01012318  47.07  0.001054959    1.570    0.363
        11 -10.9263     66.4544    250.2360   2.9269433514e+02   4.5107941821e+00   0.02334094   0.01176658  23.85  0.001603537    2.060    0.514
        12 -11.0466     66.9813    243.4479   2.9264581169e+02   4.5847351362e+00   0.02098308   0.01677969  81.11  0.001582133    1.484    0.326
        13 -13.9839     33.2009    246.0244   2.9305673165e+02   4.7646135932e+00    0.2112091   0.07173248  26.43   0.01542838    3.020    0.669
        14 -14.5640     58.3138    213.0971   2.9255760833e+02   4.9836714827e+00    0.4503258   0.08920643  40.21   0.02590094    4.855    0.794
        15  -9.7407     77.0358    245.5410   2.9254136699e+02   4.4986071052e+00   0.01253673  0.009497805 -89.55 0.0009371948    1.602    0.376
        16 -10.3585    198.3927    245.1772   2.9112166710e+02   3.7488002877e+00  0.009322597  0.006521752 -77.43 0.0009248074    1.679    0.405
        17 -10.3200     95.1299    241.1417   2.9230243082e+02   4.4364194028e+00   0.01393406  0.009785406 -58.82 0.0005626113    1.437    0.304
        18 -10.0542    183.9234    238.0352   2.9124581316e+02   3.9199922251e+00    0.0114688  0.007886439 -24.97  0.001144472    1.757    0.431
        19 -10.8295     34.8695    229.5050   2.9293420504e+02   4.9422091870e+00   0.01815508   0.01573506 -56.82  0.001366094    1.168    0.144
        20  -9.5177    177.2290    226.9761   2.9125468458e+02   4.0873261490e+00   0.01021156  0.008763894  70.09 0.0006201532    1.300    0.231
        21 -15.4365      4.4633    237.3502   2.9333863753e+02   5.0409946276e+00    0.9536091          nan -58.89   0.03941397    9.561    0.895
        22 -10.6904    173.3829    221.4966   2.9126526125e+02   4.1735319228e+00   0.01819449   0.01338945  56.64  0.001424325    1.534    0.348
        23  -9.9104     27.5689    221.7360   2.9297111096e+02   5.0757664191e+00   0.01180352  0.008943846  26.15 0.0006824621    1.301    0.231
        24 -14.3548     10.6534    207.5273   2.9308032556e+02   5.3420313829e+00    0.1936698   0.08087732 -67.25   0.01506731    2.851    0.649
        25  -8.8383    152.4926    212.9379   2.9145565624e+02   4.4007677606e+00   0.00947229   0.00663063 -61.93 0.0003630712    1.465    0.318
        26 -11.9005     30.1010    204.6836   2.9283506346e+02   5.2540911060e+00   0.01895541   0.01263946  36.12  0.001382772    1.459    0.314
        27 -11.2290     24.0934    202.4976   2.9289169827e+02   5.3161332164e+00   0.02307563    0.0151641 -26.33  0.002193098    1.880    0.468
        28 -11.4360     69.1605    199.3354   2.9234472647e+02   5.0729707472e+00   0.01997782   0.01204059 -37.59  0.001280767    1.876    0.467
        29  -9.9436    192.9433    194.8587   2.9086977721e+02   4.3544841997e+00   0.03469374   0.01705931  89.92  0.001884662    6.706    0.851
        30 -11.6683     74.2207    191.5298   2.9223671242e+02   5.1303706427e+00   0.01510926   0.01262436 -35.67 0.0005222509    1.242    0.195
        31  -9.1702    106.4719    182.0144   2.9179989615e+02   5.0384013347e+00  0.009333036  0.008540075  30.45 0.0006904113    1.073    0.068
        32 -10.9504     83.0857    178.7677   2.9205313005e+02   5.2205173968e+00    0.0126929   0.01100747 -43.31 0.0003824286    1.167    0.143
        33 -13.2067     70.6214    176.6172   2.9218550518e+02   5.3223016065e+00   0.02750512   0.01429186 -37.82  0.001673548    2.313    0.568
        34  -8.6816    172.7752    174.6018   2.9097825230e+02   4.7102867634e+00   0.00919026  0.005903442  39.56 0.0002788018    1.536    0.349
        35 -11.9160     89.8123    169.3158   2.9191523394e+02   5.2862541190e+00   0.03475689   0.02862239  45.55  0.004005894    1.237    0.192
        36 -10.2614    194.8956    158.6529   2.9061963729e+02   4.7537016267e+00    0.0199273   0.01268423  70.72  0.001568485    2.279    0.561
        37  -9.6636    234.9661    158.9661   2.9015367326e+02   4.5002467718e+00   0.01442034  0.007107197  62.87 0.0009607818    4.148    0.759
        38 -12.6369     66.9826    143.8499   2.9202288650e+02   5.7175076778e+00   0.04847356   0.03158647  75.14  0.004527474    2.216    0.549
        39 -11.9527     57.7256    131.1015   2.9205139131e+02   5.9198763562e+00   0.05845146   0.02545701 -79.34  0.003426918    5.517    0.819
        40  -9.0835    104.0105    148.0924   2.9161606471e+02   5.4393912642e+00   0.01089979  0.008631375 -27.00  0.001204275    1.382    0.276
        41 -12.0204     90.2592    152.1927   2.9180270331e+02   5.4781865702e+00    0.0139957   0.01151163 -25.50 0.0005598987    1.312    0.238
        42 -12.1158     30.1403    139.8449   2.9242923982e+02   5.9913691845e+00   0.01886856   0.01641325  26.67   0.00223579    1.128    0.114
        43 -10.4449    175.4436    138.7762   2.9072206228e+02   5.1007637474e+00   0.02566746   0.01303157  57.51  0.002008645    2.975    0.664
        44  -9.7261    111.5553    137.5235   2.9146146798e+02   5.5126510852e+00   0.01496163   0.01030539 -30.73  0.001179032    1.670    0.401
        45  -9.0663     89.0397    138.2758   2.9172971956e+02   5.6439911017e+00  0.009529005  0.007902581  37.92  0.000555795    1.191    0.160
        46  -8.6094    192.0217    143.9988   2.9056112853e+02   4.9381010018e+00  0.007960508   0.00748546 -55.82 0.0004207273    1.081    0.075
        47 -10.6594     99.2705    134.9467   2.9158907958e+02   5.6182900712e+00     0.014153   0.01053519 -41.24 0.0004228497    1.393    0.282
        48  -9.8960    169.6480    133.5528   2.9075699089e+02   5.1962245186e+00   0.01252086   0.01025734  58.02 0.0003187398    1.333    0.250
        49  -9.6563     43.6571    130.3072   2.9221118957e+02   6.0161098276e+00  0.007076596  0.004970031  59.63 0.0007043065    1.691    0.409
        50  -9.0923    108.3343    124.1541   2.9141525319e+02   5.6846425568e+00  0.008608524   0.00810618 -68.23  0.000343226    1.099    0.090
        51  -9.8983    101.3312    152.6500   2.9167599938e+02   5.4042199947e+00   0.01772297   0.01253148 -35.02 0.0008839445    1.550    0.355
        52  -9.3147    152.2052    118.0991   2.9086385204e+02   5.4804695761e+00   0.01312072  0.007578619  52.24  0.000743639    2.050    0.512
        53 -10.5701    167.9811    113.1972   2.9064851410e+02   5.4378697924e+00   0.01693231    0.0126551  60.84  0.001144052    1.551    0.355
        54  -9.0325    203.4462    111.5528   2.9022356595e+02   5.2353724709e+00  0.006674289   0.00633695 -14.39 8.138143e-05    1.063    0.059
        55  -9.1335    129.9717    101.9970   2.9102279701e+02   5.8018493879e+00  0.009900844  0.008657347  57.31  0.001158097    1.216    0.177
        56  -9.3681    126.8080     99.8392   2.9104626520e+02   5.8460555210e+00   0.01024529   0.00869156  66.17 0.0004036665    1.311    0.237
        57  -9.0298     30.0795     91.1089   2.9212458343e+02   6.5458433565e+00   0.01082525   0.00752116  55.75 0.0006859414    1.652    0.395
        58  -9.8647     22.5901     68.2157   2.9206877344e+02   6.8523751816e+00   0.01429401  0.008707684  37.85  0.000672223    1.602    0.376
        59 -12.6589     45.1260    234.3911   2.9284477057e+02   4.8231346449e+00   0.02022544   0.01649032 -38.91 0.0007424032    1.266    0.210
        60 -14.0206     51.1537    225.1952   2.9271689811e+02   4.8904126590e+00   0.06021139   0.05296146  84.28   0.00516217    1.261    0.207
