#   1 NUMBER                 Running object number                                     
#   2 MAG_AUTO               Kron-like elliptical aperture magnitude                    [mag]
#   3 X_IMAGE                Object position along x                                    [pixel]
#   4 Y_IMAGE                Object position along y                                    [pixel]
#   5 X_WORLD                Barycenter position along world x axis                     [deg]
#   6 Y_WORLD                Barycenter position along world y axis                     [deg]
#   7 A_WORLD                Profile RMS along major axis (world units)                 [deg]
#   8 B_WORLD                Profile RMS along minor axis (world units)                 [deg]
#   9 THETA_WORLD            Position angle (CCW/world-x)                               [deg]
#  10 FWHM_WORLD             FWHM assuming a gaussian core                              [deg]
#  11 ELONGATION             A_IMAGE/B_IMAGE                                           
#  12 ELLIPTICITY            1 - B_IMAGE/A_IMAGE                                       
         1 -10.1091      9.3107     19.7189   1.2798950462e+02   7.2523056420e+01     0.414037    0.2444131  -4.48 0.0006142061    1.890    0.471
         2 -10.3100     24.4822     16.6876   1.1650240575e+02   7.1923121192e+01    0.3293447    0.2937389  34.59 0.0007436719    1.419    0.295
         3  -9.6890     63.9652     14.3118   9.3666776362e+01   6.6366958635e+01     0.435901    0.2736037  24.55 0.0008429591    1.721    0.419
         4  -8.8725     74.4193     13.7537   8.9130977699e+01   6.4327430569e+01    0.3261773    0.2321562  21.14  0.001049661    1.429    0.300
         5  -8.7572     80.2595     12.6520   8.6425830937e+01   6.3211801205e+01    0.2706022    0.2590195 -54.60 0.0008927049    1.285    0.222
         6  -8.5891    135.1074     12.8957   7.2742812027e+01   4.9706048233e+01    0.3196617    0.1639028  32.29  0.001179558    2.356    0.576
         7  -8.8499     97.2648     12.0395   8.0819287159e+01   5.9360069780e+01    0.2875947     0.201329  35.55 0.0006519697    1.372    0.271
         8  -9.1020     31.6129     10.5805   1.0862082196e+02   7.2257326373e+01    0.4158429    0.2038233 -27.73  0.001876985    2.205    0.547
         9 -10.6499     20.1673      8.8276   1.1531809054e+02   7.3901333013e+01    0.2932301     0.207912  -3.33 0.0003936492    1.413    0.292
        10  -9.1385    234.6326      7.6231   6.0136473084e+01   2.5821978124e+01    0.2794707    0.2076645 -14.38 0.0009345107    1.391    0.281
        11  -8.0741      1.9697      8.1542   1.2873961827e+02   7.5414138430e+01     0.207564    0.1503724 -75.45  0.001276425    1.613    0.380
        12  -8.0234    128.3693      7.8319   7.1903107290e+01   5.1953655367e+01     0.197708    0.1333019   0.66  0.000359901    1.663    0.399
        13  -7.9487    118.3873      7.2957   7.3587302937e+01   5.4585504761e+01    0.1613198   0.09369487  36.10 0.0003232207    1.775    0.437
        14  -8.9211     56.9891      4.4946   9.1004876975e+01   6.9080700770e+01    0.3861163    0.2016958  22.41  0.001333795    2.469    0.595
        15  -9.9361     49.1090      4.7165   9.4948349482e+01   7.0506992854e+01    0.2827256    0.2122354   1.18 0.0004104896    1.255    0.203
        16  -9.0821    110.8956      4.3583   7.3829665408e+01   5.6773716651e+01    0.3306621    0.1924949 -30.66  0.001277264    1.768    0.435
        17  -8.6022    103.7317      4.0883   7.5308691441e+01   5.8602337037e+01    0.4593715    0.1951727  25.77   0.00151115    3.610    0.723
        18  -8.5774     68.8856      3.3569   8.5358555880e+01   6.6806782814e+01    0.3777792    0.1855702  -2.75  0.001431006    3.011    0.668
        19  -8.0218     13.4014      4.9632   1.1817156404e+02   7.5281146089e+01      0.24642    0.1405573 -10.69  0.001290785    1.977    0.494
        20  -8.4116    125.1417      3.9115   7.0843891657e+01   5.3148476504e+01    0.2216406    0.1916657  39.83 0.0007502467    1.096    0.087
        21  -7.8931    153.8290      3.1971   6.6226566564e+01   4.5699880314e+01    0.1891733     0.150527  37.95  0.000293599    1.291    0.225
        22  -7.6985    182.2183      2.1873   6.2764489066e+01   3.8498587455e+01    0.1843559    0.1422391 -59.89 0.0003496257    1.291    0.225
        23  -7.5306    143.0134      2.0309   6.7247044059e+01   4.8630162699e+01    0.1683586    0.1519566  64.84 0.0003648909    1.054    0.051
        24  -7.5923      3.0323      1.1956   1.2456945493e+02   7.6790246938e+01    0.1377721   0.08839489   6.63 0.0003310675    1.657    0.396
        25  -8.4780    162.0232    234.4116   1.2154804528e+02   8.0060489902e+00    0.1900272    0.1384425  -0.78 0.0007807714    1.455    0.313
        26  -7.5474    233.6321    250.6781   1.1137936010e+02  -2.5691638097e+00    0.1119297    0.0565638   9.96 0.0007036804    1.795    0.443
        27  -9.4452    212.6372    250.0273   1.1467954849e+02  -9.0331385935e-02    0.2646802    0.1347523  36.99  0.001426817    1.816    0.449
        28 -10.2546    200.5260    248.9646   1.1656398617e+02   1.4630720851e+00    0.5338714    0.2118745  20.60  0.002650192    2.787    0.641
        29  -9.1237    184.0613    250.4469   1.1956687535e+02   3.3155132157e+00    0.2894226    0.0787573  34.10  0.001357632    2.740    0.635
        30  -8.8852    150.6822    249.5118   1.2537177773e+02   7.5733360952e+00    0.1867424     0.144236  17.69 0.0007654752    1.150    0.131
        31  -8.0654    123.6956    250.5602   1.3039186062e+02   1.0774721460e+01    0.2057922   0.08311733  29.47  0.001103602    2.075    0.518
        32  -7.7370     54.5020    250.6642   1.4301197969e+02   1.8564548232e+01    0.1014276   0.07007118  43.96 -7.863327e-05    1.059    0.056
        33  -8.3806    248.7626    232.9824   1.0650018234e+02  -2.6733872762e+00     0.166213   0.09910767   6.04 0.0006821935    1.274    0.215
        34  -7.7615    236.7294    230.0012   1.0794937707e+02  -9.9346452069e-01     0.145946    0.1013789   4.52 0.0003798645    1.082    0.075
        35  -7.4750    204.1926    230.6564   1.1346894407e+02   2.9593523945e+00    0.1637307   0.07789747  25.95 0.0009269501    1.694    0.410
        36  -8.4818     32.3402    229.2989   1.4603453586e+02   2.4092763567e+01     0.152065     0.132469  44.68 0.0005026302    1.234    0.190
        37  -7.6853    195.2086    228.9886   1.1480670170e+02   4.3072601350e+00    0.1740257    0.1031418  -1.19 0.0005745894    1.872    0.466
        38  -7.4998    158.3309    229.2794   1.2159929485e+02   9.1595458899e+00    0.1147628   0.07423325  11.43 0.0003075525    1.604    0.376
        39  -7.5410    133.3434    229.2943   1.2638600433e+02   1.2474417172e+01     0.113365   0.07766987   9.40 0.0005711668    1.662    0.398
        40  -8.7934    247.3535    224.8189   1.0548681336e+02  -1.7469629670e+00    0.3274281    0.1534501   6.70  0.001799598    2.379    0.580
        41  -8.1328    229.6548    226.8439   1.0862255270e+02   1.7361876215e-01    0.2230541    0.1077216 -17.15  0.001308505    2.171    0.539
        42  -8.3698    186.3404    227.0228   1.1611928614e+02   5.7056389148e+00    0.2375828     0.153199  16.20  0.001188676    1.309    0.236
        43  -7.2721    175.2633    228.3122   1.1831664167e+02   7.0217829672e+00      0.11086   0.07298918   6.36 0.0002897985    1.538    0.350
        44  -7.8512    111.2433    227.9908   1.3057420435e+02   1.5525031868e+01    0.1203019   0.09805927 -61.03 0.0006948019    1.560    0.359
        45  -8.1193    223.2642    225.5004   1.0947628223e+02   1.1024298694e+00    0.2309408    0.1027515 -10.25  0.001071129    3.422    0.708
        46  -7.7945    247.5184    228.5068   1.0602259643e+02  -2.1154742651e+00    0.1447892   0.08356038  33.67 0.0009268869    1.729    0.422
        47  -7.8101     70.3693    225.8474   1.3848680613e+02   2.0769341256e+01    0.1353464   0.09574461 -55.07  0.000940866    1.789    0.441
        48  -7.9421    236.9899    225.4950   1.0723035597e+02  -5.8170795908e-01    0.1608706    0.0812899  26.91 0.0006772998    1.560    0.359
        49  -7.3034    200.3169    223.3055   1.1309073812e+02   4.2948899570e+00    0.1176494    0.0701486   8.73 0.0003140335    1.627    0.385
        50  -7.3989    206.5248    222.4814   1.1188003710e+02   3.5738501163e+00    0.1175271   0.08266861  12.60 6.519233e-05    1.086    0.079
        51  -7.8736    130.1949    220.5184   1.2599724791e+02   1.4178428576e+01     0.205104    0.1352096  -4.05  0.001117304    2.193    0.544
        52  -7.7566     51.5130    221.4974   1.4192583055e+02   2.3530383120e+01    0.1845915   0.09769481  18.94   0.00102668    2.399    0.583
        53  -8.7901    239.3614    219.5969   1.0594262834e+02  -2.7930698518e-01    0.2063731    0.1132735 -19.98  0.001343354    1.700    0.412
        54  -8.3173    182.3603    219.7540   1.1582431726e+02   7.1389066052e+00      0.23823    0.1239003  24.01  0.001148657    1.685    0.406
        55  -7.7000    114.5186    220.4968   1.2914279186e+02   1.6260307626e+01    0.1168192   0.09342134  35.48 0.0001779524    1.005    0.005
        56  -7.8735     40.4815    220.5010   1.4404253203e+02   2.4808616107e+01    0.1810634    0.0972863  17.57  0.001031085    2.442    0.591
        57  -7.4927    217.3228    219.3328   1.0954489759e+02   2.5209942533e+00    0.1199393   0.06830128   7.05  0.000463362    1.704    0.413
        58  -7.9915    173.2706    219.5497   1.1749151442e+02   8.4123718754e+00    0.1718962   0.08972199  24.55 0.0009451867    1.694    0.410
        59  -7.6535    227.5367    217.4704   1.0753956301e+02   1.4135376884e+00    0.1164159   0.07976364   9.29 0.0001298235    1.085    0.078
        60  -7.2581    105.6868    217.6805   1.3064023542e+02   1.7853744805e+01    0.1102889   0.08460713   0.75 0.0005171784    1.650    0.394
        61  -7.5781    203.5015    216.5037   1.1151548816e+02   4.6671109340e+00    0.1195908   0.08569393  12.45 0.0008093877    1.081    0.075
        62  -8.4679    193.6742    215.6447   1.1314910561e+02   6.1038829173e+00    0.2466526    0.1455073  11.74  0.001165178    1.681    0.405
        63  -7.2764    219.3444    215.2761   1.0857439475e+02   2.7077869813e+00    0.1189741   0.06798995  10.33 0.0003481855    1.625    0.385
        64  -9.3328    248.7021    213.0446   1.0342598150e+02  -7.5760314760e-01    0.2775384    0.1838656 -17.66 0.0008818054    1.402    0.287
        65  -8.2094    232.2291    212.2342   1.0593714812e+02   1.3755723219e+00    0.2174791    0.1288565   2.80  0.001112523    1.514    0.339
        66  -8.1176    121.7421    213.1832   1.2684776524e+02   1.6454451880e+01    0.2205102    0.1360873  13.41  0.001024369    2.019    0.505
        67  -7.9543    186.0554    210.5229   1.1378046787e+02   7.8097135851e+00    0.2019867    0.1323678  -1.85  0.001222927    1.609    0.379
        68  -7.8761     54.9438    210.5015   1.4051230370e+02   2.5097869303e+01    0.1713952   0.09417724  32.54  0.001032068    1.593    0.372
        69  -8.0458    162.9438    207.9838   1.1783707237e+02   1.1451585640e+01    0.1926328    0.1270877   6.15 0.0008263217    1.687    0.407
        70  -8.2348    236.2575    204.9208   1.0408680272e+02   1.6456185321e+00    0.1989297    0.1191815  -5.72 0.0006433794    1.493    0.330
        71  -8.9631    227.0354    203.6486   1.0540297494e+02   2.9980539403e+00    0.5034695    0.2128195 -13.28  0.002114285    3.745    0.733
        72  -8.0017    215.5747    205.4844   1.0766295797e+02   4.3321124680e+00    0.2048391   0.08732039  26.35 0.0009985431    2.166    0.538
        73  -7.7752    117.7625    205.3868   1.2674552645e+02   1.8267786994e+01    0.1736214    0.1005295  25.97 0.0005912846    1.648    0.393
        74  -7.6971    246.9875    204.5501   1.0230532871e+02   3.1883001479e-01    0.1577192   0.08852366  27.90 0.0005603004    1.523    0.343
        75 -10.3500    176.9701    201.9499   1.1419098860e+02   1.0268741761e+01     0.253035    0.1970812  -6.74 0.0005382699    1.259    0.206
        76  -7.8548    156.6806    204.6235   1.1859655617e+02   1.2847998341e+01    0.1275802   0.08462943   1.61 0.0007028215    1.813    0.448
        77  -7.2401    148.6751    204.6679   1.2022220130e+02   1.4002953673e+01    0.1248611   0.08563294   3.83 0.0007050815    1.707    0.414
        78  -7.9400    196.2790    200.4203   1.1029522088e+02   7.6670166406e+00    0.2228696   0.09699131  31.77  0.001105513    1.974    0.493
        79  -7.3573    185.6260    199.6861   1.1217275597e+02   9.3131155879e+00    0.1314341   0.08025619   8.19 0.0007031873    1.789    0.441
        80  -8.1104    243.9390    197.6249   1.0162102492e+02   1.4408971253e+00    0.1954966    0.1204126  -9.48 0.0005621545    1.377    0.274
        81  -7.6556     99.5254    198.5258   1.2986407302e+02   2.1923450090e+01    0.1220922    0.1026132  42.10 0.0002377162    1.023    0.022
        82  -8.0265    165.9942    197.4652   1.1565439462e+02   1.2537851691e+01    0.1911681     0.103881  32.88 0.0006974026    1.553    0.356
        83  -7.3382    140.6663    197.6609   1.2088693327e+02   1.6273309642e+01    0.1278129   0.08917285   1.79 0.0007051633    1.748    0.428
        84  -8.2542    192.8589    194.5076   1.0995813675e+02   8.9502282510e+00    0.3299305    0.1454502 -28.41  0.001564536    2.591    0.614
        85  -7.1525     80.6706    196.6605   1.3382120588e+02   2.4682699794e+01    0.1146094   0.09072312 -14.61 0.0007051745    1.738    0.425
        86  -7.6508    237.5916    194.1586   1.0204769187e+02   2.6579023594e+00    0.1641921   0.08922618 -13.93 0.0009446721    1.739    0.425
        87  -7.9918    250.4153    198.7824   1.0079815892e+02   4.8976579632e-01    0.1606602     0.084324 -13.37 0.0009523039    1.730    0.422
        88  -7.7661      2.1400    193.8651   1.5059249926e+02   3.2965091125e+01     0.126811    0.1187695  88.42 0.0006767791    1.314    0.239
        89  -7.4047    124.6943    193.6609   1.2374644285e+02   1.9277120896e+01    0.1241045   0.09215432  -2.91 0.0004111808    1.678    0.404
        90  -7.8416     90.3357    192.1460   1.3118432178e+02   2.4300011361e+01    0.1736797    0.1375005  30.61 0.0006779392    1.182    0.154
        91  -7.9143    246.6747    189.8525   9.9839470488e+01   1.9303988476e+00    0.1599091    0.1124312  -6.64  0.001095876    1.129    0.114
        92  -7.7703    161.5178    190.4553   1.1545708647e+02   1.4278189233e+01    0.1285002    0.1054172  18.60 3.877982e-05    1.025    0.024
        93  -7.5047    186.3114    189.2926   1.1032654693e+02   1.0653904757e+01    0.1281435    0.0835486   7.23 0.0004999418    1.589    0.371
        94  -7.8744     64.5011    189.4856   1.3676263887e+02   2.7979572101e+01    0.1999764     0.112055  18.50  0.001027819    2.220    0.550
        95  -7.6529    177.9944    187.2904   1.1161204145e+02   1.2218495145e+01    0.1882099   0.08849633  52.22 0.0006975001    3.949    0.747
        96  -7.5607    130.4326    182.8471   1.2092779673e+02   2.0314883714e+01    0.1617612    0.1183531 -30.47 0.0004187027    1.587    0.370
        97  -8.0206    224.9990    189.0407   1.0325238325e+02   4.9845414227e+00    0.1982556    0.1170038   6.37  0.001063593    1.673    0.402
        98  -7.6634    156.3149    181.3441   1.1505413966e+02   1.6540285995e+01      0.13459   0.09284651   1.20 0.0002398754    1.713    0.416
        99  -7.7485     96.3045    178.5459   1.2816855224e+02   2.6102853302e+01     0.174129    0.1158279  22.04 0.0009371052    1.612    0.380
       100  -7.3416     68.3423    178.2987   1.3478307302e+02   2.9759754910e+01    0.1169253   0.09430614 -18.45 0.0003196994    1.669    0.401
       101  -7.6716    121.4877    177.4874   1.2214358877e+02   2.2646315148e+01    0.1304266    0.1154921  29.86 -6.821702e-05    1.010    0.010
       102  -8.0793    148.4827    174.9862   1.1567140897e+02   1.8858472519e+01     0.287469    0.1504224  20.81  0.001233725    2.413    0.586
       103  -7.8634     47.1866    175.5829   1.3957282054e+02   3.2676923124e+01    0.1604409    0.1123219  15.46 0.0009523837    1.733    0.423
       104  -7.6197    193.0361    173.2233   1.0617137707e+02   1.1910809761e+01    0.1722493   0.09408519  35.04 0.0008725722    1.660    0.398
       105  -8.0322    184.2032    171.5956   1.0759354156e+02   1.3581677855e+01    0.1884726    0.1080312  26.79 0.0007741922    1.650    0.394
       106  -8.0888     15.0514    170.2281   1.4680447282e+02   3.6711461781e+01    0.1404483   0.08782241  28.26 0.0005331866    1.645    0.392
       107  -8.0448    177.4957    167.4690   1.0816953609e+02   1.5326804377e+01    0.1346788    0.1133546  11.69 0.0004818928    1.010    0.010
       108  -7.8251    150.2181    165.6169   1.1364447288e+02   2.0206798312e+01    0.1950535    0.1160988  27.37 0.0007666942    1.650    0.394
       109  -7.8227    168.6546    163.6707   1.0928354367e+02   1.7428685938e+01    0.2131949    0.1449403   4.15  0.001035378    1.705    0.413
       110  -7.6429    122.0722    163.0000   1.1970052763e+02   2.5310199092e+01    0.2238449   0.07106833  36.23 0.0007381173    2.881    0.653
       111  -7.3923    200.6806    161.6568   1.0249562173e+02   1.2349798218e+01    0.1400706   0.08948524   4.16 0.0007049599    1.722    0.419
       112  -7.6531    160.3831    159.7988   1.1031762875e+02   1.9497917158e+01    0.1920077    0.1215455 -27.53  0.000670127    1.740    0.425
       113  -7.4490    205.3488    159.2969   1.0115600314e+02   1.1918903609e+01    0.1386316   0.08837704   8.05 0.0007034424    1.680    0.405
       114  -7.4248    138.5109    158.4904   1.1501150536e+02   2.3471856708e+01    0.1377408    0.1242023  19.78 0.0008105034    1.009    0.009
       115  -8.1833     21.2048    157.0216   1.4453544562e+02   3.9056366758e+01    0.1928095    0.1128904 -50.31  0.001079322    2.021    0.505
       116  -7.6090    107.3627    152.2573   1.2152399293e+02   2.9806348958e+01    0.1360942     0.104585   0.08 0.0004281641    1.628    0.386
       117  -7.5760    169.3494    151.3006   1.0669476561e+02   1.9386058045e+01    0.1455701   0.09982722   6.51 0.0007038074    1.691    0.409
       118  -7.7084    132.8374    148.1198   1.1440239277e+02   2.6433415518e+01    0.1941494    0.1606317  -7.87  0.001059944    1.321    0.243
       119  -8.4595    122.9821    147.0998   1.1663876954e+02   2.8324355530e+01    0.2025449    0.1869893  20.19            0    1.032    0.031
       120  -9.3698     67.1852    144.7807   1.3107596131e+02   3.7137698352e+01    0.5096359    0.2572166  52.74  0.002293573    2.166    0.538
       121  -8.1136    188.1489    138.6393   1.0011438143e+02   1.8073911903e+01    0.2100836    0.1775125 -33.06 0.0004769891    1.269    0.212
       122  -7.8686     55.2410    135.1639   1.3314462516e+02   4.0782970918e+01    0.2219123    0.1216138 -33.15 0.0009426036    2.768    0.639
       123  -8.5729      4.1062    134.6105   1.4762739886e+02   4.5302096253e+01    0.2079707    0.1482205 -13.96  0.001292412    1.931    0.482
       124  -9.7922    234.2417    130.9512   9.0227071880e+01   1.1007155110e+01    0.2473786    0.2077678  16.99 0.0003426865    1.178    0.151
       125  -8.6486     23.4410    130.2178   1.4184897492e+02   4.4995603509e+01    0.3532672    0.1810552 -29.82  0.001568761    3.142    0.682
       126  -7.5275     41.3242    129.3070   1.3648529122e+02   4.3640165958e+01    0.1297804   0.09294291 -38.71 0.0005124114    1.647    0.393
       127  -7.3534    193.3092    127.3415   9.6549760517e+01   1.8917301332e+01    0.1485711    0.1008762   4.40 0.0005511015    1.692    0.409
       128  -7.6532     67.3461    127.3431   1.2841625604e+02   4.1164725425e+01    0.1432904    0.1013464 -29.17 0.0007045541    1.794    0.443
       129  -7.9803    133.4183    124.5670   1.0927490301e+02   3.1047260456e+01    0.4545985    0.1835076  27.67  0.001293936    4.420    0.774
       130  -9.9545     13.7781    119.6223   1.4379329556e+02   4.8209475351e+01    0.5142545    0.2097551 -43.52  0.002210404    3.084    0.676
       131  -7.9168     99.5582    119.1590   1.1729757863e+02   3.8295123638e+01    0.2689345    0.1831666 -10.18  0.001036658    2.229    0.551
       132  -7.9013    118.7840    119.3700   1.1193065389e+02   3.4866360701e+01    0.2179249    0.1360545  27.85 0.0009524039    1.762    0.433
       133  -9.4175      2.4431    109.4880   1.4650968010e+02   5.1293067462e+01    0.3400964     0.202718 -50.57  0.001837842    1.724    0.420
       134  -7.8051    133.8235    106.6353   1.0478531916e+02   3.4615056661e+01    0.2139121    0.1881942 -14.42 0.0006140006    1.149    0.129
       135  -9.5743     14.8480    105.1949   1.4211261903e+02   5.1632287304e+01     0.555555    0.2220622 -34.61   0.00215178    3.801    0.737
       136  -7.3674    109.6649    105.6976   1.1120611671e+02   3.9518294987e+01    0.1533768    0.1167459  -6.00 0.0007036672    1.661    0.398
       137  -8.6038    248.3226    104.6644   8.2301501491e+01   1.2021205545e+01    0.1252925   0.09126715 -48.50 0.0007050575    1.710    0.415
       138  -8.0629     94.4952    103.5102   1.1522848382e+02   4.2712641867e+01    0.2657983    0.1447349  23.79   0.00103389    2.382    0.580
       139  -9.2595     11.2112     95.9941   1.4239789697e+02   5.4107624951e+01    0.2484989    0.1500806  32.65   0.00119582    1.809    0.447
       140  -9.2478     19.6616     92.6437   1.3897237785e+02   5.4412316342e+01     0.437948    0.1433697 -51.86  0.001761715    2.707    0.631
       141  -8.5727     44.3096     92.1388   1.2982837073e+02   5.2432431994e+01    0.3139631    0.2059309 -20.06  0.001523478    2.004    0.501
       142  -8.3703     15.1203     92.8537   1.4064818102e+02   5.4652112700e+01      0.20028    0.1581001  74.69  0.001229908    1.260    0.206
       143  -7.8135     57.1573     91.8786   1.2508306589e+02   5.1030929543e+01    0.1937561    0.1550414 -35.43 0.0004024871    1.300    0.231
       144  -7.5975     53.2953     92.6355   1.2664441481e+02   5.1312682554e+01    0.1440215    0.1035951  74.75 0.0007030746    1.715    0.417
       145  -8.0105    110.0257     91.4600   1.0730873272e+02   4.2551123289e+01    0.2345169    0.1487007  40.21  0.001032432    1.598    0.374
       146  -7.9214     96.6964     90.3032   1.1110652763e+02   4.5320268876e+01    0.2962453    0.1811459  15.27  0.001151202    2.472    0.596
       147  -8.3805     67.3157     85.9720   1.2000281737e+02   5.1107816783e+01    0.4208674    0.2041737  16.67  0.001486279    3.338    0.700
       148  -9.5977     35.8186     81.9604   1.3108521385e+02   5.5788348020e+01     0.626159    0.3186004 -24.21  0.002379186    3.003    0.667
       149  -7.8067    126.4860     84.0294   1.0041641150e+02   4.0705956686e+01    0.2362953    0.1488157 -36.64  0.001020009    1.575    0.365
       150  -8.5012     89.2902     78.5709   1.1016644058e+02   4.9277984043e+01    0.4545001    0.2706302  18.83  0.001803656    2.382    0.580
       151  -7.9363    184.3155     78.0702   8.5570587227e+01   2.8671208236e+01    0.2122141    0.1721147 -26.60 0.0005472864    1.160    0.138
       152  -8.8069     49.3218     76.6404   1.2453856707e+02   5.5691559182e+01    0.3322525     0.274063   0.54  0.001865607    1.373    0.272
       153  -7.3046    105.3711     76.2954   1.0420222904e+02   4.6698383290e+01    0.1595824    0.1183016   2.74 0.0007027643    1.732    0.422
       154  -8.7257     29.5256     68.5269   1.3090854708e+02   5.9656970994e+01    0.3006444    0.1762426 -15.02  0.000759306    2.258    0.557
       155  -9.3982     24.3498     72.8429   1.3399711493e+02   5.8999891419e+01    0.5659845    0.1696152 -49.91  0.001887969    2.798    0.643
       156  -8.2292     23.4924     69.5022   1.3372072013e+02   5.9887919660e+01    0.2304683     0.186285 -64.93 0.0006683241    1.069    0.065
       157  -7.9351     74.8293     74.7157   1.1414884936e+02   5.2611059310e+01    0.2278746    0.1797303  -2.17 0.0006364227    1.489    0.329
       158  -7.7064    129.3063     69.3382   9.5019101806e+01   4.2904167326e+01    0.1609286    0.1191464   6.85  0.000369656    1.678    0.404
       159  -8.7290     43.0410     67.9148   1.2493579499e+02   5.8510871029e+01    0.3301904    0.2372821 -27.65  0.001742261    1.501    0.334
       160  -8.2163     80.4893     68.0100   1.0997074866e+02   5.3171601193e+01     0.237696    0.2018939  -2.03 0.0004520007    1.266    0.210
       161  -8.4396     84.0105     63.8342   1.0728957430e+02   5.3448827083e+01    0.4026035    0.2595224   0.91  0.001598664    2.509    0.601
       162  -9.8569     64.6267     62.2469   1.1421859731e+02   5.7038918738e+01    0.8279147    0.3510247 -35.97  0.002232632    2.948    0.661
       163  -9.7606      7.9810     77.4821   1.4145699582e+02   5.8844641428e+01     0.426132    0.2063916 -45.43  0.002113127    1.986    0.496
       164  -9.7192     17.7730     62.0814   1.3479640191e+02   6.2101182357e+01    0.5521024    0.2294161 -49.97  0.001895613    2.008    0.502
       165  -8.9893     51.6191     60.4634   1.1912243317e+02   5.9264888357e+01    0.3940831    0.3094102  65.62  0.001897276    1.682    0.406
       166 -10.7948     38.4476     57.5921   1.2416752729e+02   6.1467279115e+01    0.5173936    0.3026546 -19.98 0.0004975536    2.237    0.553
       167  -9.9930    245.0543     55.9757   7.1189574301e+01   1.8617548119e+01    0.5321819    0.2810504 -55.57  0.002382265    2.415    0.586
       168  -8.8682    248.5214     52.0487   6.9889207360e+01   1.8393579716e+01    0.2216131    0.1606966  10.97 0.0006449788    1.652    0.395
       169  -7.1854    111.4924     58.4792   9.6284895292e+01   4.8930718333e+01    0.1560655    0.1420384   2.44 0.0001702548    1.082    0.076
       170  -9.3684      2.1586     55.7278   1.4093268237e+02   6.4427545516e+01    0.5158519    0.1488663 -62.19   0.00217914    2.374    0.579
       171  -7.9385     99.4512     54.0104   9.8398409247e+01   5.2379883241e+01    0.2367374     0.144235 -37.92   0.00103064    1.598    0.374
       172  -7.7812    118.2670     51.3778   9.1725938398e+01   4.8658006637e+01    0.2064324    0.1472183  60.73 0.0005979511    1.592    0.372
       173  -9.1448     75.1429     50.2990   1.0572558999e+02   5.7876935249e+01    0.3057171    0.2389141   9.28 0.0003501782    1.417    0.294
       174 -10.2646     45.3616     49.0587   1.1824336712e+02   6.2660544998e+01    0.2839247    0.2341722  -8.69 0.0007268917    1.262    0.208
       175 -10.1127      9.8969     47.7921   1.3565258575e+02   6.6014777230e+01    0.6140921    0.2797601 -31.87  0.002300568    2.353    0.575
       176  -8.3303    106.9704     48.0760   9.3751575507e+01   5.1817411276e+01     0.222324    0.2079572   7.73 -0.001320134    1.019    0.018
       177  -9.7456     24.1725     47.3097   1.2818534542e+02   6.5207288994e+01    0.5570491    0.2607223   1.25  0.002324687    3.087    0.676
       178  -9.2767     31.8039     44.1379   1.2329263214e+02   6.5272156937e+01    0.3217691    0.2224899   0.57  0.001397183    1.660    0.398
       179  -9.2503      2.0278     45.8029   1.3931829161e+02   6.6828844053e+01    0.3193696    0.2059579 -64.14  0.001002416    1.229    0.186
       180  -8.8288      3.8415     40.4335   1.3728121636e+02   6.8041612895e+01    0.3158793    0.1459779 -76.67  0.001057533    2.042    0.510
       181  -8.7246     42.2450     44.2881   1.1806983104e+02   6.4106354487e+01    0.2530305    0.1865567 -49.72 0.0008313581    1.225    0.184
       182  -9.7027     38.5027     42.0008   1.1912025161e+02   6.5050647164e+01    0.5084661    0.2469938   0.95  0.001747265    4.217    0.763
       183  -8.4729     93.1125     42.1901   9.5840494859e+01   5.5888577007e+01     0.236243    0.1951626   7.81  0.000937274    1.257    0.204
       184  -7.5434    123.0095     40.7280   8.6407557762e+01   4.9251531730e+01    0.2660134    0.1495608  10.81 0.0008739599    3.333    0.700
       185  -7.3934    114.6346     41.6879   8.9012057414e+01   5.1113940855e+01    0.1635049    0.1120473  19.96 0.0007038985    1.761    0.432
       186 -10.1699     83.2931     39.9820   9.8396412192e+01   5.8316304558e+01    0.3041082    0.2496148  17.81  0.001601514    1.237    0.191
       187  -9.6652     17.3785     38.4738   1.2926774889e+02   6.7775311797e+01    0.6760704    0.1541676 -42.97  0.002240751    3.930    0.746
       188  -8.4228    106.3491     36.8457   8.9412685682e+01   5.3824129659e+01    0.4139912    0.2393469  23.99  0.001609756    2.372    0.579
       189  -9.2438     54.9305     36.7283   1.0891693117e+02   6.3985773634e+01    0.3117845    0.2614439  -0.17  0.001073491    1.186    0.157
       190  -8.7560     92.4866     36.5680   9.3670266710e+01   5.6988428140e+01    0.3146361    0.2293512  36.43 0.0008377919    1.365    0.268
       191  -9.2499     95.9988     33.3328   9.1100696139e+01   5.6740876819e+01    0.3034537    0.2351673  -4.59  0.000325446    1.366    0.268
       192  -9.3665     37.6126     35.4360   1.1709061136e+02   6.6589731547e+01    0.3499953     0.240062   4.29  0.001495209    1.662    0.398
       193  -8.8592     69.6104     35.6002   1.0187371749e+02   6.1742286701e+01    0.4223655    0.1726587  40.06  0.001626343    2.536    0.606
       194  -8.0314     76.8419     34.1756   9.8302667266e+01   6.0632905296e+01    0.2714285    0.2016451 -30.02  0.001389337    1.281    0.220
       195  -8.4489     82.0402     32.1635   9.5406859796e+01   5.9934714384e+01    0.3725172    0.2423885   8.89  0.001034397    2.061    0.515
       196  -9.1228      6.6701     33.9334   1.3413245053e+02   6.9447583413e+01    0.3862193    0.2365007 -23.56  0.002179092    1.691    0.409
       197  -7.7615    143.9285     33.7907   7.9050704423e+01   4.4995980541e+01     0.192336    0.1164923  58.11 0.0002910453    1.621    0.383
       198  -8.4791    112.2227     30.2323   8.4981749055e+01   5.3415067340e+01    0.4075877    0.2030157  35.22  0.001542271    2.367    0.578
       199  -7.5718    104.5341     31.4656   8.7663166224e+01   5.5070000116e+01    0.1490737    0.1383075  11.80 0.0001319794    1.005    0.005
       200  -8.1628     88.4472     31.0332   9.2596260570e+01   5.8768109915e+01    0.2678617     0.148824  40.09  0.001157047    1.807    0.447
       201  -8.9439      1.5847     29.7578   1.3610573871e+02   7.0628471151e+01    0.2805184    0.1229745 -62.77  0.001399849    1.739    0.425
       202  -8.3948    127.9281     30.1704   8.1075878114e+01   4.9535508871e+01     0.217888    0.1991787  25.58 0.0003559986    1.059    0.056
       203 -10.2139     71.7142     25.5033   9.6259773552e+01   6.3113444441e+01    0.6600108    0.3531998  53.56 0.0007122298    2.291    0.563
       204  -7.5268    153.3350     27.2757   7.4951603420e+01   4.3393198023e+01    0.1534924    0.1047936  33.34 0.0002685663    1.605    0.377
       205  -8.3575     61.9878     26.9743   1.0115783195e+02   6.4673483410e+01    0.2272834    0.1584717  -1.73 0.0006482595    1.673    0.402
       206  -8.9127     57.5323     25.1805   1.0232880209e+02   6.5763242349e+01    0.3570876    0.2314746  46.47  0.001043328    1.796    0.443
       207  -8.9519     47.8268     25.8935   1.0747878301e+02   6.7177550622e+01    0.3770009    0.1944478  26.91  0.001087529    2.180    0.541
       208  -7.5126    102.5114     25.4628   8.5609726406e+01   5.6408610601e+01    0.1485354    0.1357206  16.95 0.0001393748    1.020    0.019
       209  -9.5245     83.2502     22.3648   9.0323283965e+01   6.1222869009e+01    0.6323821    0.2847091  37.21  0.001975923    2.428    0.588
       210  -8.7214     92.1189     21.0582   8.6715584847e+01   5.9434281408e+01    0.3621929    0.2605547  -9.02    0.0016318    1.456    0.313
       211  -7.4961    130.6803     21.7216   7.7113420237e+01   4.9889704546e+01    0.1539782    0.1042097  31.91 0.0001911244    1.579    0.367
       212  -8.9418    243.1630    244.5871   1.0904648597e+02  -3.0912082926e+00    0.2100869    0.1172201 -14.56 0.0009300101    1.653    0.395
       213  -8.1850    116.8548     19.8350   7.9376076529e+01   5.3627539821e+01    0.1954433    0.1699727 -54.72 0.0002682785    1.311    0.237
       214  -8.0592     45.9113     19.8916   1.0545425844e+02   6.8577267002e+01    0.2148615    0.1626037 -15.81 0.0006479343    1.242    0.195
       215  -7.4715    146.7485     19.3401   7.3190614709e+01   4.5999113887e+01    0.1476242      0.10462 -52.82 0.0002375486    1.572    0.364
       216  -8.2939    225.6690    249.6718   1.1251086277e+02  -1.5735063143e+00    0.1105367   0.05852565   9.20 0.0003894192    1.713    0.416
       217  -8.1043    127.7923     16.8656   7.5736710092e+01   5.1183442726e+01    0.2157432    0.1871551  33.67 0.0004311939    1.117    0.105
       218  -7.9108     73.6762    247.6807   1.3936583158e+02   1.6992067365e+01   0.09338509   0.07517793   4.29 0.0007045197    1.674    0.403
       219  -8.7544     50.6594     15.2315   1.0044262241e+02   6.8627629073e+01    0.3240644    0.2087943  17.52  0.001060931    1.731    0.422
       220  -7.5334    189.3584     15.6949   6.6189324713e+01   3.5491812556e+01    0.1490705   0.09356054 -59.02 0.0003104796    1.724    0.420
       221  -7.9413     18.9884    248.0000   1.4913010971e+02   2.2305202804e+01    0.1560905   0.04245447  30.12 0.0008069655    2.974    0.664
       222  -8.8979    249.7093    245.2130   1.0812713254e+02  -3.8676544498e+00    0.2091164   0.07608044 -25.39  0.001220699    2.761    0.638
       223  -8.0558    146.5368     14.1288   7.1285163509e+01   4.6599265681e+01    0.2083036    0.1807057  63.20 0.0003320149    1.120    0.107
       224  -8.9108    218.7569    245.2296   1.1303338114e+02  -3.4532975274e-01    0.2033539    0.1199744 -10.29  0.001414664    1.672    0.402
       225  -7.3207     81.3354    246.3305   1.3786314737e+02   1.6345123470e+01   0.09684868   0.07573263   3.08 0.0003966192    1.730    0.422
       226  -8.3350     88.9567     13.0241   8.3754557741e+01   6.1201739460e+01    0.2448294    0.1523961  27.77  0.001125942    1.717    0.417
       227  -9.7516    192.5627    244.2882   1.1732480283e+02   2.9327764084e+00    0.2262346    0.1459355  10.66 0.0008997248    1.342    0.255
       228  -8.1370    106.0542     10.4961   7.7788323295e+01   5.7382089133e+01    0.2205848    0.1352107  58.57 0.0006599815    1.563    0.360
       229  -9.2114    156.8857    244.8027   1.2372480811e+02   7.3702606900e+00    0.1712548    0.1178601  18.19 0.0006651454    1.252    0.201
       230  -8.4277    233.8076    243.1300   1.1031183539e+02  -1.9006119024e+00     0.193344    0.1095941  -0.49 0.0008386208    1.586    0.369
       231  -8.3904    176.4591    243.5148   1.2005156331e+02   5.0403200755e+00     0.111032   0.08048184  22.11 0.0001053774    1.005    0.005
       232  -8.2440     95.9479    243.5168   1.3492502992e+02   1.5080453405e+01    0.1672675   0.08219887  34.26 0.0004495693    1.549    0.354
       233  -7.7496     25.8261    241.1471   1.4770404899e+02   2.2768160397e+01    0.1216668    0.1039168  38.39 0.0007878013    1.303    0.233
       234  -8.6337    249.3967    238.5078   1.0721408181e+02  -3.2443866776e+00     0.216736   0.08143285 -22.95  0.001101445    2.678    0.627
       235  -9.2856    242.0228    236.7539   1.0810386662e+02  -2.2519716275e+00    0.3705862    0.1833971 -18.64  0.002424994    1.946    0.486
       236  -8.5891    170.3339    239.6585   1.2067421714e+02   6.2767784924e+00    0.2213271     0.128119   8.49 0.0007624059    2.020    0.505
       237  -7.5669    122.4569    239.4927   1.2955480466e+02   1.2430633606e+01    0.1114671   0.08474273  34.28  0.000145178    1.017    0.017
       238  -8.3801    224.4622    238.4931   1.1116666835e+02  -3.6350523955e-01    0.1091675   0.07490876  13.01 2.841246e-05    1.003    0.003
       239  -7.9473     79.3322    238.4497   1.3767255809e+02   1.7754796494e+01    0.1947597    0.0875889  29.76  0.001102282    1.936    0.483
       240  -7.9204    230.7679    237.3453   1.0997953689e+02  -9.9964431780e-01    0.1510853   0.07163792  24.35 0.0007147491    1.630    0.387
       241  -9.8643    188.8256    234.5282   1.1669750665e+02   4.4963684421e+00    0.3004153    0.2017963  27.38  0.001443086    1.157    0.136
       242  -7.7569    148.2107    237.6202   1.2450195673e+02   9.3940395512e+00    0.1617177   0.08345812  26.19  0.000526678    1.656    0.396
       243  -8.3551    195.6678    235.9595   1.1568596268e+02   3.4577873456e+00    0.1528444    0.1138521  13.26 0.0004488823    1.064    0.060
