#   1 NUMBER                 Running object number                                     
#   2 MAG_AUTO               Kron-like elliptical aperture magnitude                    [mag]
#   3 X_IMAGE                Object position along x                                    [pixel]
#   4 Y_IMAGE                Object position along y                                    [pixel]
#   5 X_WORLD                Barycenter position along world x axis                     [deg]
#   6 Y_WORLD                Barycenter position along world y axis                     [deg]
#   7 A_WORLD                Profile RMS along major axis (world units)                 [deg]
#   8 B_WORLD                Profile RMS along minor axis (world units)                 [deg]
#   9 THETA_WORLD            Position angle (CCW/world-x)                               [deg]
#  10 FWHM_WORLD             FWHM assuming a gaussian core                              [deg]
#  11 ELONGATION             A_IMAGE/B_IMAGE                                           
#  12 ELLIPTICITY            1 - B_IMAGE/A_IMAGE                                       
         1 -14.4466    160.5271     47.9901   8.3736481731e+01   3.8785224568e+01     1.789108     1.153485  12.96   0.00607626    2.141    0.533
         2 -14.2292    172.5195     31.7668   7.6349220534e+01   3.7915798809e+01     1.016577    0.8730326  -7.77  0.003464199    1.237    0.191
         3 -13.2444    176.4506     24.5027   7.3445204684e+01   3.7767080384e+01    0.5364043    0.4523734  17.37  0.001061691    1.291    0.225
         4 -12.5710    189.9484      1.9294   6.4886577845e+01   3.6602878617e+01    0.6096995    0.2134594  70.91  0.002322472    2.664    0.625
         5 -11.5451    135.4423    196.0247   1.2504087285e+02   1.6350498551e+01     0.319413    0.2211092  84.98  0.001452232    2.070    0.517
         6 -10.8428    159.3945    249.8259   1.2779352060e+02   4.1780049703e+00    0.1328654    0.1057654 -22.53 0.0009427462    1.690    0.408
         7 -19.8039     56.2308    170.4634   1.3814742847e+02   3.3113968602e+01     17.58788     5.023225 -69.30   0.06787324    3.571    0.720
         8 -11.5116    181.1913    195.2160   1.1587063370e+02   8.4208551216e+00    0.3270394    0.2555149  83.92  0.001341852    2.028    0.507
         9 -12.9344    112.5832    210.8275   1.3153608881e+02   1.7426960417e+01    0.3820221    0.2405724  35.33  0.001499444    1.614    0.380
        10 -10.7348     15.4528    213.6592   1.4931987851e+02   2.9025618775e+01    0.1265172    0.1181888  -7.05 0.0006777078    1.873    0.466
        11 -12.0222    207.9744    186.0081   1.0911072990e+02   4.9695204865e+00     0.365738    0.2469843  19.16  0.001123166    1.530    0.346
        12 -12.2487    212.4197    182.4521   1.0760578982e+02   4.6853981594e+00     0.362724      0.25166  16.17  0.001159974    1.487    0.327
        13 -10.1967    147.2888    185.6773   1.2100097022e+02   1.6140637292e+01    0.1303903    0.1009209  75.76 0.0002761606    1.605    0.377
        14  -8.2925      7.4892    212.7885   1.5057906526e+02   2.9916505244e+01    0.1892603    0.1086016  20.83  0.001183486    3.131    0.681
        15 -13.2128     99.3720    180.5739   1.3024410980e+02   2.5137041534e+01     1.227737    0.5971852 -36.36   0.00450318    4.470    0.776
        16 -12.4520     94.4784    177.5237   1.3086005883e+02   2.6492064296e+01    0.2865161    0.2783399 -51.70 0.0005964996    1.244    0.196
        17 -13.2543     97.0126    172.5404   1.2960371062e+02   2.7122613940e+01    0.5643075    0.3128662 -47.71  0.002799478    2.046    0.511
        18 -11.2456    117.1694    180.4137   1.2644883330e+02   2.2331264978e+01    0.2224309    0.1664864  68.76 0.0006305134    1.418    0.295
        19 -11.7855    112.8216    177.2102   1.2688525423e+02   2.3676036766e+01    0.3567975    0.1932552  66.32  0.001501762    2.732    0.634
        20 -11.6784    199.2127    178.7455   1.0937582686e+02   7.6906803527e+00    0.3317436    0.2728665 -55.39   0.00101398    1.594    0.373
        21 -10.9850    179.0341    174.9850   1.1261177037e+02   1.2127293381e+01    0.2252983    0.1629524   9.07  0.001138964    1.703    0.413
        22 -11.6316    137.7288    170.9395   1.2048520620e+02   2.0607816145e+01    0.3096457    0.2472229 -75.81  0.001437754    1.477    0.323
        23 -11.7212    112.8132    170.2097   1.2578854968e+02   2.5079378157e+01    0.4203492    0.3251542 -25.89 0.0009661073    1.779    0.438
        24 -10.8210      1.8342    251.0000   1.5306655865e+02   2.4052761077e+01    0.1231859    0.0414442  38.99  0.000762918    2.675    0.626
        25 -11.6573    101.8374    163.1220   1.2709229677e+02   2.8319667911e+01    0.2237461    0.2009156 -59.07 0.0003277062    1.167    0.143
        26  -9.5620    130.2968    161.6316   1.2044175608e+02   2.3783685442e+01    0.1423746      0.10625  82.99 0.0007030167    1.728    0.421
        27 -12.8775    106.1168    155.3898   1.2482564210e+02   2.9254288735e+01    0.6061436    0.3746426 -37.06  0.002869826    2.097    0.523
        28 -12.0386     23.3213    157.4785   1.4383532291e+02   3.9291222050e+01    0.4610954    0.2661507  19.90  0.002694722    2.556    0.609
        29 -11.8318    166.1285    208.7969   1.2098335507e+02   8.9508882501e+00    0.3189499    0.2059413  48.97   0.00111418    1.435    0.303
        30 -12.1556    133.6336    144.8441   1.1642222372e+02   2.6583131146e+01    0.9950405    0.2408458 -52.71  0.002601627    5.429    0.816
        31 -10.6751    174.8122    148.8343   1.0813836076e+02   1.7595801120e+01    0.1951088    0.1767524  85.58 0.0005336243    1.342    0.255
        32 -11.9756     91.8079    148.1554   1.2694593201e+02   3.3080166157e+01    0.2521408    0.1742204  57.68 0.0005187683    1.515    0.340
        33 -13.4632     11.9418    205.3866   1.4944900196e+02   3.0852060795e+01     0.368271    0.3285532  38.26  0.003174704    1.591    0.372
        34 -11.1114    130.6038    206.0832   1.2743979540e+02   1.5392176441e+01    0.2046031    0.1528178  55.88 0.0007333382    1.228    0.186
        35 -12.5229    114.1545    140.6922   1.2019294613e+02   3.1021425645e+01    0.5164127    0.2942793 -45.49  0.002362463    1.805    0.446
        36 -12.5723    103.5591    140.7036   1.2276539314e+02   3.2829018091e+01    0.2813659    0.2584645  60.30 0.0005689433    1.085    0.078
        37 -11.7943     25.8010    135.1721   1.4098095676e+02   4.3876662066e+01    0.1886451    0.1757525  84.06 0.0004016581    1.206    0.171
        38 -11.3625    106.0000    130.9750   1.2022936173e+02   3.4538897700e+01    0.3373609    0.2406899 -67.26  0.001544228    1.510    0.338
        39 -11.6142    107.4988    126.9994   1.1901447772e+02   3.5149012228e+01    0.4650134    0.2753353 -47.28   0.00116268    1.653    0.395
        40 -11.5893    119.2285    130.6254   1.1686200694e+02   3.2267532299e+01    0.3004425    0.2591859   6.19 0.0006884522    1.384    0.278
        41 -11.7994    120.0888    205.1776   1.2936899245e+02   1.7248094234e+01    0.1769275    0.1578561  34.81 0.0004633035    1.219    0.180
        42 -13.4577    197.0072    197.1109   1.1319407279e+02   5.3019084624e+00    0.6733614    0.4271646  42.35  0.001892975    1.421    0.296
        43 -11.3267    160.8242    128.0909   1.0645171397e+02   2.4461759368e+01    0.2351298     0.214672 -87.82  0.001249659    1.274    0.215
        44 -11.9425    125.2089    127.0033   1.1458605959e+02   3.1920480956e+01    0.4910615    0.3027176  74.09    0.0018357    3.028    0.670
        45 -12.3986     88.7290    122.3525   1.2289248635e+02   3.9255723393e+01     0.378254    0.2824869  67.19  0.001994047    1.573    0.364
        46 -11.1124    113.1868    119.5142   1.1589929462e+02   3.5765615002e+01     0.254985    0.1957772 -50.28 0.0005315698    1.263    0.208
        47 -11.6334    169.8438    115.6812   1.0139476780e+02   2.4881534988e+01    0.4626141    0.3275217 -75.57  0.001926524    2.280    0.561
        48 -12.2599    189.5094    187.3797   1.1286971780e+02   8.1380686178e+00    0.6111407    0.3802975 -49.43  0.003099946    2.012    0.503
        49 -10.8253    205.3658    110.1246   9.2773008732e+01   1.7859346335e+01    0.2591574    0.1996896  35.03 0.0006970595    1.323    0.244
        50 -10.4835    144.5949    200.7693   1.2393150681e+02   1.3964126376e+01     0.163308    0.1230352 -67.72 0.0008520075    1.632    0.387
        51 -10.3490     23.0517    204.9772   1.4752031159e+02   2.9874746703e+01    0.1782672    0.1258098  47.35 0.0006163543    1.416    0.294
        52 -11.9721    176.9703    243.4682   1.2396458963e+02   2.2706538517e+00    0.1799012    0.1634957  87.02 0.0005614941    1.516    0.341
        53 -11.4023    187.8074    221.8181   1.1896111593e+02   3.3763155062e+00    0.1636874    0.1338027  52.23 0.0004911136    1.352    0.261
        54 -12.4192    183.5451    215.7962   1.1880916483e+02   4.9306954065e+00    0.3092643    0.1551867  37.23   0.00124167    1.705    0.414
        55 -10.2749    129.9279     28.4419   8.3556965430e+01   4.8848389078e+01    0.1939348     0.128194  89.03 0.0008074417    2.543    0.607
        56  -9.9726      2.0069     19.4707   1.2598429206e+02   6.9848952120e+01    0.1316957   0.09895834  -3.13 0.0001266104    1.437    0.304
        57 -11.6522    189.3275     14.9649   6.8742752821e+01   3.5513062459e+01    0.1914998    0.1839593 -27.73 0.0007193302    1.103    0.094
