#   1 NUMBER                 Running object number                                     
#   2 MAG_AUTO               Kron-like elliptical aperture magnitude                    [mag]
#   3 X_IMAGE                Object position along x                                    [pixel]
#   4 Y_IMAGE                Object position along y                                    [pixel]
#   5 X_WORLD                Barycenter position along world x axis                     [deg]
#   6 Y_WORLD                Barycenter position along world y axis                     [deg]
#   7 A_WORLD                Profile RMS along major axis (world units)                 [deg]
#   8 B_WORLD                Profile RMS along minor axis (world units)                 [deg]
#   9 THETA_WORLD            Position angle (CCW/world-x)                               [deg]
#  10 FWHM_WORLD             FWHM assuming a gaussian core                              [deg]
#  11 ELONGATION             A_IMAGE/B_IMAGE                                           
#  12 ELLIPTICITY            1 - B_IMAGE/A_IMAGE                                       
         1 -13.5204     68.4085    143.8918   8.0549939429e+01   3.7707826420e+01     3.787439     1.705205  74.45  0.003208284    5.908    0.831
         2 -13.2438      2.5726     79.0648   8.9411292305e+01   5.8803371547e+01     1.895598          nan -65.89  0.005439843    6.440    0.845
         3 -14.1227    228.8906     42.6652   2.0415358060e+01   2.2251221802e+01     2.383744      1.36466  39.90    0.0101569    2.588    0.614
         4 -11.0937      2.7320      2.9825   6.9872258500e+01   7.3183866491e+01    0.3012455    0.1784391 -35.42  0.002162365    1.272    0.214
         5  -9.1440     59.9306    247.6941   9.3021465073e+01   1.7415848535e+01    0.1563749    0.1042731  62.34 0.0003299907    1.057    0.054
         6 -10.9414    116.6964    248.8055   8.3236646525e+01   8.8306483912e+00    0.3668653    0.1994629 -61.74  0.001398324    2.260    0.558
         7 -10.3299    115.5311    243.0012   8.2856183017e+01   9.9615391766e+00    0.1900987    0.1164662 -58.35 0.0005999294    2.025    0.506
         8 -11.4586     15.9195    249.2363   1.0019671349e+02   2.2497895388e+01    0.2863252    0.1642591  71.85  0.002134726    1.198    0.165
         9 -13.9709      9.0934    207.4702   9.9312563462e+01   3.0865985608e+01     1.310064    0.7620181 -83.02  0.006150385    1.424    0.298
        10 -12.1921     44.4872    171.6402   8.9670127831e+01   3.4493211849e+01    0.7489474    0.4986728 -22.88  0.001808335    3.677    0.728
        11 -11.8112     51.5772    166.2876   8.7522980426e+01   3.4815734997e+01    0.2734039    0.2447196 -56.04 0.0008990928    1.437    0.304
        12 -15.2538      9.7367    239.6919   1.0074109196e+02   2.4818030881e+01      7.05641     2.824304  28.13   0.02972925    6.226    0.839
        13 -10.4265     40.6967    211.5804   9.3862953592e+01   2.6586935459e+01    0.2977861    0.1447798  64.92 0.0004042272    1.737    0.424
        14 -11.5437     78.8986    206.8738   8.6090850063e+01   2.2355108252e+01    0.2854209     0.190318  87.65 0.0005065286    1.419    0.295
        15  -9.5244     70.7523    247.9382   9.1205597056e+01   1.5892416535e+01    0.1616232    0.1327669  63.71 0.0006435644    1.262    0.208
        16  -9.1364     95.6624    243.3253   8.6468268308e+01   1.3032105711e+01    0.1283234   0.06927481  65.46 0.0007051417    1.722    0.419
        17 -11.2838     80.9082    244.7348   8.9199544768e+01   1.4993961889e+01    0.4758551    0.2258888 -82.90  0.001893834    2.552    0.608
        18  -8.2661     84.6620    201.2926   8.4328848323e+01   2.2609487262e+01    0.1374441   0.07989889  67.37 0.0005050577    1.646    0.393
        19 -12.9313     54.7315    232.5566   9.2851996732e+01   2.0804516212e+01     1.213894    0.4710172 -80.93  0.003350445    2.808    0.644
        20  -8.7704     99.3139    180.9696   7.8661666560e+01   2.4511133560e+01    0.1866115    0.1596893  81.50  0.000522948    1.061    0.057
        21 -12.0978    231.0326    169.3755   4.9225549812e+01   9.7454442368e-01    0.6701962     0.502822 -15.68  0.003717651    1.422    0.297
        22 -12.3613    243.8784    165.9988   4.6314398209e+01  -8.9529784689e-01    0.7578906    0.5272215  23.60  0.004125698    1.531    0.347
        23 -11.5895     52.7966     91.0945   7.5391561934e+01   5.1940958238e+01     3.603202          nan -58.34  0.005881261   15.312    0.935
        24 -12.3060     77.0658    137.5540   7.7314280605e+01   3.7926344988e+01    0.4517075    0.3021506 -61.82 0.0004992348    1.400    0.286
        25 -12.2937     72.0384    152.2681   8.0897820937e+01   3.5248818432e+01    0.6198051    0.4467451  73.50  0.001315366    1.335    0.251
        26  -9.4295    249.4911    249.5215   6.0036396299e+01  -1.2479824948e+01    0.1118609   0.08245256  19.98  0.000162956    1.019    0.018
        27 -10.8426      2.5635    161.7949   9.7826213095e+01   4.0800108173e+01     0.315781    0.1806729 -76.10    0.0020446    1.404    0.288
        28 -12.8276    234.8944    158.8917   4.6418570384e+01   1.9019482674e+00    0.7917192    0.4422882 -35.91  0.003795472    1.777    0.437
        29 -13.3677     49.3658    153.3495   8.6524841249e+01   3.8012475050e+01    0.4479161    0.3352664 -34.70   0.00147243    2.006    0.501
        30 -12.9688     10.2932    195.8690   9.8453964572e+01   3.3044268881e+01    0.3293702    0.2741708  57.69   0.00076936    1.378    0.274
        31  -9.2252     28.4388    153.4874   9.1449797160e+01   4.0290968321e+01    0.2660796    0.1247915 -84.41  0.001303899    1.967    0.492
        32  -8.1869    174.6942    149.3111   5.6099498719e+01   1.6260646369e+01    0.1514692    0.1176709  86.72 0.0004923882    1.616    0.381
        33  -8.5029    100.7420    144.0087   7.2405479895e+01   3.2545900127e+01    0.1680629    0.1191373 -63.29 0.0002013108    1.379    0.275
        34 -11.1766     63.9087    157.7180   8.3616283741e+01   3.5141763810e+01    0.2448019    0.2120989 -83.54 0.0004242031    1.118    0.106
        35  -9.7495     93.7711    136.8240   7.2855212649e+01   3.5418479810e+01    0.3164949    0.2510546  -3.37  0.001051133    2.012    0.503
        36 -10.6724     89.7158    139.8557   7.4451623052e+01   3.5392423280e+01    0.3399706    0.3252291 -66.52 0.0009513375    1.190    0.160
        37  -9.5532    110.5662    167.3078   7.4050680134e+01   2.5523408735e+01    0.2426868    0.1939347 -85.07  0.000620627    1.235    0.190
        38 -10.6715    105.1425    130.0095   6.8567090328e+01   3.4985766053e+01    0.3944237    0.3510816  78.67  0.001186399    1.063    0.059
        39 -11.4664    243.6286    126.0326   3.7918605782e+01   5.5220254413e+00    0.2886571    0.2401577  21.50  0.001615709    1.342    0.255
        40  -8.9077    112.7382    123.8183   6.5266655951e+01   3.4972805597e+01    0.2374768    0.1683462  -8.02 0.0009457077    2.725    0.633
        41  -9.7552    102.9829    118.1972   6.6622901859e+01   3.8105812694e+01    0.2248137    0.1978672 -65.11 0.0002440629    1.094    0.086
        42 -11.2361     90.4147    125.2422   7.1506306331e+01   3.8683260639e+01    0.2938828     0.277615  23.12 0.0006487715    1.270    0.213
        43  -9.7930    204.9149    110.6655   4.1069238393e+01   1.6800780449e+01    0.3685699    0.2555265  43.58  0.001461605    1.512    0.339
        44 -14.8450     26.5041    182.0124   9.4382816962e+01   3.4269171410e+01     6.572822     2.079233  84.55   0.01911532    6.904    0.855
        45 -12.1812    242.6502     93.2409   3.0636495642e+01   1.1147146735e+01    0.5112609    0.3088478 -30.25  0.002383979    1.715    0.417
        46  -9.8176     46.9412     86.4875   7.6272976488e+01   5.3633251229e+01     0.233016    0.1652597 -78.97 0.0007020926    1.523    0.344
        47 -10.9500    165.4692     87.6244   4.3113161060e+01   3.0851612982e+01    0.4276283     0.276373 -17.31  0.001396095    2.400    0.583
        48  -9.4441    184.3205     77.3585   3.6422813517e+01   2.7995475261e+01    0.2710902    0.1958824 -24.87 0.0008301174    1.647    0.393
        49  -8.7521     35.2512     75.1825   7.7696275953e+01   5.7283878956e+01    0.1584749    0.1331931 -88.61 0.0004843475    1.326    0.246
        50 -12.6042    209.3736     56.2358   2.6482445363e+01   2.5106869784e+01     1.135733    0.5998538 -49.88  0.004155131    1.909    0.476
        51 -14.2323     19.8037    188.8879   9.6213726743e+01   3.3524930584e+01     1.730155    0.9516026  69.67  0.004818359    1.493    0.330
        52 -11.9967     11.6788     59.1891   8.2659248544e+01   6.2448149608e+01    0.5254157    0.3142271  44.36  0.001467129    2.187    0.543
        53  -8.3811     73.4719     57.4246   5.9452550971e+01   5.6195312173e+01    0.1299792    0.1219214 -26.62 0.0001460236    1.031    0.030
        54 -11.3603      5.6565    102.7040   9.1677144953e+01   5.3502484131e+01    0.3424387    0.1738979 -80.03    0.0019374    1.674    0.402
        55  -9.4633    147.4846     65.9801   4.0948981745e+01   3.9340639312e+01    0.2206664    0.1240162 -60.04  0.000809596    2.473    0.596
        56  -9.4538     20.3187     37.3417   7.3599329877e+01   6.6132588625e+01     0.122615   0.06784426 -31.72 0.0007049438    1.716    0.417
        57 -11.4368      2.8971     98.6577   9.1972184760e+01   5.4554848468e+01     0.477542    0.2387809 -54.82  0.002812725    1.706    0.414
        58 -10.7917    115.1178     23.2771   3.4532248065e+01   5.3588001591e+01    0.3182876    0.2631755 -66.08 0.0006491886    1.506    0.336
        59  -9.6193    198.3501     23.8157   1.9435280249e+01   3.2529277263e+01    0.1878917    0.1384916 -17.47 0.0009505682    1.727    0.421
        60 -11.0304      2.7915     21.9892   7.6765728322e+01   7.0041789170e+01    0.2898404    0.1093043 -40.28  0.001610516    2.067    0.516
        61  -8.9410    189.4878     15.1603   1.8228996776e+01   3.5877447452e+01    0.1908352    0.1386917 -33.80 0.0009173913    1.504    0.335
