#   1 NUMBER                 Running object number                                     
#   2 MAG_AUTO               Kron-like elliptical aperture magnitude                    [mag]
#   3 X_IMAGE                Object position along x                                    [pixel]
#   4 Y_IMAGE                Object position along y                                    [pixel]
#   5 X_WORLD                Barycenter position along world x axis                     [deg]
#   6 Y_WORLD                Barycenter position along world y axis                     [deg]
#   7 A_WORLD                Profile RMS along major axis (world units)                 [deg]
#   8 B_WORLD                Profile RMS along minor axis (world units)                 [deg]
#   9 THETA_WORLD            Position angle (CCW/world-x)                               [deg]
#  10 FWHM_WORLD             FWHM assuming a gaussian core                              [deg]
#  11 ELONGATION             A_IMAGE/B_IMAGE                                           
#  12 ELLIPTICITY            1 - B_IMAGE/A_IMAGE                                       
         1 -15.1081      3.2707    134.3802   1.4112702987e+02   4.6745983534e+01     5.351894     0.656029 -70.54   0.01427924    7.033    0.858
         2 -13.4118    196.8719     31.0902   6.6580124102e+01   3.1917497808e+01    0.8904034    0.7949436  35.72  0.005536203    1.371    0.271
         3 -14.0913    212.2123     12.6628   6.0562815010e+01   3.0421470960e+01     1.317627    0.8788109  46.10   0.00750113    1.846    0.458
         4 -10.0723    183.3336      2.3189   6.1329725225e+01   3.8193424469e+01    0.1282455   0.08232468  46.37  0.000704874    1.696    0.411
         5 -10.6189    168.0044      2.0000   6.3120448967e+01   4.1839972761e+01    0.2188969   0.06063966  68.10 0.0008070681    2.975    0.664
         6 -14.9743     43.5117    200.0390   1.3924093573e+02   2.8249913381e+01     9.234464     1.929383  51.92    0.0252802    7.099    0.859
         7 -12.6048    247.9619    246.8129   1.0459646289e+02  -1.3320631418e+01    0.5565727    0.4134896  -9.92  0.003774558    1.212    0.175
         8 -11.2396     65.2617    248.7974   1.3970936520e+02   1.5453864505e+01    0.2731447    0.1892211  75.31 0.0009002612    1.254    0.203
         9 -13.1215      9.7881    207.0871   1.4647996168e+02   3.0361981551e+01    0.6899796    0.6505831   0.88  0.003026997    1.666    0.400
        10 -14.3095      9.7765    245.6634   1.4897472104e+02   2.2749722391e+01     1.835942      1.14426  86.06   0.01328505    1.245    0.197
        11 -13.6405     32.4711    247.0188   1.4531403756e+02   1.9983030214e+01     1.237698    0.6363325  37.78  0.007401234    2.071    0.517
        12 -11.3409    125.7887    250.3060   1.2846451997e+02   5.9094293586e+00    0.4425712   0.09095763  42.34   0.00145762    3.867    0.741
        13  -9.0549    152.6374    213.1573   1.1754843437e+02   8.0478115126e+00    0.1739471    0.1314669 -36.87   0.00034896    1.529    0.346
        14 -11.5612     59.8629    196.2981   1.3536179931e+02   2.7005219057e+01    0.3136676    0.2343441 -56.45  0.000612274    1.446    0.308
        15 -11.8073     66.1201    188.4023   1.3299089062e+02   2.7926824921e+01    0.2857625    0.2416677 -64.41 0.0004918494    1.214    0.176
        16 -12.7547     32.6301    229.5787   1.4400090427e+02   2.3350160831e+01    0.3138801    0.2483592 -81.04  0.000750098    1.249    0.200
        17 -13.2346     63.1475    173.6953   1.3166538494e+02   3.1704281148e+01    0.5245524    0.2880358 -45.34   0.00178173    2.161    0.537
        18 -10.8842     76.4643    175.9628   1.2883246442e+02   2.9299070608e+01     0.254738    0.2198993 -75.33 0.0004219516    1.079    0.073
        19 -12.1036     84.3331    166.8065   1.2545419496e+02   3.0237666500e+01    0.6134355    0.5860636  74.12  0.003702771    1.081    0.075
        20 -10.0459     97.2088    151.3229   1.1935929524e+02   3.1769179024e+01    0.2684809    0.2388009 -69.72 0.0007707707    1.089    0.081
        21 -12.1316     85.6310    150.3113   1.2217841765e+02   3.3909205024e+01    0.3147304    0.2591779 -46.89 0.0006124501    1.234    0.189
        22  -9.1992    100.2972    147.3148   1.1775090541e+02   3.2173886684e+01    0.1455741    0.1154626 -20.80 0.0003430885    1.605    0.377
        23 -12.5384     67.8157    143.8736   1.2569111300e+02   3.8061091157e+01    0.6693864    0.4531783  67.62  0.002765396    1.828    0.453
        24 -10.4032     96.2517    133.7588   1.1596489603e+02   3.6026253695e+01    0.2544695    0.2270328 -25.72 0.0003467286    1.219    0.180
        25  -9.7226    109.3557    136.6055   1.1307060986e+02   3.3024241460e+01    0.3029246    0.2167508 -14.01  0.001314387    2.071    0.517
        26 -10.8793     50.5002    129.8168   1.2786518945e+02   4.3539808048e+01    0.2372907    0.2006838  63.50 0.0006837454    1.319    0.242
        27  -9.1872    106.4987    123.4678   1.1080568136e+02   3.6541763435e+01     0.147476    0.1439036 -41.21 0.0001353651    1.010    0.010
        28  -9.9728    167.7937    112.8087   9.2746981819e+01   2.5709972011e+01    0.2827851    0.2334741 -85.38 0.0007919103    1.449    0.310
        29 -10.4698     81.5967    249.2180   1.3675737741e+02   1.3047975684e+01    0.1548515    0.1078045 -59.45 0.0009573073    1.686    0.407
        30 -13.9075     10.9911    157.0677   1.4181927092e+02   4.1115266863e+01     1.832772    0.7402285 -88.56  0.007667028    3.150    0.683
        31 -14.3767     38.5426    222.0866   1.4229885017e+02   2.4171780530e+01    0.9831812    0.8901983  26.23  0.004488295    1.598    0.374
        32 -10.2223     53.6544    228.9739   1.4005895352e+02   2.0880912942e+01    0.1745367    0.1321207  84.91    0.0011517    1.126    0.112
        33 -12.1561     51.9451    236.5779   1.4105964017e+02   1.9587494938e+01    0.4380992     0.218777  80.23  0.001826589    2.274    0.560
