#   1 NUMBER                 Running object number                                     
#   2 MAG_AUTO               Kron-like elliptical aperture magnitude                    [mag]
#   3 X_IMAGE                Object position along x                                    [pixel]
#   4 Y_IMAGE                Object position along y                                    [pixel]
#   5 X_WORLD                Barycenter position along world x axis                     [deg]
#   6 Y_WORLD                Barycenter position along world y axis                     [deg]
#   7 A_WORLD                Profile RMS along major axis (world units)                 [deg]
#   8 B_WORLD                Profile RMS along minor axis (world units)                 [deg]
#   9 THETA_WORLD            Position angle (CCW/world-x)                               [deg]
#  10 FWHM_WORLD             FWHM assuming a gaussian core                              [deg]
#  11 ELONGATION             A_IMAGE/B_IMAGE                                           
#  12 ELLIPTICITY            1 - B_IMAGE/A_IMAGE                                       
         1 -11.7814    233.8189      5.7552   5.9668845271e+01   2.5788564088e+01    0.9037024    0.3564753 -58.33  0.003680964    2.752    0.637
         2 -10.1584    224.5668      7.5106   6.0860974719e+01   2.7793048111e+01     0.411976    0.2654345 -57.82   0.00102131    1.454    0.312
         3 -11.8750    201.6252     14.8325   6.5014017766e+01   3.2667743281e+01     3.210407     1.253575 -72.83  0.007946413    7.121    0.860
         4 -12.3449    219.5300     33.9868   6.8103372406e+01   2.5981288002e+01     3.313804    0.7423546 -48.22  0.008419763    5.995    0.833
         5 -12.5641    223.8897     23.6261   6.4961118000e+01   2.6178476015e+01     1.161581    0.8749803 -70.09  0.005999437    1.276    0.216
         6 -11.8209    178.4884     68.2615   8.3912152718e+01   3.1374925348e+01       1.7522    0.6871718 -47.54  0.005749092    2.983    0.665
         7 -11.7686    220.3534     12.1198   6.2392025848e+01   2.8323091660e+01     1.641581    0.3956305 -52.33  0.004290104    6.336    0.842
         8 -11.2774    232.9184     15.5663   6.2098280179e+01   2.4945740068e+01    0.4756252    0.3142863  44.03  0.001228998    1.899    0.473
         9 -10.2291    120.3857      9.1290   7.5538055666e+01   5.3706229982e+01    0.3722835    0.3342589  13.23   0.00118549    1.107    0.097
        10  -9.8958     15.8513      8.6675   1.1229655322e+02   7.1806156906e+01    0.2495185    0.1298982  -0.22  0.001347205    2.483    0.597
        11  -9.2778    176.1715      9.3360   6.6458814449e+01   3.9718823841e+01    0.4095687    0.1952758 -46.27  0.001756885    2.242    0.554
        12 -10.0049    172.5354      3.1784   6.5046781770e+01   4.1223793939e+01    0.5669889    0.3030626 -54.50  0.002340263    2.137    0.532
        13  -7.7190    150.2019      8.9295   7.0028713608e+01   4.6397254864e+01     0.168915    0.1094591 -23.47 0.0003654094    1.666    0.400
        14  -8.2313     47.3229      9.3410   9.7778355075e+01   6.7994750637e+01    0.1280589   0.07955421   1.70 0.0007050723    1.725    0.420
        15  -8.6607     58.9927      6.4985   9.1728498771e+01   6.6527035079e+01     0.174812   0.08523995  25.07 0.0005607214    2.397    0.583
        16  -9.4805    248.8577      2.4975   5.7804646205e+01   2.2699658066e+01    0.4148923     0.226468 -73.09  0.002165957    1.813    0.448
        17  -9.0173      7.0087    154.2511   1.4575403503e+02   4.1972031602e+01    0.1504151    0.1228592  77.51 0.0004699299    1.141    0.123
        18  -9.4029     56.2896    250.0308   1.4337232409e+02   1.8087423311e+01    0.1723236    0.1231403  50.87 0.0003452171    1.253    0.202
        19  -9.0526    124.3948    145.3928   1.1633766048e+02   2.8264602806e+01    0.2265278    0.2204194  89.72 0.0002863986    1.039    0.037
        20  -9.7704     67.4909    144.2476   1.3024070602e+02   3.7867416864e+01    0.4960064    0.2982525  60.46  0.001686938    1.829    0.453
        21  -9.2739    240.3065    142.4155   9.1832318130e+01   4.9384283222e+00    0.3091322    0.1773479  17.20   0.00127941    2.641    0.621
        22  -8.3730    189.5041    136.2301   9.9738745652e+01   1.6505774025e+01    0.2249415     0.190533  14.65 0.0004200459    1.270    0.213
        23  -8.1161    121.7873    130.2539   1.1373926168e+02   3.2090581855e+01    0.1861719    0.1671644 -21.92 0.0002685777    1.276    0.217
        24 -10.1688    235.5637    128.7773   8.9538577436e+01   8.0113732026e+00    0.2671483    0.2403998  39.49 0.0003396266    1.186    0.157
        25 -10.7275    243.2676    123.5132   8.7084893267e+01   7.2892540078e+00    0.4142198    0.1760374 -38.73  0.001699405    2.168    0.539
        26 -10.7973    239.1794    110.4540   8.4671327212e+01   1.0175110686e+01    0.4357269    0.2549732 -50.09  0.001534446    1.923    0.480
        27  -7.7153    201.6969    125.7072   9.4835242645e+01   1.5737375229e+01    0.1495177    0.1144757  10.47 0.0002047671    1.573    0.364
        28  -9.0995    167.7725    113.2778   9.8671605348e+01   2.5778203886e+01    0.3015779    0.2684624  85.77 0.0006532904    1.270    0.213
        29 -10.6831    186.5023    109.3679   9.3724925480e+01   2.2171319463e+01    0.5550886    0.2711626 -42.29  0.001465359    2.025    0.506
        30  -8.7152    204.1039    110.3474   9.0586164148e+01   1.7917187991e+01    0.3066367    0.1281044  45.25  0.001103935    2.500    0.600
        31 -11.6800    244.1168    101.1046   8.1704393376e+01   1.0600423216e+01    0.8168823    0.4029677 -28.16  0.003488071    1.999    0.500
        32 -11.4200    243.7628     86.2174   7.8180944308e+01   1.2956506266e+01     1.076723    0.3196751 -28.52  0.003302282    3.894    0.743
        33 -10.1017    240.5235     82.2434   7.7660775198e+01   1.4265255516e+01    0.3487367    0.2441501 -32.04  0.001684726    1.321    0.243
        34  -8.1084    168.3536     95.6587   9.3824102086e+01   2.9034656951e+01    0.1648366     0.122811 -76.73 0.0007041153    1.810    0.448
        35 -10.3433    186.8233     92.1759   8.9088464291e+01   2.5216856198e+01    0.4337436    0.2677807 -42.50   0.00187581    1.597    0.374
        36  -8.4125    150.3934     92.8146   9.7061485249e+01   3.3832264825e+01    0.3025576    0.1958983  33.40 0.0008988004    1.810    0.448
        37  -7.8863    136.0802     91.1764   1.0006586906e+02   3.7432182649e+01    0.2078561     0.179906  85.53  0.000609394    1.347    0.258
        38 -11.1636    164.7804     52.9127   8.1874531110e+01   3.7263307595e+01     1.143921    0.6176634 -74.10  0.003366124    4.539    0.780
        39  -9.3602    159.8403     83.8767   9.2327094865e+01   3.3280366196e+01    0.3249153    0.2554782  10.29  0.000942233    1.594    0.373
        40  -9.8378    163.4607     80.3985   9.0519345210e+01   3.3031819462e+01    0.3109833    0.2980723  14.81  0.001071451    1.077    0.072
        41  -9.4324    144.3690     80.7295   9.4946543456e+01   3.7559043383e+01    0.3390204    0.2601868 -44.27 0.0009574111    1.305    0.234
        42 -10.4556    238.2293     77.0130   7.6689653264e+01   1.5562998466e+01    0.4870397    0.3219336  33.93  0.002323126    1.940    0.485
        43  -8.8243    232.1647     79.6000   7.8178300042e+01   1.6538782575e+01    0.2924602    0.1747444  60.13  0.001357908    1.803    0.445
        44  -9.4571    239.7250     71.6492   7.5167216746e+01   1.6025392825e+01    0.2934101    0.2274763  19.05  0.001531427    1.668    0.400
        45 -10.7953    159.9032     69.5092   8.8014899193e+01   3.5816834504e+01     0.383108    0.2846795 -17.60 0.0006868761    1.536    0.349
        46  -8.0097    166.3244    249.2994   1.2434172834e+02   2.2294485022e+00    0.1138983   0.07929268  20.45 0.0004105752    1.631    0.387
        47  -9.5314     75.3013    248.8720   1.4013720566e+02   1.5839903600e+01    0.1798821     0.111973  73.99  0.001210571    1.481    0.325
        48  -9.3077    246.2072    248.6092   1.1069467324e+02  -9.7154774500e+00    0.1615856   0.07814804  29.61 0.0008506593    1.666    0.400
        49  -9.3642    225.5608    245.7899   1.1365597158e+02  -6.4724464339e+00    0.1322363    0.1065933 -36.81 0.0009492843    1.693    0.409
        50  -8.6901     81.6695    247.2984   1.3893323373e+02   1.5239893113e+01    0.1174682   0.06384984  63.48 0.0005400928    1.642    0.391
        51 -10.4145    207.6185     60.9723   7.6914148146e+01   2.5209923327e+01     1.252405    0.5423921 -62.37  0.003148045    6.107    0.836
        52 -10.7566    196.9569     49.0827   7.5218423393e+01   2.9607985028e+01    0.6185408    0.4075205 -74.25 0.0006641466    1.898    0.473
        53  -8.3217    190.1056     66.4374   8.1279782767e+01   2.8743377220e+01    0.2113156    0.1934514 -37.37 0.0003445685    1.083    0.077
        54  -9.6906    230.4841     62.3644   7.4058757244e+01   1.9499031264e+01    0.5215083    0.2542947 -54.22  0.001943277    2.392    0.582
        55  -9.2333    144.3163     59.1978   8.8192713848e+01   4.1374189691e+01     0.341662    0.2525149 -55.94 0.0008796234    1.555    0.357
        56  -8.0767     87.1024     58.6735   1.0368164424e+02   5.3758989407e+01    0.2043738    0.1756777  68.53  0.000772741    1.503    0.335
        57  -8.9290    130.9803     54.6124   8.9818942198e+01   4.5307665133e+01    0.2580863    0.2066791 -42.39 0.0003342118    1.287    0.223
        58  -9.5895    245.4846     53.5887   7.0053313630e+01   1.7299105445e+01    0.2309519    0.2260077 -19.52 0.0001646395    1.158    0.137
        59 -11.7224    179.2445     46.7817   7.7373022893e+01   3.4458051137e+01    0.6245657    0.4321643  -6.78  0.002298274    1.862    0.463
        60  -9.6821    186.1176     59.0673   7.9843794965e+01   3.0896424353e+01     0.277482    0.2716738  25.11 0.0003402416    1.074    0.069
        61  -8.4859    249.6570     48.9668   6.8488063099e+01   1.6993838265e+01    0.1985944     0.155154 -42.99  0.001143316    1.137    0.120
        62 -11.3101      2.9956    234.1246   1.5104191724e+02   2.6620156186e+01    0.6008215    0.2400155 -82.46  0.003810954    2.129    0.530
        63 -10.2124    203.3163     43.1905   7.2642283962e+01   2.8812253806e+01    0.3964928    0.2809183  29.22  0.001470844    1.821    0.451
        64  -9.4855    186.8900     39.0296   7.3837194418e+01   3.3550308838e+01     0.829762    0.3332394 -51.25  0.002368437    3.200    0.687
        65 -10.2517    144.7543     40.9768   8.2013901295e+01   4.4039015478e+01    0.3587317    0.2125669  80.41  0.001411529    2.483    0.597
        66  -9.3098    132.7127     39.2956   8.4072342228e+01   4.7216730006e+01    0.3527603    0.1976436 -67.95  0.001149498    4.022    0.751
        67  -8.0746    168.7917     36.8052   7.6075301485e+01   3.8503267440e+01    0.2020929    0.1650242 -64.93 0.0005751289    1.327    0.246
        68  -8.7823    246.1465     36.0676   6.5781367665e+01   1.9453901549e+01    0.2268609    0.1813705  88.36 0.0007583255    1.256    0.204
        69 -10.5241    141.0052     31.0342   7.9357900198e+01   4.6289430379e+01    0.2483237    0.2261364 -15.42  0.001402624    1.139    0.122
        70  -8.3403     72.5021     31.9985   9.8467905107e+01   6.0845366376e+01    0.1782118    0.1080477 -54.16 0.0008102635    2.517    0.603
        71  -8.7747    123.4678    238.7455   1.3073991369e+02   1.0516588226e+01    0.1367494     0.113323 -43.08 0.0009408241    1.625    0.385
        72  -8.5704    192.7583     22.9770   6.8349991204e+01   3.4018726545e+01    0.3817303    0.1783776 -60.46  0.001416527    2.897    0.655
        73  -8.7355     36.5948     20.3175   1.0768045301e+02   6.7837845194e+01    0.2301446    0.1011132 -44.32  0.001137947    2.171    0.539
        74  -9.2614    178.5637     24.0468   7.0590607490e+01   3.7544811510e+01    0.5571424    0.2971354  54.32  0.002484118    1.770    0.435
        75  -9.9483    205.2802     63.9390   7.8083230861e+01   2.5341455951e+01     1.415088    0.6447373 -66.51  0.003078376    8.290    0.879
        76  -9.1352    236.3763    234.7485   1.1014367071e+02  -6.8527748953e+00    0.1527755   0.09649235 -13.73 0.0009550951    1.672    0.402
        77  -8.2170    115.8990     12.5339   7.7846139658e+01   5.4424995960e+01    0.2104597    0.1237803  57.04 0.0008357423    1.577    0.366
        78  -9.0185     72.4679    235.5137   1.3956108517e+02   1.8465860601e+01    0.1141523   0.08577631  64.34 8.526028e-05    1.005    0.005
        79  -8.4525     34.2076    228.0875   1.4565233516e+02   2.4483812137e+01    0.1469342    0.1175934  80.25 0.0004064109    1.193    0.162
        80 -12.6178     22.2056    213.0755   1.4681394901e+02   2.8549358145e+01    0.7386881    0.4534599  80.38  0.002697643    1.278    0.218
        81 -12.8443     40.9848    196.0287   1.4212662314e+02   2.9855766271e+01    0.9197422    0.7933353 -56.73  0.006699438    1.560    0.359
        82 -11.2920     53.4055    184.1908   1.3853187606e+02   3.0831056679e+01    0.4827459    0.3295183 -81.20  0.003013924    1.304    0.233
        83  -9.8588    178.6529    199.7925   1.1476415124e+02   7.4693291038e+00    0.2231729    0.1923165  36.62 0.0003904342    1.027    0.027
        84  -8.2432    101.0131    175.8667   1.2715272828e+02   2.5806842843e+01    0.1672017    0.1495252  70.75   0.00102215    1.023    0.023
