#   1 NUMBER                 Running object number                                     
#   2 MAG_AUTO               Kron-like elliptical aperture magnitude                    [mag]
#   3 X_IMAGE                Object position along x                                    [pixel]
#   4 Y_IMAGE                Object position along y                                    [pixel]
#   5 X_WORLD                Barycenter position along world x axis                     [deg]
#   6 Y_WORLD                Barycenter position along world y axis                     [deg]
#   7 A_WORLD                Profile RMS along major axis (world units)                 [deg]
#   8 B_WORLD                Profile RMS along minor axis (world units)                 [deg]
#   9 THETA_WORLD            Position angle (CCW/world-x)                               [deg]
#  10 FWHM_WORLD             FWHM assuming a gaussian core                              [deg]
#  11 ELONGATION             A_IMAGE/B_IMAGE                                           
#  12 ELLIPTICITY            1 - B_IMAGE/A_IMAGE                                       
         1 -10.6656    246.6158     45.7647   7.0085028347e+01   1.8021341850e+01    0.4004743    0.1388527 -21.07  0.001273228    4.134    0.758
         2  -8.8300    202.1684    250.5890   1.2062382780e+02  -2.4698637934e+00    0.1705016   0.08169633  32.78 0.0009513225    1.720    0.419
         3  -9.9012    100.1730    247.5362   1.3762212204e+02   1.3239240511e+01    0.2629827     0.134583  61.20  0.001323186    1.930    0.482
         4  -9.1598     96.2510    244.5569   1.3801295436e+02   1.4237112891e+01    0.2000729    0.1181622  44.31 0.0008780563    1.390    0.280
         5  -9.2586     89.7647    250.1450   1.3957248675e+02   1.4259843000e+01    0.2754094    0.1105354  47.37  0.001565449    1.886    0.470
         6  -9.7742     74.4765    250.2937   1.4206748879e+02   1.6228749957e+01    0.3560121   0.09659823  44.53  0.001765339    2.670    0.625
         7 -10.6428     65.1556    248.9296   1.4346086827e+02   1.7603465918e+01    0.4704593    0.1646114  46.23  0.002662254    2.125    0.529
         8 -10.1301     50.6429    249.8460   1.4580259236e+02   1.9186552550e+01    0.3835557     0.149952  40.88  0.002295586    2.197    0.545
         9 -10.3145     34.5445    248.6550   1.4819956622e+02   2.1168545165e+01    0.4927905    0.2314829  58.39  0.003410241    1.592    0.372
        10 -11.1298     12.8250    216.6277   1.4990863162e+02   2.8744570572e+01    0.7869441   0.09330264  48.30  0.003440472    4.199    0.762
        11 -11.1446     13.1178    231.1577   1.5058456628e+02   2.6208817693e+01    0.5626293    0.4836775  -5.46  0.004616813    2.381    0.580
        12 -12.0149      5.8784    223.8087   1.5136212991e+02   2.8132446114e+01     1.617331    0.4097543  56.55  0.008400932    3.066    0.674
        13  -9.7557      4.2750    248.9592   1.5264709358e+02   2.4146701107e+01    0.2574403   0.09404867  44.41   0.00174331    2.109    0.526
        14 -10.6303      3.5509    242.8237   1.5251411877e+02   2.5186986610e+01    0.4422163    0.1998889  71.78  0.003152977    1.705    0.413
        15 -10.2488     19.4687    249.3361   1.5047534796e+02   2.2624261227e+01    0.3667839    0.1290151  50.84  0.002366702    1.998    0.499
        16 -10.4201     11.1701    248.5387   1.5164538533e+02   2.3562879181e+01    0.3781467    0.2333115  46.68  0.003118662    1.494    0.331
        17 -11.0253     21.4013    242.9118   1.4988814401e+02   2.3456234375e+01    0.5677601    0.3104709  67.01   0.00429162    1.361    0.265
        18 -11.3198     25.8021    240.4613   1.4909917243e+02   2.3406923812e+01    0.9337736    0.2838929  65.24  0.004482504    3.601    0.722
        19 -10.4086     14.6642    240.7975   1.5079741571e+02   2.4465254266e+01    0.4284069    0.1690815  67.29  0.002693168    2.121    0.529
        20 -11.0816      7.4591    236.9218   1.5170005749e+02   2.5783890468e+01    0.6673601    0.2558988  68.19  0.004177175    2.171    0.539
        21  -8.7885    146.0571    249.7004   1.3006001888e+02   6.2292403661e+00    0.1916419   0.06412007  53.85 0.0007036506    4.269    0.766
        22  -9.2050    110.3952    249.2357   1.3606507380e+02   1.1550177638e+01    0.2037126   0.09894768  54.65 0.0007960884    1.796    0.443
        23  -8.9615    211.5323    245.8536   1.1838489298e+02  -3.3601237537e+00    0.2395727    0.1154387  28.18  0.001299992    1.927    0.481
        24  -8.7802    198.1146    245.5665   1.2061528490e+02  -1.2764949181e+00    0.2136159    0.1254505  13.27  0.001182268    2.236    0.553
        25  -9.5952    121.4434    248.4828   1.3412532168e+02   1.0069171340e+01    0.2053027   0.07606842  49.50 0.0007197174    2.237    0.553
        26  -9.5795     83.9193    244.8276   1.4009739393e+02   1.5858010743e+01    0.3408308    0.1496395  52.57  0.001833428    1.827    0.453
        27  -9.8369     44.7039    244.8553   1.4642295366e+02   2.0657325971e+01    0.3305961    0.1535608  52.13  0.002202317    1.616    0.381
        28  -9.9916    245.2113    245.3973   1.1276217655e+02  -8.2554975206e+00    0.1543381   0.08659205  41.56 0.0009575281    1.701    0.412
        29  -9.6691     26.0274    249.1084   1.4949836946e+02   2.1993839884e+01    0.2619796    0.1036468  52.16   0.00104843    1.818    0.450
        30  -9.0385    176.8932    243.6286   1.2399911359e+02   2.2623165991e+00    0.2757606    0.1131189  34.48  0.001342697    2.227    0.551
        31 -10.6990    233.7222    243.6096   1.1436042663e+02  -6.4260748070e+00    0.3227664    0.1669423  12.89  0.001715215    2.402    0.584
        32  -8.6219    110.6155    243.7346   1.3549731283e+02   1.2342462194e+01    0.1039401   0.07973193  24.77 0.0003165218    1.693    0.409
        33 -10.4010    226.1437    240.8289   1.1519397538e+02  -5.0132224670e+00    0.2792404    0.1733025  16.11   0.00176146    1.528    0.345
        34  -9.9698     72.6888    240.0443   1.4157781774e+02   1.8077827894e+01    0.4110989    0.1745812  53.44  0.002375456    1.910    0.476
        35 -10.0836     53.4407    240.0123   1.4472824092e+02   2.0438442580e+01    0.3787525    0.1849803  68.88  0.002281783    1.933    0.483
        36  -9.0260    105.2335    241.6272   1.3621425167e+02   1.3434076035e+01    0.1555729   0.08922175  37.77 0.0009273813    1.641    0.391
        37  -9.2799     37.5427    240.6648   1.4729469610e+02   2.2130550578e+01    0.2238518    0.1116583  60.38  0.001214225    1.553    0.356
        38  -8.9395    219.0128    245.3196   1.1705371389e+02  -4.4287524960e+00    0.2088156    0.1328137   9.55  0.001319401    1.670    0.401
        39  -9.5068     81.8319    236.6167   1.3975936590e+02   1.7447661937e+01    0.3696644     0.150847  57.92  0.001911633    2.395    0.583
        40  -9.4421     94.3251    236.0517   1.3756459897e+02   1.5846170366e+01    0.3335174     0.123502  51.76   0.00166455    2.331    0.571
        41  -8.1877    195.3242    236.3436   1.1978705504e+02   2.6799549631e-01     0.121384   0.07847026  15.34 0.0004030028    1.735    0.424
        42 -10.4069     62.5552    232.1961   1.4266686650e+02   2.0642549822e+01    0.5503181     0.248735  65.17  0.003062303    2.256    0.557
        43  -9.7867     44.7621    237.2151   1.4594225382e+02   2.1898277627e+01    0.3611837    0.1415356  63.20  0.001998015    2.428    0.588
        44  -8.4345     39.2040    235.3755   1.4671844190e+02   2.2823227588e+01    0.1497199   0.06660529  50.86 0.0009487835    1.728    0.421
        45  -9.4961    232.0182    234.2897   1.1320181046e+02  -5.1887046923e+00    0.1729746    0.1205739  28.03  0.001165179    1.116    0.104
        46  -9.3679     27.0440    232.0052   1.4845628165e+02   2.4683879699e+01    0.2747414    0.1009089  67.64  0.001469859    2.732    0.634
        47  -9.5495     22.5852    228.3947   1.4896581768e+02   2.5750561393e+01    0.3284287    0.1120481  48.06  0.001953207    2.203    0.546
        48  -9.4392     47.8330    229.7356   1.4494958575e+02   2.2807884134e+01    0.3301888    0.1382886  60.15  0.001888744    2.118    0.528
        49  -9.4811     40.0349    229.2669   1.4620363526e+02   2.3764592219e+01    0.2436626    0.1328281  58.14  0.001247733    1.436    0.304
        50  -8.8005    217.5346    229.1494   1.1484911954e+02  -2.3771985806e+00    0.2305218    0.1065507  26.89  0.001121911    2.239    0.553
        51  -9.4420    236.2634    226.8594   1.1129729132e+02  -5.0158620015e+00    0.2395414    0.1204648  20.76  0.001238303    2.118    0.528
        52  -9.5737     74.3142    223.3479   1.3991067545e+02   2.0669711499e+01    0.3791801    0.1541412  57.31  0.001918418    2.392    0.582
        53  -9.0123     27.0036    225.0065   1.4806858636e+02   2.5885139067e+01    0.2487541   0.07536174  55.25  0.001297568    2.694    0.629
        54  -9.6422    248.9860    223.9678   1.0870554321e+02  -6.6113817619e+00    0.1996419    0.1129088  13.60  0.001139814    1.772    0.436
        55  -8.7345     94.8476    227.6206   1.3666368412e+02   1.7157624760e+01    0.1736784   0.08159413  50.17  0.000953857    1.759    0.432
        56  -9.1777     31.6509    229.3754   1.4757184051e+02   2.4650095061e+01    0.2281798    0.1099442  64.12  0.001274145    1.710    0.415
        57  -8.3040     33.6517    224.2861   1.4693888463e+02   2.5315745866e+01    0.1111102   0.05574474  64.24 0.0004987394    1.655    0.396
        58  -9.5309     53.7927    222.0297   1.4338735775e+02   2.3450127733e+01    0.3466569    0.1538677  55.57  0.002013956    1.901    0.474
        59  -9.7302     16.4501    223.4754   1.4968162545e+02   2.7200838833e+01    0.3369865   0.06969371  37.55  0.001600824    3.939    0.746
        60  -8.8235     62.9673    220.9486   1.4170560400e+02   2.2530655391e+01    0.1897388    0.1022151  66.50  0.001139865    1.746    0.427
        61  -9.5358     44.7407    220.5925   1.4483457868e+02   2.4749370481e+01    0.2457193    0.1424184  61.52  0.001275494    1.399    0.285
        62  -9.3231      5.3051    229.9740   1.5172457996e+02   2.7136932647e+01    0.2688479    0.1099715  51.41  0.001235736    1.834    0.455
        63  -8.5874    232.3246    219.3497   1.1071717857e+02  -3.5529923843e+00     0.128067   0.07707048  12.06  0.000704886    1.752    0.429
        64  -9.7684    240.9852    217.9943   1.0902224832e+02  -4.7437262869e+00    0.2028924     0.118628  13.36  0.001138491    1.755    0.430
        65  -9.5167     33.6328    216.2675   1.4643128354e+02   2.6734798598e+01    0.2695203    0.1470064  77.92  0.001606493    1.621    0.383
        66 -10.8440    249.9700    212.7310   1.0661268202e+02  -5.5253756631e+00    0.4539302    0.1920437 -19.37  0.002097246    2.910    0.656
        67  -9.2540     23.8715    217.1203   1.4812315212e+02   2.7587598246e+01    0.1666975    0.1033334  70.85 0.0008203174    1.246    0.198
        68  -9.6001      2.0848    212.0913   1.5141956159e+02   3.0518216885e+01    0.3271473    0.1258518  64.96  0.001759428    2.186    0.542
        69  -8.6668     37.2947    214.3200   1.4567410114e+02   2.6693829780e+01    0.0907169    0.0780716 -59.58 0.0004207615    1.611    0.379
        70  -8.6947     28.6283    214.2749   1.4715217065e+02   2.7614872303e+01    0.1126801   0.05620391  63.66 0.0005414187    1.684    0.406
        71  -9.0466     44.5483    212.8283   1.4430507162e+02   2.6164878414e+01    0.2162088     0.100237  54.41 0.0009018307    1.810    0.447
        72  -8.7304     68.1856    211.7898   1.3997567471e+02   2.3517793014e+01    0.2086544   0.09190114  67.30 0.0009636394    2.907    0.656
        73  -8.9698     56.7968    211.8893   1.4205237589e+02   2.4910886239e+01    0.2316861    0.1022931  59.07  0.001243242    2.134    0.531
        74  -8.7578     12.8039    211.1940   1.4962365936e+02   2.9716810533e+01    0.1429869    0.1026472  66.62 0.0005780005    1.109    0.098
        75  -9.6878     21.7997    210.9255   1.4810215148e+02   2.8906537278e+01    0.2207156    0.1157234  48.20  0.001306156    1.637    0.389
        76  -8.9844     35.5264    208.0234   1.4554318228e+02   2.8034312445e+01    0.2140442    0.1092532  57.09  0.001308679    1.644    0.392
        77  -8.4552     50.9256    206.4476   1.4266459515e+02   2.6611009558e+01    0.1677488   0.06199584  56.04 0.0008078866    2.581    0.613
        78  -8.7839     17.7057    206.3929   1.4852754073e+02   3.0130031189e+01    0.1898331   0.09303279  50.78  0.001247751    1.706    0.414
        79  -9.8016     12.1811    203.5128   1.4930302116e+02   3.1175013602e+01    0.2973028    0.1486542  61.61  0.001404873    1.640    0.390
        80  -9.3588      5.8780    205.0319   1.5044886336e+02   3.1459866819e+01    0.2202133    0.1199239  57.00  0.001233773    1.489    0.328
        81  -8.6018      1.4676    204.9685   1.5117813144e+02   3.1852400613e+01    0.1496844   0.07618885 -84.43 0.0007499455    1.577    0.366
        82  -9.5133    235.6895    202.1411   1.0713399936e+02  -2.0147071561e+00    0.2679328    0.1388902  -4.68  0.001160348    3.007    0.667
        83 -10.2381    249.4946    201.0104   1.0458727333e+02  -4.0956153514e+00    0.2649279    0.1094126 -24.41  0.001223332    2.613    0.617
        84  -7.9536     60.6777    202.3599   1.4050428653e+02   2.6211643150e+01    0.1246824    0.0697614  69.60 0.0005190418    1.774    0.436
        85  -8.3903     30.6681    202.2886   1.4600028015e+02   2.9611270971e+01    0.1136984   0.06084749  66.27 0.0004444317    1.624    0.384
        86  -8.8249     18.1563    200.9074   1.4811758518e+02   3.1104346466e+01    0.1686888    0.1062047  69.73 0.0008952469    1.256    0.204
        87  -8.8583     23.1645    198.1838   1.4705817882e+02   3.1136669470e+01    0.1524304   0.09420643  66.26  0.000920858    1.323    0.244
        88  -9.3099     13.7729    196.2825   1.4860238159e+02   3.2380552313e+01    0.2064667    0.1126618  62.58  0.001308753    1.522    0.343
        89  -9.2920      8.8356    197.2077   1.4951998445e+02   3.2648111618e+01    0.1322839    0.1035957 -76.49 0.0007791217    1.356    0.262
        90  -9.6343      3.2056    196.3736   1.5044560842e+02   3.3289529725e+01     0.250504    0.1295869  61.48  0.001335507    1.580    0.367
        91  -9.4175     19.2098    194.5470   1.4752550704e+02   3.2207077981e+01    0.1799691    0.1237677  63.73  0.001335173    1.205    0.170
        92  -8.8257     38.9730    193.7671   1.4383795454e+02   3.0365355270e+01    0.1932214   0.09174296  61.66  0.001076586    1.994    0.499
        93 -11.1666    246.7641    191.8817   1.0334277588e+02  -2.5456645550e+00    0.3752179    0.2240795  -6.58  0.002006461    1.822    0.451
        94 -10.1807     11.4228    191.0314   1.4869827447e+02   3.3590418809e+01     0.189345    0.1327769  38.41  0.001420924    1.645    0.392
        95  -9.8207     16.5317    190.8240   1.4776469733e+02   3.3170009464e+01    0.2104235    0.1395669  22.68  0.001428961    2.241    0.554
        96  -8.8090      6.6706    190.3381   1.4950380418e+02   3.4135674284e+01    0.1463894   0.07817706  56.52 0.0005265634    1.595    0.373
        97  -9.8824      3.1546    188.0656   1.4999731787e+02   3.4864862996e+01    0.2049006    0.1517672  54.69  0.001105683    1.329    0.248
        98  -8.0898     32.6723    190.2955   1.4474521861e+02   3.1703958933e+01    0.1165237   0.06459887  67.62 0.0005011276    1.630    0.386
        99  -9.6327     23.1003    187.6823   1.4634108405e+02   3.3164325013e+01    0.1790198    0.1034941  59.12  0.001179832    1.503    0.335
       100 -10.4261    243.4163    186.3276   1.0284719908e+02  -1.2869694710e+00    0.2942355    0.1140155 -33.49  0.001301722    2.591    0.614
       101 -10.9766    243.1849    181.5535   1.0195644141e+02  -6.2571018105e-01    0.3613066    0.2036281   1.69   0.00167727    2.355    0.575
       102  -8.2287     36.4763    185.9839   1.4367165580e+02   3.2158016863e+01    0.1611398   0.07521323  79.65 0.0008083795    2.414    0.586
       103  -8.9733     15.4568    186.4990   1.4767511270e+02   3.4105509834e+01    0.1083349   0.07966881  80.43 9.800363e-05    1.022    0.022
       104  -9.3326      9.1632    186.6546   1.4883527623e+02   3.4629924587e+01    0.1202466   0.09674595  32.22 0.0008062246    1.662    0.398
       105  -9.9691    249.3029    184.5286   1.0150410215e+02  -2.0366830401e+00     0.299725    0.1581231 -18.88  0.001502437    1.979    0.495
       106  -9.6373      8.9843    182.9754   1.4863733109e+02   3.5360277622e+01    0.1298499   0.09708764  80.09  0.000713103    1.027    0.026
       107  -9.3585      4.8324    182.7951   1.4938691318e+02   3.5743082339e+01    0.1500722   0.09163705  69.15  0.001028478    1.337    0.252
       108  -9.2566     16.0997    180.4819   1.4714222965e+02   3.5229947041e+01    0.1444604    0.0956432  44.26  0.000745354    1.556    0.357
       109  -9.0855     22.4160    179.2489   1.4584480321e+02   3.4897292717e+01    0.1511313    0.0837179  89.50 0.0005910647    1.557    0.358
       110  -9.7682    101.0012    175.9684   1.2923972359e+02   2.5810186103e+01    0.1814872    0.1621821  71.80  0.001157298    1.008    0.008
       111  -9.1603     28.4844    185.4811   1.4516226156e+02   3.3072851094e+01    0.1128058    0.0837712  78.18 7.611646e-05    1.062    0.058
       112  -9.6872      4.6391    173.8907   1.4886714366e+02   3.7509779826e+01    0.2102105   0.09787931  53.03  0.001298945    1.945    0.486
       113  -9.1654      5.2469    169.3869   1.4845369854e+02   3.8361968034e+01    0.1381569   0.08193543  51.31 0.0009422822    1.601    0.375
       114  -9.0124      6.3374    165.3203   1.4795971119e+02   3.9097876827e+01    0.1023746   0.07062981 -54.62 0.0007049941    1.709    0.415
       115  -9.6914     14.2101    164.3716   1.4631442754e+02   3.8648935149e+01    0.1465728     0.084699  49.71 0.0009472657    1.678    0.404
       116 -10.4418    247.3515    162.5304   9.7391734846e+01   1.2148513641e+00    0.2645299    0.1546293 -23.75  0.001352982    1.631    0.387
       117  -9.9635    246.2942    156.5453   9.6306011016e+01   2.2370800988e+00    0.2449448    0.1480558  -9.22 0.0009385534    1.856    0.461
       118  -9.4119      2.4003    152.8100   1.4784880757e+02   4.1965535843e+01    0.1579392   0.07563462 -68.44 0.0009501451    1.688    0.407
       119 -10.1312    249.9317    150.8462   9.4481091522e+01   2.3788922817e+00    0.3028353    0.1738304 -33.02  0.001524447    1.653    0.395
       120  -9.3014     14.6654    149.6760   1.4498958210e+02   4.1681402113e+01    0.1098227   0.07321046 -51.19 0.0007050916    1.711    0.416
       121  -9.3559    243.8112    148.0496   9.4888791746e+01   3.9049695535e+00    0.2272429    0.1417312  -3.49 0.0009185286    1.902    0.474
       122  -9.5659    243.4859    139.4982   9.3051537124e+01   5.2136893458e+00    0.2859445    0.1254227 -30.85  0.001202859    2.144    0.534
       123 -10.7699    248.0563    130.3033   9.0230543572e+01   5.6850496467e+00    0.7706171    0.1824059 -35.42  0.002471272    3.722    0.731
       124  -9.1643    232.2430    132.9785   9.3471573216e+01   8.4038724293e+00    0.4864026    0.1708761 -43.06  0.001674198    3.280    0.695
       125  -9.1579    242.2158    133.5429   9.1918290663e+01   6.3405237442e+00    0.2767158    0.1791843 -29.27   0.00140703    1.431    0.301
       126 -10.0601    238.9274    124.1753   9.0301675645e+01   8.4030191943e+00    0.5968405    0.2399656 -40.14  0.002327513    2.476    0.596
       127 -10.1077    247.2692    119.0903   8.7773240614e+01   7.4923584695e+00    0.3910249     0.231029 -38.82  0.001793196    1.639    0.390
       128  -9.5393    247.6376    113.0943   8.6311653658e+01   8.3067934002e+00    0.4004725    0.1360711 -36.54  0.001484524    2.636    0.621
       129  -9.2981    230.8100    114.9115   8.9451433133e+01   1.1509638329e+01    0.3456089    0.1730781 -38.62  0.001470312    1.920    0.479
       130  -9.6505    240.8909    109.4579   8.6499148357e+01   1.0232620439e+01    0.4297565    0.2216971 -32.13  0.001907688    1.776    0.437
       131  -9.5844    247.6918    105.1302   8.4417083877e+01   9.4743626143e+00    0.6216154   0.06159114 -36.15  0.001455219    6.480    0.846
       132  -8.7606    230.4970    104.0200   8.6843391799e+01   1.3275347760e+01     0.231059    0.1339305 -31.27  0.001041153    1.614    0.380
       133  -9.8379    248.8707     98.0890   8.2558978089e+01   1.0267397099e+01    0.3732561    0.1215534 -38.11   0.00134868    2.739    0.635
       134  -9.5268    242.8474     98.5327   8.3559427956e+01   1.1463223029e+01    0.2946005    0.1620226 -44.33  0.001314365    1.875    0.467
       135 -10.3427    249.9879     81.8213   7.8475092153e+01   1.2386436678e+01    0.5339423    0.1192087 -34.71  0.001679669    3.596    0.722
       136 -10.6125    248.5090     73.1304   7.6556072798e+01   1.3932397336e+01    0.3705445    0.2008476 -17.07  0.001585474    2.215    0.548
       137 -10.2326    250.2823     56.8171   7.2357211117e+01   1.5771587835e+01    0.3287532    0.1166294 -27.49  0.001217002    2.787    0.641
