#   1 NUMBER                 Running object number                                     
#   2 MAG_AUTO               Kron-like elliptical aperture magnitude                    [mag]
#   3 X_IMAGE                Object position along x                                    [pixel]
#   4 Y_IMAGE                Object position along y                                    [pixel]
#   5 X_WORLD                Barycenter position along world x axis                     [deg]
#   6 Y_WORLD                Barycenter position along world y axis                     [deg]
#   7 A_WORLD                Profile RMS along major axis (world units)                 [deg]
#   8 B_WORLD                Profile RMS along minor axis (world units)                 [deg]
#   9 THETA_WORLD            Position angle (CCW/world-x)                               [deg]
#  10 FWHM_WORLD             FWHM assuming a gaussian core                              [deg]
#  11 ELONGATION             A_IMAGE/B_IMAGE                                           
#  12 ELLIPTICITY            1 - B_IMAGE/A_IMAGE                                       
         1 -14.8956      6.3957     71.3555   1.0303639044e+02   6.1626935894e+01      1.28497    0.7166427 -55.96  0.005565285    1.450    0.310
         2 -14.6855    166.6984     29.1220   3.9082403822e+01   3.9929225179e+01     1.032473    0.7919096  73.57  0.003741775    1.170    0.146
         3 -14.8759    147.3570     29.2244   4.2037961994e+01   4.4447653012e+01     1.490952    0.8913951  54.82  0.007760767    1.519    0.342
         4 -13.1440    137.9085     21.9300   4.1465048397e+01   4.7451420725e+01     0.795924    0.3032473  65.36   0.00252711    2.357    0.576
         5 -13.2380    132.2184     32.8886   4.5855611056e+01   4.7579872298e+01    0.5793125    0.5502463  36.34  0.002014215    1.113    0.101
         6 -13.8665    121.9999     37.2453   4.9368902574e+01   4.9425315729e+01    0.9862865    0.4545557  41.52  0.002745991    2.297    0.565
         7 -14.2013    189.1839     26.1877   3.5540953986e+01   3.5125646987e+01     2.632762    0.9908449 -65.02  0.008179606    5.466    0.817
         8 -14.1779    187.6931     12.1032   3.2385405092e+01   3.6969522913e+01     1.285618    0.5517395 -53.90   0.00617213    2.379    0.580
         9 -13.1280      8.0440      2.8488   7.7426100888e+01   7.3814424028e+01    0.6455585    0.4164697  36.46  0.003100315    2.048    0.512
        10 -13.5052      2.8016     10.5947   8.4636291722e+01   7.3237699356e+01    0.7048419    0.4428977 -44.06  0.004641254    1.732    0.423
        11 -15.9343     12.8935     21.3396   8.3577029638e+01   7.0731872527e+01     1.905132     1.025162 -22.37  0.009409938    1.705    0.413
        12 -11.4172    232.8437      1.8900   2.6699142445e+01   2.8559414516e+01    0.3689574    0.1764524  64.11  0.001898077    2.160    0.537
        13 -14.5701    216.7192     14.0337   3.0230931685e+01   3.0533113083e+01      1.30614    0.8826712 -45.67  0.006793219    1.395    0.283
        14 -12.6323    223.7191     20.8251   3.1054537961e+01   2.8347425627e+01    0.4123926    0.2934476 -78.73  0.002229417    1.196    0.164
        15 -12.3273    224.7449      4.6566   2.7755629809e+01   2.9879022317e+01    0.3768089    0.2269306  46.90  0.001862909    2.508    0.601
        16 -11.7269     59.8762     16.6616   5.9271556557e+01   6.4758315969e+01    0.3203383     0.301518  72.52  0.002196566    1.536    0.349
        17 -12.7112    120.8110     26.3149   4.6047348501e+01   5.0966442020e+01    0.6596594    0.3720951  48.39  0.002803865    1.588    0.370
        18 -11.7036     46.4844     20.9133   6.6547181752e+01   6.6528316778e+01    0.3748337    0.2502677  19.89  0.001304308    1.331    0.249
        19 -15.0755     99.0206     11.6642   4.5710794218e+01   5.7310680134e+01     1.374228    0.7194326  58.82  0.004829421    1.634    0.388
        20 -12.4639     85.2778     14.3299   5.0178832847e+01   6.0021090610e+01    0.4137734    0.3247779  11.88  0.002073601    1.309    0.236
        21 -12.2766     70.0368     15.9922   5.5439604911e+01   6.2930284516e+01    0.4018655    0.3247478  60.42  0.002132899    1.468    0.319
        22 -11.4819     46.8059     13.1405   6.2800400051e+01   6.7392079485e+01    0.2705655    0.2312739  37.80  0.001327726    1.363    0.266
        23 -13.8519     41.6215      4.6925   6.0881968121e+01   6.9117045063e+01     0.710012    0.4746318  14.39  0.003513703    1.317    0.241
        24 -11.3875    123.3713     11.7607   4.0822231432e+01   5.1801662597e+01    0.2195338    0.1777887  53.36 0.0003067913    1.094    0.086
        25 -11.0317     75.3538     10.2335   5.1340937153e+01   6.2434747596e+01    0.3207911    0.2119986 -38.45  0.001864597    1.893    0.472
        26 -11.9776    152.5403      8.6838   3.5485111748e+01   4.5304375775e+01    0.3953853    0.2310695  78.88  0.001540236    1.569    0.363
        27  -9.9093    145.3306      8.2828   3.6334260988e+01   4.7012628674e+01    0.1273114    0.0814288  46.02 0.0002473546    1.609    0.379
        28 -10.5509    133.6363      8.5913   3.8131916077e+01   4.9701595224e+01    0.2297452   0.09888609  62.69 0.0006706715    1.884    0.469
        29 -10.1276     59.7779      7.6032   5.5220725496e+01   6.5684662112e+01    0.1666668    0.1056539  54.86  0.000955809    1.658    0.397
        30 -11.6545    120.2185      3.6100   3.8740592508e+01   5.3199162088e+01    0.2990722    0.1769156  87.82  0.001542866    1.990    0.497
        31 -10.9427    117.0794      1.4989   3.8584443707e+01   5.4075112262e+01    0.2349534    0.1375821  77.12 0.0009215638    1.683    0.406
        32 -11.3203     61.1977      1.6893   5.2027638315e+01   6.5930311807e+01    0.3483967    0.1306306  52.38   0.00136502    2.244    0.554
        33 -13.9396     25.3519     14.0780   7.3362616223e+01   7.0398282984e+01    0.7290612    0.2945908  30.94  0.003679173    2.275    0.560
        34 -11.2868     81.7729      1.4082   4.5925384663e+01   6.1840734566e+01    0.4158182   0.09233012  58.63  0.001511876    3.513    0.715
        35 -13.1072     40.4674    195.1325   1.1062103376e+02   2.8246310006e+01    0.4833339    0.2659611  86.13  0.002162771    2.033    0.508
        36 -12.5536    107.6015    246.3461   1.0078819341e+02   8.1099771783e+00    0.6687013    0.5023434  80.25  0.003864462    1.683    0.406
        37 -12.9004     98.3879    238.6738   1.0190196046e+02   1.0928000472e+01    0.8229715    0.4304408  33.70    0.0040265    1.710    0.415
        38 -13.4989     91.7414    230.5549   1.0242803816e+02   1.3543092343e+01    0.6132429    0.5887839  66.99  0.003984866    1.084    0.077
        39 -11.6137     51.5673    248.6119   1.1295009073e+02   1.5053096789e+01    0.3498703    0.2179837 -87.00  0.002048116    1.685    0.407
        40 -10.2450     41.3414    250.3083   1.1515056733e+02   1.5904391617e+01    0.1064026    0.0916364 -26.84 0.0007043729    1.690    0.408
        41 -12.8197     28.3394    246.0661   1.1745300149e+02   1.8190563566e+01    0.4649049    0.3170215  67.53  0.003030406    1.241    0.194
        42 -12.4763      3.1899    249.1295   1.2242383490e+02   2.0079146186e+01    0.4712489    0.2762291  78.41  0.002815475    1.435    0.303
        43 -13.4444      9.4609    245.9877   1.2110281648e+02   2.0114449040e+01    0.7093543    0.3716783  63.40  0.003375662    1.600    0.375
        44 -10.9983      1.8616    159.0186   1.1703968762e+02   4.0604234237e+01    0.3137155    0.1569896 -77.66  0.001271655    1.664    0.399
        45 -11.9158     85.8808    152.9644   9.2046770729e+01   3.2897793561e+01    0.6039186     0.262741 -44.96  0.002176195    2.408    0.585
        46 -13.8815     74.5187    154.5009   9.5669629415e+01   3.4216446240e+01     1.034605    0.6654189  44.08  0.004035633    1.629    0.386
        47 -11.4414    110.3306    154.9291   8.5467909671e+01   2.8303017828e+01    0.5408604    0.2962559 -80.45  0.001468679    4.989    0.800
        48 -11.8008     55.4588    156.1489   1.0156159811e+02   3.6338303656e+01    0.4154656    0.2426056 -18.33  0.001619174    2.887    0.654
        49 -13.2538    246.4580    150.2877   5.5096100371e+01   4.3913898934e+00    0.6621834    0.4098401 -55.12  0.003431873    1.917    0.478
        50 -11.4685    103.0973    150.1211   8.6492063970e+01   3.0763286582e+01    0.4188585    0.2846639 -27.12  0.001705697    1.830    0.454
        51 -12.7441     60.5243    148.0388   9.8700284031e+01   3.7798972443e+01    0.4819995    0.3434987 -14.50   0.00227016    1.844    0.458
        52 -11.3224     38.1515    145.8834   1.0514936232e+02   4.0940099991e+01    0.2136539    0.1823943  86.65 0.0006244242    1.178    0.151
        53 -13.0070     22.3550    181.2696   1.1376564956e+02   3.3470318743e+01    0.5934923    0.3342124 -71.91   0.00215856    1.552    0.356
        54 -12.6007     45.2077    135.6100   1.0130207813e+02   4.2845832168e+01    0.5595388    0.3424784 -54.40  0.002688314    1.451    0.311
        55 -12.9913    246.3585    135.9083   5.2229834522e+01   6.8564360607e+00    0.4501529    0.3226011 -47.90  0.002647307    1.273    0.214
        56 -11.4796     12.5375    148.5258   1.1306640979e+02   4.2493271653e+01    0.2714211    0.1123201 -73.12  0.000790414    2.052    0.513
        57 -10.2882     10.9486    134.0253   1.1184892037e+02   4.6273461801e+01    0.1541852    0.1386181 -68.67 0.0005373007    1.074    0.069
        58 -11.7631    135.5278    132.9102   7.3634099652e+01   2.8743171419e+01    0.4580052     0.196481  51.67  0.001483981    2.965    0.663
        59 -10.0471     64.2996    132.6488   9.4626787602e+01   4.1261375771e+01    0.1517943    0.1138227  75.85 0.0007037157    1.693    0.409
        60 -14.3337    106.8257    121.5076   7.8787438036e+01   3.7058429044e+01     1.628332      1.23825  36.33  0.007732796    1.345    0.257
        61 -13.8424     84.6761    115.0623   8.4029640088e+01   4.2554657258e+01     1.314281    0.8578157  32.17  0.004759488    1.597    0.374
        62 -12.5944     28.4107    122.2426   1.0452023519e+02   4.7920864278e+01    0.4524311    0.3112979 -52.52  0.002365823    1.262    0.208
        63 -10.2700     58.8025    125.2134   9.4895953022e+01   4.3881018824e+01    0.2007079    0.1604893 -32.31 0.0004846186    1.277    0.217
        64 -14.8435    106.3430    105.4202   7.4698427383e+01   4.0844396372e+01     1.398926     1.143499 -24.08  0.006920102    1.291    0.225
        65 -11.4387    181.0080    120.9744   6.0176317710e+01   2.1808803341e+01    0.1785398    0.1765613 -36.99 0.0006086219    1.053    0.050
        66 -13.7119     95.3409    110.6227   7.9482070917e+01   4.1741079368e+01    0.9867737    0.8652061  68.18   0.00431247    1.352    0.260
        67 -11.9216      4.3090    119.7670   1.1214929226e+02   5.0255458470e+01    0.5450304    0.2221636  14.81  0.002437088    2.953    0.661
        68 -13.0980     49.3145     96.4791   9.1686612109e+01   5.2108632557e+01    0.9564988    0.7886478  19.13  0.005369922    1.285    0.222
        69 -11.9108     42.4497     90.8848   9.2892311257e+01   5.4208745923e+01    0.3516621    0.2761766 -24.18 0.0004404767    1.225    0.184
        70 -11.7598     34.6034     86.6332   9.4907663668e+01   5.6012321737e+01    0.4241017     0.260394 -32.69  0.001094484    1.573    0.364
        71 -13.4738      2.4780     97.3313   1.0956020137e+02   5.5831163480e+01    0.8392376    0.4409992 -74.31  0.003258052    1.767    0.434
        72 -14.1212     18.1016    111.1293   1.0619529349e+02   5.1524706767e+01    0.9293064    0.6793632 -32.41   0.00419413    1.377    0.274
        73 -13.7456     12.1922    103.7066   1.0705414448e+02   5.3747316772e+01    0.7311422    0.6083155 -18.31  0.003942463    1.289    0.224
        74 -14.5592     23.0425     95.0492   1.0136957584e+02   5.5068335789e+01     1.545439    0.9755542  12.69   0.00819887    1.787    0.440
        75 -12.5265    120.7347    111.7634   7.2247282121e+01   3.6544672992e+01    0.5580708    0.4007624 -70.63   0.00232741    1.879    0.468
        76 -12.0911     62.8267    109.9437   9.0114258970e+01   4.7137626819e+01     0.658933    0.4755426 -80.26  0.003093676    1.821    0.451
        77 -12.9880     29.5736     89.4264   9.7580955809e+01   5.5842357787e+01    0.8813974    0.5085128  65.92  0.003478354    3.591    0.722
        78 -11.1968     32.2096    105.5812   1.0010415674e+02   5.1738002458e+01    0.2328702    0.1743393  -0.85   0.00127087    1.502    0.334
        79 -12.6001    136.0549    103.2758   6.5860495360e+01   3.5122255570e+01     0.796914    0.3618526  50.24  0.002140118    2.329    0.571
        80 -13.5710    121.1141    102.1535   6.9526219144e+01   3.8554192978e+01    0.8496666    0.3956086  39.38  0.003146937    2.242    0.554
        81 -12.2164     61.5563     98.4757   8.7690152110e+01   5.0045669847e+01    0.4877935    0.3542155  85.61  0.002216291    2.208    0.547
        82 -12.0396    163.5056     98.0451   5.8067060038e+01   3.0080165090e+01    0.4090047    0.2848475 -48.48 0.0009301567    1.424    0.298
        83 -13.0562    136.3439     95.5043   6.3646982235e+01   3.6636410412e+01    0.5089608    0.3998982  54.05  0.001648881    1.313    0.238
        84 -11.0232    119.0626     96.4688   6.8498805663e+01   4.0178778913e+01     0.227368     0.204368 -34.69 0.0004155177    1.105    0.095
        85 -11.3588     90.0750     87.5759   7.4682779975e+01   4.7808500089e+01    0.4642864    0.2444278  49.58   0.00185328    2.235    0.553
        86 -12.4131    237.6143     80.6922   4.2031535636e+01   1.7488198116e+01    0.4028399    0.2605897 -89.45  0.002171931    1.954    0.488
        87 -12.9858    159.8874     68.1356   5.0780083382e+01   3.6174198836e+01    0.8628474    0.2876364 -46.78  0.002199957    3.351    0.702
        88 -13.8426    164.1944     71.7646   5.0944666298e+01   3.4588532671e+01     1.321706    0.5260993  46.90  0.004901425    2.687    0.628
        89 -13.6604    161.7509     80.0890   5.3664554903e+01   3.3749257089e+01    0.8211161    0.5430094  22.75   0.00348955    2.357    0.576
        90 -14.4423    169.4167     77.1383   5.1393166707e+01   3.2496025624e+01     1.531467     0.504715  53.27  0.005260138    2.962    0.662
        91 -12.2169     39.9294     68.3512   8.7620229235e+01   5.9437847146e+01    0.7305415    0.2557642  29.75   0.00291398    2.900    0.655
        92 -12.0836     47.2637     81.6812   8.8538721328e+01   5.5725948073e+01    0.5333015    0.3434435 -45.78  0.002413364    1.397    0.284
        93 -11.8576     42.0325     77.0825   8.9338073633e+01   5.7349478188e+01     0.581021    0.2266386 -55.00   0.00231581    2.490    0.598
        94 -13.3355     65.9035     49.3007   7.0395999711e+01   5.9262865632e+01    0.9571924    0.6139934 -34.82  0.003192059    1.561    0.359
        95 -13.4476     87.2383     65.2704   6.8507351631e+01   5.2673105188e+01    0.9587741    0.5831359  14.46  0.003998687    2.386    0.581
        96 -13.3227     91.8399     58.0064   6.4532425531e+01   5.3015191865e+01     0.523542    0.4937961  -5.90  0.002077247    1.082    0.075
        97 -13.8762     53.9504     68.3557   8.1811153716e+01   5.7650913617e+01     1.512142    0.8662274 -18.90  0.006630584    2.253    0.556
        98 -13.1882     54.1265     81.3451   8.5743514464e+01   5.4920257550e+01    0.5850514     0.425154 -52.42  0.003087895    1.388    0.280
        99 -14.0326     61.1323     75.6895   8.1322539624e+01   5.5128833792e+01    0.7832645    0.5208732 -28.00  0.001432354    1.522    0.343
       100 -13.0261     71.2367     75.1073   7.7348621119e+01   5.3666394450e+01    0.8013173    0.4937744   4.05  0.002489318    2.374    0.579
       101 -12.4134     77.2045     73.4690   7.4671638461e+01   5.2979539025e+01    0.5505894    0.3340237 -22.45   0.00177233    2.023    0.506
       102 -12.2499    218.2932     74.6640   4.3137548407e+01   2.2219127325e+01    0.6622627    0.2385872 -49.52  0.002597031    2.716    0.632
       103 -12.3511    216.7619     81.4244   4.4847027249e+01   2.1464533251e+01    0.4477237    0.3185763 -46.45  0.001918937    1.245    0.197
       104 -12.5499    210.7027     77.7213   4.4848838901e+01   2.3306308871e+01    0.5599474    0.3678412 -73.28  0.002826638    1.805    0.446
       105 -12.7143    135.5984     79.8099   5.9356479487e+01   3.9785672435e+01    0.7375058    0.3811844  52.39  0.002306027    1.931    0.482
       106 -11.8131    114.2074     80.0140   6.5008762882e+01   4.4472140858e+01    0.4019339    0.3346394 -48.72  0.001213309    1.275    0.216
       107 -13.1544    188.0457     84.5808   4.9971017653e+01   2.7045402574e+01    0.7311262    0.3500961  42.96  0.002576886    2.592    0.614
       108 -13.8932    170.4149    242.7781   8.6751181899e+01  -3.5826843892e-01     1.027189    0.7313064   6.65  0.005623656    1.389    0.280
       109 -13.6869      4.6463     63.6786   1.0201635149e+02   6.3391780681e+01    0.6093699    0.4210434  15.04  0.003777565    1.615    0.381
       110 -10.5592     97.3502     79.2770   6.9797145970e+01   4.8089576332e+01    0.1518318    0.1124955   7.43  0.000476498    1.640    0.390
       111 -11.1727     26.9246     74.7631   9.5011636264e+01   5.9397254796e+01    0.6424533    0.3138636 -68.46  0.002703586    2.738    0.635
       112 -13.7000    198.9869     70.1816   4.4762411273e+01   2.6992892196e+01    0.8099025    0.5264324  44.64  0.002747828    1.849    0.459
       113 -12.1877    199.8204     62.8897   4.2917753534e+01   2.7921131608e+01    0.4013427    0.2422232 -42.99  0.001500632    1.544    0.352
       114 -12.9586    134.5513     66.0530   5.5535443765e+01   4.2390390182e+01    0.6636679    0.5460661  31.79   0.00242028    1.292    0.226
       115 -10.0807     95.9874     69.7566   6.7178694403e+01   5.0150597330e+01    0.1823712    0.1184098  41.90 0.0002661211    1.495    0.331
       116 -11.7602     99.5467     65.0164   6.4520339852e+01   5.0265708411e+01    0.3598308    0.2700215 -64.53   0.00175341    1.854    0.461
       117 -12.1629     31.4997     63.0795   8.9657305612e+01   6.1433244674e+01    0.5723189    0.3146026 -57.61  0.002808148    1.972    0.493
       118 -12.1662     24.8145     59.3615   9.1530695015e+01   6.2834097746e+01     0.520775     0.277025 -39.95  0.001756905    1.594    0.373
       119 -13.5877    177.8040     57.4032   4.4805693810e+01   3.3668371569e+01    0.8596101    0.5734658 -50.95  0.002839329    1.484    0.326
       120 -14.6514    120.2097     54.6347   5.5426262480e+01   4.7452622726e+01     1.107253    0.5982078  44.82  0.002874851    1.766    0.434
       121 -12.1117    136.1812     49.9112   5.0290265199e+01   4.4461639644e+01    0.3725281    0.2870028  41.00 0.0009960382    1.313    0.238
       122 -12.9631     79.0519     60.8436   6.9774284566e+01   5.4990113495e+01    0.6303412    0.5058702  50.42  0.003454028    1.425    0.298
       123 -13.1302     82.3157     54.5329   6.6424962440e+01   5.5447803440e+01    0.7605926    0.5346307  29.99  0.003843269    1.369    0.270
       124 -11.6770     39.2461     60.3169   8.5349861088e+01   6.1133866452e+01    0.3238948    0.2505276  39.62  0.001881729    1.587    0.370
       125 -11.3556     17.7404     55.6512   9.3697936830e+01   6.4187770938e+01     0.356653    0.1651537 -51.59  0.001773312    1.858    0.462
       126 -11.7158    246.7438     52.3452   3.5341643195e+01   1.9890222377e+01    0.4968451     0.191263 -51.34  0.002369732    2.242    0.554
       127 -11.1877    249.2101     48.6349   3.4399097471e+01   1.9931004449e+01    0.2210109    0.1730361  79.52  0.001107704    1.343    0.256
       128 -10.3661     46.9726     56.4604   8.0688020315e+01   6.0897762639e+01    0.1728268    0.1095244  51.37 0.0006571985    2.461    0.594
       129 -13.9224    101.4941     50.2203   5.8930339669e+01   5.2232464986e+01    0.7894567    0.6291907  63.12  0.001780189    1.410    0.291
       130 -12.1389     99.6898     44.3115   5.7377994332e+01   5.3468265705e+01    0.2704614    0.2319018  76.35 0.0008593678    1.429    0.300
       131 -11.6386     37.0924     52.7467   8.3724054381e+01   6.2833532660e+01    0.4709729    0.2499518 -14.74  0.002070526    2.537    0.606
       132 -10.4435     20.1968     50.8365   9.0995218046e+01   6.4930846310e+01    0.1695576    0.1167779 -22.65 0.0002662677    1.258    0.205
       133 -10.0883     23.5762     50.1952   8.9151335461e+01   6.4747803028e+01    0.2067102    0.1496992 -11.31 0.0003647523    1.245    0.197
       134 -10.9643      5.8183     50.8763   9.8060682872e+01   6.5980135473e+01    0.2468105    0.1442907 -13.21  0.001407773    1.680    0.405
       135 -13.5183    157.9478     43.9112   4.4432725468e+01   4.0162427085e+01     1.155267    0.5747144  43.71  0.004991022    2.329    0.571
       136 -10.6306    136.3253    237.3280   9.3281750923e+01   5.6292435380e+00    0.1358666   0.09816291  -5.44 0.0007049963    1.698    0.411
       137 -11.6385     59.9754    246.5154   1.1103337148e+02   1.4454430421e+01    0.3079758    0.2014934   3.19  0.001551439    2.649    0.623
       138 -12.3867     24.8025    217.0681   1.1619180470e+02   2.4767409210e+01    0.6498595     0.306859  51.28  0.003295589    1.915    0.478
       139 -12.5250    109.7766     42.3416   5.3980929493e+01   5.1536860481e+01    0.6089284    0.2094617  53.45  0.001393583    2.625    0.619
       140 -12.6785     14.1952    221.9410   1.1879701345e+02   2.4720491373e+01    0.4311396    0.3453763  71.59  0.001661357    1.018    0.018
       141 -13.7026     26.0158    227.0495   1.1665379534e+02   2.2433825183e+01    0.8730764    0.3846682 -53.70  0.004153712    2.722    0.633
       142 -12.6092    113.7575     38.1471   5.1570068273e+01   5.1190466407e+01    0.4027706    0.2814948  58.37  0.001790692    1.349    0.259
       143 -10.8925     17.6556     40.9275   8.8845483249e+01   6.7008211104e+01    0.1782214       0.1395 -14.37 0.0004054751    1.053    0.051
       144 -12.6584      3.7471     43.4944   9.6894657477e+01   6.7554142533e+01    0.5108137      0.33972 -19.05  0.003253835    1.305    0.234
       145 -12.2250     11.5836     43.7689   9.2941166732e+01   6.6976562726e+01    0.4769107      0.26576 -20.74  0.001892022    1.699    0.412
       146 -13.1250     20.5963    224.7456   1.1763715077e+02   2.3485417000e+01    0.5834636     0.396948 -53.76  0.002491209    1.756    0.430
       147 -13.0715     65.3069    223.4677   1.0767193359e+02   1.8661840223e+01    0.8611784    0.6527218  36.18  0.005058442    1.275    0.216
       148 -12.5247     75.4985     37.4488   6.2365872264e+01   5.9313582825e+01     0.397136    0.2559623  45.76 0.0009297772    1.486    0.327
       149 -11.8124     70.4840     36.4905   6.3745662682e+01   6.0382329033e+01    0.3240458    0.2385582 -25.32  0.001111271    1.390    0.281
       150 -12.8649    242.1625     35.7644   3.2507142149e+01   2.2920784293e+01    0.5367872    0.3332476  70.00  0.002317924    1.666    0.400
       151 -13.0636     44.2240     32.5077   7.2634299211e+01   6.5286737758e+01    0.6254168    0.5124295  20.89     0.002484    1.183    0.155
       152 -12.9060     59.4823    212.9846   1.0791425904e+02   2.1770998381e+01    0.4092397     0.270952 -49.46  0.001225355    1.716    0.417
       153 -13.6019     63.9534    214.9179   1.0706967989e+02   2.0759100408e+01    0.5936409    0.4264596  78.25  0.003084472    1.446    0.308
       154 -12.3349    248.7744    216.1700   6.7172602004e+01  -6.6082893360e+00    0.2736484    0.2281596 -40.58  0.001858628    1.569    0.363
       155 -12.1569     94.3074    218.4485   1.0031010409e+02   1.5782682291e+01    0.2702175    0.2506804  47.00  0.001320504    1.016    0.016
       156 -13.4061    216.6591     28.4799   3.3257165490e+01   2.8910457459e+01    0.5352499    0.2906389 -58.40  0.002491956    1.695    0.410
       157 -12.2457    238.2463    213.7539   6.8561646078e+01  -4.9383938198e+00    0.3283295    0.1524698 -42.46  0.001621041    2.135    0.532
       158 -11.3252    156.6125    215.1974   8.5281629776e+01   6.7640547818e+00    0.1971352    0.1237273 -35.13 0.0009504229    1.688    0.408
       159 -12.6715    148.3007    239.2889   9.0942439984e+01   3.4815015119e+00    0.4285021    0.3201219  70.87  0.001910015    2.099    0.524
       160 -10.6596     63.4906     20.5585   5.9659808294e+01   6.3669780118e+01    0.2021877    0.1843925 -54.10 0.0007969778    1.575    0.365
       161 -10.5598    136.4599    211.2325   8.9243071631e+01   1.0810437087e+01    0.1859493    0.1407662 -67.38 0.0009450685    1.635    0.389
       162 -13.1274     55.5141     27.1625   6.5558748001e+01   6.4263534208e+01    0.6171918    0.3551907  42.31  0.002492714    1.670    0.401
       163 -11.8505     63.7784     25.1089   6.1504715050e+01   6.3082571001e+01    0.4404629    0.2335792  26.15  0.001586827    2.028    0.507
       164 -11.6928     72.4666    207.3421   1.0414703449e+02   2.1386217426e+01    0.3663757    0.2843304 -80.42  0.002040414    1.310    0.237
       165 -11.6277    122.5096     22.5061   4.4459061066e+01   5.0976257264e+01    0.2902064    0.2283554  67.26  0.001569156    1.174    0.148
       166 -10.6084     98.7606     27.3950   5.1546259605e+01   5.5796989563e+01    0.2471037    0.1180847  58.19   0.00104251    1.994    0.499
       167 -10.6802     88.5427     25.9651   5.3798884943e+01   5.8136620599e+01    0.1821626    0.1267238 -24.02 0.0005901451    1.569    0.363
       168 -11.2619     30.8612     25.6891   7.5966457075e+01   6.8100214301e+01    0.3297767    0.1626392  21.43   0.00152181    2.036    0.509
       169 -10.8509     36.1587     23.7422   7.2518152201e+01   6.7679825079e+01    0.2808988    0.1618772 -31.27  0.001599138    1.675    0.403
       170 -11.8849     41.4011    207.0883   1.1157970922e+02   2.5294003002e+01    0.2539124    0.1774055  71.54  0.001425456    1.373    0.271
       171 -10.9122     51.5230     20.5628   6.4271127514e+01   6.5757180462e+01    0.2244985    0.1507947  28.99 0.0007423422    1.279    0.218
       172 -11.0110    202.7976     21.8592   3.3130859723e+01   3.2619460037e+01    0.1754026    0.1582454  82.31 0.0009590876    1.194    0.163
       173 -10.2992    150.1872    207.3949   8.5401469683e+01   9.3702496567e+00    0.2114859      0.12431  42.97   0.00095999    1.732    0.423
       174 -12.4721     57.7673    203.7946   1.0731480028e+02   2.4133462135e+01    0.5679968    0.2989429 -88.82  0.002441381    2.394    0.582
       175 -13.2829     15.7469    196.7719   1.1669239974e+02   3.0324165590e+01    0.5649681      0.40016 -71.25  0.002528427    1.297    0.229
       176 -11.5521    249.5865    199.2862   6.3993162182e+01  -4.1275742200e+00     0.312443    0.2887457 -26.22  0.002208286    1.396    0.284
       177 -12.1468    248.3892    195.1960   6.3438147379e+01  -3.3288959882e+00    0.3858128    0.2461372 -32.36  0.002261022    1.288    0.224
       178 -13.6266     30.3200    168.9821   1.1040993461e+02   3.5791973980e+01    0.8610245    0.5100065 -40.40  0.004169982    2.011    0.503
       179 -12.7908    211.8820     44.6412   3.7245553701e+01   2.7885999784e+01    0.5176975    0.3658265 -83.59  0.001779309    1.375    0.273
       180 -15.4222      9.6152    180.0833   1.1683311757e+02   3.4855034940e+01     2.113257     1.242831 -71.15   0.01132007    1.455    0.313
       181 -13.8753    219.0947     41.7778   3.5855436735e+01   2.6749187447e+01     1.056917    0.5051684  77.89  0.005146925    2.284    0.562
       182 -11.3943    200.9583    191.8922   7.1490023080e+01   4.1117428012e+00     0.308598    0.2522094 -23.13  0.001293041    1.094    0.086
       183 -10.9389     80.0519    193.1016   1.0035725123e+02   2.3720290930e+01    0.4079811     0.139229  42.36  0.001446579    2.803    0.643
       184 -12.2209    249.8122    182.8709   6.0898061396e+01  -1.5371637539e+00    0.4435372    0.1578186 -43.15  0.001887472    2.546    0.607
       185 -11.9365     49.0647    182.2349   1.0698154291e+02   3.0447322776e+01    0.3654651     0.254993 -48.86  0.001908437    1.521    0.343
       186 -11.1819    198.6598    181.8853   6.9980484030e+01   6.3656527360e+00    0.2664649    0.2087371  38.41  0.001457353    1.397    0.284
       187 -12.1166     90.6757    182.3457   9.5935881646e+01   2.4773038674e+01    0.2458544      0.17231  67.83  0.001130525    1.734    0.423
       188 -11.8773    243.6914    171.0719   5.9627552597e+01   1.2745048818e+00    0.3241026    0.1760291 -54.55  0.001463469    2.623    0.619
       189 -12.2464    124.2700    167.1571   8.4225672995e+01   2.2843788930e+01    0.6376561    0.4389981 -75.48  0.002707656    2.001    0.500
       190 -10.9648    104.6812     37.2057   5.3517919502e+01   5.3331161523e+01    0.2315392    0.1663564 -33.95  0.001261201    1.522    0.343
