#   1 NUMBER                 Running object number                                     
#   2 MAG_AUTO               Kron-like elliptical aperture magnitude                    [mag]
#   3 X_IMAGE                Object position along x                                    [pixel]
#   4 Y_IMAGE                Object position along y                                    [pixel]
#   5 X_WORLD                Barycenter position along world x axis                     [deg]
#   6 Y_WORLD                Barycenter position along world y axis                     [deg]
#   7 A_WORLD                Profile RMS along major axis (world units)                 [deg]
#   8 B_WORLD                Profile RMS along minor axis (world units)                 [deg]
#   9 THETA_WORLD            Position angle (CCW/world-x)                               [deg]
#  10 FWHM_WORLD             FWHM assuming a gaussian core                              [deg]
#  11 ELONGATION             A_IMAGE/B_IMAGE                                           
#  12 ELLIPTICITY            1 - B_IMAGE/A_IMAGE                                       
         1 -13.0611    207.6732     46.4246   2.9924811602e+01   2.7476287211e+01      1.01311    0.9497007   7.20  0.003676952    1.257    0.204
         2 -13.1760    219.9885     36.2707   2.6178386249e+01   2.6056866471e+01    0.8348321    0.7337689  20.28  0.003610017    1.440    0.306
         3 -11.7614    249.1187     13.5256   1.8937068148e+01   2.2677225938e+01      0.79386     0.264708 -23.34  0.003528477    2.782    0.641
         4 -11.6863    244.1784     12.9691   1.9038866531e+01   2.3661752420e+01    0.6798579    0.2254239 -35.54  0.002941996    2.052    0.513
         5 -10.8572    246.4455      7.8342   1.7773573893e+01   2.3719880153e+01    0.3275661    0.2296786 -48.67  0.001328501    1.099    0.090
         6 -10.7366      2.2088      5.5721   8.5508989099e+01   7.9693965989e+01    0.6549273    0.1509375 -64.61  0.002194046    4.289    0.767
         7 -10.7978    144.5452    228.3886   7.9019044089e+01   1.0443214176e+01     0.318482    0.1488421 -50.83  0.001727612    2.804    0.643
         8 -10.1335    106.1270    249.7964   8.8866609063e+01   1.2110114110e+01    0.2398299    0.1090061  28.31  0.001354654    1.716    0.417
         9 -13.3857     46.8978    182.6163   9.6655798543e+01   3.1340013110e+01     1.281461    0.7382335  53.57  0.005702248    1.525    0.344
        10 -15.5762     34.4192    190.5599   1.0042636245e+02   3.0956650815e+01     10.42807     3.417248  71.65   0.02772359    4.665    0.786
        11  -9.2899     85.8132    203.1265   8.8849789377e+01   2.2356728041e+01       0.1947    0.1437827  50.38 0.0005648943    1.228    0.186
        12 -10.9936    104.0141    208.5407   8.5238227614e+01   1.8953209795e+01    0.2958518    0.2066698  32.50  0.001799718    1.175    0.149
        13 -10.5690    191.5801    192.0439   6.4822862332e+01   9.2131764488e+00     0.356723    0.2426133 -62.36   0.00179646    3.396    0.706
        14  -9.1167     83.0151    195.0031   8.8666474901e+01   2.4295247077e+01    0.2027264    0.1666051  42.44 0.0006831287    1.018    0.018
        15  -9.5111    115.2151    183.4087   7.9425631346e+01   2.1980010001e+01    0.2268778    0.1588317 -38.05 0.0008776613    1.677    0.404
        16 -10.1464     99.2745    180.8438   8.2946260336e+01   2.4858688896e+01     0.310259    0.2156538  34.57 0.0009401874    1.258    0.205
        17  -8.2982     63.3984    181.4300   9.2217597923e+01   2.9640402638e+01    0.1309573     0.110848  51.25 7.843077e-05    1.014    0.014
        18  -9.8254    120.6513    180.1200   7.7652218902e+01   2.1776180931e+01    0.2345455     0.163697  44.30 0.0008060832    1.346    0.257
        19 -10.8453    103.4332    171.8584   8.0630465610e+01   2.6068356273e+01    0.4771556    0.2432151  33.63  0.002175407    1.767    0.434
        20 -10.9232     95.9331    168.2391   8.2030567452e+01   2.7974344759e+01    0.6703752    0.2856116  49.63  0.002617103    2.556    0.609
        21  -9.5891     70.8475    172.3520   8.9258393440e+01   3.0666865219e+01    0.2506189    0.2163429  23.07 0.0009074383    1.228    0.186
        22 -11.0368    232.2359    169.6833   5.4215532314e+01   6.5662969121e+00    0.3250217     0.136718  26.62  0.001555961    2.853    0.649
        23 -11.3392     61.6535    168.7581   9.1369058402e+01   3.2673783541e+01    0.4248048    0.3117497 -18.25  0.002205681    1.975    0.494
        24 -11.1905     66.8192    164.3022   8.9417558201e+01   3.3020543411e+01    0.3278606    0.2784752 -32.52  0.001891509    1.464    0.317
        25 -14.1025     10.4859    189.0663   1.0636332646e+02   3.3487245666e+01     1.541747    0.8403217  47.23  0.008983273    1.409    0.290
        26 -10.2177    110.6453    167.2914   7.8104094508e+01   2.5879338070e+01    0.2589015    0.2327141  68.73 0.0005840607    1.209    0.173
        27  -9.7264     83.6951    167.0662   8.5119929785e+01   3.0047589537e+01    0.1858394    0.1764751  84.23 0.0006541047    1.119    0.106
        28 -11.0529     74.5043    165.8410   8.7468172294e+01   3.1625502861e+01    0.6827679    0.3572679  73.66  0.001509812    2.985    0.665
        29 -12.9020     58.9192    128.1122   8.6857165640e+01   4.2902767824e+01     3.021727     1.128924 -82.44  0.007417075    6.376    0.843
        30 -10.1365     37.6604    161.1994   9.7451566587e+01   3.7245761343e+01    0.3154158    0.1730981  68.04  0.001348837    1.840    0.456
        31 -10.8894     32.8939    156.3616   9.8451910415e+01   3.8899793500e+01    0.5969296    0.3076198  48.57  0.002892677    1.690    0.408
        32  -8.9595    164.5109    154.5458   6.3323960878e+01   1.9212139183e+01    0.2847193    0.1175003 -56.06 0.0008100273    5.911    0.831
        33 -11.5776     83.9893    150.0512   8.2545257920e+01   3.3861686578e+01    0.6088157    0.4818033  -3.24  0.001631588    1.653    0.395
        34 -10.4627    133.6200    145.0308   6.8365535030e+01   2.6490872165e+01    0.9345368    0.2621844 -53.69  0.002566962    5.254    0.810
        35  -8.8781    174.5999    148.7719   6.0123335334e+01   1.8444517318e+01    0.1809267    0.1228459 -47.60 0.0005025489    1.667    0.400
        36 -12.8183     68.9480    144.2014   8.6111058128e+01   3.7485685381e+01     1.250745    0.5894354  52.78  0.003129696    2.292    0.564
        37  -9.3802    147.0372    145.4914   6.5304091576e+01   2.3955493140e+01    0.2097823    0.1325912  40.21  0.000498024    1.522    0.343
        38  -9.8516     29.3997    142.9064   9.8395857299e+01   4.2564407061e+01    0.3684683    0.2487556   0.78   0.00185481    1.991    0.498
        39 -10.1806     99.2730    137.1620   7.5882065000e+01   3.4348676243e+01    0.5181952    0.3443446 -20.39   0.00217149    2.385    0.581
        40 -11.4533     86.2130    135.9778   7.9499302784e+01   3.6829411126e+01    0.2803824     0.270564 -62.47 0.0004499217    1.104    0.094
        41 -10.9441     68.1979    134.1128   8.4778941087e+01   4.0077369120e+01    0.3308222    0.1997042 -77.74  0.001179702    1.860    0.462
        42 -13.1826     28.5683    248.0263   1.0437037317e+02   2.0723247578e+01     0.559673    0.3960394  37.78  0.001088619    1.121    0.108
        43  -9.2820    105.4783    130.4731   7.2764078321e+01   3.4776378705e+01    0.2903476    0.2629458  66.70  0.001570784    1.128    0.114
        44  -9.4460    109.2100    128.5782   7.1307294688e+01   3.4517918325e+01    0.3432672    0.2388974  13.02  0.001098723    1.992    0.498
        45  -9.3964    136.0000    129.9745   6.4583928960e+01   2.9088648559e+01    0.2417142   0.08324663 -45.98 0.0008067769    2.973    0.664
        46  -9.6509     43.5605    129.6590   9.2291186017e+01   4.4444507226e+01    0.2843814    0.1669801  33.77  0.001336387    1.629    0.386
        47  -9.7422     50.4867    134.9512   9.0663546687e+01   4.2257150140e+01      0.25247    0.1699448  48.28 0.0003378458    1.384    0.278
        48 -10.1153     96.4708    124.2002   7.4071910984e+01   3.7867036348e+01     0.304395    0.2584707  10.40  0.001195087    1.386    0.278
        49  -8.8954    115.7788    123.3677   6.8327376084e+01   3.4432992219e+01    0.2122176    0.1397166  31.62  0.000560538    1.622    0.384
        50 -10.3340    137.6049    119.2655   6.1704787060e+01   3.0946021088e+01    0.4545521    0.3595617  50.04  0.001545729    1.287    0.223
        51  -9.4408    205.5940    110.2184   4.6160111720e+01   1.8973239133e+01    0.2253007    0.2042295   2.35 0.0005804849    1.108    0.097
        52  -9.8896     15.9971    111.0539   1.0020041856e+02   5.1986840558e+01    0.2161364     0.184601  81.96 0.0006019233    1.034    0.033
        53  -8.9729    106.3160    117.8464   6.9730516332e+01   3.7508705768e+01    0.2008456    0.1898261 -41.84 0.0003720526    1.105    0.095
        54 -12.3005     75.9106    156.0338   8.5760092116e+01   3.3672923221e+01     1.397069    0.5171501  55.79 0.0006873588    4.378    0.772
        55 -12.7294     63.8073    151.4733   8.8679248491e+01   3.6438934275e+01    0.6147324    0.4654013  27.44 0.0008605369    1.348    0.258
        56  -8.2871    199.2815     94.6498   4.3414195987e+01   2.2534273617e+01    0.1390396   0.09747504 -56.05 0.0004992621    1.649    0.394
        57  -8.4925    161.3075     85.3302   4.7501063640e+01   3.2229488672e+01    0.1498743    0.1163533   9.56 0.0007039387    1.662    0.398
        58  -9.0004     89.2850     84.1090   6.6166585463e+01   4.8763104232e+01    0.2149152    0.1934175 -71.34 0.0005035121    1.130    0.115
        59 -13.7028     53.4438    228.6901   9.8272974815e+01   2.1511970038e+01     1.048399    0.5877129  72.63  0.001418735    2.009    0.502
        60 -11.0611     13.2354     60.1449   9.4637623887e+01   6.5770670413e+01    0.3205711    0.2506617 -68.36 0.0006132962    1.142    0.124
        61 -16.5479      9.2555    239.0041   1.0800093771e+02   2.3976617249e+01     5.404623     1.947452  19.64   0.01696057    3.193    0.687
        62 -12.3286    197.4487     53.2671   3.2880388269e+01   2.8856012027e+01    0.6838609    0.5894457  21.51  0.002282429    1.409    0.291
        63 -14.8468      8.4256    207.1215   1.0740375248e+02   2.9944085295e+01      1.29907    0.9255877  10.95  0.006228899    1.735    0.424
        64 -10.6720    108.6831    205.0668   8.3781615677e+01   1.8934011303e+01    0.2547904    0.1834812 -55.49  0.001212893    1.671    0.402
        65  -9.9078     78.5325     58.1868   6.1206814750e+01   5.6829737080e+01      0.55294    0.3281623  74.65  0.001833332    3.440    0.709
        66  -8.7431     60.4779     20.9988   5.0981203660e+01   6.7756571613e+01    0.2062276    0.1393597 -32.37 0.0003973083    1.505    0.335
        67  -9.9272    118.6859    237.2101   8.5172818828e+01   1.2427535822e+01    0.1935118    0.1322609  29.93 0.0006696932    1.113    0.102
        68  -9.8223    142.0374    235.5154   8.0350341323e+01   9.7666972016e+00    0.1552845    0.1386525   1.72 0.0007599253    1.239    0.193
        69 -11.2127    102.8635    200.0606   8.4518366385e+01   2.0639315921e+01    0.3791535    0.3565976 -68.87   0.00144251    1.268    0.211
        70  -8.7015    189.4799     14.5399   2.2725690527e+01   3.5280872981e+01    0.1356019    0.1154222 -56.62 4.848768e-05    1.006    0.006
