#   1 NUMBER                 Running object number                                     
#   2 MAG_AUTO               Kron-like elliptical aperture magnitude                    [mag]
#   3 X_IMAGE                Object position along x                                    [pixel]
#   4 Y_IMAGE                Object position along y                                    [pixel]
#   5 X_WORLD                Barycenter position along world x axis                     [deg]
#   6 Y_WORLD                Barycenter position along world y axis                     [deg]
#   7 A_WORLD                Profile RMS along major axis (world units)                 [deg]
#   8 B_WORLD                Profile RMS along minor axis (world units)                 [deg]
#   9 THETA_WORLD            Position angle (CCW/world-x)                               [deg]
#  10 FWHM_WORLD             FWHM assuming a gaussian core                              [deg]
#  11 ELONGATION             A_IMAGE/B_IMAGE                                           
#  12 ELLIPTICITY            1 - B_IMAGE/A_IMAGE                                       
         1 -10.4448     13.4445     30.6142   9.8105459098e+01   6.8528381751e+01    0.2990295    0.2284256 -78.07  0.001862356    2.144    0.534
         2 -10.0840     93.0026     27.6185   6.4731892921e+01   5.7542611388e+01    0.3246961    0.2380813  83.91  0.001584006    2.322    0.569
         3  -9.3710     20.4733     21.9761   9.1145548376e+01   6.9454381594e+01    0.1447462    0.1008193 -64.37 0.0008092904    2.479    0.597
         4 -10.1506     31.5701     17.0836   8.3460844897e+01   6.9062597023e+01    0.1958196    0.1636519  49.38   0.00119316    1.971    0.493
         5  -9.5939     84.7765     11.5781   6.0296468855e+01   6.1082456500e+01    0.1732937    0.1220582  62.71 0.0009484816    1.694    0.410
         6 -10.0224     57.2003      9.9821   6.8840757387e+01   6.6354082592e+01    0.2084819    0.1593004  50.86  0.001287055    1.666    0.400
         7  -9.7882     71.4800      6.5177   6.2083500770e+01   6.4191045095e+01    0.2077442    0.1216145  62.32   0.00103407    2.320    0.569
         8  -9.9024     35.0053      5.8484   7.6160818083e+01   7.0172798091e+01    0.1592139    0.1423347  59.69  0.001079981    2.039    0.509
         9 -10.1832    144.3506      5.3152   4.4994116899e+01   4.8010360160e+01    0.1453192   0.08718322  39.50 0.0007046873    1.730    0.422
        10 -10.9958    184.0023      3.7636   3.9416815655e+01   3.8331009693e+01    0.1811182   0.09958329  73.26  0.000886407    1.641    0.391
        11 -11.5957    160.9411      2.6846   4.1814227520e+01   4.4132740123e+01    0.2918591    0.1730564  64.64  0.001496818    1.475    0.322
        12 -10.2323    174.3353      2.3065   4.0077195478e+01   4.0846867109e+01    0.1365143   0.08935327  43.55 0.0006413768    1.671    0.402
        13  -9.3484     79.9723      2.0000   5.7348026796e+01   6.2957548722e+01    0.2039721   0.06460589  55.89 0.0008022846    2.941    0.660
        14 -11.2988    173.2790    196.0309   9.0707213082e+01   7.7240033465e+00    0.2724699    0.2448354  26.38  0.001201839    1.017    0.017
        15  -9.9885    174.1369    192.1361   8.9816848282e+01   8.2774818870e+00    0.2149589    0.1987699  25.90 0.0004864235    1.030    0.029
        16  -9.8449    149.6627    199.3325   9.6254045897e+01   1.1346276751e+01    0.1406011    0.1049603  71.97 0.0007052019    1.740    0.425
        17 -10.1936    126.1723    197.8127   1.0108044617e+02   1.5752892315e+01    0.2918108    0.2247543  17.42  0.001557815    1.617    0.382
        18  -9.5002    113.9993    198.6609   1.0386702402e+02   1.7627044547e+01    0.2382815   0.08238773  54.20 0.0007050729    4.462    0.776
        19  -9.6651     44.7814    194.5846   1.1834746705e+02   2.8378741080e+01    0.1776007   0.09363211  50.11 0.0009525937    1.722    0.419
        20 -10.3204    139.1868    190.1810   9.6979367441e+01   1.5021495781e+01    0.1985795    0.1639649  75.33   0.00107864    1.382    0.276
        21 -10.6602    157.1037    188.0408   9.2682753800e+01   1.2183478664e+01    0.2620672    0.1989773  39.39  0.001386374    1.237    0.192
        22 -11.5487     96.7232    187.7140   1.0612703672e+02   2.2760820104e+01    0.5234643    0.2170583  49.14  0.002125565    2.400    0.583
        23  -9.8264     55.7935    187.5994   1.1528310932e+02   2.8591659162e+01    0.3489934    0.1220889  62.59  0.001014493    5.747    0.826
        24  -9.4711    121.0000    187.0525   1.0052140661e+02   1.8882850700e+01    0.2222548   0.07928643 -54.70 0.0008015353    2.936    0.659
        25 -10.3493    109.6907    186.3491   1.0297567151e+02   2.0956036192e+01    0.2291591    0.1546723  71.05  0.001109216    1.759    0.432
        26 -10.4095     12.6676    184.6306   1.2418768518e+02   3.3886631233e+01      0.24991    0.1675494  58.88  0.001063026    1.342    0.255
        27  -9.5385     27.6415    183.3210   1.2096289857e+02   3.2742272966e+01    0.1330351   0.07165655  67.23 0.0007044345    1.766    0.434
        28  -9.6962    212.6359    182.6736   8.0271535331e+01   2.9586405281e+00    0.1475526   0.09887253   4.50 0.0007039164    1.797    0.444
        29  -9.8229     34.7816    188.1723   1.1987046952e+02   3.0915223970e+01    0.2226784   0.09246969  66.55 0.0009505845    2.845    0.649
        30 -10.0337    148.1720    181.4135   9.3428382132e+01   1.5165575132e+01    0.2106029    0.1268303  51.69  0.000862863    1.744    0.427
        31 -10.6033     78.1060    176.4206   1.0882688332e+02   2.8128538977e+01    0.5102419    0.1575153  50.41  0.001686688    3.812    0.738
        32  -9.7149     60.9726    177.6616   1.1297792486e+02   3.0190120041e+01    0.2228868   0.06535911  52.20 0.0007045121    4.310    0.768
        33  -9.8561     13.6530    177.3086   1.2344576622e+02   3.5415965082e+01    0.1979198    0.1051995  68.83  0.001105438    1.737    0.424
        34  -9.8689    204.4969    176.0478   8.0499814236e+01   5.5641559062e+00    0.2146858    0.1329538 -36.73  0.001034053    1.593    0.372
        35 -10.0368    161.1349    176.3193   8.9589618998e+01   1.3747315324e+01    0.3186087    0.1746695  61.65  0.001163303    2.988    0.665
        36  -9.9067    105.6605    175.3221   1.0215142520e+02   2.4074659657e+01    0.1502625    0.1036844  72.78 0.0003768112    1.719    0.418
        37  -9.9254    135.0402    172.2201   9.4701677989e+01   1.9550704319e+01    0.2466187    0.1619396  66.64  0.001072167    2.018    0.505
        38  -9.3694     45.3554    172.6750   1.1599735873e+02   3.3252916852e+01    0.1399708   0.08161182  68.94 0.0007046034    1.769    0.435
        39  -9.6978    208.3162    170.3250   7.8565941051e+01   5.8576760027e+00    0.1472858    0.1043113   1.41 0.0003313874    1.669    0.401
        40 -10.4275    122.6928    170.2371   9.7231961951e+01   2.2252633897e+01    0.3655106     0.175373  52.86  0.001405795    2.386    0.581
        41 -10.1913     55.4962    169.9928   1.1331529196e+02   3.2667134334e+01    0.2884917     0.126851  53.01  0.001251661    2.413    0.586
        42  -9.9762    100.4311    166.8699   1.0199622645e+02   2.6880382055e+01    0.4534427    0.1403926  50.24  0.001341469    4.200    0.762
        43 -10.7989    140.4761    165.9679   9.2229468276e+01   1.9878898108e+01    0.3958731    0.2316267  62.42  0.001557965    2.411    0.585
        44 -10.2578     80.9630    165.0793   1.0647695921e+02   3.0358958163e+01    0.4471612    0.2259344  70.06   0.00159247    3.416    0.707
        45  -9.8457    160.6712    165.3411   8.7481048620e+01   1.6071917695e+01    0.1510231    0.1191586  85.11 0.0007051466    1.741    0.425
        46  -9.9540     38.1662    164.9917   1.1682321767e+02   3.5845358463e+01    0.2186475    0.1201748  78.46 0.0007576999    1.965    0.491
        47  -9.6784     70.3509    163.6759   1.0887804097e+02   3.2212990951e+01    0.1476773    0.0946845  71.36 0.0007048369    1.754    0.430
        48 -10.0169      9.5170    161.2008   1.2307434242e+02   3.9411039882e+01     0.350509    0.1295323  76.90  0.001349129    3.676    0.728
        49  -9.7627    152.3546    161.6827   8.8606162280e+01   1.8484224182e+01    0.1541543    0.1189155  80.28 0.0004606812    1.746    0.427
        50 -10.1891     93.4796    160.9873   1.0270822489e+02   2.9392177466e+01    0.3217314    0.1574166  55.29   0.00126254    2.456    0.593
        51  -9.5937     23.7439    159.9962   1.1969240477e+02   3.8457443050e+01    0.2352178   0.08642918  60.58 0.0009016364    3.574    0.720
        52 -10.2545    106.7955    158.8737   9.9008381819e+01   2.7666390159e+01    0.4525368    0.2062622  55.55  0.001602127    2.921    0.658
        53  -9.6065    168.6347    158.3161   8.4218715334e+01   1.5922192954e+01    0.1530043    0.1208521  84.03 0.0007039497    1.772    0.436
        54 -10.7479     50.8155    155.9783   1.1265384128e+02   3.6564132501e+01    0.4719899    0.1811205  57.06  0.001678832    3.718    0.731
        55  -9.8121    218.9317    156.1285   7.3494586483e+01   6.3469964112e+00     0.199544    0.1909436 -45.18  0.000368292    1.225    0.184
        56 -10.1899     83.0851    155.6918   1.0443236239e+02   3.2278267851e+01    0.3790815    0.1815181  56.99  0.001456507    2.694    0.629
        57 -10.2587    120.4676    156.2004   9.5099187889e+01   2.5840313613e+01    0.2879871    0.1890339  73.83  0.001191743    2.210    0.547
        58 -10.1994     68.8304    154.4977   1.0788048947e+02   3.4623284325e+01    0.3861605    0.1764295  57.41  0.001485405    2.875    0.652
        59 -10.5117    134.5413    154.0278   9.1208727871e+01   2.3663398989e+01     0.391494     0.233673  63.24  0.001530346    2.351    0.575
        60  -9.7884     99.3730    151.5995   9.9527764157e+01   3.0651724987e+01    0.2929705    0.1095295  50.22 0.0009602802    3.249    0.692
        61  -9.7996     29.3226    150.7531   1.1736549258e+02   4.0115195544e+01    0.3119118    0.1264394  66.56  0.001133332    3.881    0.742
        62 -10.6443     40.2292    148.2076   1.1430840469e+02   3.9625821477e+01    0.4305848    0.2011819  57.16  0.001896651    2.544    0.607
        63 -11.1446    108.9208    146.4686   9.6060708058e+01   3.0213894359e+01    0.6824262    0.3523292  64.32  0.002235519    3.553    0.719
        64  -9.6425     78.9835    147.9563   1.0416996569e+02   3.4762173966e+01    0.2355497    0.1622428  75.73 0.0009906524    1.718    0.418
        65 -11.0315     57.1988    146.5963   1.0967994845e+02   3.8062808584e+01     0.600921    0.2602431  59.81  0.002150063    3.572    0.720
        66 -11.8760    150.4762    146.1316   8.5668944793e+01   2.2218263848e+01     0.660444    0.3697295  65.67  0.002238937    3.182    0.686
        67 -10.0775     14.1856    146.5941   1.2065387901e+02   4.2431310180e+01    0.2055878     0.107808  35.52  0.001129451    2.118    0.528
        68 -11.1918    126.4268    144.1748   9.1106440513e+01   2.7483799157e+01    0.5165553    0.3297394  76.65  0.001946492    2.678    0.627
        69 -10.5182     89.2018    144.7849   1.0089485326e+02   3.3959119431e+01    0.3985813    0.2109104  53.56  0.001644277    2.198    0.545
        70 -10.4021    197.1076    143.7070   7.4899197118e+01   1.2958621953e+01    0.2677235    0.1890311 -20.65  0.001243614    1.559    0.359
        71 -10.2888    166.7089    144.7593   8.1612679021e+01   1.9127110712e+01    0.2423804    0.1245134  54.65 0.0006859517    2.356    0.576
        72  -9.5622      3.3528    142.6939   1.2292841218e+02   4.4153102877e+01    0.1253897   0.07247961  68.85 0.0003361471    1.712    0.416
        73  -9.8276    214.7850    140.6120   7.0768021032e+01   9.9207878246e+00    0.1964208    0.1417852  57.25 0.0007720651    1.675    0.403
        74 -10.6930     24.1872    138.8163   1.1727554800e+02   4.3444397714e+01    0.4727901    0.2043325  63.03  0.001943294    3.192    0.687
        75  -9.7096    173.9772    139.6603   7.8805131146e+01   1.8642595959e+01    0.2484214     0.127895  65.66 0.0007048695    4.349    0.770
        76  -9.7814    163.6530    137.3134   8.0556009698e+01   2.1343335755e+01    0.1580728    0.1251131 -89.39 0.0007046848    1.716    0.417
        77 -10.3310     39.5227    136.3329   1.1287486710e+02   4.2582875597e+01    0.2680509    0.1720007  64.51  0.001380947    1.736    0.424
        78 -10.7615    114.4957    134.5162   9.2043889886e+01   3.2018959908e+01    0.4401435    0.2351044  61.27  0.001544117    2.896    0.655
        79 -11.1536     84.7814    132.6184   9.9709861324e+01   3.7618582841e+01    0.6211244    0.2946325  52.93   0.00235138    2.681    0.627
        80 -11.0208    144.7582    132.8335   8.3940379411e+01   2.6340047866e+01    0.4423336    0.2461262  53.70  0.001728255    2.045    0.511
        81 -11.4648    133.5658    132.4318   8.6625429977e+01   2.8754152506e+01    0.5166093    0.3323829  66.63  0.002058229    2.199    0.545
        82 -10.4692     74.5769    130.3537   1.0211602488e+02   3.9712879196e+01     0.394366    0.2364955  69.71  0.001633023    2.455    0.593
        83 -10.3694     13.0628    129.6328   1.1912834574e+02   4.6540328130e+01    0.3937482    0.1895931  67.08  0.001838729    2.591    0.614
        84 -10.8617    170.3099    130.5655   7.7419741180e+01   2.1315521280e+01    0.4330223    0.1520324  52.29  0.001297219    3.452    0.710
        85 -10.8652    154.2309    130.4665   8.1086982062e+01   2.4838199018e+01    0.4114898    0.2088539  56.56  0.001465573    2.506    0.601
        86 -11.0325    100.4106    129.0560   9.4619940740e+01   3.5882785515e+01    0.6070367    0.3646692  65.13  0.002385452    2.457    0.593
        87 -10.8195    120.2528    126.8986   8.8749963655e+01   3.2697790203e+01    0.6885263    0.3223087  58.17  0.002168355    3.473    0.712
        88 -11.2506     60.5926    125.2971   1.0514233530e+02   4.2862838502e+01    0.6024722    0.3494452  71.73  0.002504034    2.632    0.620
        89 -11.3313     44.9982    123.9307   1.0941240661e+02   4.5038204475e+01    0.7614512    0.4049403  72.77  0.003070087    3.015    0.668
        90 -11.0458    181.0751    125.7515   7.3886774166e+01   1.9926151787e+01    0.3950837    0.2577426  71.15   0.00156433    2.336    0.572
        91 -11.3283     29.3426    123.0320   1.1377034493e+02   4.6804261198e+01     0.758736    0.3480016  72.26  0.002734471    4.065    0.754
        92 -10.7356    160.0173    122.8960   7.7837471129e+01   2.5195595159e+01    0.3482562    0.2170954  63.45  0.001369525    2.128    0.530
        93 -11.6898    143.3188    120.1567   8.1140791658e+01   2.9452674041e+01    0.6113645    0.3959033  60.43  0.002185794    1.887    0.470
        94 -10.2055     72.8401    121.2136   1.0076295139e+02   4.2202331727e+01    0.3513938    0.1754534  45.48  0.001479385    2.237    0.553
        95 -10.7809    132.3606    119.7167   8.3800398837e+01   3.1885643834e+01    0.5693962    0.2826116  62.39  0.001713503    3.784    0.736
        96 -10.5773      3.8311    118.0709   1.2031505927e+02   4.9905088794e+01    0.3913806    0.1839162  73.75  0.001810141    2.715    0.632
        97 -10.9593    110.9388    116.1021   8.8623317141e+01   3.7020621675e+01    0.4867613     0.323651  71.05   0.00197008    2.268    0.559
        98 -10.9886     80.5726    114.0697   9.6900980893e+01   4.2782691486e+01    0.5984988    0.3763387  69.83  0.002461349    2.499    0.600
        99 -10.6213    123.8637    113.7259   8.4485756968e+01   3.5002239123e+01    0.4604779    0.2352464  54.19  0.001687764    2.391    0.582
       100 -11.0921     94.3341    113.6682   9.2744876499e+01   4.0621790302e+01    0.6656953    0.2855375  49.36  0.002355388    2.869    0.651
       101 -10.5337    160.2173    112.8220   7.5171565593e+01   2.7270998174e+01    0.3126943    0.1928166  63.38   0.00122267    2.104    0.525
       102 -10.7328     67.8459    111.8443   1.0024122521e+02   4.5187094039e+01     0.414567    0.2370505  54.31  0.001806579    2.257    0.557
       103 -10.6490     14.7669    111.1478   1.1629393930e+02   5.0831474195e+01    0.3751538       0.2057  73.60  0.001844424    2.332    0.571
       104 -10.1545    135.2122    110.7976   8.0729867771e+01   3.3266375342e+01     0.357886    0.1218303  51.15  0.001038256    3.535    0.717
       105 -11.6051     46.7353    103.6402   1.0508301964e+02   4.9786574645e+01    0.7959283    0.4183755  68.27   0.00285843    4.023    0.751
       106 -11.1755    141.5700    105.7808   7.7750535195e+01   3.2962108206e+01     0.525616    0.2774334  60.07  0.001858363    2.584    0.613
       107 -11.5186     23.4770    103.1556   1.1239257561e+02   5.2090123017e+01    0.7119291     0.352648  70.01  0.002825195    3.645    0.726
       108 -11.2143    152.0010    104.6533   7.4888684433e+01   3.0847129031e+01     0.466042    0.2823416  64.40  0.001792308    2.212    0.548
       109  -9.8387    167.3541    104.6954   7.1372898196e+01   2.7293054531e+01    0.1620569    0.1254716 -80.84 0.0003816436    1.712    0.416
       110 -10.9929    130.7986    103.3847   7.9850335101e+01   3.5840724741e+01    0.5422187    0.2667435  53.43  0.001968618    2.369    0.578
       111 -10.3217      7.3254    103.5396   1.1746267848e+02   5.3121164207e+01    0.2585729    0.1603841  65.38  0.001460081    1.939    0.484
       112 -11.5788    111.9795    100.7303   8.4254707309e+01   4.0332967273e+01    0.9190132    0.4517941  59.79  0.002931691    3.559    0.719
       113 -10.0362    160.9903    102.0000   7.2060650267e+01   2.9317668999e+01    0.2597046    0.0908024  49.62 0.0008026676    2.944    0.660
       114 -10.3468     83.4040    101.0960   9.2858729483e+01   4.5417082540e+01    0.3846673    0.1932429  52.49  0.001464383    2.711    0.631
       115 -11.2432     64.9672     97.2208   9.7728245717e+01   4.9077771105e+01    0.5676445    0.3524737  67.94  0.002367461    2.746    0.636
       116 -10.6014     96.9655     98.0140   8.7889432505e+01   4.3799387698e+01    0.5674129    0.2356533  45.81  0.002043553    2.687    0.628
       117 -10.2543    166.4912     95.0000   6.8881851172e+01   2.9414663115e+01    0.3459669   0.09027086  51.36 0.0009361528    3.946    0.747
       118 -10.8247    140.8262     93.4773   7.4449722825e+01   3.5710457424e+01    0.4025983    0.2654454  61.41  0.001694069    1.805    0.446
       119 -11.0098    127.3841     92.2623   7.7568269199e+01   3.8959159245e+01    0.7491583    0.3302207  53.52  0.002571643    2.702    0.630
       120 -10.5166      6.9012     92.7318   1.1600026946e+02   5.5676282499e+01     0.454823    0.1873032  39.05  0.002200771    2.983    0.665
       121 -11.3473     35.4009     90.5748   1.0605614447e+02   5.4043460677e+01    0.4558982    0.2736861  85.87  0.002049604    2.650    0.623
       122 -11.2737     88.1397     87.8899   8.7737592255e+01   4.7633034748e+01    0.5954467    0.3511846  62.48  0.002275269    2.919    0.657
       123 -11.0516     50.3323     85.9817   9.9827442842e+01   5.3542706796e+01    0.6359442    0.3466218  59.54   0.00250534    3.455    0.711
       124 -11.0768    107.3853     85.0974   8.1022801837e+01   4.4649390527e+01    0.6916963    0.3633816  55.98  0.002604773    2.547    0.607
       125 -10.1263    160.1667     84.3805   6.7223978116e+01   3.2962306295e+01    0.2250313    0.1505718  65.09 0.0009527563    1.737    0.424
       126 -10.2178    142.3810     84.1491   7.1297146763e+01   3.7221267790e+01    0.3147234    0.2144589  69.21  0.001320784    1.905    0.475
       127 -10.7118     25.3505     81.4370   1.0757875724e+02   5.7034767689e+01    0.4470481    0.2630891  63.31  0.002124205    2.775    0.640
       128 -10.1019     75.8270     81.7546   8.9937237784e+01   5.1014490046e+01    0.2683124    0.1910813 -76.32  0.001237915    2.047    0.511
       129 -10.4740     10.4287     81.6448   1.1291646504e+02   5.8028352525e+01    0.3979068    0.1495633  38.04  0.001806964    3.356    0.702
       130  -9.9219    151.7175     81.4542   6.8263905183e+01   3.5538300367e+01    0.2968898    0.1563107  57.13  0.001132345    2.077    0.518
       131  -9.6372    175.6708     79.3510   6.2518483295e+01   3.0123187485e+01    0.1644695    0.1178161 -69.38 0.0007047935    1.768    0.434
       132 -10.8467    130.3934     76.8333   7.2062212313e+01   4.1394631270e+01    0.5764253    0.2836546  58.63  0.002074614    2.561    0.610
       133 -10.0535    142.0764     76.3228   6.8974035160e+01   3.8788733021e+01    0.3712852    0.1950969  58.14  0.001417343    2.154    0.536
       134 -10.8267     83.9620     74.1013   8.4876581730e+01   5.1313160758e+01    0.5528038    0.3533563  65.36  0.002261053    2.776    0.640
       135  -9.7942    117.1781     73.6681   7.4607071565e+01   4.4929116715e+01    0.3069172    0.1414067  55.06  0.001087647    2.661    0.624
       136 -10.0792    107.4656     72.9925   7.7171859619e+01   4.7101136036e+01    0.3958173    0.2076085  55.84  0.001522284    2.451    0.592
       137 -10.1104     96.3300     72.7107   8.0456125628e+01   4.9356396030e+01    0.3130302    0.2515124 -85.57  0.001524597    1.812    0.448
       138  -9.8636     43.2525     73.5635   9.9092295041e+01   5.7135163410e+01    0.2270299    0.1233058  34.35 0.0008807474    2.124    0.529
       139  -9.5663      7.5874     73.4292   1.1236201329e+02   6.0052139414e+01    0.2933103    0.1156167  38.57  0.001358364    3.350    0.701
       140  -9.9965    163.9796     72.4785   6.2877279395e+01   3.4199475962e+01    0.2191632    0.1382045  85.35 0.0008102413    2.578    0.612
       141 -10.6974     52.6654     71.1274   9.4913631892e+01   5.6577928090e+01    0.4366869    0.3267071  77.52  0.002229386    2.178    0.541
       142 -10.6481     17.5855     70.7783   1.0805315315e+02   6.0020175484e+01    0.2883738    0.1999331  49.94  0.001706051    1.950    0.487
       143 -10.5600    148.6774     69.1214   6.5177229760e+01   3.8519517055e+01     0.369823    0.2119975  63.79  0.001472131    2.059    0.514
       144 -10.4127    140.6732     67.4399   6.6508102538e+01   4.0734508727e+01    0.3050057    0.1526533  57.80  0.001155426    2.186    0.543
       145  -9.9868    123.3084     67.3485   7.0860731499e+01   4.4768773610e+01    0.3302703    0.1968731  57.64  0.001385082    1.914    0.478
       146 -10.3294     38.7532     65.5975   9.8547998072e+01   5.9340843927e+01    0.3106366    0.2087751  51.17  0.001654045    2.128    0.530
       147 -10.1816    111.9840     64.8507   7.3144873966e+01   4.7703495111e+01    0.3862436    0.2460938  72.10  0.001507977    2.707    0.631
       148  -9.9354    102.0122     62.0240   7.5098144608e+01   5.0294632289e+01    0.3187096    0.2123759  71.95  0.001310405    2.591    0.614
       149 -10.8925     75.1066     60.6756   8.3402392146e+01   5.5495619039e+01    0.4910338    0.3047299  55.64  0.002214197    2.371    0.578
       150 -10.2471     26.5673     60.2110   1.0182930735e+02   6.1629526189e+01    0.3382272    0.1619351  44.70  0.001535321    3.195    0.687
       151  -9.9545    132.3265     58.7447   6.5678862375e+01   4.4201483768e+01    0.2848039     0.187143  64.39  0.001182393    1.769    0.435
       152 -10.8406      8.9294     58.2647   1.0850198061e+02   6.3298624393e+01    0.3492005    0.2181053  52.17  0.001795894    2.444    0.591
       153 -10.2963    121.1669     57.1709   6.7985949228e+01   4.7037228922e+01     0.417733    0.2219345  62.66  0.001600815    2.494    0.599
       154 -10.4052     45.3799     56.4736   9.3103618940e+01   6.0510999396e+01    0.3164628    0.2411461  75.26  0.001667396    2.339    0.573
       155 -10.2344     64.0035     55.6434   8.5635194451e+01   5.8200684195e+01    0.3663859    0.2282439  49.81  0.001773625    2.172    0.540
       156 -10.3450     55.1863     55.4093   8.8895126138e+01   5.9491851428e+01    0.3126706    0.2346816 -74.12  0.001621204    2.117    0.528
       157  -9.8955    107.4548     54.4836   7.0825560547e+01   5.0496849907e+01    0.3187136    0.2152604  82.81  0.001262155    2.913    0.657
       158 -10.7984     32.8565     52.7023   9.6971832058e+01   6.2612914484e+01    0.4293489    0.2789973  52.51  0.002246744    2.505    0.601
       159 -10.3954     94.0109     52.0554   7.3990810668e+01   5.3657566904e+01    0.4102489    0.2965821  74.42  0.001883994    2.302    0.566
       160 -10.1684     21.6721     53.3177   1.0186189910e+02   6.3470956490e+01    0.3107904     0.154552  32.91  0.001624031    2.445    0.591
       161  -9.9334    131.1710     49.6740   6.2876974738e+01   4.5930692994e+01    0.2965322    0.1401592  63.20  0.001081428    2.613    0.617
       162 -10.2438     83.6528     47.7184   7.5723330582e+01   5.6362736811e+01    0.3889703    0.2250413  56.89  0.001689888    2.471    0.595
       163 -10.4233     45.9454     45.4713   8.9007200394e+01   6.2575219455e+01     0.256823    0.1797628  46.93   0.00142297    1.986    0.496
       164 -10.5401     18.3651     45.7132   1.0097256582e+02   6.5268940854e+01      0.40863    0.1781436  31.29  0.002065474    2.739    0.635
       165  -9.4895    134.2258     44.2243   6.0284294926e+01   4.6017112424e+01    0.2307341     0.121565  68.57 0.0008799151    2.462    0.594
       166 -10.1790     58.9094     43.6574   8.3109084823e+01   6.1154650081e+01     0.291158    0.2231431 -89.69  0.001410324    2.834    0.647
       167 -10.6949      6.0612     42.7484   1.0559895532e+02   6.6676991827e+01    0.3686343    0.2601528  87.68  0.002186873    2.288    0.563
       168 -10.1182    107.6698     42.7642   6.6464674937e+01   5.2325124981e+01    0.2905608    0.1992536  61.00  0.001405326    1.700    0.412
       169 -10.3953     70.7370     42.6100   7.8242510809e+01   5.9482993562e+01    0.4397012    0.2502399  56.85  0.001873787    2.964    0.663
       170 -10.2650     37.9114     41.3758   9.0867939299e+01   6.4276450476e+01    0.2784061    0.2041046  53.36   0.00157421    2.206    0.547
       171  -9.9969     97.1292     39.3676   6.8210703984e+01   5.5061259211e+01    0.2699316     0.183777  64.49  0.001291382    1.967    0.491
       172  -9.9293     82.4928     38.0043   7.2296402670e+01   5.8142689639e+01    0.2795196    0.1822369  64.96  0.001269109    2.528    0.604
       173 -10.7240     27.3168     36.5156   9.3746785184e+01   6.6267289958e+01    0.2319182    0.1974214  68.48  0.001480247    1.995    0.499
       174  -9.8813    113.2561     35.9761   6.2408637633e+01   5.2064366778e+01    0.2821334    0.1865605  88.13  0.001165828    2.771    0.639
       175 -10.2807     62.2233     33.4896   7.7690347108e+01   6.2341053398e+01    0.3833976     0.211144  55.40  0.001645175    3.202    0.688
       176 -10.5306     50.8886     33.6972   8.2298478915e+01   6.3992020365e+01    0.2838095    0.2174686  64.07  0.001536563    2.432    0.589
       177  -9.3581    121.4826     34.0000   5.9622636126e+01   5.0445339678e+01    0.3155167   0.07735396  56.70 0.0009337093    3.926    0.745
       178 -10.3433     74.4865     32.3996   7.2722974992e+01   6.0443917705e+01    0.3998368    0.1999513  53.07  0.001739288    2.620    0.618
       179  -9.9607    166.3179    249.3199   1.0041908686e+02   2.0864681951e-01    0.1191051   0.08418768  11.74 0.0007041845    1.662    0.398
       180 -10.2874     83.1822     28.8134   6.8275396080e+01   5.9339936504e+01    0.3621255    0.2467653  75.76  0.001629732    2.884    0.653
       181 -10.2756      4.3287     27.9873   1.0168598917e+02   6.9623942398e+01    0.2553443    0.1862236 -80.71  0.001588623    2.232    0.552
       182  -9.6731    245.5092    247.4690   8.5989536924e+01  -1.1045561296e+01    0.1158476    0.0834178   9.71  0.000232579    1.050    0.048
       183  -9.2614    105.9994     23.5187   5.9469729062e+01   5.5268398604e+01    0.1828248    0.1226479  86.80 0.0008097364    2.526    0.604
       184 -10.4071     64.6851     21.4931   7.1480180507e+01   6.3673157467e+01    0.3079763    0.2520087  74.17  0.001765746    2.119    0.528
       185 -10.6605     50.7585     22.0881   7.7236088235e+01   6.5797202398e+01    0.4013411     0.179635  43.48  0.001893345    2.565    0.610
       186  -9.8852    237.8155    239.6168   8.6028274600e+01  -9.1109095405e+00    0.1509954    0.0944837  36.77 0.0003671509    1.567    0.362
       187  -9.6950    103.0188     30.1961   6.2912223244e+01   5.5094892710e+01    0.2154609    0.1654122  88.25  0.001083927    1.971    0.493
       188  -9.8680     40.1168     19.2424   8.0514858233e+01   6.7685411857e+01    0.2073756    0.1597802 -55.41  0.001236951    2.103    0.525
       189  -9.2728    147.3437     26.6588   5.1611528509e+01   4.5099494159e+01    0.1491171    0.1042058 -66.92 0.0007047841    1.782    0.439
       190  -9.3374     73.9766    229.0000   1.1570380278e+02   1.7569859112e+01    0.1920601   0.05928262  37.97 0.0007981358    2.913    0.657
       191  -9.2199      8.3299     15.6695   9.4721923563e+01   7.1519298654e+01   0.09409896   0.08976128 -72.16 0.0007051738    1.716    0.417
       192 -10.4926     75.3920     20.2904   6.7149036834e+01   6.1921332886e+01      0.40082    0.2460985  58.63  0.002006548    2.159    0.537
       193  -9.9876     40.5457     13.1143   7.7350374396e+01   6.8487165517e+01    0.1829154    0.1023156 -30.63 0.0009709467    1.604    0.376
       194 -10.3428    162.5150    225.5180   9.7769419325e+01   4.4834016757e+00    0.3569914    0.2161313  19.76  0.001758801    2.079    0.519
       195  -9.4097     48.3311     10.6676   7.2743018960e+01   6.7680831706e+01    0.1067261   0.09747887 -50.33 0.0005294801    1.724    0.420
       196 -10.1783     99.0086    226.1581   1.1052719412e+02   1.4534201941e+01    0.2874577    0.1583058  34.16   0.00148985    1.862    0.463
       197  -9.8126     98.9675     16.4872   5.8453278090e+01   5.7595829470e+01     0.204134    0.1238934  55.34  0.001030579    1.597    0.374
       198  -8.9275    171.2623    225.6605   9.6070664292e+01   3.0154162409e+00    0.1171783   0.09788879  71.32 0.0002943068    1.589    0.371
       199 -10.5229    126.1873    220.8495   1.0440233067e+02   1.1283918365e+01    0.1962971    0.1574835  64.96 0.0005566314    1.252    0.201
       200  -9.5544    131.5059    214.4979   1.0242978531e+02   1.1592402990e+01    0.1311044    0.1167397  44.87 0.0008104037    1.036    0.034
       201  -9.8096    124.0577    205.9034   1.0275362034e+02   1.4489513258e+01      0.18822    0.1561383  63.90  0.001106699    1.180    0.153
       202 -10.0704     89.3195    199.6472   1.0937749890e+02   2.1315734250e+01     0.271245    0.1701378  68.24  0.001385951    1.724    0.420
       203 -11.6798    178.1776    198.6741   9.0176212959e+01   6.3727695464e+00    0.3950123     0.300249  62.84  0.002093223    1.716    0.417
