#   1 NUMBER                 Running object number                                     
#   2 MAG_AUTO               Kron-like elliptical aperture magnitude                    [mag]
#   3 X_IMAGE                Object position along x                                    [pixel]
#   4 Y_IMAGE                Object position along y                                    [pixel]
#   5 X_WORLD                Barycenter position along world x axis                     [deg]
#   6 Y_WORLD                Barycenter position along world y axis                     [deg]
#   7 A_WORLD                Profile RMS along major axis (world units)                 [deg]
#   8 B_WORLD                Profile RMS along minor axis (world units)                 [deg]
#   9 THETA_WORLD            Position angle (CCW/world-x)                               [deg]
#  10 FWHM_WORLD             FWHM assuming a gaussian core                              [deg]
#  11 ELONGATION             A_IMAGE/B_IMAGE                                           
#  12 ELLIPTICITY            1 - B_IMAGE/A_IMAGE                                       
         1 -12.9494    236.4832     26.1384   2.6017310437e+02  -6.0805747041e+01    0.1288208   0.08119663  16.35  0.004748715    1.609    0.378
         2 -12.6193    230.5891     26.9657   2.6008734143e+02  -6.0597061082e+01    0.1316062   0.05694577  15.92  0.003969961    2.412    0.585
         3 -11.6865    246.6891     14.4293   2.5960140168e+02  -6.1284580396e+01   0.04185386   0.03941726 -70.63  0.001884589    1.064    0.060
         4 -10.3929     11.5070      9.5077   2.5476855267e+02  -5.3272008744e+01   0.01786033   0.01773926 -30.29 0.0008105984    1.006    0.006
         5 -10.0674    147.9802    239.5506   2.7092821938e+02  -5.4837011815e+01   0.02848923   0.02379619  27.07  0.000598867    1.204    0.169
         6  -8.6697    120.5103    250.5585   2.7072420069e+02  -5.3789117608e+01   0.01785095   0.01765799 -55.07 8.387183e-05    1.011    0.011
         7  -9.7808    101.2981    250.3414   2.7017169139e+02  -5.3186436417e+01   0.03788286   0.02547668  42.16 0.0009310048    1.517    0.341
         8 -10.3500    101.3240    246.3550   2.6996180339e+02  -5.3251793956e+01   0.06448827   0.04249955 -10.54  0.002269153    2.020    0.505
         9  -9.1133     75.0000    250.0359   2.6944039647e+02  -5.2358403161e+01   0.03737916   0.01690504  31.38 0.0008149374    2.124    0.529
        10 -11.3633     76.1369    244.6954   2.6919213026e+02  -5.2478910102e+01    0.0400109   0.03221379  33.76 0.0004555163    1.238    0.193
        11 -18.7686     16.8091    214.3829   2.6613298773e+02  -5.1030073248e+01     1.177676    0.6056257  24.02   0.03468836    1.935    0.483
        12 -10.4419    193.7741    195.9709   2.6983901901e+02  -5.7005798630e+01   0.06715119   0.03332289  -5.51  0.001469126    5.369    0.814
        13 -11.3653     69.0660    194.2018   2.6632174273e+02  -5.3016449072e+01   0.04468655   0.03338127  -4.87 0.0006605508    1.523    0.343
        14 -14.5011     68.5124    147.8949   2.6375679836e+02  -5.3644878858e+01    0.3196651    0.2092679  -0.86   0.01160272    1.792    0.442
        15 -10.4719     55.1062    194.0026   2.6596975024e+02  -5.2565202976e+01   0.04650305   0.03618477 -22.82  0.001723067    1.412    0.292
        16 -11.4831    128.9031    185.3868   2.6737606584e+02  -5.5089273151e+01   0.04393256   0.03841697 -37.98  0.001900582    1.161    0.139
        17 -11.0883     72.0546    186.0698   2.6595292586e+02  -5.3231264052e+01   0.05061305   0.03429467 -32.93 0.0009792555    1.640    0.390
        18  -9.3828     78.2674    184.0248   2.6599403043e+02  -5.3463293372e+01   0.02713021    0.0233554  54.81 0.0005483748    1.218    0.179
        19 -13.0014    127.6823    229.8666   2.6981361022e+02  -5.4354137919e+01    0.1169489   0.06421573 -59.72  0.003884765    1.775    0.437
        20 -10.8296    173.6614    171.7638   2.6782737268e+02  -5.6744909727e+01   0.04961023   0.04015434 -16.30  0.002039577    1.370    0.270
        21 -11.1829    180.8973    169.0827   2.6787569357e+02  -5.7019896712e+01   0.04773891   0.03652896 -10.67   0.00146397    1.507    0.337
        22 -11.0078    177.2830    170.0206   2.6782773300e+02  -5.6888721261e+01   0.04221148   0.03338175 -18.25  0.001439344    1.418    0.295
        23 -10.5270    172.0444    176.0674   2.6803432270e+02  -5.6626306894e+01   0.04641863   0.03971293 -17.24  0.001307252    1.256    0.204
        24 -10.4191    141.5549    180.8933   2.6746289899e+02  -5.5566997907e+01   0.04463772   0.01895187  12.29  0.001150628    3.455    0.711
        25  -8.9407     91.6872    176.3181   2.6590139672e+02  -5.4012286835e+01   0.04640045   0.02188626 -16.60  0.001055685    4.732    0.789
        26 -10.7709    104.9600    172.8382   2.6604099580e+02  -5.4496086164e+01   0.04593002   0.03205502   1.96   0.00101351    1.647    0.393
        27 -10.4353    101.6904    167.0007   2.6562918547e+02  -5.4473073205e+01   0.06665032   0.02114129  35.12  0.001046973    2.851    0.649
        28 -10.5671    234.3391    170.0684   2.6954448025e+02  -5.8718106653e+01   0.02634709   0.02374515  12.76  0.001147708    1.138    0.121
        29 -10.0879     86.4048    168.7700   2.6534962448e+02  -5.3947047992e+01   0.03099046   0.02222265  77.80 0.0007377518    1.673    0.402
        30 -10.4278     79.8484    164.5872   2.6495684906e+02  -5.3790585161e+01    0.0774553   0.04255938  75.18  0.001330761    2.828    0.646
        31 -11.5979     88.5553    163.1128   2.6508544963e+02  -5.4097239791e+01   0.07425825   0.05126236 -23.19  0.002772714    1.691    0.408
        32  -9.6682     85.0103    159.2289   2.6478136936e+02  -5.4034848205e+01   0.03499589   0.02559743  32.60 0.0003721932    1.348    0.258
        33 -10.3765    110.9447    167.3923   2.6588519250e+02  -5.4770367534e+01   0.03576779   0.02551184  -7.16 0.0009536234    1.648    0.393
        34  -8.7645    117.3208    165.6835   2.6595091086e+02  -5.5003579926e+01   0.01952952   0.01330791 -30.67 0.0003702943    1.661    0.398
        35 -10.2404    174.7053    180.0525   2.6834419708e+02  -5.6650058797e+01   0.04035242   0.02938354  28.62 0.0008398588    1.364    0.267
        36 -10.4328    128.4677    161.2955   2.6598689132e+02  -5.5431671643e+01   0.03667923   0.02987308 -15.30 0.0006701709    1.342    0.255
        37 -12.3680    110.1974    229.2886   2.6929439171e+02  -5.3807144469e+01   0.08255278   0.05301878 -51.87   0.00245745    1.521    0.343
        38  -9.2411    117.5113    159.0607   2.6557655598e+02  -5.5104967293e+01   0.02674516   0.01810567  19.71 0.0009121303    1.509    0.337
        39 -10.0848    238.9865    158.0069   2.6894511741e+02  -5.9060576210e+01   0.02185779   0.02165002 -49.57 0.0004809197    1.008    0.008
        40 -10.7785     82.3665    150.1550   2.6420731573e+02  -5.4072370324e+01   0.03278067    0.0309674  71.75 0.0004363433    1.095    0.087
        41 -11.0066     92.3785    154.4928   2.6469225342e+02  -5.4343086469e+01   0.03828681   0.03159725 -19.26  0.000285121    1.301    0.232
        42 -12.6944     87.9124    148.8272   2.6426388150e+02  -5.4273625143e+01    0.1107245   0.05426074  28.28  0.002993773    1.951    0.488
        43 -10.4736    102.8569    238.0206   2.6956117262e+02  -5.3434339598e+01   0.05025592   0.02418019  31.42  0.001176764    2.009    0.502
        44 -10.2059    125.4855    237.5498   2.7016813840e+02  -5.4159742558e+01   0.03807637   0.01794076  26.83   0.00120412    2.143    0.533
        45 -11.5555    133.2132    145.1416   2.6516927953e+02  -5.5818350427e+01     0.123344   0.04361612  15.09  0.003008737    3.809    0.737
        46 -10.2182    119.7569    145.4122   2.6484495809e+02  -5.5371443009e+01   0.04236577   0.02611287  31.87  0.000188202    1.579    0.367
        47 -10.9563    108.8349    145.3095   2.6456856297e+02  -5.5012668019e+01   0.03724423   0.03596718  -8.24 0.0006894926    1.042    0.040
        48  -9.8443     47.1409    144.1242   2.6306450723e+02  -5.2986652667e+01   0.04535578   0.02623711  -6.04  0.001312655    2.252    0.556
        49 -10.7195     36.7427    142.4424   2.6274407255e+02  -5.2663393362e+01   0.04371123   0.03069306  16.45 0.0009785773    1.451    0.311
        50  -9.5353    127.6514    137.3606   2.6457189077e+02  -5.5743712958e+01   0.03218721   0.02612054 -29.56 0.0007761481    1.304    0.233
        51  -9.7939     25.7975    137.5971   2.6224400367e+02  -5.2361496708e+01   0.05136032    0.0212079 -55.53  0.001339049    2.245    0.555
        52  -8.4334    168.3351    136.6512   2.6558287533e+02  -5.7093419940e+01   0.02016949   0.01316672 -30.01 0.0007047613    1.779    0.438
        53 -11.7266    104.7887    131.6477   2.6368021415e+02  -5.5064539746e+01   0.08020121   0.04714334  52.34  0.001618987    1.928    0.481
        54 -11.3584     90.5444    131.6628   2.6334589324e+02  -5.4591352303e+01   0.03980848   0.03104595  32.15 0.0003923079    1.268    0.211
        55 -10.9539     43.3214    130.4530   2.6222271525e+02  -5.3035248762e+01    0.0574685   0.04377938 -36.30  0.002316206    1.368    0.269
        56 -11.1077    135.0000    121.9999   2.6384432757e+02  -5.6196804695e+01    0.1064597   0.01087544  23.22  0.001758349    7.784    0.872
        57  -9.3004     82.1005    128.7956   2.6298696223e+02  -5.4348207971e+01   0.02796904   0.02318958 -34.86 0.0005583381    1.243    0.196
        58 -11.7938    114.5656    228.4886   2.6937169441e+02  -5.3959050896e+01   0.06003233   0.04679861  22.48  0.001163974    1.304    0.233
        59  -9.4904    161.3512    127.9877   2.6487349613e+02  -5.6986356684e+01   0.04170072   0.01549083 -54.35  0.001200731    2.477    0.596
        60 -10.6819    112.1942    126.0650   2.6353121768e+02  -5.5385001146e+01    0.0497528   0.03023956 -85.14  0.001200273    1.952    0.488
        61 -10.1169     47.0067    124.3104   2.6195864577e+02  -5.3235513290e+01   0.04257082   0.03074364  66.87  0.001635834    1.579    0.367
        62 -10.2840     99.0191    121.1740   2.6293564673e+02  -5.5011039977e+01   0.03709534   0.02890687  77.42 0.0007143582    1.436    0.304
        63 -10.4363    117.0095    121.4956   2.6337760338e+02  -5.5605809078e+01   0.02799933   0.01808914 -70.11 0.0005845035    1.571    0.363
        64 -10.9055     53.2704    119.5792   2.6182648178e+02  -5.3503950965e+01   0.06263996   0.02773559  40.40  0.001934192    2.259    0.557
        65 -10.1456     59.2761    120.1554   2.6198812260e+02  -5.3697500639e+01   0.05454066   0.02062309 -59.94  0.001099247    2.398    0.583
        66 -11.8182     97.9783    227.6486   2.6887337500e+02  -5.3443163444e+01     0.102579   0.07981649  46.85  0.004207128    1.334    0.251
        67  -9.8057    107.9564    116.0372   2.6284252208e+02  -5.5375877325e+01   0.02720907   0.02589539 -29.67 0.0003009135    1.056    0.053
        68 -10.4963     40.7558    113.3048   2.6121026835e+02  -5.3162356313e+01   0.05945381   0.01970051 -59.24   0.00166537    2.657    0.624
        69  -9.2383     80.9460    111.5217   2.6196698934e+02  -5.4530830648e+01   0.02717305   0.01755091 -64.69 0.0008667154    1.517    0.341
        70 -12.3211     86.7694    221.8661   2.6826472693e+02  -5.3174211149e+01    0.1321189   0.05973054 -52.43  0.004204183    2.109    0.526
        71  -9.6762    134.4927    105.4604   2.6283829933e+02  -5.6399020134e+01   0.03356872   0.01781234   2.50  0.001030699    2.417    0.586
        72  -9.2476     71.5381    232.3036   2.6842085603e+02  -5.2525389160e+01   0.02594674   0.01621424  38.83 0.0009415193    1.598    0.374
        73 -10.7370    111.5096    104.8414   2.6226279421e+02  -5.5638565830e+01   0.03621149   0.02748002  62.88 0.0006420392    1.453    0.312
        74  -9.0680     88.7822     97.1478   2.6130094575e+02  -5.4972057279e+01     0.024982   0.02058516  60.24 0.0003942521    1.288    0.223
        75 -10.6968     71.9538    224.8879   2.6803972685e+02  -5.2652504019e+01   0.06274653   0.02585213  27.18  0.001892874    2.368    0.578
        76 -10.9024    110.2989    223.0397   2.6895899187e+02  -5.3909292497e+01   0.04024042   0.02947747  11.39 0.0006058419    1.490    0.329
        77 -12.4468     28.5362     88.2554   2.5955681270e+02  -5.3046419129e+01    0.1033845   0.03260762  42.03  0.002668015    3.277    0.695
        78 -10.6477     35.9585     88.2453   2.5969999783e+02  -5.3297159015e+01   0.04690973   0.02347979 -56.98   0.00110014    1.890    0.471
        79 -10.4406     43.9032     88.1745   2.5985182348e+02  -5.3566243355e+01   0.02997765   0.02447924 -34.19  0.000882187    1.263    0.208
        80  -9.4145     57.9682     85.4628   2.5997643532e+02  -5.4072682568e+01   0.02827261    0.0115337 -46.65 0.0008091091    2.519    0.603
        81  -9.7681    194.4904    224.5206   2.7150484301e+02  -5.6552012385e+01   0.03802531   0.01791151  28.42  0.001202443    2.136    0.532
        82 -10.6358    174.7071    222.7379   2.7079505222e+02  -5.5959967621e+01   0.04033569   0.02894295  63.32  0.001174018    1.662    0.398
        83  -9.2979    117.9583     80.7029   2.6095912442e+02  -5.6154686851e+01   0.02453961   0.02313536 -56.15 0.0002842776    1.053    0.051
        84 -10.1555    106.1793    215.3022   2.6842649210e+02  -5.3898399406e+01   0.03608723   0.02744101  71.26  0.001192661    1.549    0.354
        85  -9.2141    247.0000    214.9997   2.7266309734e+02  -5.8353999773e+01   0.02953145   0.01030806  29.71 0.0004952655    2.873    0.652
        86 -11.8054    148.1033    225.0911   2.7013715433e+02  -5.5079774805e+01    0.1021666   0.03359449  23.77  0.001625898    3.484    0.713
        87 -11.9851    186.2641     63.8220   2.6147920046e+02  -5.8662044768e+01   0.05728151   0.05352931  80.95 0.0007553201    1.103    0.094
        88 -10.2685     83.4616     64.4691   2.5925701625e+02  -5.5176276393e+01   0.05762156   0.02223869 -44.80   0.00065933    2.771    0.639
        89 -13.4931    202.9342     51.7699   2.6109376796e+02  -5.9370353918e+01    0.1754469    0.1201015  61.22  0.004262678    1.654    0.395
        90 -12.4636    209.0202     47.0808   2.6092981139e+02  -5.9631964838e+01   0.07559483   0.06333555  38.65  0.001313012    1.196    0.164
        91 -10.1629     77.0103     60.7564   2.5890820768e+02  -5.4998472524e+01   0.03285626   0.03011127 -45.67  0.000669106    1.089    0.081
        92  -9.2631    165.0000    210.9598   2.6984064588e+02  -5.5846691538e+01    0.0296196   0.01034327  27.09 0.0007926868    2.875    0.652
        93 -11.1841     16.6637     41.4269   2.5668304530e+02  -5.3144201432e+01   0.03769174   0.02217784  22.66  0.001026387    1.647    0.393
        94  -8.6277    132.4616     33.5510   2.5835058518e+02  -5.7186423289e+01    0.0180632   0.01764325 -38.35 0.0001322725    1.020    0.019
        95  -9.3571     56.0381     32.5284   2.5684369916e+02  -5.4580902826e+01   0.02719357   0.01760935 -69.88 0.0004740493    1.522    0.343
        96  -8.6532     65.2785    249.2769   2.6914380627e+02  -5.2061651561e+01   0.01789301   0.01364749  62.10 0.0002388827    1.500    0.333
        97 -10.8089     68.9410    243.7706   2.6895388750e+02  -5.2264423707e+01   0.04581011   0.03480139  68.71  0.001233908    1.551    0.355
        98  -9.9656     60.6141     21.2088   2.5625034209e+02  -5.4850212087e+01   0.03399201   0.02506583 -68.94 0.0008433549    1.338    0.253
        99  -9.1662     70.3122    238.9079   2.6873577279e+02  -5.2383948181e+01   0.02648797   0.01485102  37.46 0.0005357026    1.760    0.432
       100 -10.1195    210.9323    198.6823   2.7052691637e+02  -5.7505004737e+01   0.03177217   0.02688031  13.60 0.0004570426    1.237    0.191
