#   1 NUMBER                 Running object number                                     
#   2 MAG_AUTO               Kron-like elliptical aperture magnitude                    [mag]
#   3 X_IMAGE                Object position along x                                    [pixel]
#   4 Y_IMAGE                Object position along y                                    [pixel]
#   5 X_WORLD                Barycenter position along world x axis                     [deg]
#   6 Y_WORLD                Barycenter position along world y axis                     [deg]
#   7 A_WORLD                Profile RMS along major axis (world units)                 [deg]
#   8 B_WORLD                Profile RMS along minor axis (world units)                 [deg]
#   9 THETA_WORLD            Position angle (CCW/world-x)                               [deg]
#  10 FWHM_WORLD             FWHM assuming a gaussian core                              [deg]
#  11 ELONGATION             A_IMAGE/B_IMAGE                                           
#  12 ELLIPTICITY            1 - B_IMAGE/A_IMAGE                                       
         1 -13.4340    219.6931     46.4887   2.5808712816e+00   2.4721790307e+01    0.8921113    0.7140884  40.07  0.001414866    1.631    0.387
         2 -12.6427    247.2018     24.5259   3.5552302045e+02   2.1844015938e+01     0.873877    0.4590366 -34.74  0.004785629    1.528    0.346
         3  -9.7633      1.4626     12.5790   6.4003528351e+01   7.7662404845e+01    0.2265876     0.111032 -63.56 0.0005935289    1.937    0.484
         4  -9.4553     61.4974      2.9971   1.4372525963e+01   6.9562245309e+01    0.1849494    0.1022683 -49.09 0.0008092616    2.436    0.589
         5  -9.0444      2.0183      2.1948   5.7728855077e+01   7.9755841196e+01    0.1907383     0.104358 -36.65  0.001043262    1.597    0.374
         6  -9.2975    185.4689    241.0202   4.7352106251e+01   1.6772606639e+00    0.1530661    0.1040443 -30.96  0.001045373    1.636    0.389
         7  -9.5351     74.4094    250.2906   7.0929841554e+01   1.4099119367e+01    0.2065702    0.1698166  -8.55 0.0009645601    1.627    0.385
         8  -9.4401     76.0000    245.9926   7.0278833654e+01   1.4631420562e+01    0.2886951     0.120714 -54.04  0.001470906    3.106    0.678
         9 -14.8638     55.5489    235.2255   7.4005246920e+01   1.8902331500e+01     5.305568     2.736436 -48.38   0.02792462    2.828    0.646
        10  -9.7945    103.4227    238.3429   6.3682554036e+01   1.2528195816e+01    0.2444663    0.1661961 -35.76 0.0008745235    1.959    0.489
        11 -10.4851     72.8987    232.8742   6.9957421527e+01   1.7300313955e+01    0.2321817    0.1963336  66.88 0.0007275199    1.259    0.206
        12  -9.1110    185.1337    233.1388   4.6333466700e+01   2.7245508116e+00    0.1419233    0.1230505  17.09 0.0005481564    1.319    0.242
        13 -11.8178    132.9175    229.6640   5.6353852609e+01   1.0052222871e+01    0.4015226    0.2998498  17.78  0.002521191    1.178    0.151
        14 -11.5030    126.7621    228.1135   5.7491811398e+01   1.1134500956e+01    0.4101222    0.2120585  22.92  0.002081133    1.817    0.450
        15 -12.8302     97.5545    223.7896   6.3525946968e+01   1.5815302778e+01      1.34646    0.5415267  45.13  0.002534214    2.239    0.553
        16 -11.8672     81.7944    221.1428   6.6911031808e+01   1.8365601701e+01    0.6719452    0.3142129  46.68  0.002017692    1.865    0.464
        17 -10.4225     90.6585    225.9028   6.5315087358e+01   1.6337921433e+01    0.3592189     0.213126  24.06  0.001132763    1.558    0.358
        18 -11.2642     88.6062    221.8941   6.5396777757e+01   1.7342245058e+01    0.4853165    0.3096629  64.68  0.002677081    1.864    0.463
        19 -11.1635    115.3908    228.2505   5.9997311550e+01   1.2647394963e+01    0.4089994    0.2897668 -87.11   0.00236194    2.219    0.549
        20 -10.3865    148.1471    228.4440   5.2991494636e+01   8.1890887851e+00    0.2035356    0.1725711 -81.95  0.001332017    1.904    0.475
        21 -10.5051     72.0608    225.4477   6.9549986559e+01   1.8775285807e+01    0.3561092    0.1736827  37.03  0.001656754    1.558    0.358
        22 -10.7754    173.9317    223.8201   4.7154263138e+01   5.4233903329e+00    0.4017335     0.190303  13.61  0.001772518    2.884    0.653
        23 -13.4858     43.9335    243.4104   7.7007460447e+01   1.8694555963e+01     1.134264    0.8554197  51.37  0.005048692    1.092    0.084
        24  -8.8253    118.4905    221.4789   5.8521478427e+01   1.3383043174e+01    0.1290394    0.1037854  29.88 7.928485e-05    1.003    0.003
        25 -15.6400     31.3316    182.1855   7.6463850955e+01   3.2619180913e+01     10.83964     3.426814  80.30    0.0319323    5.544    0.820
        26  -9.9019     95.8062    211.4398   6.2606855554e+01   1.8355579812e+01    0.3556803    0.1764551 -75.75  0.001548296    3.176    0.685
        27  -8.9585    102.1397    211.1220   6.1064243424e+01   1.7538204826e+01    0.1855962    0.1597041  10.43 0.0002593946    1.234    0.190
        28  -9.6275    110.4681    201.4800   5.7879244075e+01   1.8194722262e+01    0.1354632    0.1149981  31.50 0.0002656697    1.014    0.014
        29  -9.6796    211.0061    198.7138   3.6326755883e+01   3.9946994414e+00    0.1908798    0.1454822 -13.98 0.0005124525    1.147    0.128
        30 -11.2876     68.3626    192.4937   6.7436372247e+01   2.5962947537e+01    0.4884469    0.2610422  71.78    0.0013735    2.472    0.596
        31  -9.4934    192.4938    193.9779   3.8890941662e+01   7.2091980562e+00    0.1537224     0.111303 -61.63 0.0008104099    2.586    0.613
        32 -14.6136      7.8879    189.8383   8.3011237293e+01   3.3004448881e+01     2.227106     1.091982  58.94   0.01096935    1.680    0.405
        33 -10.1799     74.0067    190.2669   6.5719330097e+01   2.5704648942e+01    0.3005472    0.1940405 -71.83 0.0009643728    1.748    0.428
        34 -11.1440    129.8308    190.8840   5.1736290955e+01   1.7290589029e+01    0.5238698    0.1824767  26.72  0.001698991    3.685    0.729
        35 -11.3540    107.7965    189.2579   5.6873900559e+01   2.1034200000e+01    0.4088831    0.3318169 -27.25  0.001982752    1.463    0.317
        36  -9.0526    207.4368    189.7588   3.5428772001e+01   5.7168853279e+00     0.166412     0.100149 -21.39 0.0009335167    1.599    0.375
        37 -14.1708     18.8389    237.2890   8.2108232991e+01   2.2322695627e+01    0.7590115    0.5656328  87.62  0.003006416    1.453    0.312
        38  -9.6445     64.0378    182.6106   6.7563676555e+01   2.8741450807e+01    0.4258609     0.213148 -85.70  0.001575836    2.609    0.617
        39  -9.7745     60.1985    179.4319   6.8285025968e+01   2.9968181472e+01    0.2917425    0.2107829  75.76 0.0002838752    1.435    0.303
        40 -10.0870    115.9622    181.6220   5.3690288797e+01   2.1329409356e+01    0.2221836    0.1915835 -25.93 0.0006063302    1.306    0.234
        41  -9.5161    100.0042    181.0782   5.7708533773e+01   2.3953172639e+01    0.2084363    0.1834812  40.46 0.0002816964    1.014    0.014
        42  -9.2023    174.7210    180.0320   3.9948624949e+01   1.2085707262e+01    0.1853082    0.1595657 -11.61 0.0006609265    1.104    0.094
        43 -14.7831     10.0836    206.3238   8.3041525806e+01   2.9240974666e+01     0.861605    0.5124969  19.68  0.002827959    1.802    0.445
        44 -10.1756    171.9210    175.3750   3.9680644455e+01   1.3323801123e+01    0.2804918    0.2437966   2.40 0.0008142579    1.031    0.030
        45 -10.6663    173.7534    171.3020   3.8544571641e+01   1.3723155389e+01    0.3999542    0.3322253 -80.99  0.002201839    1.957    0.489
        46 -10.8649    180.8590    168.6982   3.6606326977e+01   1.2996198707e+01     0.354864    0.3146242  13.89   0.00220895    1.075    0.070
        47 -10.2714    178.6466    164.7487   3.6292536091e+01   1.4034329714e+01    0.5219401    0.3246817 -20.26  0.002553424    1.845    0.458
        48 -10.0641    104.0005    170.6815   5.5080723808e+01   2.5596927872e+01    0.3259717    0.2495501 -85.73  0.001659385    1.631    0.387
        49  -9.8719    101.2173    168.1458   5.5428933087e+01   2.6612994423e+01    0.4321452    0.2868457 -37.38 0.0009125327    1.835    0.455
        50 -10.4937     78.2954    167.6239   6.1754876992e+01   3.0274099101e+01    0.5076325    0.2938587  87.73  0.002103196    2.462    0.594
        51 -13.0026     66.8142    126.1781   5.8787782171e+01   4.2370034861e+01     1.840197     1.026249 -76.00  0.007388684    2.106    0.525
        52 -12.3434     58.5170    129.1216   6.2189111526e+01   4.2788085171e+01     1.460263    0.5440944 -70.54  0.004884196    3.019    0.669
        53 -11.3946     53.9980    121.9897   6.2602252899e+01   4.5285541125e+01    0.7154906    0.4021291 -72.90  0.001783601    1.841    0.457
        54 -12.8092     82.7998    143.9021   5.6726520735e+01   3.5351339419e+01     3.354934     1.324481 -66.43   0.01129488    3.085    0.676
        55 -12.2044     75.7225    150.5854   6.0017648135e+01   3.4791545352e+01    0.9288328     0.621417 -49.08 0.0004008035    1.643    0.392
        56 -11.6171     61.3985    161.7135   6.5923164438e+01   3.4058838351e+01    0.4561326     0.373467 -15.36  0.002430228    1.570    0.363
        57 -11.8747     66.1807    157.8184   6.3981068527e+01   3.4373914187e+01    0.6710953    0.5350633  40.63  0.001705448    1.154    0.134
        58 -13.2348     63.2103    145.6696   6.3197571852e+01   3.7842393306e+01      0.71203    0.6033196 -11.76  0.001155189    1.458    0.314
        59  -9.9929    110.5669    167.1329   5.2748189174e+01   2.5299553396e+01    0.2804759     0.250206  77.09 0.0004561495    1.254    0.203
        60 -10.1196     52.3428    164.4631   6.8941704174e+01   3.4534693723e+01    0.4772184    0.2512982  41.56  0.001354375    1.662    0.398
        61  -9.3076    129.1007    162.3784   4.7098922065e+01   2.3132675193e+01    0.2467239    0.2084115 -58.06 0.0004933767    1.333    0.250
        62 -11.0060    238.2352    161.7379   2.5302731613e+01   5.3338277630e+00    0.2770481    0.1860305   9.88  0.001400741    1.543    0.352
        63  -9.9150     96.2444    161.3792   5.5712284935e+01   2.8965622015e+01    0.8531823    0.4571031  68.45  0.002896599    3.521    0.716
        64 -10.8670     90.9067    152.8867   5.5830322693e+01   3.1840663467e+01    0.4423838      0.33221  78.34  0.001516494    1.583    0.368
        65  -9.7008     88.7031    149.3366   5.5874445603e+01   3.3057982389e+01    0.2462609    0.1890585  50.52 0.0004055823    1.254    0.202
        66  -9.9969     43.2658    156.2209   7.0812568004e+01   3.7660569716e+01    0.5057309    0.3122086  50.05  0.001815073    1.482    0.325
        67  -9.7673    126.3550    156.7098   4.6732715251e+01   2.4823876609e+01    0.3203567     0.239526  77.96  0.001119168    1.911    0.477
        68 -10.3220     34.7676    157.1674   7.3522094095e+01   3.8341691739e+01    0.4773034    0.3049889 -82.93  0.001783066    1.538    0.350
        69 -12.6142     70.1615    144.8806   6.0858818030e+01   3.7051380070e+01    0.7606617    0.5300553  71.73  0.002521005    1.619    0.382
        70  -9.6230     29.6851    152.8824   7.4718281011e+01   3.9936485275e+01    0.2652635    0.1854053 -73.89 0.0009584001    1.403    0.287
        71  -8.8647     56.2331    159.3802   6.7194393456e+01   3.5307016787e+01    0.1985757    0.1175457  40.25 0.0002713099    1.509    0.337
        72 -10.7284    133.8453    146.0051   4.2675850307e+01   2.5730041350e+01    0.8365583    0.2904263 -54.74  0.002567259    3.817    0.738
        73  -9.7638    122.6256    148.8837   4.6180000537e+01   2.7206808359e+01    0.3534467    0.2541433 -75.21  0.001465456    1.880    0.468
        74  -9.3568    114.3625    147.0418   4.8051722011e+01   2.9137573882e+01    0.2041573     0.185892 -63.71 0.0004835911    1.180    0.152
        75 -10.4812    109.0377    145.2635   4.9188902790e+01   3.0514399298e+01    0.3078737    0.2771327  44.31 0.0006599801    1.053    0.051
        76 -10.3005     36.8616    142.3738   7.1388673303e+01   4.1919697563e+01    0.3088764    0.2178728 -88.67 0.0009302832    1.382    0.276
        77 -14.1600     44.8571    174.2520   7.2085783544e+01   3.3042158299e+01     10.40475     3.325148  87.26   0.02239997    9.851    0.898
        78  -9.6759     42.3469    139.5564   6.9232933938e+01   4.2057908538e+01    0.3454399    0.1880821  44.69  0.001052797    1.715    0.417
        79 -10.1634    114.7399    136.2169   4.5717336250e+01   3.1546767723e+01    0.3112156    0.2478197 -67.84  0.001053607    1.418    0.295
        80 -10.6688     99.6980    133.4928   4.9536926316e+01   3.5004160248e+01    0.6376749    0.4012611   6.27  0.002123724    2.825    0.646
        81 -10.5565    105.4033    130.9289   4.7278628809e+01   3.4559654912e+01    0.4219112    0.4007384 -45.98  0.001217015    1.102    0.093
        82 -11.5809     86.0002    132.2227   5.3544616736e+01   3.7738650860e+01    0.3043498    0.2853852 -49.94 0.0004463852    1.130    0.115
        83 -15.6888      4.5076    234.2747   8.5051874341e+01   2.4170041786e+01     3.050147    0.8683922 -86.07   0.01398891    3.713    0.731
        84 -10.0166     44.0746    130.8662   6.7516923709e+01   4.4154106820e+01    0.3154429    0.1965193 -65.62  0.001477768    1.554    0.356
        85  -9.1486    123.4375    130.9281   4.2138297773e+01   3.1054167395e+01    0.2170125    0.1382246 -75.91  0.000807246    2.593    0.614
        86  -9.4159    136.0000    130.0305   3.8619352902e+01   2.8724594755e+01    0.2507162   0.08700889 -46.54 0.0008036171    2.951    0.661
        87 -10.0271    109.7213    126.2848   4.4966907988e+01   3.4829767261e+01    0.2794569    0.2525269  18.46 0.0004267331    1.175    0.149
        88  -9.7385     32.1865    125.7339   7.1105389733e+01   4.6797847821e+01    0.3420502    0.2329305  -7.68 0.0006688218    1.951    0.487
        89 -10.2476     96.2913    121.3948   4.7955154512e+01   3.8582294159e+01    0.3010862    0.2683474  23.75 0.0006066244    1.183    0.155
        90 -10.3275     45.3274    121.4401   6.5694122825e+01   4.6522317870e+01    0.6208606    0.2092582  48.54  0.001981201    3.368    0.703
        91  -9.7127     26.1507    116.1645   7.2202139568e+01   4.9930789248e+01    0.2499451    0.1880561  73.95 0.0006995277    1.297    0.229
        92  -9.2067    106.3224    116.0719   4.3572408500e+01   3.7916586878e+01    0.2136481    0.1975703 -60.94 0.0002834912    1.108    0.098
        93  -8.6574     46.1711    115.1447   6.4363129504e+01   4.8109704924e+01    0.2044012    0.1602807  61.40 0.0003725784    1.288    0.224
        94 -10.0499    243.6635    114.3336   1.5176035339e+01   1.1045667901e+01    0.1814712    0.1296492 -55.30 0.0007447188    1.694    0.410
        95 -10.7925     52.4989    109.9807   6.0997577813e+01   4.8687429463e+01    0.3088798    0.2604508 -70.87  0.001089877    1.155    0.134
        96  -9.9949     32.4652    109.5266   6.8837977015e+01   5.1133503214e+01    0.2351588    0.1813089 -88.93 0.0006184539    1.262    0.207
        97  -9.7919     28.5196    107.9935   7.0204359535e+01   5.1923077801e+01    0.2445986    0.1788591  41.53 0.0005575727    1.371    0.271
        98 -11.0370     23.7385    104.6030   7.1694363164e+01   5.3256831655e+01    0.4456765     0.317872  50.79  0.002045688    1.417    0.294
        99 -11.1416     50.2386    142.3701   6.6959492052e+01   4.0391811984e+01      1.13518    0.4216319  55.91  0.003597371    3.601    0.722
       100  -9.4560     20.0125    108.4882   7.3698820893e+01   5.2506721631e+01    0.2024822    0.1342798  26.68  0.001015438    1.571    0.363
       101 -10.1161    133.5956    104.1368   3.2762958944e+01   3.4772617650e+01    0.4832243    0.2994461 -72.00  0.001735584    2.764    0.638
       102 -10.2190    112.8944    102.6337   3.8105438064e+01   3.9672184777e+01    0.3116955    0.2375031 -61.08  0.001425044    1.425    0.298
       103 -10.7487     50.7208     98.4056   5.9358366661e+01   5.2007130081e+01     0.314261     0.223232  66.45 0.0009391581    1.617    0.381
       104  -9.6553     58.0415     98.4563   5.6371363432e+01   5.0963662239e+01    0.2256209    0.1498293  30.19 0.0004538809    1.543    0.352
       105 -10.2454     82.0057     95.4448   4.6344913979e+01   4.7689617231e+01    0.6889636    0.3848571  71.36  0.002042674    4.032    0.752
       106  -8.4329     71.2438     93.3617   4.9846229516e+01   5.0158779387e+01    0.1572089    0.1165747 -30.51  0.000343802    1.602    0.376
       107 -10.5211     48.6447     88.1282   5.7908344680e+01   5.4993884871e+01    0.2911791     0.234024  60.26 0.0004093304    1.343    0.255
       108 -10.4328     41.8185     92.2266   6.1837527516e+01   5.4774364650e+01    0.3013415    0.2549251  54.26  0.000643196    1.221    0.181
       109 -10.7395     45.8855     91.1369   5.9817966581e+01   5.4563148351e+01    0.3419241    0.2703293  33.20 0.0008575689    1.293    0.227
       110  -9.6622     23.8966     93.0445   6.9954980990e+01   5.6360074050e+01    0.3522675    0.2093638  22.19  0.001662453    1.783    0.439
       111  -9.9305     53.7187     91.5823   5.6543103426e+01   5.3389596632e+01    0.2188821    0.1337191  42.44 0.0009491868    1.661    0.398
       112  -8.3527     71.5030     85.5441   4.7569485657e+01   5.2065627879e+01    0.1533059    0.1501133  73.49 8.514466e-05    1.019    0.019
       113  -8.5327     93.9903     81.0620   3.7799083198e+01   4.8671864166e+01     0.185926    0.1797865 -58.95 0.0004182744    1.048    0.045
       114  -8.8064    115.4161     78.1839   3.0088510027e+01   4.4422745553e+01    0.2197642    0.1477863 -55.36 0.0005526391    1.627    0.385
       115  -9.6202     60.8101     77.7859   4.9752416315e+01   5.5819028215e+01    0.3066981    0.1990388  43.70 0.0009608553    1.576    0.365
       116 -10.1924     38.1038     75.8738   5.9795416171e+01   5.9503745828e+01    0.4776396     0.126837  38.10  0.001494677    3.628    0.724
       117  -8.2190    130.4816     75.4468   2.5150231258e+01   4.1326559904e+01    0.1592801     0.146885 -84.99  0.000116678    1.106    0.096
       118  -9.4379     86.2085     74.3661   3.8382661178e+01   5.1837174651e+01    0.2219172    0.1428421  52.98 0.0002908384    1.639    0.390
       119  -9.0858    102.0258     76.9698   3.3785690548e+01   4.7793007824e+01    0.2303771    0.2220143  81.02            0    1.041    0.039
       120 -10.1639     29.6902     71.3291   6.2922829250e+01   6.1584622731e+01    0.2953304    0.2302579  71.30  0.001050718    1.470    0.320
       121 -10.5308     24.2752     68.5774   6.5132006614e+01   6.2798107400e+01    0.3468944    0.2092089  37.27  0.001113304    1.753    0.430
       122 -10.4081    138.8736     65.5597   1.9992437202e+01   4.1052242973e+01    0.4710504    0.2893751 -66.74  0.001843627    2.244    0.554
       123 -11.8036    196.8684     61.7770   8.9518124679e+00   2.7606703257e+01    0.6671233    0.4036492  59.33  0.002006578    1.769    0.435
       124 -12.7959    208.8690     54.1395   5.5619256239e+00   2.6024752207e+01    0.8881148    0.7855529 -47.17  0.003174485    1.055    0.052
       125 -16.5424      6.3091    218.1808   8.4265990239e+01   2.7129605665e+01     3.760718     1.834928  31.87   0.01698709    1.668    0.400
       126 -12.1108      7.9634     60.5532   7.2590978859e+01   6.5972832798e+01    0.4822038     0.285328 -73.90  0.002429084    1.546    0.353
       127  -8.7294     46.1420     50.3705   4.7485285924e+01   6.4641198502e+01    0.2057507    0.1274318  43.06 0.0006656108    1.715    0.417
       128  -9.1135     29.0218     50.0000   5.7218100234e+01   6.6968983455e+01    0.2177152   0.07847395  24.21 0.0004018197    2.884    0.653
       129  -9.4112    142.4572     69.4592   2.0438521870e+01   3.9464361823e+01    0.3016877    0.1863209 -62.12 0.0005091106    2.042    0.510
       130  -8.6090     21.6882     52.6908   6.2544169410e+01   6.7030804315e+01    0.1467507   0.09186597 -34.01  0.000303583    1.624    0.384
       131 -10.4553     19.5223     32.7325   5.7145382138e+01   7.1922465398e+01     0.316214    0.1629769  32.58  0.001412593    2.023    0.506
       132  -9.0414     82.9756    245.7375   6.8760875642e+01   1.3840739106e+01     0.163783    0.1162891  37.07 0.0002773901    1.053    0.050
       133  -9.4984     21.5011     27.4726   5.3344509390e+01   7.2870768289e+01     0.132864    0.1175373 -21.23 6.263297e-05    1.002    0.002
       134  -9.6478     60.9473     21.1686   2.5650887733e+01   6.7423172502e+01    0.2655428    0.2112319  48.48 0.0007145386    1.205    0.170
       135  -9.7271      2.5165     21.9035   6.6763557947e+01   7.5567462021e+01    0.1938209    0.1719421  35.92  0.001275066    1.338    0.253
       136  -8.8912    146.8654    242.8351   5.5048911243e+01   6.2360839960e+00    0.1557104    0.1174807  37.88 0.0004687659    1.319    0.242
       137 -10.2938     67.3843    240.7429   7.1766337316e+01   1.6550244181e+01    0.3003606    0.1824092 -71.78  0.001841179    2.051    0.512
