#   1 NUMBER                 Running object number                                     
#   2 MAG_AUTO               Kron-like elliptical aperture magnitude                    [mag]
#   3 X_IMAGE                Object position along x                                    [pixel]
#   4 Y_IMAGE                Object position along y                                    [pixel]
#   5 X_WORLD                Barycenter position along world x axis                     [deg]
#   6 Y_WORLD                Barycenter position along world y axis                     [deg]
#   7 A_WORLD                Profile RMS along major axis (world units)                 [deg]
#   8 B_WORLD                Profile RMS along minor axis (world units)                 [deg]
#   9 THETA_WORLD            Position angle (CCW/world-x)                               [deg]
#  10 FWHM_WORLD             FWHM assuming a gaussian core                              [deg]
#  11 ELONGATION             A_IMAGE/B_IMAGE                                           
#  12 ELLIPTICITY            1 - B_IMAGE/A_IMAGE                                       
         1 -15.7183    176.6597     36.2072   6.5415386268e+01   3.6593147979e+01     2.374481     1.103804  49.38  0.009150877    2.095    0.523
         2 -15.6903    171.0973     88.0079   8.2404389153e+01   2.9961806840e+01      2.35784     1.303733 -27.54  0.009623935    2.009    0.502
         3 -15.9495    174.1191     54.2832   7.1756337183e+01   3.4700137215e+01     2.329571     1.843341  43.40  0.009511488    1.263    0.208
         4 -13.8971     48.3555     30.5547   9.8888654252e+01   6.4265786945e+01     1.109546    0.5011089  28.92  0.005244388    2.764    0.638
         5 -16.7730     82.6660     31.3245   8.6563038601e+01   5.8999227178e+01     4.520423     3.042141 -60.52   0.02195984    2.115    0.527
         6 -16.4059    105.0906     19.7786   7.4821820221e+01   5.6373388631e+01     2.577922      2.00148 -38.66   0.01005596    1.336    0.252
         7 -16.1369    134.6372      6.1613   6.2087381408e+01   5.1049394727e+01     2.910285    0.9871851  62.69   0.01025199    2.835    0.647
         8 -11.7598     77.6275    217.3768   1.2339357776e+02   2.3320121150e+01    0.1753887    0.1269877  64.12 0.0002503008    1.042    0.041
         9 -15.4922    226.9653    248.7826   1.0282459914e+02  -2.1397422101e+00     2.349986    0.3479904  41.64  0.008938774    4.526    0.779
        10 -17.4246    196.4008    238.4051   1.0614628541e+02   3.3012604970e+00     3.968184     1.227721  39.76   0.01802233    2.453    0.592
        11 -12.4350    117.6897    250.2297   1.1961866399e+02   1.3400661267e+01    0.1814497   0.09713562  50.88  0.001278894    1.337    0.252
        12 -19.4928     28.4298    144.9523   1.2677507719e+02   4.1989389421e+01     15.41403     2.373398 -73.03   0.05151392    5.602    0.821
        13 -11.7717     66.6418    204.7629   1.2428623455e+02   2.6716438753e+01    0.1843723    0.1584844 -55.50 0.0006703642    1.702    0.412
        14 -11.2653     48.8229    205.1977   1.2737582681e+02   2.8730418344e+01    0.1465549     0.097372  64.48 0.0003397821    1.117    0.104
        15 -15.9621    194.7551    109.7934   8.3397824430e+01   2.0893287682e+01     2.490308     1.539894 -62.92   0.00990661    2.771    0.639
        16 -12.5691     92.3958    234.9150   1.2234274019e+02   1.8813886345e+01    0.1886654    0.1421088  69.48 0.0005110244    1.160    0.138
        17 -15.8705    218.8265    148.5378   8.7766021734e+01   1.0119513996e+01     1.933084     1.707023  22.89   0.01214728    1.045    0.043
        18 -15.3945    237.8012    140.5264   8.2911030932e+01   7.4734802201e+00     1.501826     1.216241 -31.35  0.006513767    1.359    0.264
        19 -15.6694    188.7668    149.5820   9.3402301774e+01   1.5911748635e+01      1.66465     1.248439  22.55  0.007483802    1.399    0.285
        20 -16.4081    181.2889    176.7614   9.9786076218e+01   1.3308377730e+01     2.098355     1.747473  25.53  0.009090105    1.158    0.137
        21 -14.4997    163.7205    179.3651   1.0344973727e+02   1.6087042505e+01    0.8367231    0.6080087  37.08    0.0036884    1.246    0.198
        22 -17.9667     84.8279    128.6724   1.1186176473e+02   3.8687246080e+01     6.397302     3.079014 -64.07   0.03040031    2.060    0.514
        23 -12.2307    142.8038    177.3934   1.0710209500e+02   2.0058590427e+01    0.5150456    0.1774724 -54.32  0.002075188    3.724    0.731
        24 -11.1828     57.8381    179.9175   1.2385285872e+02   3.2106497113e+01    0.1538058      0.13238  88.12 0.0005839898    1.224    0.183
        25 -11.5024     13.7128    209.7367   1.3337734187e+02   3.1552194676e+01    0.1036607   0.06444047  46.24 0.0003005567    1.483    0.326
        26 -14.3619    148.5083    157.4845   1.0276486224e+02   2.2381432094e+01     1.054107    0.6205116  31.76  0.005116696    1.976    0.494
        27 -12.7690    175.9621    125.5125   9.0789169145e+01   2.2421174901e+01    0.6443769    0.2334579 -39.51  0.002351468    2.892    0.654
        28 -11.5486     84.5642    234.8022   1.2357447245e+02   1.9838592015e+01    0.1563993   0.09073169 -65.31  0.001132537    2.075    0.518
        29 -12.8715    155.6467    117.6056   9.3227156672e+01   2.8114012584e+01    0.5178984    0.3123812  41.07  0.002381961    1.654    0.395
        30 -13.9629    171.5380    115.1135   8.9280309441e+01   2.5155671871e+01     1.054966    0.4571636  39.29  0.003915372    2.542    0.607
        31 -10.9926     66.6079    233.1766   1.2628500425e+02   2.2285315967e+01    0.1080418   0.08397179 -77.40 7.147493e-05    1.526    0.345
        32 -11.4894      3.0299     84.9574   1.2722819857e+02   5.6535943776e+01    0.1764454    0.1326813 -84.68  0.001062536    1.061    0.058
        33 -12.8127     42.0083     73.5341   1.1346651089e+02   5.6015141751e+01    0.3946264    0.3715145  57.68  0.002069704    1.239    0.193
        34 -14.2029     46.2003     69.5324   1.1123107848e+02   5.6455910864e+01     1.395237    0.5178143 -39.08  0.004941509    4.299    0.767
        35 -12.6623     65.9217     61.7230   1.0272148358e+02   5.5743937481e+01    0.3856078    0.2808859 -36.05  0.002190274    1.384    0.278
        36 -12.6416     98.3305    228.0408   1.2083558869e+02   1.9008398980e+01    0.2405028    0.1192272  57.61  0.001517093    1.696    0.410
        37 -12.0768     61.9998    228.4733   1.2671150969e+02   2.3529005481e+01     0.244988    0.1048559  60.64  0.001326909    1.943    0.485
        38 -13.2485    123.6384    226.5495   1.1653912262e+02   1.5675971916e+01    0.2203669    0.1721352  48.23  0.001092242    1.117    0.105
        39 -12.0661     10.7478    207.2265   1.3374434980e+02   3.2231388899e+01    0.2218661    0.1895108 -89.92  0.001771433    1.472    0.320
        40 -13.1865     61.1172     46.8327   9.9807165127e+01   5.9453548475e+01    0.5927603    0.4101305  28.96   0.00295829    1.692    0.409
