#   1 NUMBER                 Running object number                                     
#   2 MAG_AUTO               Kron-like elliptical aperture magnitude                    [mag]
#   3 X_IMAGE                Object position along x                                    [pixel]
#   4 Y_IMAGE                Object position along y                                    [pixel]
#   5 X_WORLD                Barycenter position along world x axis                     [deg]
#   6 Y_WORLD                Barycenter position along world y axis                     [deg]
#   7 A_WORLD                Profile RMS along major axis (world units)                 [deg]
#   8 B_WORLD                Profile RMS along minor axis (world units)                 [deg]
#   9 THETA_WORLD            Position angle (CCW/world-x)                               [deg]
#  10 FWHM_WORLD             FWHM assuming a gaussian core                              [deg]
#  11 ELONGATION             A_IMAGE/B_IMAGE                                           
#  12 ELLIPTICITY            1 - B_IMAGE/A_IMAGE                                       
         1 -14.4069    157.7790     53.7177   8.2057515754e+01   3.8972094655e+01     1.468151      1.28744   5.08  0.003408272    1.311    0.237
         2 -14.5295    169.9290     38.2671   7.5267894999e+01   3.8149996609e+01     1.060913    0.9537945  12.92  0.003856164    1.302    0.232
         3 -14.2348    184.9646      8.0545   6.4812008288e+01   3.7906845099e+01     1.020234    0.6923603  89.54  0.004377701    1.425    0.298
         4 -13.2853    187.5105      2.4848   6.3088048481e+01   3.7829641091e+01     0.891309    0.2641318  75.14  0.003010524    3.613    0.723
         5 -12.2855    210.4561      2.1373   6.0543182250e+01   3.2360878512e+01    0.4470313    0.1357128  71.61  0.001753799    2.835    0.647
         6 -10.1710    125.1581    249.7895   1.3138166769e+02   6.1800614252e+00      0.16768    0.1280671 -43.42 0.0006933337    1.781    0.438
         7 -19.9279     62.6802    170.8244   1.3416762942e+02   3.2293416467e+01     18.72635     6.051393 -66.35   0.07061021    2.931    0.659
         8 -11.2411    154.3794    196.1869   1.1763073891e+02   1.0960927908e+01     0.330745    0.2548373 -82.79  0.001418085    1.611    0.379
         9 -10.3784    112.6510    196.2771   1.2670132574e+02   1.8727277775e+01    0.4643096    0.3108559   2.66  0.001744655    3.926    0.745
        10 -13.4530    166.8118    188.8364   1.1361055138e+02   9.9801635052e+00    0.7430801    0.5561523  24.74   0.00366687    1.528    0.346
        11 -12.1406    175.2361    193.6222   1.1272226884e+02   7.3594943368e+00    0.4113399     0.259631 -59.59 0.0009677192    1.987    0.497
        12 -12.2365    180.0085    192.5116   1.1151068510e+02   6.6260541594e+00    0.3678612      0.29271 -75.50  0.001437976    1.633    0.388
        13 -12.8667    175.7531    186.7754   1.1130472791e+02   8.5910750417e+00    0.6374719    0.3908888 -66.38  0.002631323    2.457    0.593
        14 -11.2364    169.7893    195.3646   1.1419598348e+02   8.0990400452e+00    0.1903664    0.1792334  81.04  0.001092973    1.137    0.121
        15 -10.4634     17.5656    250.2325   1.4987388700e+02   2.1193313858e+01     0.126632    0.0801613 -78.08 0.0009185324    1.483    0.326
        16 -12.9610    153.8436    186.5009   1.1598809310e+02   1.3048991671e+01    0.6907358    0.3235663 -61.93  0.002437863    3.143    0.682
        17 -13.2849    205.5806    179.7763   1.0373023019e+02   3.9176544857e+00     1.255322    0.6220555 -62.42  0.003458698    5.885    0.830
        18  -9.8215    227.8566    231.8345   1.0927841658e+02  -8.5717816113e+00    0.1496361     0.143118  14.03 0.0004864837    1.287    0.223
        19 -11.3894    144.6481    179.0538   1.1663591401e+02   1.6457408378e+01      0.29928    0.2143108  37.28  0.001213243    1.431    0.301
        20 -10.6748    219.7102    226.1939   1.0980695144e+02  -6.4144563663e+00    0.2363233    0.1103238 -45.56  0.001074752    2.647    0.622
        21 -12.1286    196.7795    226.9986   1.1431592827e+02  -2.5615810612e+00    0.2472941    0.1753684  38.50  0.001050174    1.231    0.187
        22 -10.9914    170.9580    176.9832   1.1039908000e+02   1.1537090411e+01    0.2312694    0.2167907  61.04 0.0005438523    1.066    0.062
        23 -11.4656    193.9735    165.1915   1.0302966091e+02   9.0894649109e+00    0.3736159    0.3592893  44.65  0.001263326    1.048    0.046
        24 -11.3446    195.6806    174.3121   1.0461003336e+02   6.9543744374e+00    0.3509369     0.267414 -85.25 0.0007716914    1.960    0.490
        25 -12.5090    195.7713    170.4882   1.0378808071e+02   7.6756195196e+00    0.4469698      0.42279  50.58  0.001211836    1.087    0.080
        26 -13.5353    137.7768    171.5938   1.1677726490e+02   1.9455126111e+01    0.8359486    0.5496857  59.46   0.00307029    1.640    0.390
        27 -11.8426    177.5888    170.8156   1.0769775880e+02   1.1415439890e+01    0.5138476    0.2263147 -56.38  0.001707685    3.220    0.689
        28 -12.1914    126.5930    172.9020   1.1961468843e+02   2.1341289253e+01    0.5183791    0.3257554  59.54  0.002318692    1.732    0.423
        29 -13.0311    122.0038    223.2296   1.2862516959e+02   1.1561870069e+01    0.4492875    0.3125567  24.54  0.002321388    1.986    0.496
        30 -11.6650    230.5467    167.2565   9.6284187490e+01   1.2625693723e+00    0.4905733    0.2165792 -53.21  0.001667346    3.588    0.721
        31 -12.1775    142.1124    166.2267   1.1471634309e+02   1.9776349106e+01    0.4713036    0.2265131 -54.23    0.0018156    2.203    0.546
        32 -10.6584    201.3347    164.3224   1.0132863302e+02   7.7112052284e+00     0.456302    0.2520153 -41.46  0.001944802    1.820    0.451
        33 -11.5717    122.4783    165.9538   1.1927517496e+02   2.3700594133e+01    0.5131606    0.2278924  56.98  0.001585722    3.026    0.669
        34 -11.8980    114.2301    160.8675   1.2028134296e+02   2.6416060949e+01    0.4764839     0.273235  57.84 0.0009857246    1.980    0.495
        35 -11.8150     25.4189    165.6453   1.4188113481e+02   3.7763214588e+01    0.2803839     0.215742   9.13  0.001057017    2.022    0.505
        36 -12.2615    209.5648    176.5457   1.0226841739e+02   3.7181472763e+00    0.5030657    0.3694079 -29.60  0.001843212    1.407    0.289
        37 -10.1822    222.7350    162.0128   9.6622787107e+01   3.7454869291e+00    0.3376324    0.1597473 -51.78   0.00112027    2.709    0.631
        38 -11.5602    134.6233    108.5041   1.0317634794e+02   3.4243929808e+01     1.171564    0.1612152 -45.30  0.002369914    7.221    0.862
        39 -14.3730    133.5710    145.5709   1.1241100482e+02   2.6181917641e+01     1.603531    0.5923964 -56.52  0.004953955    3.315    0.698
        40 -13.8376    136.0451    127.6186   1.0765169062e+02   2.9737129389e+01     2.308691    0.3986303 -48.62  0.005077976    6.104    0.836
        41 -11.5022    121.0540    156.9728   1.1786514289e+02   2.6036646883e+01    0.2309102    0.2245461 -87.11 0.0006673774    1.068    0.064
        42 -11.6449    161.6477    153.3949   1.0749518941e+02   1.8495456504e+01    0.2945358    0.2769936  15.65 0.0008225996    1.154    0.134
        43 -10.4568    110.2362    222.9118   1.3093758320e+02   1.3629395449e+01    0.1815767    0.1488649  76.56 0.0003809768    1.117    0.105
        44 -11.1342    174.3229    148.7476   1.0360284762e+02   1.6715549125e+01    0.3619792    0.2858917 -76.61  0.001178858    1.558    0.358
        45 -13.5994    144.0277    145.5318   1.0986689754e+02   2.4013418207e+01    0.9464585    0.4859678 -63.04  0.003292648    2.741    0.635
        46 -10.8576     12.5737    218.7051   1.4878546484e+02   2.7721368327e+01   0.09963853   0.08078553  83.77 0.0005059724    1.228    0.186
        47 -11.4285      5.3169    140.2913   1.4369250149e+02   4.5139444023e+01    0.2275458    0.2150837  27.28 0.0008660493    1.434    0.303
        48  -9.7120    170.6670    137.2860   1.0175555242e+02   1.9967385392e+01    0.1588141    0.1244216  87.80 0.0006016562    1.621    0.383
        49 -11.9449    116.1219    211.8591   1.2825167091e+02   1.4845353628e+01     0.276057    0.2066219  82.85 0.0007974401    1.400    0.286
        50 -11.7022    160.4077    127.9296   1.0184160696e+02   2.4299307158e+01    0.4412398    0.3141719 -52.88  0.001659181    1.444    0.307
        51 -10.4518    140.1480    249.5744   1.2856154494e+02   3.7010963103e+00    0.1956643    0.1865322 -60.68 0.0007822959    1.301    0.231
        52 -10.7967    168.3045    113.1708   9.6319861876e+01   2.5588895710e+01     0.415644    0.2818126 -87.70  0.001598706    2.367    0.578
        53 -11.2873      2.8221    112.1851   1.4094364355e+02   5.1510853432e+01    0.2269067    0.1789752 -47.70  0.001152427    1.281    0.220
        54 -11.4952     10.6863    110.9748   1.3865122130e+02   5.1279582559e+01    0.4294995    0.1939258   2.65   0.00172731    4.124    0.757
        55 -13.3977    118.5000    109.4082   1.0763603209e+02   3.7414453380e+01    0.5823902    0.5179766  81.70  0.003053427    1.254    0.203
        56 -10.8103    205.4705    110.1844   8.7896401919e+01   1.7376677063e+01    0.3287246    0.2204425  44.61 0.0009232968    1.583    0.368
        57  -8.5834    111.5729    213.5473   1.2942564014e+02   1.5283198770e+01    0.1383382    0.1115663  70.12 9.918922e-05    1.116    0.104
        58 -10.4525    109.5448    210.4461   1.2941860950e+02   1.6265986627e+01    0.2754042    0.1785242  55.62 0.0009764734    1.399    0.285
        59 -10.4507    146.9620     79.9828   9.2180947314e+01   3.7165270299e+01    0.1818541    0.1793448  47.53 0.0004992846    1.005    0.005
        60 -10.9137     95.3774     79.9209   1.0601338698e+02   4.7962745767e+01    0.2686474    0.2031772  41.44 0.0007374363    1.386    0.279
        61 -11.2941    107.1448    206.3853   1.2935553489e+02   1.7520771674e+01    0.2550425    0.2204659 -51.34 0.0003672439    1.387    0.279
        62 -10.5333      3.1659    211.5152   1.4992809366e+02   3.0073378593e+01    0.1057106   0.08545499 -81.10 0.0002594843    1.342    0.255
        63 -12.6136    163.3869    203.2386   1.1696091414e+02   7.8241937170e+00    0.4845404    0.2774384 -48.52   0.00183193    1.916    0.478
        64 -12.9101    173.7836     30.8315   7.2527530508e+01   3.8137858133e+01    0.3980796    0.3459732  30.63 0.0009969996    1.314    0.239
        65 -10.6665     13.5106     59.6331   1.2787392283e+02   6.1810108562e+01    0.1961197     0.149063 -43.02 0.0004002861    1.007    0.007
        66 -12.0769    160.7447    198.0181   1.1659614891e+02   9.3543854601e+00    0.3988814    0.2362263 -40.67  0.001735394    1.933    0.483
        67 -11.1266    168.8784    202.5488   1.1568956059e+02   6.8943958694e+00    0.2172713    0.1902888  82.71 0.0006177846    1.307    0.235
        68 -10.4414    133.8878     29.7750   7.9678174860e+01   4.7901659729e+01    0.2566514    0.1817144  77.30  0.001099314    1.698    0.411
        69 -10.6768    157.0426    202.2127   1.1811857819e+02   9.2469171370e+00     0.272727    0.1855834  60.76  0.001015901    1.599    0.375
        70  -9.9081    139.3934    201.2081   1.2170691658e+02   1.2812597312e+01    0.1907426    0.1327167 -70.13 0.0006526338    1.676    0.403
