#   1 NUMBER                 Running object number                                     
#   2 MAG_AUTO               Kron-like elliptical aperture magnitude                    [mag]
#   3 X_IMAGE                Object position along x                                    [pixel]
#   4 Y_IMAGE                Object position along y                                    [pixel]
#   5 X_WORLD                Barycenter position along world x axis                     [deg]
#   6 Y_WORLD                Barycenter position along world y axis                     [deg]
#   7 A_WORLD                Profile RMS along major axis (world units)                 [deg]
#   8 B_WORLD                Profile RMS along minor axis (world units)                 [deg]
#   9 THETA_WORLD            Position angle (CCW/world-x)                               [deg]
#  10 FWHM_WORLD             FWHM assuming a gaussian core                              [deg]
#  11 ELONGATION             A_IMAGE/B_IMAGE                                           
#  12 ELLIPTICITY            1 - B_IMAGE/A_IMAGE                                       
         1 -14.0204    189.8837     34.0627   6.2167686878e+01   3.3822596716e+01    0.9850268    0.8286456 -76.20  0.002998859    1.087    0.080
         2 -14.9270    198.0773     23.3259   5.8805193253e+01   3.3279090060e+01     1.960632     1.464331  26.08  0.001529095    2.249    0.555
         3 -10.0944     80.9361      5.5002   7.3767300664e+01   6.0516665282e+01    0.1750955   0.09679952  52.83 0.0005423334    1.529    0.346
         4 -11.7470     60.6302      2.2057   7.8276394375e+01   6.4438880737e+01    0.4258112    0.1159371  37.27  0.001716469    3.556    0.719
         5 -10.0271     52.4570    241.2992   1.3589375643e+02   1.6698864301e+01    0.2326207    0.1504316 -81.70  0.001104735    1.456    0.313
         6 -12.1279     67.4322    243.0467   1.3305017845e+02   1.4274658880e+01    0.5186166    0.4149986  81.25  0.002323868    1.113    0.102
         7 -11.3742     72.9498    219.4341   1.2923081891e+02   1.8703701323e+01     1.239838    0.2223032  42.00  0.001675956    4.350    0.770
         8 -15.8117    116.5045    241.4444   1.2257048580e+02   7.0742612017e+00     6.900088     2.505657  29.16   0.02187295    4.295    0.767
         9 -19.4056      9.4349    134.1457   1.3393487046e+02   4.6694923846e+01     19.18399      2.11363 -69.33   0.03961668    9.971    0.900
        10 -11.7800     33.6255    228.8111   1.3853381839e+02   2.1793893809e+01    0.3103328    0.2162032 -47.92  0.001214802    1.940    0.484
        11 -10.9343     36.0250    225.1353   1.3772350946e+02   2.2327165196e+01    0.2409611    0.1788234 -65.16  0.000333583    1.404    0.288
        12 -10.0741     44.9143    228.8135   1.3624523704e+02   2.0406298500e+01    0.3892016    0.1586954  61.12 0.0006158011    2.816    0.645
        13 -13.8871    107.6009    228.9482   1.2278927141e+02   1.1156964618e+01     2.471166    0.5834001  41.97  0.007874153    3.630    0.725
        14  -9.7651     71.4794    229.5045   1.3074170555e+02   1.6638790388e+01    0.1337477    0.1147207  73.40 0.0001544412    1.012    0.012
        15  -9.5592     39.7520    225.3335   1.3697828799e+02   2.1829973812e+01    0.1306784   0.07957703  74.55 0.0002717967    1.553    0.356
        16 -10.4867     43.6760    220.6835   1.3571485190e+02   2.2397006542e+01    0.1921611     0.150337 -11.94  0.001067078    2.201    0.546
        17 -12.5280     43.9369    213.1770   1.3489702020e+02   2.4096670233e+01    0.7854421    0.4309056  59.97  0.003941468    1.802    0.445
        18 -11.6562    163.5195    215.6562   1.0822337998e+02   4.2978830929e+00    0.4735266    0.2835186 -47.51  0.002211981    1.735    0.424
        19 -13.8860     58.2311    207.7020   1.3111185032e+02   2.3528745173e+01     0.943648       0.7043  51.78  0.002348964    1.287    0.223
        20 -12.1295     49.0439    205.3183   1.3291103689e+02   2.5305354843e+01    0.7351989    0.3922045  88.74  0.002958158    2.147    0.534
        21 -11.5975     72.8769    212.2486   1.2834769364e+02   2.0384803189e+01    0.2815318    0.2207132  69.39 0.0003839927    1.189    0.159
        22  -9.8830     76.5526    207.0353   1.2681698429e+02   2.1072451533e+01    0.4136069    0.2246663 -72.14  0.001303283    1.908    0.476
        23 -10.0700     30.8541    210.7800   1.3747064355e+02   2.6213559044e+01    0.1693423    0.1114192  55.60 0.0004233837    1.421    0.296
        24 -11.3622     51.2326    249.8588   1.3690642256e+02   1.5058522088e+01    0.4132799     0.174035  49.54  0.002023221    2.015    0.504
        25 -10.6785    115.0201    209.5297   1.1819950766e+02   1.4239248659e+01     0.224294    0.1377839  38.96  0.001027507    1.580    0.367
        26 -10.5353    164.3644    205.9782   1.0628384287e+02   6.1529337393e+00    0.2496481    0.2309334  56.27 0.0004143612    1.148    0.129
        27 -10.1588     34.8433    205.7284   1.3611240183e+02   2.6938251420e+01    0.1730791    0.1514537  73.54 0.0005951261    1.127    0.112
        28  -9.8673    211.1587    202.9034   9.5877683060e+01  -1.4530591519e+00    0.1978977    0.1820081 -54.24 0.0005500411    1.275    0.216
        29  -9.9781     60.1919    245.6894   1.3476840246e+02   1.4724773655e+01    0.2029632    0.1388255 -89.78 0.0006040651    1.391    0.281
        30 -12.5635    193.5134    193.9279   9.7694875398e+01   3.3453142819e+00    0.9033609    0.5353836 -59.13   0.00386509    2.212    0.548
        31  -9.3420     95.1231    200.1839   1.2143224540e+02   1.9795076618e+01    0.2021026    0.1574897  72.62 0.0003166475    1.327    0.247
        32 -10.7178     57.6218    240.6556   1.3479766854e+02   1.6144274631e+01    0.3569154    0.2017277  86.35  0.001817204    1.911    0.477
        33 -13.2368     66.3827    194.2859   1.2748067043e+02   2.5639925869e+01    0.6916466    0.6216612 -62.03  0.002588605    1.185    0.156
        34  -9.7946     73.5234    189.5148   1.2506070407e+02   2.5779358462e+01    0.2571318    0.1327144  39.94 0.0006027884    1.940    0.485
        35 -11.5038    154.2607    196.6671   1.0681652779e+02   1.0027558073e+01    0.3055282    0.2417128  77.52 0.0008717588    1.611    0.379
        36 -10.0099     77.9534    243.3027   1.3092301793e+02   1.2701920984e+01    0.1773314    0.1374799  52.54            0    1.141    0.123
        37 -11.5829     48.3024    236.5180   1.3628051669e+02   1.8274852565e+01    0.3681498    0.1978842  82.30  0.001335343    2.009    0.502
        38 -10.8851     40.8471    194.2797   1.3351878619e+02   2.8972501179e+01    0.4438984    0.2086526  39.65  0.002079028    2.134    0.531
        39 -10.0644    180.0124    192.4752   1.0026723529e+02   6.1123676007e+00    0.2656642    0.2057742 -63.86 0.0006545031    1.531    0.347
        40 -10.8593    167.9441    190.0305   1.0243510722e+02   8.9001745126e+00    0.3149159    0.2207472 -40.27  0.001492878    1.440    0.306
        41 -15.9531     72.2219    149.4144   1.1863224654e+02   3.6047053802e+01     5.910294     3.372413  81.67   0.02055882    3.416    0.707
        42  -9.8177     61.2398    186.9790   1.2771490668e+02   2.8158217408e+01     0.319199    0.1925816  16.97 0.0007621184    2.506    0.601
        43 -11.4170    206.4854    181.0458   9.2477077323e+01   3.5939492233e+00     0.345286    0.2802963 -66.20  0.001818672    1.501    0.334
        44 -11.2552    211.3500    179.0813   9.1124099859e+01   3.1107788733e+00    0.5317006    0.3312458 -20.77  0.001488412    2.081    0.520
        45 -10.2519     99.5679    180.6846   1.1709747241e+02   2.3808368054e+01    0.2463428    0.2331873  37.71  0.000572003    1.142    0.124
        46 -12.0919     78.1040    178.8400   1.2225207186e+02   2.7748328018e+01    0.4308106    0.2661498 -40.69  0.001912129    1.956    0.489
        47 -12.2090     81.7556    173.6204   1.2043881255e+02   2.8494088902e+01    0.4347598     0.316339 -42.62 0.0009455091    1.515    0.340
        48 -10.5810    177.6827    237.0363   1.0887570933e+02  -2.2353951356e+00    0.2241174    0.1818015  56.88 0.0006333879    1.485    0.327
        49 -12.0472    143.4538    178.4957   1.0579852781e+02   1.6228031207e+01    0.4654765    0.2448494  46.63  0.001729393    1.949    0.487
        50  -9.3111     68.5026    177.4937   1.2449174092e+02   2.9507937743e+01     0.144944    0.1298385 -84.20  0.000810652    1.006    0.006
        51 -10.6211    193.1955    164.4622   9.1698269617e+01   9.5069223073e+00    0.3851149    0.3403711 -72.98  0.002014683    1.269    0.212
        52 -11.5151    195.9568    170.2747   9.2365258352e+01   7.7530071555e+00    0.4636084    0.3482751 -44.90  0.001123953    1.262    0.208
        53 -11.6109    137.2360    170.6148   1.0569844787e+02   1.9300214862e+01    0.3430896    0.2618562  30.75  0.001171387    1.423    0.297
        54 -11.3340     44.0663    171.3131   1.2982711344e+02   3.4255999378e+01      0.52733    0.2381756  41.64  0.002319789    2.294    0.564
        55 -10.2701    177.3292    169.6779   9.6176693839e+01   1.1521065943e+01    0.1539903    0.1217058  89.83  0.000704903    1.693    0.409
        56 -11.2126    145.8616    168.3450   1.0312801532e+02   1.8128063117e+01    0.2973785    0.2234211 -43.81 0.0004870519    1.334    0.250
        57  -9.4265    223.9874    164.4957   8.5762381442e+01   3.7145537107e+00    0.1746915    0.1252282  77.99 0.0004584012    2.261    0.558
        58 -11.8254     92.6108    235.3468   1.2690402792e+02   1.2174653787e+01    0.2881027    0.2191435 -84.49  0.000693212    1.356    0.263
        59 -12.5874     94.9246    156.7697   1.1380506632e+02   3.0572602255e+01    0.7110485    0.4551915 -33.50  0.003005868    1.980    0.495
        60  -9.2490    141.8358    158.6504   1.0202561502e+02   2.1219610792e+01    0.2119594    0.1434442  52.88 0.0001076805    1.582    0.368
        61 -10.2586    196.4882    175.0090   9.3246540489e+01   6.6683249228e+00    0.2886557     0.181857 -61.17   0.00123916    2.022    0.506
        62 -11.3737    133.7775    144.6210   1.0089188697e+02   2.6181317582e+01     1.133403    0.2765459 -53.59   0.00263334    5.337    0.813
        63 -10.8459    174.4453    148.9298   9.2261515576e+01   1.6671651232e+01    0.3016475    0.2666732  78.75 0.0008288136    1.254    0.202
        64  -9.9021     64.4854    250.2245   1.3435283330e+02   1.3186816621e+01    0.2059009    0.1528577  46.16 0.0006865017    1.267    0.211
        65 -11.4482    106.7619    141.2549   1.0726560651e+02   3.2292789021e+01    0.5604196    0.3425551 -30.66  0.002209869    2.184    0.542
        66 -12.5869     94.8153    141.6292   1.1066509857e+02   3.4351668674e+01    0.3167681     0.276165 -37.22 0.0005164405    1.183    0.155
        67 -10.1694     84.5767    234.2370   1.2849160173e+02   1.3651720440e+01    0.2490937    0.2028202 -61.97 0.0006767258    1.330    0.248
        68  -9.5160     36.1109    234.0619   1.3849120341e+02   2.0340176406e+01    0.1631868    0.1141396  73.42 0.0004574764    1.202    0.168
        69 -10.8098    114.4364    131.2975   1.0284960465e+02   3.3214667534e+01    0.3511794    0.3018694  -6.43 0.0008047562    1.379    0.275
        70 -10.8096    119.9879    129.9834   1.0103336778e+02   3.2423433105e+01    0.3386366    0.3133287  64.05   0.00145363    1.125    0.111
        71 -11.4267    118.7367    125.7023   1.0032383362e+02   3.3667357640e+01    0.7876667    0.4386851 -19.73  0.002218797    4.677    0.786
        72 -10.8146    106.0338    130.8414   1.0505796745e+02   3.4933403922e+01    0.3681136    0.3195466 -82.67  0.001226533    1.277    0.217
        73 -11.1080    102.0329    127.6265   1.0541641165e+02   3.6439840791e+01    0.3056589    0.2598702 -15.62 0.0007009848    1.350    0.259
        74  -8.8055    145.7145    130.2605   9.4519731136e+01   2.6987239017e+01    0.1511843    0.1225943  87.72            0    1.485    0.327
        75 -11.0097    135.8199    128.2433   9.6483011194e+01   2.9556436873e+01    0.4709085    0.1343168 -51.69  0.001251887    4.042    0.753
        76  -9.9953    161.1839    128.0167   9.0339483807e+01   2.4116695134e+01    0.2651069    0.1794521 -71.98  0.001083491    1.986    0.496
        77 -10.2199    126.1121    127.8807   9.8896655008e+01   3.1666253024e+01    0.3446461    0.2363161  86.26  0.001343637    2.360    0.576
        78 -10.2415    109.9450    119.9503   1.0130429320e+02   3.6725522334e+01    0.2235646    0.2178702 -34.75 0.0003670266    1.019    0.019
        79 -10.0145    167.8660    112.7399   8.5138337070e+01   2.5863804209e+01    0.2867059    0.1900131 -69.84 0.0008070559    1.974    0.493
        80 -12.1095     61.5796    112.9650   1.1410031706e+02   4.6409896532e+01    0.2999732    0.2485865 -46.60 0.0009752748    1.091    0.083
        81  -9.9338    135.0000    112.0053   9.2601196850e+01   3.3320849849e+01    0.2626166   0.08705451 -44.96 0.0008091559    2.989    0.665
        82 -11.0020    120.7253    111.1336   9.6087773277e+01   3.6529840875e+01    0.3036964    0.2630959  66.60  0.001214405    1.264    0.209
        83 -10.4289    103.9888    111.0478   1.0071194654e+02   3.9876044680e+01    0.2147315    0.2125426 -38.54  0.001192792    1.028    0.027
        84 -10.0045    205.5880    110.1862   7.7268043278e+01   1.8024433377e+01    0.2466719    0.2026275  61.00 0.0006632133    1.284    0.221
        85 -11.5183     66.6245    104.3964   1.1040434219e+02   4.7649267715e+01    0.2839294    0.2184766  -2.26  0.001326146    1.509    0.337
        86 -12.5294     51.4822    227.4716   1.3475453780e+02   1.9858244262e+01    0.5536754    0.2647673  64.25     0.002488    2.320    0.569
        87  -9.5523    134.6165    103.1804   9.0385812649e+01   3.5257194832e+01    0.2157973    0.1434886 -33.54 0.0006464408    1.656    0.396
        88 -10.0547     61.8806     71.5763   1.0286015581e+02   5.5042897398e+01    0.2224204    0.1649297 -27.24 0.0006227982    1.269    0.212
        89 -11.0170    165.7434     66.2788   7.3784032850e+01   3.4862292268e+01    0.4203422     0.264737 -83.53 0.0006983694    2.263    0.558
        90 -13.6063    179.3682     42.7410   6.5644269661e+01   3.5111233507e+01    0.8081646    0.6507673 -25.42 0.0008670266    1.561    0.359
        91  -9.2278    168.3139    248.2921   1.1263224735e+02  -2.7285751291e+00    0.1307425   0.09651289   3.27 0.0001954136    1.594    0.372
        92 -11.4677     55.7198    246.1223   1.3569492157e+02   1.5240868145e+01    0.3789306    0.1912131  89.51  0.001803862    2.314    0.568
        93 -11.2116     53.7250    222.5642   1.3377542829e+02   2.0671513422e+01    0.2276398    0.2194133 -14.54 0.0007242734    1.437    0.304
        94  -9.9812     49.4391    243.4829   1.3669043949e+02   1.6630551009e+01    0.2099216    0.1236973  44.25 0.0006758007    1.551    0.355
