#   1 NUMBER                 Running object number                                     
#   2 MAG_AUTO               Kron-like elliptical aperture magnitude                    [mag]
#   3 X_IMAGE                Object position along x                                    [pixel]
#   4 Y_IMAGE                Object position along y                                    [pixel]
#   5 X_WORLD                Barycenter position along world x axis                     [deg]
#   6 Y_WORLD                Barycenter position along world y axis                     [deg]
#   7 A_WORLD                Profile RMS along major axis (world units)                 [deg]
#   8 B_WORLD                Profile RMS along minor axis (world units)                 [deg]
#   9 THETA_WORLD            Position angle (CCW/world-x)                               [deg]
#  10 FWHM_WORLD             FWHM assuming a gaussian core                              [deg]
#  11 ELONGATION             A_IMAGE/B_IMAGE                                           
#  12 ELLIPTICITY            1 - B_IMAGE/A_IMAGE                                       
         1 -14.9156      9.8305    151.4362   1.4457158131e+02   4.2710508012e+01     8.653354     2.951114  83.86   0.03270995    3.957    0.747
         2 -13.3514    196.2234     29.2558   6.8068457309e+01   3.2524744270e+01     1.444773      1.39445  60.11   0.00709536    1.137    0.120
         3 -13.4495    210.9128      9.6104   6.1127105442e+01   3.1019952398e+01     1.351321    0.9648911  43.43   0.00661093    1.692    0.409
         4 -12.7069      2.5265     37.0633   1.2968061431e+02   6.8366187794e+01     1.964347     0.129359 -62.36  0.004486392   10.807    0.907
         5 -12.4307      2.3155     12.5624   1.2144782008e+02   7.2891700610e+01     1.423488      0.37521 -36.53  0.006193391    3.331    0.700
         6 -11.7982     12.1844    240.5732   1.4936631771e+02   2.4569726022e+01    0.4314678    0.1739661  75.88  0.002559049    2.134    0.531
         7 -11.5365    244.0731    249.2250   1.0931486154e+02  -1.0021514770e+01    0.3692328    0.1920685  43.93  0.002173552    2.045    0.511
         8 -10.5816    126.0762    249.7822   1.3023997524e+02   8.0489611682e+00    0.2825071    0.1076552  44.53  0.001162548    1.990    0.498
         9 -10.0731    111.8044    250.3391   1.3287615907e+02   1.0143983681e+01    0.1936175    0.1136186  53.64 0.0005391039    1.365    0.268
        10 -10.4420    101.0141    246.0202   1.3440920446e+02   1.2450827927e+01    0.2041223    0.1565817  86.37 0.0005590165    1.371    0.271
        11 -11.2392     34.5243    244.1209   1.4588472724e+02   2.1545761117e+01    0.4393359    0.2472121  33.79  0.002819208    2.129    0.530
        12 -10.9648     33.3164    249.4660   1.4636818760e+02   2.0763113512e+01    0.3414908    0.2501138  47.19  0.002670849    1.410    0.291
        13  -9.8949     29.1528    249.8077   1.4706014439e+02   2.1172638987e+01    0.2366527    0.1552238 -76.30  0.001567525    1.635    0.389
        14 -11.0066     11.4115    249.3283   1.4984959261e+02   2.3141167625e+01    0.3628247    0.1580772  35.95  0.002261769    2.436    0.589
        15 -10.5786      2.9265    248.1173   1.5111365364e+02   2.4188376438e+01    0.2843942     0.173555 -88.08  0.001862957    1.435    0.303
        16 -11.6156    139.8171    249.0691   1.2766205718e+02   6.0053385134e+00    0.3944209    0.2745363  53.06  0.002575888    1.227    0.185
        17 -10.5341      5.7117    241.0484   1.5041712231e+02   2.5130111901e+01    0.1956176    0.1275301  40.49 0.0008998461    1.678    0.404
        18 -10.2530    183.2711    238.6033   1.1833918798e+02   4.7974024283e-01    0.1920281    0.1398713  -4.12 0.0007026425    1.752    0.429
        19  -9.9989    234.1602    237.7457   1.0918934971e+02  -7.3717451509e+00     0.159588    0.1298269  77.10 0.0009501619    2.790    0.642
        20  -9.3165     22.3567    236.8156   1.4752866357e+02   2.4176806971e+01    0.2127485    0.1279048 -54.36  0.001368563    2.637    0.621
        21 -14.1672    102.9018    229.0134   1.3235668724e+02   1.5069716111e+01     7.014852          nan  44.43   0.01258364   14.527    0.931
        22 -13.7439     39.7009    225.4780   1.4387606101e+02   2.4315248853e+01    0.7473149    0.5773998  64.64  0.002476867    1.121    0.108
        23  -9.6176     54.4939    229.4211   1.4147437492e+02   2.1786826518e+01      0.24356    0.1423179  63.56 0.0009252133    1.375    0.273
        24 -10.4531     97.8911    248.6747   1.3521704199e+02   1.2475292117e+01    0.2593004     0.203945  51.32  0.001132965    1.128    0.113
        25  -9.8977    173.8782    222.6837   1.1777004237e+02   4.3507581897e+00    0.2394078    0.1789212  42.16  0.001460261    1.132    0.117
        26 -12.5173      9.2978    207.0670   1.4828724722e+02   3.1062222465e+01    0.6895414    0.4911129  34.98  0.003857905    1.728    0.421
        27 -12.5790     34.2488    232.9858   1.4530224181e+02   2.3557582192e+01    0.2613603    0.2172907  85.69  0.000751645    1.308    0.236
        28  -8.7529    152.4815    213.0252   1.2052059176e+02   9.6435452087e+00     0.163879    0.1322311 -53.34 0.0003627091    1.464    0.317
        29 -11.4683     60.9334    198.8902   1.3765351097e+02   2.6929369083e+01    0.2566381    0.2255427 -64.48 0.0005296309    1.414    0.293
        30  -9.8178    192.6970    194.6030   1.0945108895e+02   5.4054698627e+00    0.6485828    0.3210818 -61.13  0.001940731    6.297    0.841
        31 -11.1293     16.4091    197.8166   1.4644563827e+02   3.2222119393e+01    0.2791924    0.1508403  60.85  0.000599326    1.505    0.335
        32  -8.3979     50.0822    196.4814   1.3966312938e+02   2.8805136144e+01    0.1573895    0.1049935  46.18  3.06409e-05    1.410    0.291
        33 -11.2537      2.6731    192.3029   1.4874532220e+02   3.4596332251e+01    0.3906504    0.1561802 -87.83  0.002143098    2.080    0.519
        34 -11.3338      5.4612    188.3333   1.4799650697e+02   3.5163247885e+01    0.3607659    0.2181212  51.33  0.002299269    1.477    0.323
        35 -11.7494     67.1609    190.5943   1.3549493364e+02   2.7833630625e+01    0.2586083    0.2215596 -72.74 0.0004381234    1.274    0.215
        36 -10.7101     77.3904    177.7200   1.3170912464e+02   2.9174358835e+01    0.2364692    0.2065455  85.61 0.0003991487    1.068    0.063
        37 -13.0268     64.0151    175.9655   1.3454121966e+02   3.1430363103e+01    0.4720006    0.2756253 -47.64  0.001501883    2.215    0.549
        38 -10.0049     97.9653    174.7490   1.2655573386e+02   2.6639612261e+01    0.2740873    0.1876664 -73.75            0    1.517    0.341
        39 -11.5216     84.8165    168.6422   1.2874152190e+02   3.0080544743e+01    0.5582547      0.54124  36.60  0.003545919    1.271    0.213
        40  -9.7384     97.4956    152.4717   1.2305282750e+02   3.1715610269e+01    0.2654779    0.2531948 -31.16 0.0007510249    1.262    0.208
        41 -11.9385     86.1629    151.6896   1.2577873752e+02   3.3740634997e+01    0.2892051    0.2511359 -48.05 0.0004862642    1.304    0.233
        42  -8.8318    100.5692    148.2535   1.2151578568e+02   3.2160501312e+01    0.1877937    0.1320215 -49.15 0.0004262038    1.497    0.332
        43 -12.1125     67.3230    143.6449   1.2932788359e+02   3.8392785730e+01    0.6957403     0.424632  64.36  0.003399864    1.839    0.456
        44  -8.3333    192.0000    144.0358   9.9281758932e+01   1.4401747624e+01    0.2235058   0.08422855 -39.82 0.0003994118    2.694    0.629
        45  -9.5614    109.2761    137.5408   1.1717751067e+02   3.3071986003e+01    0.4094627    0.2654552 -23.53  0.001632696    2.671    0.626
        46 -10.2289     96.5152    134.6913   1.1996498757e+02   3.6004226325e+01    0.2529706    0.2298866 -25.10 0.0004116449    1.316    0.240
        47 -10.4849     56.5981    131.0618   1.3020078413e+02   4.2767853436e+01     0.406321     0.125947 -67.88  0.001393866    3.355    0.702
        48 -10.3071     33.2683    132.6042   1.3677164773e+02   4.4971364973e+01     0.353207    0.1322295  48.70  0.001517607    2.933    0.659
        49  -9.4007     89.5573    130.2834   1.2096310528e+02   3.8205691370e+01    0.2563855    0.1934092  70.63 0.0008848067    1.466    0.318
        50  -8.5644     79.2180    131.4159   1.2402231491e+02   3.9570951928e+01    0.1956894    0.1214434  53.00 0.0004041947    1.715    0.417
        51 -11.0146     21.6564    126.2859   1.3910908670e+02   4.7486071446e+01    0.2771201      0.16621  52.64  0.000934895    1.776    0.437
        52  -8.8053    106.5150    124.0192   1.1498702328e+02   3.6698247311e+01    0.2032767    0.1428959 -53.68 0.0004294454    1.388    0.279
        53  -9.6754    167.6192    112.7157   9.6864482944e+01   2.6002398450e+01    0.2984977    0.2593205 -80.76  0.001021742    1.310    0.237
        54  -9.3200    203.1720    111.5881   8.9292677661e+01   1.7851048377e+01    0.2113379    0.1380291  39.64 0.0006518646    1.649    0.393
        55  -8.7811     38.6600     94.9253   1.2912702805e+02   5.3275896792e+01    0.1777571    0.1410976 -67.16  0.000363741    1.098    0.089
        56  -8.9695    157.6708     76.6728   8.8979909461e+01   3.5338856551e+01    0.1621404    0.1226242  17.74 0.0007050894    1.706    0.414
        57  -9.6615     43.1309     67.5982   1.2112407096e+02   5.8933339620e+01    0.2774791    0.1923368  54.30  0.001325709    1.959    0.489
        58  -8.5034     32.5348     62.5167   1.2382029399e+02   6.1066463276e+01    0.1251937    0.1043223 -47.10 3.043532e-05    1.022    0.021
        59 -10.6466     14.4549     55.0820   1.2918354539e+02   6.4036953654e+01    0.1877926    0.1699427  25.96 0.0005496564    1.377    0.274
        60  -9.6554     81.5817    248.7651   1.3812201685e+02   1.4783017839e+01    0.1469738   0.09298979  85.53 0.0009475143    1.651    0.394
        61 -10.0474     46.4359    248.7045   1.4416027335e+02   1.9357596925e+01    0.2830971    0.1205406  69.10  0.001305289    2.249    0.555
        62 -10.6040     21.1460    243.9078   1.4806980088e+02   2.3057944496e+01    0.3038172    0.1176801  63.12  0.001784503    2.020    0.505
