#   1 NUMBER                 Running object number                                     
#   2 MAG_AUTO               Kron-like elliptical aperture magnitude                    [mag]
#   3 X_IMAGE                Object position along x                                    [pixel]
#   4 Y_IMAGE                Object position along y                                    [pixel]
#   5 X_WORLD                Barycenter position along world x axis                     [deg]
#   6 Y_WORLD                Barycenter position along world y axis                     [deg]
#   7 A_WORLD                Profile RMS along major axis (world units)                 [deg]
#   8 B_WORLD                Profile RMS along minor axis (world units)                 [deg]
#   9 THETA_WORLD            Position angle (CCW/world-x)                               [deg]
#  10 FWHM_WORLD             FWHM assuming a gaussian core                              [deg]
#  11 ELONGATION             A_IMAGE/B_IMAGE                                           
#  12 ELLIPTICITY            1 - B_IMAGE/A_IMAGE                                       
         1 -11.8071    173.3159     30.9472   2.9004174283e+02   6.3682974222e+00   0.06423209   0.04407893 -34.18   0.00532677    1.641    0.390
         2 -10.3904    176.8650     23.7967   2.8995610095e+02   6.4283643614e+00   0.02675508   0.02095538 -48.36  0.001207934    1.294    0.227
         3  -9.7851    145.0546     23.5003   2.9032995907e+02   6.6269115180e+00   0.01154202   0.01026504 -60.06 -0.0005427914    1.147    0.128
         4 -13.1031     13.8619    206.9479   2.9299592090e+02   5.3237866850e+00     0.298786   0.09603507  38.01   0.02211574    2.879    0.653
         5  -9.7363    159.5659    235.9662   2.9145366966e+02   4.1021702681e+00    0.0148078   0.01319517 -48.80  0.001033701    1.137    0.120
         6  -8.6276    146.9769    236.5095   2.9160528841e+02   4.1728941380e+00   0.01224683  0.006693854 -52.25  0.001143091    1.813    0.448
         7 -13.8049     44.5043    249.8587   2.9289406659e+02   4.6447723358e+00      0.18412   0.04211862  23.26  0.009193454    6.552    0.847
         8  -9.0614    134.4886    230.8695   2.9171821218e+02   4.3139134307e+00   0.01936669   0.01187467  75.93  0.001140991    2.496    0.599
         9  -8.7563    127.4841    226.6829   2.9177535574e+02   4.4047405569e+00    0.0165931  0.008094076 -42.01  0.001111559    2.324    0.570
        10  -9.0962    151.5460    229.3331   2.9150787197e+02   4.2272929464e+00   0.01231187  0.006123733  27.20  0.001086493    1.973    0.493
        11  -8.1372    140.1474    227.0897   2.9162857178e+02   4.3227011624e+00   0.01690863  0.005155541 -65.52  0.001096457    3.896    0.743
        12  -7.9683    177.6602    219.7108   2.9114172644e+02   4.1779436004e+00  0.006966592  0.005052683 -21.21 0.0003950913    1.643    0.391
        13  -8.3992     10.9536    217.6067   2.9309472131e+02   5.2190940512e+00    0.0163739   0.01039678 -13.33  0.001318402    2.196    0.545
        14  -8.6884    167.4138    211.1841   2.9121060321e+02   4.3384372101e+00   0.02108686   0.01200805  82.27  0.001660568    3.120    0.680
        15 -11.4239     36.6742    196.3221   2.9266235117e+02   5.3070070915e+00   0.08471212   0.02723884  37.65  0.002128962    2.861    0.650
        16  -7.0395    130.3416    207.2349   2.9162356870e+02   4.6104269055e+00  0.006658893  0.005045361 -13.16 0.0003142791    1.550    0.355
        17 -10.2648    189.0967    191.7124   2.9083665546e+02   4.4290342661e+00   0.02341363   0.01520572  59.77  0.002275677    1.891    0.471
        18  -9.5486    198.4818    200.3476   2.9077866209e+02   4.2725338967e+00   0.02937291   0.01556006  39.27  0.002721842    1.838    0.456
        19 -13.4545     93.5158    247.9464   2.9230470534e+02   4.3680852656e+00    0.2325417   0.06210379  36.73   0.01069767    3.289    0.696
        20 -12.0063     13.9118    243.5575   2.9321670125e+02   4.9031833502e+00   0.03166122   0.02140494 -29.87  0.002148124    1.743    0.426
        21 -13.6314     87.5936    195.3512   2.9205558777e+02   5.0078335521e+00    0.3217575    0.2499656 -84.96   0.02405423    1.483    0.325
        22  -8.6816     44.2486    187.2724   2.9251809917e+02   5.3647777375e+00   0.01188053   0.01063255   2.46 0.0005684604    1.154    0.134
        23  -9.5339     31.3467    187.1814   2.9266984513e+02   5.4443624636e+00   0.01888313   0.01111401  29.02  0.001839275    1.645    0.392
        24  -7.7783    219.0249    187.0876   2.9045597347e+02   4.2986928208e+00   0.01446929  0.007435371 -62.91  0.001300507    2.009    0.502
        25  -8.4944    201.5402    183.4698   2.9063986715e+02   4.4473252914e+00   0.01430546   0.01121532  56.67 0.0009187124    1.388    0.280
        26  -9.8953     93.9903    180.3671   2.9188912637e+02   5.1407607122e+00   0.02058475   0.01232812 -46.09  0.002006868    1.725    0.420
        27  -9.6781     96.5002    175.0388   2.9182713706e+02   5.1865839954e+00   0.02295181   0.01085685 -49.42 0.0008159905    2.123    0.529
        28 -13.0096     60.0756    222.7089   2.9254610664e+02   4.8616006337e+00    0.0676771   0.03527323  31.15  0.004319829    1.827    0.453
        29  -9.9304     27.8837    180.8558   2.9267239191e+02   5.5380484177e+00    0.0211896   0.01276886  65.18  0.001886617    2.338    0.572
        30 -14.6942     28.8602    248.4321   2.9306989293e+02   4.7563354368e+00    0.1394866    0.1207937  63.30   0.01642679    1.243    0.195
        31  -7.7080    189.0258    176.5524   2.9074518156e+02   4.6033148415e+00   0.01013982  0.006367079  29.88 0.0003117803    1.539    0.350
        32  -7.4791    229.0000    173.9874   2.9025868246e+02   4.3877017564e+00   0.01080134  0.003823472 -62.01 0.0007939587    2.884    0.653
        33  -9.8439    104.4487    239.5403   2.9212488664e+02   4.3978507037e+00   0.02065753   0.01447106  86.71  0.000731992    1.838    0.456
        34  -9.6913     30.4990    171.3902   2.9258412884e+02   5.6307900008e+00   0.03164895   0.01547683   9.78  0.002392252    3.122    0.680
        35  -8.1315    113.2452    170.3420   2.9160099702e+02   5.1382073270e+00   0.01101932  0.008625265 -49.94 0.0005155414    1.290    0.225
        36  -8.4872    226.4658    169.4611   2.9026092920e+02   4.4551257226e+00   0.00987956  0.006077819 -49.09 0.0001746634    1.642    0.391
        37  -8.5120     17.6247    168.8165   2.9272055747e+02   5.7386545591e+00  0.009455395  0.006465863 -79.24 0.0006190937    1.730    0.422
        38  -9.2081    177.6685    240.0808   2.9126543562e+02   3.9442711948e+00   0.01580286   0.01108417 -54.77  0.001065686    1.428    0.300
        39  -7.8309     25.4614    167.4383   2.9261965368e+02   5.7068061118e+00  0.006598759  0.006432115  19.40  4.30728e-05    1.005    0.005
        40  -8.5725    101.3884    165.6091   2.9171213943e+02   5.2649406928e+00    0.0115744   0.01056668 -27.58  0.000554162    1.130    0.115
        41 -10.2457     90.3815    160.9459   2.9181370877e+02   5.3856571973e+00   0.01410161   0.01214368 -22.88 0.0004799212    1.239    0.193
        42  -8.8577     13.5256    161.0548   2.9272191806e+02   5.8526762465e+00   0.01232408   0.00937766   1.50 0.0006907817    1.488    0.328
        43  -9.0131    105.3027    158.3224   2.9162163715e+02   5.3246419476e+00   0.02489136   0.01255392 -44.76  0.002061045    2.117    0.528
        44  -8.8376     22.6276    157.9804   2.9259576499e+02   5.8326074888e+00   0.01561765  0.008464081  42.56  0.001441895    1.865    0.464
        45 -11.0902     68.3861    144.7175   2.9197477720e+02   5.7060901489e+00   0.03720607   0.02188355  60.76  0.003322779    2.291    0.564
        46 -14.5054     53.7137    246.2819   2.9276384927e+02   4.6297625129e+00    0.1392137   0.04886981 -54.19  0.005781437    2.680    0.627
        47  -7.6721     16.1421    152.4391   2.9263876666e+02   5.9356585382e+00   0.00988429  0.006507427  23.62 0.0009972216    1.524    0.344
        48  -7.6544      1.5332    148.4556   2.9278720347e+02   6.0701860541e+00  0.006609389  0.006446524   5.40 9.666527e-05    1.017    0.017
        49  -8.4207    133.7428    145.5142   2.9120806605e+02   5.2977282963e+00   0.01690596  0.006351832 -68.79  0.001185626    3.427    0.708
        50 -10.3794     67.8360    135.4139   2.9192471996e+02   5.8161996661e+00   0.02755113   0.01630097  84.04  0.002315447    2.737    0.635
        51  -9.4918     82.0771    143.9651   2.9180852161e+02   5.6311937257e+00   0.01954688  0.009939124  25.42  0.001750089    1.972    0.493
        52  -8.2342    114.1057    142.1801   2.9141952458e+02   5.4560494687e+00    0.0167599  0.008050168 -46.26  0.001447961    2.181    0.542
        53  -7.7336    102.6892    142.9377   2.9155890510e+02   5.5171205516e+00  0.008984643  0.008402774 -60.36 0.0003834923    1.092    0.084
        54  -7.0884    202.2970    139.6889   2.9036410004e+02   4.9446229522e+00  0.006878759  0.005029639  62.15 0.0002443599    1.597    0.374
        55  -7.7926    132.8186    139.1474   2.9118020251e+02   5.3764111034e+00  0.009594847  0.007655876 -32.76  0.001063014    1.344    0.256
        56  -7.5092     79.9476    135.9991   2.9178522732e+02   5.7355901766e+00  0.008001452  0.007637985  23.67 0.0004762243    1.026    0.025
        57  -9.4493     59.0552    133.3283   2.9201576578e+02   5.8936742913e+00   0.01489542   0.01155986 -63.07   0.00134173    1.322    0.244
        58  -8.0308    118.9855    132.3324   2.9130196999e+02   5.5391821953e+00   0.01259411  0.008770629 -33.88 0.0008924494    1.610    0.379
        59  -9.7134    181.8530    235.3766   2.9118756993e+02   3.9726225313e+00   0.01652137   0.01493393  43.16   0.00179594    1.104    0.094
        60  -7.3812    197.4877    127.5378   2.9034666057e+02   5.1134031455e+00  0.006641913  0.006447616   0.09 -1.307304e-06    1.028    0.027
        61  -7.8405     64.3261    125.3037   2.9190470706e+02   5.9536064801e+00  0.006991207  0.005032206 -23.54 0.0004278091    1.644    0.392
        62  -7.5694    112.7633    121.0140   2.9130650212e+02   5.7070464556e+00  0.008549816  0.005641557 -62.39 0.0002943788    1.552    0.356
        63  -8.4053     51.9855    120.8135   2.9202321323e+02   6.0803609454e+00   0.01046415  0.008947096 -16.10  0.001205817    1.261    0.207
        64 -10.4377    243.4819    118.6977   2.8975078018e+02   4.9323973069e+00   0.01379934   0.01240741  30.59 0.0003001944    1.087    0.080
        65  -8.0786    196.6403    107.4891   2.9023429235e+02   5.3483843619e+00   0.01176999  0.008676522  48.64 0.0006385189    1.415    0.293
        66  -7.4832    134.5051    106.5176   2.9096146416e+02   5.7402939361e+00  0.006625362  0.006478915  15.79 0.0005763486    1.004    0.004
        67  -7.1146    189.3417    105.2585   2.9030673952e+02   5.4187211132e+00  0.006793228  0.005066367 -17.07 0.0002253065    1.587    0.370
        68  -7.7129     68.3053    103.3343   2.9172402334e+02   6.1813582788e+00   0.00706675  0.004977405 -27.20 0.0007039198    1.666    0.400
        69  -9.0233    246.7808     99.6159   2.8959535218e+02   5.1306968030e+00    0.0142811   0.01093149  86.19  0.000819043    1.571    0.363
        70  -7.5602    213.4434     78.5188   2.8985922086e+02   5.5771505930e+00  0.006603342  0.006455651  -3.84 7.265405e-05    1.023    0.022
        71  -8.8670    195.9873     57.0207   2.8993365341e+02   5.9305672609e+00  0.009551645  0.009325364   8.39            0    1.014    0.014
        72 -10.0492    160.6505     51.6496   2.9031784761e+02   6.2089293185e+00   0.02233771   0.01421646  50.47  0.002208753    1.724    0.420
        73 -10.7005    160.6486     46.0407   2.9028358870e+02   6.2731825316e+00   0.02689221   0.02063234  74.23  0.001837356    1.564    0.361
        74  -7.6310    135.8649     46.8965   2.9058152433e+02   6.4152873398e+00  0.009119964  0.007640022  60.09 0.0003865295    1.290    0.225
        75  -9.3654    250.3866     42.6402   2.8920440013e+02   5.7607674968e+00   0.01154676  0.008613624 -53.06  0.001256672    1.348    0.258
        76 -10.5844    168.8329    240.7116   2.9137333216e+02   3.9910755155e+00   0.03150216   0.01943453  21.42  0.001489736    1.676    0.403
        77 -10.4641    169.2004    234.6888   2.9133241540e+02   4.0579072775e+00   0.02847128   0.01816312  22.88  0.002431225    1.589    0.371
        78  -7.5473    250.2327     32.1693   2.8914210909e+02   5.8815113259e+00   0.01165729  0.006480261 -24.70 0.0009397762    2.759    0.638
        79  -7.6058    191.4779     30.5214   2.8982477511e+02   6.2616568122e+00  0.006691307   0.00639615 -12.33 0.0001050455    1.060    0.057
        80  -7.8137    163.4684     23.5673   2.9011287269e+02   6.5132129677e+00   0.01350084  0.004948228 -49.53  0.001028914    2.721    0.632
