#   1 NUMBER                 Running object number                                     
#   2 MAG_AUTO               Kron-like elliptical aperture magnitude                    [mag]
#   3 X_IMAGE                Object position along x                                    [pixel]
#   4 Y_IMAGE                Object position along y                                    [pixel]
#   5 X_WORLD                Barycenter position along world x axis                     [deg]
#   6 Y_WORLD                Barycenter position along world y axis                     [deg]
#   7 A_WORLD                Profile RMS along major axis (world units)                 [deg]
#   8 B_WORLD                Profile RMS along minor axis (world units)                 [deg]
#   9 THETA_WORLD            Position angle (CCW/world-x)                               [deg]
#  10 FWHM_WORLD             FWHM assuming a gaussian core                              [deg]
#  11 ELONGATION             A_IMAGE/B_IMAGE                                           
#  12 ELLIPTICITY            1 - B_IMAGE/A_IMAGE                                       
         1 -16.1524     75.7422    178.4742   1.2319835713e+02   2.8156321738e+01     2.931447     2.532966  81.91   0.01242008    1.108    0.098
         2 -13.4219    197.2931     28.5587   6.0533349762e+01   3.2756311150e+01     0.862132    0.7033213  29.50  0.005298103    1.819    0.450
         3 -11.9116    205.0993     19.3872   5.7696217464e+01   3.2106213717e+01    0.3975203    0.2861243  51.23  0.001114235    1.687    0.407
         4 -13.0615    211.1348     11.3031   5.5443037233e+01   3.1698912054e+01       0.6467    0.5080017 -74.65  0.002917544    1.089    0.082
         5 -11.3774     21.9049      3.3600   9.3725232344e+01   6.9889321125e+01    0.2126094    0.1312773 -14.04  0.001492569    1.420    0.296
         6 -12.9049    123.7009    187.5459   1.1287363206e+02   1.7792689100e+01    0.7067227    0.5775098  32.55  0.002260855    1.299    0.230
         7 -14.9797    245.8448    241.4972   9.7106329598e+01  -1.3082613272e+01     2.148942     1.701611 -25.19  0.009723797    1.210    0.173
         8 -11.7494    207.2576    249.1723   1.0559133152e+02  -8.9061108619e+00    0.3976835    0.2351579  10.97  0.002000308    2.070    0.517
         9 -12.6721    163.4622    248.3091   1.1421067711e+02  -1.9360279617e+00    0.6686429     0.350577 -46.53  0.003269006    2.120    0.528
        10 -11.7787    169.8704    249.9271   1.1314983313e+02  -3.2543702255e+00    0.3671258    0.2319444  38.85  0.001984115    1.416    0.294
        11 -15.5811      2.9349     83.0726   1.2755808686e+02   5.8532451328e+01     23.55783     1.786692 -63.56   0.03357498   25.088    0.960
        12 -16.6766     91.4710    246.4802   1.2887240526e+02   1.0075041267e+01     5.365071      2.55244  29.13   0.01925473    2.747    0.636
        13 -16.4813     16.0465    243.5281   1.4320204378e+02   2.0729517182e+01     1.991288     1.004017  46.72   0.01173714    1.752    0.429
        14 -15.8220     11.9956    225.9084   1.4272139250e+02   2.4910894417e+01     1.255579     1.195786 -22.71  0.006100242    1.641    0.391
        15 -12.8554    106.7136    187.7940   1.1704989711e+02   2.0790648951e+01    0.6726813    0.6187475  63.53  0.002815142    1.058    0.055
        16 -15.1229     82.1741    119.8667   1.0985556212e+02   4.1619449471e+01     2.508999     1.438965  23.82   0.01051967    2.221    0.550
        17 -11.2276    199.6799    247.3514   1.0676741804e+02  -7.4874852620e+00    0.1847015    0.1558845  64.28  0.001119776    1.713    0.416
        18 -13.5508     94.0894    175.8003   1.1809333854e+02   2.5897908890e+01     1.080923    0.7313617  39.58  0.003620213    1.524    0.344
        19 -15.6353     39.8586    191.6216   1.3370979647e+02   2.9733603093e+01     3.535517      2.16046  66.71   0.01607146    1.693    0.409
        20 -12.9298    135.2277    180.4670   1.0874910736e+02   1.7293412366e+01    0.6928052    0.5357976 -51.77  0.003137342    1.288    0.224
        21 -15.6299     68.8614    221.3696   1.3070575362e+02   1.8887221343e+01     2.315352     1.536116  44.12  0.009592984    1.445    0.308
        22 -14.9438     36.7544    227.0780   1.3799218909e+02   2.1866362110e+01     1.117229    0.9941621 -79.82  0.007018262    1.271    0.213
        23 -12.0666    137.4778    169.1097   1.0591635313e+02   1.9537398766e+01    0.4649281     0.347466  16.95  0.002089307    1.737    0.424
        24 -15.1433     66.7848    149.0269   1.2049244697e+02   3.6849939196e+01     2.297204     1.215786 -56.94  0.008317557    1.690    0.408
        25 -12.5588     71.1538    164.9691   1.2214862611e+02   3.2220964667e+01    0.5525272    0.2846871 -41.70  0.000955789    2.370    0.578
        26 -13.0117    143.9597    151.1962   1.0046483947e+02   2.2449138758e+01     1.115114    0.5948374 -37.36  0.004190461    2.166    0.538
        27 -12.9306    131.8291    196.4182   1.1255221544e+02   1.4221861543e+01    0.7508411    0.6071249 -35.80  0.003828986    1.388    0.280
        28 -11.6533    134.0000    148.0001   1.0220634477e+02   2.5248239496e+01    0.5497068    0.2278219 -57.40  0.001752283    2.908    0.656
        29 -11.3444    127.6596    147.6692   1.0373900391e+02   2.6609095437e+01    0.3840184    0.2781915 -69.25  0.001706611    1.575    0.365
        30 -13.9936     45.7784    140.2903   1.2483318308e+02   4.1723128249e+01    0.9725489     0.695675 -69.44  0.003604966    1.276    0.216
        31 -10.0120    102.2975    145.3466   1.0992538811e+02   3.2024600165e+01    0.1574109    0.1192142 -23.56  0.000703489    1.677    0.404
        32 -11.4482     90.9717    144.3786   1.1282929751e+02   3.4245839890e+01    0.2971729    0.2639494 -25.96 0.0003924569    1.253    0.202
        33 -13.5201    109.4786    132.2889   1.0500414222e+02   3.3844468740e+01    0.8901928    0.6802701  38.05  0.004286565    1.370    0.270
        34 -11.4947    149.1222    127.9562   9.3767259493e+01   2.6668601355e+01    0.4346989    0.3106738 -48.46  0.001668711    1.368    0.269
        35 -11.8878    107.3575    196.9812   1.1845209252e+02   1.8477338442e+01    0.4802885    0.2821524 -64.82  0.001979056    1.791    0.442
        36 -14.1851    118.2202    173.6588   1.1159318280e+02   2.2144497280e+01     1.459842     1.135061  15.24  0.006884605    1.653    0.395
        37 -12.3771     98.2773    129.5518   1.0747403541e+02   3.6571454753e+01    0.5190642    0.4278469  43.97  0.001445372    1.268    0.212
        38 -10.4435    167.5646    112.1706   8.5700212662e+01   2.5945528548e+01    0.3450073    0.2441574 -71.14 0.0009215254    1.736    0.424
        39 -11.1402     58.2460     96.8914   1.1167731899e+02   5.0347759669e+01    0.2865818    0.1569895 -47.42  0.001353458    1.634    0.388
        40 -12.9113     76.7890     90.2994   1.0387229758e+02   4.9006971849e+01    0.8360571    0.5629548 -48.52  0.004230476    1.455    0.313
        41 -13.0420     61.6422     70.9995   1.0325220380e+02   5.5075682374e+01      0.84773    0.5377739 -32.98  0.004493524    1.507    0.336
        42 -11.1655     83.4304     74.2132   9.7057346225e+01   5.1009350962e+01     0.337619    0.1301683 -45.25  0.001301179    2.646    0.622
        43 -13.6814     78.3762     55.7839   9.2802729417e+01   5.5007663173e+01     1.129463    0.7338758  -8.82  0.005687202    1.933    0.483
        44 -15.3275     51.0140    213.0167   1.3362559154e+02   2.3262490261e+01     2.312053     1.182854 -50.91    0.0108306    2.301    0.565
        45 -11.9594    188.8733     34.7725   6.2979959482e+01   3.3892757570e+01     0.326683    0.3002031  51.84   0.00134394    1.320    0.243
        46 -15.6646     62.7514    239.2958   1.3393135039e+02   1.5800900218e+01     1.952352    0.8728482  46.13  0.008326855    1.951    0.487
        47 -13.0718    233.5305    248.3688   1.0050540048e+02  -1.2469810644e+01    0.8243162    0.5455431  34.25  0.003516851    1.536    0.349
        48 -13.6414    120.2557    197.4796   1.1546875836e+02   1.6084190407e+01     1.068048     0.589477 -53.49  0.003203494    1.825    0.452
