#   1 NUMBER                 Running object number                                     
#   2 MAG_AUTO               Kron-like elliptical aperture magnitude                    [mag]
#   3 X_IMAGE                Object position along x                                    [pixel]
#   4 Y_IMAGE                Object position along y                                    [pixel]
#   5 X_WORLD                Barycenter position along world x axis                     [deg]
#   6 Y_WORLD                Barycenter position along world y axis                     [deg]
#   7 A_WORLD                Profile RMS along major axis (world units)                 [deg]
#   8 B_WORLD                Profile RMS along minor axis (world units)                 [deg]
#   9 THETA_WORLD            Position angle (CCW/world-x)                               [deg]
#  10 FWHM_WORLD             FWHM assuming a gaussian core                              [deg]
#  11 ELONGATION             A_IMAGE/B_IMAGE                                           
#  12 ELLIPTICITY            1 - B_IMAGE/A_IMAGE                                       
         1 -12.4723     10.0855      4.9635   1.2076584412e+02   7.5553374460e+01     1.053883    0.5338818 -35.79  0.005607462    1.674    0.403
         2 -11.8810      2.1752     10.8684   1.2969852946e+02   7.4826461327e+01      1.40102    0.1664792 -63.98  0.003764106    6.745    0.852
         3 -13.2240    192.7398     29.3795   6.9923400572e+01   3.3226068529e+01     1.325752     1.125235 -32.62  0.007508689    1.117    0.105
         4 -13.6147    206.3970     10.9864   6.3165486715e+01   3.1837645234e+01     1.488967     1.049376  29.21  0.008029429    1.730    0.422
         5 -12.4141      2.3790     41.7126   1.3834319849e+02   6.7793135281e+01     2.600448    0.2063444 -73.16  0.004190149   17.232    0.942
         6  -9.8956    198.8137    246.5978   1.1654995626e+02   1.9166303326e+00    0.1505031   0.07763321  36.81  0.000947389    1.695    0.410
         7 -11.3157    139.6598    249.6669   1.2738758168e+02   8.9264410435e+00    0.3534722    0.1693894  35.94   0.00217318    1.539    0.350
         8 -11.2789    124.2722    249.9176   1.3022584724e+02   1.0789205921e+01    0.5543309   0.08509379  35.23  0.002015786    4.384    0.772
         9 -10.8339     98.0325    248.3014   1.3492213496e+02   1.4149874892e+01    0.2574257    0.1909934  47.30  0.001453184    1.163    0.140
        10 -10.6381    101.1729    246.1447   1.3416379476e+02   1.4086868425e+01    0.1961039    0.1678104 -89.79  0.000482468    1.490    0.329
        11  -9.8810     29.6507    249.4620   1.4733860182e+02   2.1135749285e+01    0.2438534    0.1591558  88.32  0.001964523    1.624    0.384
        12 -11.1625     34.8572    245.5081   1.4626976616e+02   2.1260611012e+01    0.4833864    0.3415326 -79.71  0.003953864    1.638    0.389
        13 -12.9006      3.1457    244.8382   1.5174254888e+02   2.4107334424e+01     2.157301    0.7226722 -85.08   0.01307101    3.072    0.675
        14 -13.6542     10.9837    206.7782   1.4924470027e+02   2.9880534057e+01     1.626592     1.063559  43.05   0.01022814    1.262    0.208
        15 -15.1338      7.0155    147.0859   1.4754630096e+02   4.2298408108e+01     6.061826     1.853638  89.21   0.02444252    3.362    0.703
        16  -9.8706    228.7332    228.2318   1.0898049991e+02   1.4549654649e-01    0.2285243    0.1752416 -44.10  0.001167063    2.484    0.597
        17 -10.4315     83.5117    244.3258   1.3731497494e+02   1.6396092216e+01    0.2902481    0.1447373  64.97  0.001636714    2.685    0.628
        18  -9.6036    233.5394    237.4951   1.0955562323e+02  -1.3394813263e+00    0.1505867   0.09170426 -35.27   0.00102414    2.267    0.559
        19 -11.5886     11.4499    239.9445   1.5019684514e+02   2.4199235755e+01     0.365882    0.1644006  60.99  0.002144048    1.743    0.426
        20  -8.6608    152.5357    212.9418   1.2058885680e+02   1.2218567446e+01    0.1442376    0.1178829 -36.75 0.0003603425    1.466    0.318
        21 -11.3233     64.7882    197.5940   1.3741364737e+02   2.6391356644e+01    0.3092223    0.2226026 -37.78  0.001401455    1.912    0.477
        22  -9.7773    192.8126    194.4868   1.0996337641e+02   8.9598894861e+00    0.5205992    0.2971914 -59.88  0.001714916    7.563    0.868
        23  -8.3714     51.6333    197.2874   1.4026835829e+02   2.7890894932e+01    0.1257392   0.06673291  55.13 0.0007022243    1.701    0.412
        24 -11.5326     70.3688    189.8422   1.3546337011e+02   2.7225667354e+01    0.2413926    0.2284243 -29.35 0.0004838777    1.301    0.231
        25 -12.3575     39.0533    231.8207   1.4489221846e+02   2.3041377281e+01    0.2541316    0.2397031 -79.66 0.0007887722    1.388    0.280
        26 -10.6684     79.8340    177.3299   1.3193395008e+02   2.8536494889e+01    0.2060266    0.1979232  58.14  0.000309626    1.094    0.086
        27 -12.9856     66.9013    175.2372   1.3480951329e+02   3.0558012904e+01     0.441978    0.2576152 -43.79  0.001602991    2.207    0.547
        28  -8.1620    101.3242    177.6739   1.2686916543e+02   2.5571100991e+01    0.1331715   0.09080059  61.53 0.0007048837    1.691    0.409
        29 -11.6189     87.1661    168.0200   1.2899731579e+02   2.9472396105e+01    0.5955595    0.4961978  41.18  0.003697563    1.097    0.088
        30 -14.6240     45.1381    223.3764   1.4328879926e+02   2.3856616835e+01     5.210419     1.115721  31.72   0.01301977    3.466    0.712
        31  -9.7744     99.4589    151.7837   1.2347982383e+02   3.1121786025e+01    0.2566926     0.255152 -89.70 0.0008464353    1.059    0.056
        32  -8.9791    102.1740    147.7866   1.2210087156e+02   3.1558900594e+01    0.2476113    0.1654546 -28.69 0.0008692754    1.954    0.488
        33 -11.8953     88.0628    151.1415   1.2636222474e+02   3.2931007070e+01    0.2732583     0.243416 -20.82 0.0005848773    1.290    0.225
        34 -12.3889     67.2507    143.9755   1.3094655451e+02   3.7312844612e+01    0.7263786    0.4729572  61.17  0.003461164    1.672    0.402
        35  -9.7480     23.8120    246.0167   1.4823136538e+02   2.2187730498e+01    0.1943414   0.07656386  43.01  0.001182053    1.700    0.412
        36  -8.2144    192.2725    144.2779   1.0052794246e+02   1.6428251689e+01    0.1353942   0.09539411   4.68 0.0002395596    1.491    0.329
        37  -9.5440    110.4322    137.0139   1.1794027370e+02   3.2540465233e+01    0.3519624    0.2302523 -23.47  0.001507541    2.117    0.528
        38 -10.8612     53.9152    120.0649   1.3136956525e+02   4.4531670274e+01    0.3766519    0.1856174 -77.33  0.001596521    2.302    0.566
        39 -11.2433     57.6821    131.8771   1.3197764666e+02   4.1276144466e+01    0.4748069    0.2240283 -85.63  0.001811568    3.116    0.679
        40 -10.2974     97.8105    134.2669   1.2084442747e+02   3.5190536637e+01    0.2616163    0.2182349 -26.90 0.0006353192    1.345    0.256
        41  -9.2695     24.4283    236.1528   1.4777026742e+02   2.3689788998e+01    0.1636841   0.08613513 -76.55  0.001134959    2.091    0.522
        42  -9.3634    107.2336    123.8438   1.1611852835e+02   3.5948756484e+01    0.1956227    0.1900985  70.17 0.0003559838    1.081    0.075
        43 -10.3711    168.0578    112.9819   9.8254569647e+01   2.6358692858e+01    0.3300654    0.2888082 -71.28 0.0008177864    1.519    0.342
        44  -9.2698    203.1916    111.8045   9.1016274306e+01   1.9427633312e+01    0.1988737     0.151673   5.84 0.0006398295    1.334    0.250
        45  -9.2389     69.0156    235.1521   1.3940563580e+02   1.9416763852e+01     0.164414    0.1376627 -42.28  0.001282377    1.650    0.394
        46 -11.2810    142.1726    230.5440   1.2482662121e+02   1.1135958728e+01    0.3950537     0.120447  32.07  0.001722664    2.767    0.639
        47 -10.6227    248.9923    248.0030   1.0862850951e+02  -4.0296160026e+00    0.2398865    0.1323169 -19.65  0.001764411    1.739    0.425
        48 -10.3103     81.6492    248.6694   1.3796938782e+02   1.5967944776e+01    0.1847524    0.1447571   6.12  0.001402964    1.674    0.403
        49  -9.1247     46.9649    249.4952   1.4429646569e+02   1.9491313300e+01    0.1497238   0.07469504  35.78 0.0004098767    1.520    0.342
        50 -10.6210    106.6966    247.3963   1.3324258967e+02   1.3254692062e+01    0.2567871    0.1427574  61.63  0.001527419    2.430    0.588
