#   1 NUMBER                 Running object number                                     
#   2 MAG_AUTO               Kron-like elliptical aperture magnitude                    [mag]
#   3 X_IMAGE                Object position along x                                    [pixel]
#   4 Y_IMAGE                Object position along y                                    [pixel]
#   5 X_WORLD                Barycenter position along world x axis                     [deg]
#   6 Y_WORLD                Barycenter position along world y axis                     [deg]
#   7 A_WORLD                Profile RMS along major axis (world units)                 [deg]
#   8 B_WORLD                Profile RMS along minor axis (world units)                 [deg]
#   9 THETA_WORLD            Position angle (CCW/world-x)                               [deg]
#  10 FWHM_WORLD             FWHM assuming a gaussian core                              [deg]
#  11 ELONGATION             A_IMAGE/B_IMAGE                                           
#  12 ELLIPTICITY            1 - B_IMAGE/A_IMAGE                                       
         1 -11.5897      2.9285      7.3808   1.0440988589e+02   7.1371009732e+01    0.3593394    0.1811744 -19.88  0.001226955    1.756    0.431
         2 -11.2151      4.1014     26.9804   1.1159979869e+02   6.8615094445e+01    0.7625278    0.4214118 -46.49  0.002885871    1.780    0.438
         3 -11.1988     19.7456     25.9479   1.0412115610e+02   6.7397548582e+01    0.5696781    0.4189871 -11.08  0.003141699    1.049    0.046
         4 -11.3780     29.2960     20.3366   9.7783897812e+01   6.7091282598e+01    0.8959358    0.4567584 -30.93  0.005388348    1.824    0.452
         5 -12.3948     10.0563     49.8809   1.1651066551e+02   6.4470514998e+01     1.453724    0.4600638 -45.57  0.007009486    2.376    0.579
         6  -9.9996     10.9999      5.9511   9.9867834377e+01   7.0794598843e+01    0.4092794    0.1977918 -14.69 0.0003228394    2.177    0.541
         7 -12.3322     37.2589      5.0871   8.8140162359e+01   6.7742943347e+01    0.9949847    0.7770998  20.55   0.00679838    1.145    0.127
         8 -10.6097     10.7623     10.3340   1.0188648262e+02   7.0301545731e+01    0.2898772    0.1751024 -13.89 0.0009147071    1.382    0.276
         9 -11.4930      9.8753     17.7455   1.0537706951e+02   6.9442936631e+01    0.8281215    0.2894533  33.57  0.004279863    3.180    0.686
        10 -12.0970     15.9445     11.6811   1.0004989635e+02   6.9623753576e+01    0.9519139    0.3023441 -33.24   0.00350796    2.918    0.657
        11 -10.5775     66.3632     22.5032   8.4888074302e+01   6.1484084820e+01     0.401316    0.2529301  42.61  0.002427706    1.443    0.307
        12  -9.0458     47.5807     18.4348   8.9786453873e+01   6.4892953951e+01    0.3087352    0.1604632  -3.21 0.0007103663    2.698    0.629
        13 -10.2425     64.1866      4.9376   7.8799625082e+01   6.3549346512e+01    0.2330402       0.1777  56.01 0.0004160653    1.514    0.339
        14  -9.2881     50.3033     13.5755   8.6839180745e+01   6.5005235503e+01    0.2131041    0.1526976  10.52  0.000526173    1.206    0.171
        15  -9.5132     59.3014      3.4369   7.9713595515e+01   6.4503740929e+01    0.2211123    0.1257156 -13.84 0.0005203753    1.885    0.470
        16  -9.8523     62.9218      1.4199   7.7794539448e+01   6.4052855337e+01    0.2542505    0.1014386  42.82 0.0003487151    1.970    0.492
        17 -10.8858     53.6783      4.9860   8.2168522716e+01   6.5292588034e+01    0.5469167    0.3421118  17.08  0.001934015    1.484    0.326
        18  -8.9796     49.7591      3.9794   8.3085487755e+01   6.5999956628e+01    0.1667565    0.1127999   4.76 0.0003825516    1.375    0.273
        19 -10.2221     92.8099     17.3758   7.5480564782e+01   5.7134157218e+01    0.2746467    0.2271779 -56.35  0.001257153    1.633    0.388
        20  -8.7478     56.3572     16.2279   8.5786029992e+01   6.3791268608e+01     0.263063    0.1332074 -36.48   0.00145295    2.316    0.568
        21  -9.4136     23.6433     11.7697   9.6645522380e+01   6.8773305347e+01    0.2022931    0.1368826 -24.67 0.0003056419    1.389    0.280
        22 -10.6192     73.2262     13.4546   7.9374358676e+01   6.1205159334e+01    0.2745932    0.1618312  31.27  0.000962395    1.527    0.345
        23 -11.3922     73.4398      5.4312   7.6299829256e+01   6.1870376610e+01    0.4811027    0.2794372  47.06   0.00294639    1.420    0.296
        24 -10.2284     83.3900      8.0190   7.4585697821e+01   5.9802916408e+01    0.3255781    0.1911821 -11.34  0.001904014    1.986    0.496
        25  -9.6858     61.5663      9.1582   8.1273945823e+01   6.3626938642e+01    0.2262633    0.1373003  16.95 0.0008595104    1.657    0.397
        26  -9.3134    103.0304      4.9600   6.8958442566e+01   5.6143953223e+01    0.2010562    0.1124863  35.87 0.0007147475    1.746    0.427
        27 -10.2128     94.2541      4.9621   7.0879449470e+01   5.7926735093e+01    0.2469708    0.1409844  48.72  0.001233643    1.399    0.285
        28  -8.0693    239.3034      1.3248   5.1298795768e+01   2.6940506563e+01   0.09752522   0.08047476  60.96  0.000667347    1.640    0.390
        29 -10.3558     31.3393      5.5926   9.0718034923e+01   6.8490939035e+01    0.2478187    0.1797485  13.08 0.0005009414    1.054    0.051
        30  -8.7423     64.7171    233.9901   1.3298390780e+02   1.6670006288e+01    0.1790904     0.149168  86.84 0.0004394045    1.088    0.081
        31 -13.8643    247.6127     72.2502   6.3836745615e+01   1.5788258578e+01      9.09005    0.6814946 -40.82   0.02022535    9.144    0.891
        32 -13.2207    177.8176    229.6641   1.0821838482e+02  -9.3283918573e-01     1.842244     1.253431 -22.23  0.009369183    1.772    0.436
        33 -12.3836    204.6260    231.8272   1.0315377821e+02  -5.6749253591e+00    0.9145901    0.5660101 -41.15   0.00409839    1.652    0.395
        34 -11.6564    231.1347    162.0626   8.4663032393e+01   2.7443344286e+00    0.8198937     0.644491 -16.44   0.00250751    1.413    0.292
        35 -12.2211    231.7507    148.6838   8.1793386300e+01   5.1915848140e+00     1.502404    0.8505883 -18.94  0.005618379    3.302    0.697
        36 -13.3402    245.9216    114.9644   7.2625003445e+01   8.8506355353e+00     2.771851     1.068469 -41.35   0.01140243    2.276    0.561
        37 -13.2880    244.0466    145.1915   7.9067272883e+01   3.6486434195e+00     2.250201    0.9698438 -33.19  0.008784059    2.667    0.625
        38 -11.7864    233.6903    244.5925   9.9833813857e+01  -1.1936306033e+01    0.5741698     0.277638 -26.99    0.0026796    2.191    0.544
        39 -12.5051    191.9514    214.4406   1.0258618214e+02  -4.7737646575e-01     1.331431    0.9431533  84.15  0.005779197    2.908    0.656
        40 -12.3841    225.6356    240.3548   1.0059784611e+02  -1.0184406471e+01     1.122843    0.4565651 -38.75  0.005220534    2.405    0.584
        41 -12.1016    216.3847    230.5217   1.0063296707e+02  -7.2606851566e+00    0.4312991    0.3625269 -25.60 0.0005270484    1.157    0.135
        42 -12.2479    207.9347    202.0432   9.7020790281e+01  -8.5985880064e-01     1.273953    0.4980574 -32.36  0.004381852    3.405    0.706
        43 -14.0443    221.8484    186.9767   9.1386311658e+01  -3.8181546852e-01     1.947786     1.775777 -88.12   0.01156214    1.426    0.299
        44 -12.3320    210.6604    213.9191   9.8730711222e+01  -3.4977162584e+00     1.506183    0.3763828 -45.64  0.004806213    4.152    0.759
        45 -12.0692    202.5711    214.9243   1.0052020970e+02  -2.3545042129e+00    0.7303618    0.4901329 -44.90  0.001384085    1.530    0.346
        46 -12.4446    229.4840    231.1516   9.8268395016e+01  -9.2865468301e+00     0.906059     0.389793 -44.34  0.002278573    2.440    0.590
        47 -12.0795    235.8947    226.7151   9.6295198253e+01  -9.4900557151e+00    0.4399762    0.3056582 -23.65 0.0005077705    1.309    0.236
        48 -12.9059    234.1364    174.6529   8.6689628278e+01  -1.4645788576e-01     1.623517    0.6624663 -39.70  0.006674193    2.203    0.546
        49 -12.5026    245.7129    175.4630   8.4859984330e+01  -2.1875572038e+00    0.9862583    0.6918509  10.34  0.003468584    1.877    0.467
        50 -12.3232    219.7826    201.9367   9.4699767835e+01  -2.8113060659e+00      1.03155     0.735032  -2.31  0.003082825    1.651    0.394
        51 -11.7586    229.5331    198.0058   9.2116814514e+01  -3.6704585802e+00    0.5683566    0.4663258 -38.75  0.001546927    1.180    0.153
        52 -13.2300    245.3620    242.0379   9.7285576649e+01  -1.3099038721e+01     1.201827     0.743663 -39.41  0.007071911    1.653    0.395
        53 -12.0846    238.3882    217.4076   9.4151896834e+01  -8.3402847347e+00    0.5148102    0.3305192 -24.97 0.0006241116    1.464    0.317
        54 -12.2605    245.5715    165.1814   8.2847045665e+01  -2.9841813908e-01    0.9113084     0.478801 -31.91  0.002406839    1.928    0.481
        55 -11.8809    248.2403    156.2984   8.0641477887e+01   8.8432324955e-01    0.5110438     0.481636  50.84  0.003306971    1.260    0.207
        56 -11.7828    249.3755    232.1929   9.4856347679e+01  -1.2165153478e+01    0.3895663    0.3269192 -35.48  0.001686875    1.367    0.269
        57 -11.6792    233.6561    210.5490   9.3741626033e+01  -6.4993312852e+00    0.4146533     0.299117  -0.99 0.0005340099    1.485    0.327
        58 -12.4504    247.6823    184.2906   8.6252493265e+01  -4.0678165753e+00     1.309417    0.7067381  13.94  0.005031011    3.861    0.741
        59 -12.6749    219.9690    221.8738   9.8393181945e+01  -6.3533781125e+00     1.015104    0.7950379  44.04   0.00602755    1.494    0.331
        60 -12.4319    227.8234    218.1077   9.6221250655e+01  -6.9053227655e+00    0.6433429    0.4368694 -42.34  0.002630886    1.487    0.327
        61 -13.5762    240.5329    202.7248   9.1029093098e+01  -6.1917549419e+00     1.171659    0.6957109 -35.00   0.00434934    1.497    0.332
        62 -12.7045    248.5910    202.5367   8.9582075482e+01  -7.3409257165e+00     1.050603    0.4156568 -27.79  0.003873957    3.506    0.715
        63 -11.8115    246.3335    191.3135   8.7837873804e+01  -5.0918565499e+00    0.4038932    0.3147286  -0.18  0.000477957    1.365    0.268
        64 -12.0031    247.5902    224.4187   9.3784485326e+01  -1.0740777093e+01    0.4217631    0.3015322  -4.82 0.0005524982    1.345    0.256
        65 -12.7116    247.9938    214.4789   9.1905956932e+01  -9.2206583523e+00     0.674314    0.3288253 -30.98  0.001756934    1.932    0.482
        66  -9.2813    184.0300    249.8609   1.1027986222e+02  -5.4886559451e+00    0.3019158    0.2402536  30.85 0.0009713933    1.126    0.112
        67 -12.2691    191.5694    244.6084   1.0792136638e+02  -5.7917960928e+00    0.3345678    0.2755114  -3.26   0.00052269    1.194    0.162
        68  -9.3529    186.5240    245.5062   1.0907879006e+02  -5.1514870330e+00    0.2041651     0.193778  -4.15 0.0005439204    1.141    0.124
        69 -10.4067    148.7182    238.3342   1.1575416820e+02   2.3491182124e+00    0.2910839    0.2456003  12.53 0.0002553467    1.298    0.230
        70 -11.0599    169.7807    240.6976   1.1171528418e+02  -1.6117088803e+00    0.3492968    0.2840621   4.68 0.0004695147    1.322    0.244
        71 -12.0522    140.3661    246.6287   1.1874318271e+02   2.1675977719e+00    0.5854263    0.4083156   3.65 0.0004234635    2.192    0.544
        72 -10.0269    158.3777    229.4433   1.1228397820e+02   2.4214046842e+00    0.2950231    0.2468787 -16.17  0.000505932    1.358    0.264
        73 -11.3750    166.6213    250.4680   1.1389452177e+02  -2.8255415898e+00     0.384977    0.1541062  37.22 0.0002153686    2.226    0.551
        74 -10.7856    163.5040    244.9886   1.1369043315e+02  -1.3511722693e+00    0.3159489     0.271951 -21.69 0.0004201635    1.271    0.213
        75 -11.9016    176.3521    244.0054   1.1089626728e+02  -3.2709175506e+00    0.5533519    0.3520791  16.93 0.0006696963    1.842    0.457
        76 -11.4888    159.2586    235.7345   1.1311762192e+02   1.0629976902e+00    0.3738588    0.2803197  20.41 0.0009507053    1.413    0.292
        77 -10.8409    163.3627    225.2243   1.1051376525e+02   2.3836822683e+00    0.3673475    0.3330237  69.82  0.001265496    1.258    0.205
        78  -9.3526    165.8572    220.5255   1.0917299999e+02   2.8737902112e+00    0.2457249    0.2210802  -1.61 0.0003850351    1.154    0.133
        79 -10.5743    151.7476    250.0092   1.1687513482e+02  -3.2828096049e-01    0.5015101    0.2146487  45.41 0.0009799922    2.199    0.545
        80 -10.7544    156.9992    245.9905   1.1518990267e+02  -4.6233362476e-01    0.3280598    0.2814128   7.25 0.0003820966    1.248    0.199
        81 -10.7551    153.0101    243.3188   1.1561373191e+02   6.8880186258e-01    0.7144113    0.4540247   2.69   0.00252503    2.794    0.642
        82  -9.2746    101.6904    250.6129   1.2727056591e+02   7.6581542334e+00    0.2806525    0.1093961  39.91  0.000806594    2.247    0.555
        83  -9.8980     87.5796    249.7650   1.3003410947e+02   1.0001375286e+01    0.2439419    0.2113568  38.96 0.0006398261    1.275    0.216
        84 -10.5452     92.9947    244.7002   1.2835225587e+02   1.0204448420e+01    0.3230836    0.2544981  27.47 0.0006227926    1.506    0.336
        85  -9.4673     72.5992    250.4913   1.3309748959e+02   1.2066834411e+01    0.2704357    0.1478434  36.68 0.0005783688    1.833    0.454
        86  -8.8898     75.5421    246.4871   1.3210057035e+02   1.2461743988e+01    0.2112833    0.1911198 -25.16 0.0007103268    1.615    0.381
        87 -10.5468     80.3887    244.3304   1.3089047200e+02   1.2194415448e+01    0.3960468    0.2468553  40.65 0.0004749999    1.510    0.338
        88 -10.1774     61.3606    248.8858   1.3514151179e+02   1.3981506909e+01    0.2561585    0.2350135 -40.34  0.000823452    1.574    0.365
        89 -10.3239     47.0219    250.3778   1.3801940733e+02   1.5595251484e+01    0.2883744    0.1567134  34.94 0.0007348536    2.010    0.503
        90  -9.9123     16.1188    249.0489   1.4355412615e+02   1.9587149357e+01     0.243711    0.2290501 -32.39 0.0009216723    1.765    0.434
        91  -9.7986      8.4683    248.5135   1.4485449739e+02   2.0525908270e+01     0.213837    0.1636883 -75.89 0.0005767584    1.388    0.280
        92  -8.2168      1.4833    250.5265   1.4616248674e+02   2.0848303555e+01    0.1127642   0.08150103  77.64 1.823229e-05    1.028    0.027
        93  -9.8411    165.7841    232.5187   1.1121867076e+02   5.6574762068e-01    0.2487134    0.2239431   1.43 0.0002547246    1.137    0.121
        94  -9.8764     84.8906    231.7359   1.2850128361e+02   1.4194588925e+01    0.2659456    0.2240525 -55.41 0.0005503211    1.372    0.271
        95  -9.9911     35.3703    230.9682   1.3860853183e+02   2.1177721613e+01    0.3466692    0.2378348 -43.62  0.001541106    2.193    0.544
        96 -10.1087    145.4298    231.1128   1.1533252287e+02   4.3219676506e+00    0.2654612    0.2434817  -4.62 0.0004369163    1.208    0.173
        97  -9.5521    143.9231    226.2774   1.1488977694e+02   5.5575968400e+00    0.3014407    0.2205561  28.16 0.0003484959    1.412    0.292
        98  -9.9976    123.3131    231.0438   1.2011376193e+02   8.1167115022e+00     0.330311    0.2572564  10.32 0.0005519949    1.702    0.413
        99 -10.0497    100.2275    230.6622   1.2507209605e+02   1.2016927275e+01    0.2760783    0.2583948  -7.93 0.0005896311    1.375    0.273
       100 -10.8165     54.6477    231.0388   1.3474627281e+02   1.8701597646e+01    0.3122737    0.2498715  27.31 0.0007032508    1.621    0.383
       101  -9.1875      9.5019    231.6242   1.4358697936e+02   2.3935755084e+01    0.1871506    0.1376084  40.56 0.0006494785    1.561    0.359
       102  -9.4912    133.9068    230.4358   1.1772079300e+02   6.4382384847e+00    0.2505812    0.2268572  -3.46    0.0006057    1.292    0.226
       103  -9.1839     44.6418    229.5137   1.3663057083e+02   2.0346514763e+01    0.2352906    0.1897239 -52.94 0.0007969684    1.576    0.365
       104  -8.5186    130.0434    228.9580   1.1833723227e+02   7.4047321762e+00    0.2008815    0.1671987  -3.91 0.0003910567    1.553    0.356
       105 -10.3223    113.1006    228.1712   1.2192723716e+02   1.0439957539e+01    0.2726997    0.2563362  54.88 0.0003466503    1.080    0.074
       106  -9.3245    107.0495    228.1471   1.2324775383e+02   1.1448392614e+01    0.2250345    0.2075322  52.43 0.0003877925    1.092    0.084
       107  -9.2510    109.7457    224.0618   1.2207824429e+02   1.1888082957e+01    0.2613571     0.234445  52.02 0.0004941336    1.065    0.061
       108  -9.5988     92.7208    228.0165   1.2635220831e+02   1.3789447859e+01    0.2263219    0.2209225 -27.00 0.0004470182    1.290    0.225
       109  -9.4171     78.8481    228.4475   1.2939502800e+02   1.5831591852e+01    0.2238608     0.200243 -58.91 0.0005138089    1.308    0.236
       110  -8.7872     29.6688    228.9400   1.3955504296e+02   2.2299610958e+01    0.1800293    0.1622577  62.29 0.0005871024    1.292    0.226
       111  -9.3463    152.6468    227.8394   1.1325141067e+02   3.7271660580e+00    0.2991121    0.2345182 -15.89  0.001068949    1.581    0.368
       112  -9.3969    155.3291    223.4713   1.1194866145e+02   4.1326194170e+00    0.2361111    0.2249873  45.18 0.0003822143    1.049    0.047
       113  -8.9904    138.9290    227.2751   1.1613767781e+02   6.2207902412e+00    0.2359536    0.1995834 -36.51 0.0003660654    1.330    0.248
       114  -9.8160     67.8446    227.0655   1.3157688753e+02   1.7751758359e+01    0.2451954    0.2214327  55.38  0.000405182    1.198    0.165
       115  -9.4116     19.7845    227.4218   1.4134940472e+02   2.3750103954e+01    0.2223184    0.1703756 -63.75 0.0008095762    1.477    0.323
       116  -9.2682      1.6862    227.1736   1.4472681148e+02   2.5672436678e+01    0.1875901    0.1482975 -77.45   0.00120655    1.297    0.229
       117  -9.2527    120.4933    224.8163   1.1981122909e+02   9.9111170117e+00    0.2469704       0.2136  22.23 0.0006149243    1.306    0.234
       118  -9.3591    104.2916    223.9510   1.2326911975e+02   1.2816200913e+01    0.2386605    0.2304377 -28.81 0.0004867651    1.255    0.203
       119  -8.3335     89.4842    224.9585   1.2666138300e+02   1.4973606858e+01     0.192542    0.1289688 -63.61  0.000491695    1.517    0.341
       120  -9.4765      8.1657    225.2107   1.4339377544e+02   2.5454697446e+01    0.2999525    0.1483369  38.01  0.001220189    2.091    0.522
       121  -9.5677    129.4050    223.8046   1.1768695255e+02   8.5951130609e+00    0.2519647    0.2238432  24.19 0.0004487739    1.211    0.174
       122 -10.3033     49.6415    222.4164   1.3490998294e+02   2.1287762505e+01    0.2742986    0.2301093 -84.09 0.0005780467    1.132    0.117
       123  -8.9119    135.5862    223.0167   1.1619740997e+02   7.6864418793e+00    0.2423347    0.1915847  20.98 0.0004829866    1.427    0.299
       124  -9.7124     97.6987    222.1777   1.2448261581e+02   1.4284344807e+01    0.2553343    0.2277504 -40.97 0.0004448319    1.363    0.266
       125  -8.8295     82.4473    222.9851   1.2794729918e+02   1.6504085737e+01    0.2195626    0.1900246  22.24 0.0005797652    1.458    0.314
       126  -9.1649     74.0872    222.2959   1.2968343950e+02   1.7915391612e+01     0.220444    0.2001797 -73.48  0.000387789    1.202    0.168
       127  -9.2241     15.4640    221.4650   1.4172564338e+02   2.5523975858e+01     0.253262    0.1744956 -54.32 0.0007534972    1.783    0.439
       128 -10.1758    148.4973    220.7429   1.1298253207e+02   5.8904485543e+00    0.2886396    0.2469205 -19.06  0.000619286    1.346    0.257
       129  -8.8146    114.8820    221.7057   1.2059300737e+02   1.1538651703e+01    0.2174826    0.1900243 -44.55 0.0005044222    1.302    0.232
       130  -8.5722     92.2710    221.7447   1.2562576405e+02   1.5251187291e+01    0.1719256    0.1611475 -35.29 0.0006427699    1.334    0.250
       131  -9.7062     39.8938    221.1425   1.3680679485e+02   2.2810534723e+01    0.2803814     0.231835 -31.24 0.0009895238    1.855    0.461
       132  -8.9832     28.5776    222.0004   1.3918295406e+02   2.3963006305e+01    0.1805246     0.176647  26.95 0.0005250331    1.468    0.319
       133  -9.2744    140.6580    220.2931   1.1463637022e+02   7.3683638702e+00    0.2450407    0.2262678  13.44 0.0003475084    1.165    0.142
       134  -8.5947    124.5297    221.0529   1.1834265607e+02   1.0027391989e+01    0.1973232     0.139125 -57.77  0.000437186    1.497    0.332
       135  -8.3844     68.1087    221.2010   1.3084882455e+02   1.9033741512e+01    0.1810225    0.1745902 -62.49 0.0004669547    1.299    0.230
       136  -9.4083     59.2541    220.7545   1.3270180090e+02   2.0378614908e+01    0.4875031    0.1942371  43.74  0.002136451    2.278    0.561
       137 -10.2312     56.0083    216.6236   1.3294228025e+02   2.1765694238e+01    0.2806446    0.1670093 -72.29 0.0006192797    1.564    0.360
       138  -9.1422    104.0327    218.7022   1.2258055935e+02   1.4023576160e+01    0.2398998    0.2057492   4.33 0.0004247614    1.549    0.354
       139  -9.4013    109.0155    219.2619   1.2154376417e+02   1.3067407669e+01    0.2624497    0.2372035  87.70 0.0003963708    1.082    0.076
       140  -8.7254    106.9905    215.5170   1.2144668152e+02   1.4245818452e+01    0.2056029    0.1336778  39.39 0.0004157419    1.494    0.330
       141  -8.0324     88.0420    220.0151   1.2633229833e+02   1.6307909839e+01    0.1635708    0.1439697  70.93 0.0003278973    1.009    0.009
       142  -8.8484    128.7865    218.9683   1.1706499438e+02   9.7370239558e+00    0.2027297    0.1886021  -4.38 0.0004655539    1.245    0.197
       143  -9.7883    159.0163    217.7739   1.1017549138e+02   4.6342257638e+00    0.2709638    0.2216744  17.37 0.0003868806    1.309    0.236
       144  -8.3817    154.4850    218.5127   1.1129255112e+02   5.2882950966e+00    0.1406021    0.1329052  28.85 0.0001333834    1.022    0.021
       145  -8.7739    136.0324    218.1531   1.1531445424e+02   8.6382633403e+00    0.2099004    0.1865555   9.51 0.0004274381    1.281    0.219
       146  -8.2186     95.4328    217.7679   1.2437855821e+02   1.5641141684e+01    0.1808046    0.1279898 -52.87 0.0004575087    1.525    0.344
       147  -9.9585      7.8188    216.3806   1.4282667515e+02   2.7429449991e+01    0.3090286    0.2054035 -45.17  0.001295088    2.177    0.541
       148  -9.1687    119.7093    216.9127   1.1878153590e+02   1.1764727529e+01    0.2178649    0.1946482  25.29 0.0004594551    1.235    0.190
       149  -8.5047     77.0879    217.1758   1.2839364292e+02   1.8635467448e+01    0.1878639    0.1802758 -78.00 0.0004275336    1.212    0.175
       150  -8.4953     72.1858    216.8145   1.2943254308e+02   1.9445380110e+01    0.1682753    0.1591015 -52.58 0.0003763178    1.308    0.235
       151  -8.5407     21.8814    217.0189   1.4010141668e+02   2.5830064670e+01    0.1799851    0.1334625 -51.31 0.0008698545    1.714    0.417
       152  -8.9901    171.3323    206.1182   1.0540037348e+02   4.8043717496e+00    0.2337744    0.1979649  37.74 0.0005955478    1.156    0.135
       153  -8.9089    173.1692    202.1858   1.0426498581e+02   5.2794320920e+00    0.2296285    0.1903645 -30.68 0.0004189565    1.242    0.195
       154 -10.5626    171.0385    213.7949   1.0686851781e+02   3.2998808943e+00    0.3585916    0.2919036 -62.60  0.000403292    1.431    0.301
       155  -9.5441    165.6938    214.1039   1.0807790594e+02   4.1901403181e+00    0.2510631     0.210796  12.29  0.000376116    1.273    0.215
       156  -8.4066    167.5498    207.9748   1.0656530043e+02   5.1092280493e+00     0.248438    0.1785966 -51.83  0.000442477    1.469    0.319
       157  -8.6702    150.8540    215.7641   1.1161991841e+02   6.5046444173e+00    0.2073023    0.1875931   6.50  0.000476437    1.191    0.160
       158  -9.4784    154.6015    212.3683   1.1020047407e+02   6.5413036544e+00    0.2677248    0.2346441  -0.96 0.0003313927    1.273    0.214
       159  -8.5893    124.0743    215.6509   1.1759737318e+02   1.1283974664e+01    0.2024229    0.1707405  40.56  0.000446891    1.151    0.131
       160  -8.3086     90.4708    215.7451   1.2521413436e+02   1.6896396152e+01    0.1804028    0.1265762 -51.88 0.0007512599    1.557    0.358
       161  -9.5343     83.0271    215.5079   1.2685438725e+02   1.8115803961e+01    0.2647419      0.22477 -16.55 0.0006096726    1.695    0.410
       162  -9.7008     30.9148    214.6309   1.3804959533e+02   2.5360231821e+01    0.3015712    0.1969492 -53.76 0.0009242105    1.778    0.438
       163  -9.6576    143.3734    214.4996   1.1306646253e+02   8.1115520534e+00    0.2734936     0.236382   7.62 0.0006540138    1.327    0.246
       164  -8.9281    101.6071    214.5856   1.2253085311e+02   1.5354530818e+01    0.2650732    0.2036727 -30.87 0.0007491961    1.766    0.434
       165  -9.2726    131.9056    213.6908   1.1550931525e+02   1.0333642163e+01    0.2465603    0.2284539 -13.42 0.0004216166    1.239    0.193
       166  -9.1558     63.2353    213.1055   1.3096010903e+02   2.1587294822e+01    0.2344439    0.2182356 -10.30  0.000720335    1.487    0.327
       167  -9.5566     50.3754    213.3059   1.3379539972e+02   2.3278626719e+01    0.4301088     0.233603  27.21  0.001881192    2.399    0.583
       168  -8.7672    117.3401    212.7152   1.1866223733e+02   1.3109213275e+01     0.223493    0.1922055  38.50 0.0004706861    1.172    0.147
       169  -8.4295    111.1369    213.1336   1.2014328929e+02   1.4082012221e+01    0.2039781    0.1906553 -25.68 0.0005344744    1.279    0.218
       170  -9.6180     96.7180    212.4575   1.2333467094e+02   1.6645019688e+01    0.2603394    0.2256504 -41.15 0.0006511743    1.379    0.275
       171  -8.5007     74.2488    212.6979   1.2845733741e+02   2.0094014772e+01    0.1691523     0.157288 -44.04  0.000555651    1.342    0.255
       172  -8.8289     41.0823    212.8442   1.3574166152e+02   2.4561127316e+01    0.1988755    0.1794535 -24.73 0.0007752691    1.611    0.379
       173  -9.4474     25.1107    210.6757   1.3889092287e+02   2.6919328352e+01    0.2618417    0.1736361 -64.58  0.001010092    1.459    0.315
       174  -9.3175     17.3006    211.3364   1.4054972559e+02   2.7603692377e+01    0.2566113    0.1926376 -35.77  0.001060797    2.057    0.514
       175  -8.6245    125.0952    211.1128   1.1663388167e+02   1.2109829368e+01    0.2072031    0.1927021  -5.07 0.0003967663    1.256    0.204
       176  -8.8399    106.8284    210.2583   1.2068987549e+02   1.5468966494e+01    0.2253365    0.2010879 -45.00 0.0004303945    1.270    0.213
       177 -10.1134    161.2809    208.6714   1.0806563243e+02   6.1038150162e+00    0.2665994    0.2375838 -21.26 0.0003858459    1.191    0.161
       178  -8.8060    149.3239    210.1904   1.1099156008e+02   7.9575285270e+00    0.2320179     0.189278  26.08 0.0004618178    1.276    0.216
       179  -8.6761    146.0644    207.7304   1.1129077256e+02   9.0798838040e+00    0.2125476    0.2068663  -9.10 0.0003694993    1.081    0.075
       180  -9.4011    149.6662    205.1617   1.1002053372e+02   8.9766436196e+00    0.4181615    0.2415077 -43.69  0.001842014    1.830    0.454
       181  -8.2899    140.0833    209.6924   1.1298473187e+02   9.7402437924e+00    0.2024056    0.1783235  40.58   0.00047014    1.095    0.087
       182  -7.7011     56.2986    210.3241   1.3216644032e+02   2.3189707695e+01    0.1259777    0.1002979 -42.86 0.0003731458    1.628    0.386
       183 -10.1932    176.8498    208.4590   1.0464729018e+02   3.3334629241e+00    0.2811541    0.2401866   5.43 0.0003570952    1.235    0.190
       184  -8.5818     93.6157    208.9450   1.2353706375e+02   1.7962740387e+01    0.1968686    0.1719562 -73.98 0.0005540182    1.127    0.113
       185  -8.7801     78.4571    208.8995   1.2700789696e+02   2.0351505884e+01    0.2227486     0.196609  12.70 0.0005499215    1.490    0.329
       186  -8.5098    134.7152    208.0183   1.1391812937e+02   1.1078263738e+01    0.2259603    0.1891664  41.46 0.0003750384    1.153    0.133
       187  -8.3151    131.4473    208.4453   1.1473785840e+02   1.1572024010e+01    0.1993575    0.1401712 -66.07 0.0001028011    1.576    0.365
       188  -9.2983    113.6093    207.1640   1.1863863692e+02   1.5016405781e+01    0.4697685    0.2401637  26.10  0.001731421    2.761    0.638
       189  -8.6938     72.8234    207.8119   1.2814812873e+02   2.1450023864e+01    0.1934458    0.1791488 -59.85 0.0004973866    1.244    0.196
       190 -10.0743    124.5464    205.9228   1.1590117715e+02   1.3374067579e+01    0.3311727     0.222779  36.13            0    1.495    0.331
       191  -9.3442    120.2047    206.1565   1.1694561205e+02   1.4091870341e+01    0.2335324    0.2222763  48.38 0.0004411815    1.074    0.069
       192  -8.0611     66.1884    206.8097   1.2952750704e+02   2.2648256725e+01    0.1743637    0.1549269 -51.26 0.0004657222    1.336    0.252
       193  -9.8400     46.6289    206.4747   1.3386512810e+02   2.5356739488e+01    0.2317273    0.2204993 -48.82 0.0004750528    1.363    0.266
       194  -8.6588     31.8913    206.8344   1.3710252190e+02   2.7047264861e+01    0.1838489    0.1558602 -64.53 0.0006363038    1.311    0.237
       195  -9.5699    183.4677    205.7480   1.0273469113e+02   2.6921705842e+00    0.2716429    0.2235413  -8.31 0.0004965451    1.321    0.243
       196  -9.9958    186.7878    201.2030   1.0117136259e+02   3.0046990804e+00    0.2560368    0.2386563  17.46 0.0002718905    1.050    0.047
       197  -9.2419    156.4760    205.1152   1.0848428045e+02   7.7337492877e+00     0.253877     0.225183  28.11 0.0004011644    1.125    0.111
       198  -8.9755    103.9994    205.4056   1.2059639038e+02   1.7069521051e+01    0.2425756    0.1950766 -43.68 0.0004010306    1.417    0.294
       199  -9.6025     86.4230    204.9958   1.2463127202e+02   2.0040232838e+01    0.2615552    0.2290012  61.54 0.0009827644    1.082    0.076
       200  -8.9976    109.4262    203.4345   1.1901531094e+02   1.6602460764e+01    0.3791258    0.2559548 -23.05  0.001505014    2.472    0.596
       201  -9.7944      6.4980    204.0424   1.4214736641e+02   3.0332789282e+01    0.2591659     0.200983   5.34 0.0005726391    2.077    0.519
       202  -8.5378    140.5175    195.5399   1.1036246113e+02   1.2807652489e+01    0.2317629    0.1463489 -50.91 0.0001531774    1.607    0.378
       203  -9.7655    139.7357    203.1776   1.1192502787e+02   1.1238177834e+01      0.30736    0.2703781 -58.35 0.0003202276    1.170    0.145
       204  -9.2052    139.0300    199.0369   1.1134596248e+02   1.2294895082e+01    0.2496457    0.2061708  60.29            0    1.258    0.205
       205  -7.7396     80.6633    204.6657   1.2592161805e+02   2.1014917818e+01    0.1378104    0.1098629 -28.96 0.0007051978    1.743    0.426
       206  -8.1747     76.7957    204.1844   1.2675102625e+02   2.1717610888e+01    0.1800369    0.1618391 -43.33 0.0005312515    1.348    0.258
       207  -9.4911    179.1639    202.2997   1.0299610513e+02   4.1617604296e+00    0.2629611    0.2220034  -7.19 0.0003880191    1.283    0.220
       208  -8.0500     92.5118    203.4672   1.2298675994e+02   1.9428130246e+01    0.1407591    0.1328465  85.38 0.0001843901    1.076    0.071
       209  -9.4681     55.7823    202.2118   1.3132159208e+02   2.5178250672e+01    0.2300814    0.2020787 -63.89 0.0003289477    1.238    0.192
       210  -8.9420     20.9789    202.4430   1.3900815064e+02   2.9265542508e+01    0.2222454    0.1445352 -61.23 0.0006204425    1.517    0.341
       211 -10.2679    164.7394    199.8155   1.0566314272e+02   7.3336334395e+00    0.3735517    0.3362301  72.33  0.001357851    1.251    0.201
       212  -8.2801    160.0138    200.7678   1.0689204507e+02   8.0093091540e+00    0.1979753    0.1715533   5.43 0.0003195516    1.282    0.220
       213  -8.9925    144.5158    200.7854   1.1039992327e+02   1.0887274025e+01    0.2478788    0.1989255  39.44 0.0004479299    1.219    0.180
       214 -10.1341    132.0594    199.7674   1.1309558804e+02   1.3413942357e+01    0.3594373    0.2814312   0.93  0.001728483    1.749    0.428
       215 -10.1032     98.1652    200.3022   1.2117205415e+02   1.9249479412e+01    0.3104297    0.2407854 -72.35 0.0009208769    1.279    0.218
       216  -9.5302     69.2498    200.2828   1.2797453177e+02   2.3765968252e+01    0.2410619     0.214328 -47.86 0.0004705937    1.331    0.249
       217  -8.2529     33.7659    201.4333   1.3615345819e+02   2.8099182454e+01    0.1476846    0.1287299  18.92 0.0004150749    1.565    0.361
       218  -8.1921    155.0296    200.4521   1.0795051189e+02   9.0051840084e+00    0.2106073    0.1415495  37.51 0.0003823964    1.469    0.319
       219  -8.7677     41.2732    199.7975   1.3431563965e+02   2.7601910014e+01    0.2052124    0.1636233 -27.88 0.0005334936    1.853    0.460
       220  -8.7883     80.4743    199.1319   1.2518155926e+02   2.2366533294e+01    0.2058033    0.1919134  36.31   0.00038693    1.238    0.192
       221  -8.4005     74.9644    198.9977   1.2646089050e+02   2.3234534582e+01    0.2001643    0.1658405 -34.70 0.0004218466    1.557    0.358
       222  -9.0163     49.1315    198.5560   1.3239738632e+02   2.6922430271e+01    0.2310089    0.1649648 -55.66 0.0007868584    1.472    0.321
       223  -8.4931    103.9829    198.3066   1.1947345884e+02   1.8742622126e+01     0.198791     0.179377  51.66 0.0003855768    1.101    0.091
       224  -8.0578     21.3509    198.2763   1.3854001638e+02   3.0200330839e+01    0.1171831   0.08999739 -46.80 0.0005939035    1.640    0.390
       225  -7.9879      7.0021    197.9442   1.4155075018e+02   3.1683365871e+01    0.1472453    0.1125727  89.86 0.0003264621    1.006    0.006
       226  -8.7568    149.1106    196.6593   1.0858811280e+02   1.0945160421e+01    0.2056865    0.1824117  34.15 0.0004475761    1.128    0.113
       227  -8.8318    124.6543    196.6459   1.1428281173e+02   1.5483347788e+01    0.2391456    0.2164193   8.94 0.0005083683    1.288    0.223
       228  -7.9712     27.5163    197.5092   1.3712377263e+02   2.9725720278e+01    0.1289119    0.1057196 -85.58   0.00030384    1.055    0.053
       229  -9.5643    176.2705    195.3173   1.0227546917e+02   6.1345350372e+00    0.3201881    0.2349859 -46.68  0.001234306    1.367    0.269
       230  -8.9751    170.1056    195.9206   1.0373619831e+02   7.1588333154e+00    0.2183024    0.2065764   4.58 0.0004343913    1.060    0.056
       231  -7.8312    157.2289    196.3613   1.0668724369e+02   9.4836119392e+00    0.1464501    0.1120737 -22.15 0.0003223832    1.579    0.367
       232  -8.8876     88.9716    196.0022   1.2269517216e+02   2.1784178229e+01    0.2153137    0.2004389 -64.42 0.0005178184    1.143    0.125
       233  -8.5973     60.8438    195.9482   1.2936381895e+02   2.5999424812e+01    0.1969509    0.1727773 -58.29 0.0004509969    1.251    0.200
       234  -8.7964     16.8315    195.2144   1.3922785603e+02   3.1377722815e+01    0.2154395    0.1246144 -54.45 0.0003442902    1.835    0.455
       235  -9.9492    184.1717    194.4207   1.0040748114e+02   4.8557709497e+00    0.3129469    0.2484888  30.49  0.001131864    1.280    0.219
       236  -9.4442    132.9966    193.3577   1.1172233457e+02   1.4709949345e+01    0.2537628    0.2116075 -44.96 0.0003120918    1.251    0.201
       237  -9.3526    112.4201    193.2760   1.1661367309e+02   1.8471760389e+01    0.3895889    0.2715785 -79.33  0.001172607    1.683    0.406
       238  -8.0148     54.5169    194.5289   1.3066089158e+02   2.7195760354e+01    0.1358596    0.1195388 -81.54 0.0008084109    1.082    0.076
       239  -9.0381     36.0033    193.4485   1.3479910304e+02   2.9743509960e+01    0.2380061    0.1548044 -58.09 0.0006435653    1.517    0.341
       240  -7.8251     74.4886    193.5935   1.2580598748e+02   2.4615166184e+01    0.1398728    0.1274208  87.31 0.0001415809    1.042    0.041
       241  -7.8145    157.5047    192.5141   1.0588936504e+02   1.0274649151e+01     0.146849     0.144532  11.13 0.0003190214    1.019    0.019
       242  -8.3609    152.0435    192.3319   1.0709848208e+02   1.1353454412e+01    0.2025649    0.1844951  40.25 0.0003926363    1.087    0.080
       243  -7.8128    125.2561    192.3192   1.1336947234e+02   1.6382210438e+01     0.144008     0.117128 -23.20 0.0002286816    1.539    0.350
       244  -8.2153     26.5701    192.2157   1.3679314619e+02   3.1084968261e+01    0.1771948   0.09895305 -61.80 0.0005070674    1.620    0.383
       245  -9.4694    161.9725    190.2716   1.0444535907e+02   9.9151743321e+00    0.2551815    0.2095767 -38.71 0.0002521934    1.241    0.194
       246  -8.6711    146.1762    191.1693   1.0822913870e+02   1.2729804579e+01      0.21395    0.2013399 -10.19 0.0003827371    1.151    0.131
       247  -7.6992    128.5127    191.4664   1.1243883047e+02   1.5981119132e+01    0.1483162    0.1442124  73.41 6.760129e-05    1.020    0.019
       248  -8.4504    105.1444    191.6431   1.1809181306e+02   2.0135340303e+01    0.1947358    0.1402383  28.31 0.0004278861    1.598    0.374
       249  -8.5227     14.3929    190.8571   1.3935115523e+02   3.2640154224e+01    0.1816343   0.08997717 -63.15 0.0006418204    1.748    0.428
       250  -9.6965    185.6196    188.8965   9.9007026543e+01   5.7259698581e+00    0.2688823    0.2515974 -40.76 0.0003667068    1.069    0.064
       251  -8.7151    139.9417    189.8199   1.0942853047e+02   1.4220282353e+01    0.2206964    0.2017423   0.61 0.0003685174    1.238    0.192
       252  -7.9913     96.6668    190.6777   1.1999082591e+02   2.1811079521e+01    0.1458258    0.1163551 -22.98 0.0007050135    1.704    0.413
       253  -9.0877     63.9872    190.0780   1.2782719753e+02   2.6994205037e+01    0.2046319    0.1856568 -77.54 0.0004520496    1.100    0.091
       254  -9.2833    172.6630    189.0687   1.0183333676e+02   8.1354029858e+00    0.2507895    0.2133286  26.50 0.0004674347    1.213    0.176
       255  -7.8475     84.6933    189.6032   1.2273828576e+02   2.4021865145e+01    0.1492881    0.1091934 -32.65 0.0007003031    1.834    0.455
       256  -9.3583    178.7966    187.6980   1.0022547171e+02   7.2614116147e+00    0.3205703    0.2592509  84.23 0.0007444794    1.659    0.397
       257  -9.0636    134.2147    187.3280   1.1031177784e+02   1.5879918444e+01    0.3415514    0.2581249 -70.20  0.001632009    1.467    0.318
       258  -8.3123    134.4562    183.4398   1.0951183329e+02   1.6742918269e+01    0.2324443    0.1486457  39.38 0.0001368176    1.574    0.365
       259  -8.3855     89.7877    188.4200   1.2130427211e+02   2.3495314617e+01    0.1791134    0.1433911  24.48 0.0002907116    1.495    0.331
       260  -7.9382      1.4882    188.0033   1.4188360230e+02   3.4471599660e+01    0.1616218   0.07344896 -55.39 0.0005270209    2.203    0.546
       261  -9.1099    157.0216    186.5367   1.0483306896e+02   1.1691924485e+01    0.2673524    0.2061111 -28.20 0.0006208273    1.477    0.323
       262  -8.8004     20.5543    186.4661   1.3755339074e+02   3.3078876921e+01    0.2061927    0.1452791 -48.66  0.000577846    1.644    0.392
       263  -8.7652    150.8650    185.7414   1.0609217663e+02   1.3059801158e+01     0.218651    0.2012072   1.95 0.0004493625    1.193    0.161
       264  -8.6081    128.4558    185.8292   1.1140818975e+02   1.7314421922e+01    0.2220062    0.2011522  -4.64 0.0003777561    1.296    0.229
       265  -8.0861      7.3166    186.3576   1.4048282234e+02   3.4351351230e+01    0.1248931   0.07884495 -51.68 0.0007044514    1.752    0.429
       266 -11.4529    225.5082    171.0084   8.7494474003e+01   2.0239640156e+00    0.4393934    0.3151512  22.95 0.0003427854    1.685    0.406
       267  -8.4379     34.4186    184.7176   1.3417136162e+02   3.2033310698e+01    0.1961748    0.1610295 -18.86 0.0007129967    1.758    0.431
       268  -8.9632    173.4467    183.7999   1.0060528831e+02   9.1174220708e+00    0.2460813    0.2024716  40.65  0.000333069    1.231    0.188
       269  -8.9074    166.7002    184.0427   1.0214860801e+02   1.0369849771e+01     0.244389    0.2028748  -0.36 0.0004407838    1.430    0.301
       270  -7.9664    103.9623    184.0015   1.1706422665e+02   2.2191467742e+01    0.1745532    0.1637944  75.91 0.0009524561    1.027    0.027
       271  -8.2539     26.8046    184.4592   1.3591368934e+02   3.2920991072e+01    0.1496292     0.129547  -0.14 0.0006384851    1.636    0.389
       272  -7.8636    146.2839    183.6961   1.0675737724e+02   1.4411306477e+01    0.1505371    0.1194373  83.03 0.0002265121    1.558    0.358
       273  -8.3294    140.3124    183.3670   1.0810121309e+02   1.5639030672e+01    0.2212339    0.1763949  -9.10 0.0005074295    1.653    0.395
       274  -8.3245     95.2388    182.7964   1.1902228629e+02   2.3976376433e+01    0.2046599    0.1678993 -36.48 0.0007050896    1.431    0.301
       275  -8.0818     67.2072    182.8498   1.2600525486e+02   2.8321186265e+01    0.1869266     0.159319 -43.65 0.0005088373    1.351    0.260
       276  -8.3061    154.9613    181.9708   1.0439683171e+02   1.3116919127e+01    0.2261912     0.182036 -11.64 0.0003376037    1.551    0.355
       277  -8.9947    197.5290    180.9232   9.4919477147e+01   5.1406519103e+00    0.2372089    0.1959097  13.60 0.0004142976    1.340    0.254
       278  -9.2648    183.8015    180.8379   9.7761938492e+01   7.7566131466e+00    0.2394036    0.2215797 -10.22 0.0004785488    1.099    0.090
       279  -8.5611     54.8693    180.5136   1.2871361321e+02   3.0587682535e+01    0.2586096    0.1300229 -47.43  0.001106315    2.237    0.553
       280  -7.8242     46.5576    181.4826   1.3087591682e+02   3.1401522717e+01    0.1364882    0.1173218 -72.93 0.0002320386    1.093    0.085
       281  -8.8360    172.3395    180.2601   1.0012822987e+02   1.0099314201e+01    0.4327513    0.2019885  30.48  0.001496967    2.897    0.655
       282  -9.0932    176.9251    179.0663   9.8878442301e+01   9.4641957901e+00    0.2272614    0.2084128 -15.52  0.000452235    1.127    0.112
       283  -9.1177    160.0896    179.6767   1.0275709391e+02   1.2628418823e+01    0.2043432    0.1906438  29.98 0.0003649816    1.096    0.087
       284  -8.5048    145.6851    179.0005   1.0596495225e+02   1.5608788054e+01     0.210542    0.1945577 -51.05 0.0004936911    1.079    0.073
       285  -7.7588     83.2597    179.3131   1.2143919029e+02   2.6787617797e+01    0.1407786    0.1102354 -36.64 0.0001906294    1.533    0.348
       286  -7.8103     42.3377    179.2792   1.3161422679e+02   3.2452810319e+01    0.1294137   0.09853909 -39.73 0.0002876925    1.617    0.382
       287  -8.0891     34.7773    179.4319   1.3345773996e+02   3.3282149326e+01    0.1502523    0.1328594   5.19  0.000442495    1.529    0.346
       288  -8.3611     20.1616    179.5748   1.3692251007e+02   3.4770495597e+01    0.1477346    0.1260269  -5.81 0.0006624999    1.673    0.402
       289  -7.8508     14.2921    180.3456   1.3835290741e+02   3.5143273841e+01     0.126664   0.08160173 -51.60 0.0004704593    1.662    0.398
       290  -9.3135    134.2231    177.2798   1.0836351827e+02   1.8238273838e+01    0.3274183    0.2632349  85.92  0.001068452    1.467    0.318
       291  -8.1881     26.1759    177.8849   1.3532514604e+02   3.4577706360e+01    0.1790643    0.1337689 -56.77 0.0007082858    1.345    0.257
       292  -9.6952    190.7127    176.8932   9.5493121476e+01   7.2603654525e+00    0.2569823    0.2291797  29.50 0.0003209623    1.163    0.140
       293  -9.1697    101.0951    176.0789   1.1636521624e+02   2.4633936939e+01    0.2529854    0.2039912  79.06            0    1.336    0.251
       294  -8.1665      6.4946    177.4627   1.3984082444e+02   3.6520277312e+01    0.1251879   0.09847179 -78.23 0.0003694973    1.066    0.062
       295  -8.7805    169.8167    176.2050   9.9851127179e+01   1.1482310902e+01     0.230006    0.1816458  -6.30  0.000846861    1.604    0.377
       296  -8.8256    150.0425    175.5154   1.0423198031e+02   1.5555826734e+01    0.2240416    0.2073599 -49.28 0.0004497448    1.073    0.068
       297  -9.4231    197.7932    174.9190   9.3628294721e+01   6.3202008132e+00    0.2492135    0.2091082  20.38 0.0005362745    1.300    0.231
       298 -10.5611    175.9274    172.2629   9.7679336856e+01   1.1135665881e+01    0.5131848     0.491896  -6.74  0.002720667    1.069    0.064
       299  -9.8139    178.7203    166.6461   9.5879182015e+01   1.1801355851e+01    0.3918994    0.3059447   5.89  0.001514523    1.659    0.397
       300  -8.5694    139.9292    175.2430   1.0657877582e+02   1.7609670022e+01    0.2070132    0.1986702  27.05 0.0003669368    1.095    0.087
       301  -8.0239     37.5413    174.9682   1.3223129955e+02   3.4068546188e+01    0.1878787   0.08780025 -48.78 0.0008052519    2.322    0.569
       302  -9.4884    182.6355    173.9241   9.6578376844e+01   9.4534442018e+00    0.3052535    0.2561626 -16.95 0.0005699176    1.315    0.240
       303  -9.2282    187.6838    171.0012   9.4894521296e+01   9.0871509435e+00    0.2778838    0.2232051  37.85 0.0003794694    1.301    0.231
       304  -9.2200    183.9633    169.7085   9.5407219801e+01   1.0094941087e+01     0.303415    0.2170038 -51.60 0.0007519055    1.398    0.285
       305  -9.6283    161.3575    173.8556   1.0126883750e+02   1.3685015652e+01    0.2658636    0.2333776  15.87 0.0003864751    1.264    0.209
       306  -8.9862    128.9596    172.8044   1.0875676650e+02   2.0317308485e+01    0.2237197    0.2051214  -9.41 0.0004083237    1.256    0.204
       307  -8.9396     24.1617    172.3057   1.3516196290e+02   3.6137479910e+01    0.2215182    0.1775618 -38.43 0.0006805916    1.540    0.351
       308  -8.6190      2.7833    173.3976   1.4029679623e+02   3.7788236265e+01    0.1373023    0.1212204  -7.08 0.0006576399    1.599    0.374
       309  -8.3110     89.5753    171.9503   1.1856440001e+02   2.7605144280e+01     0.219166    0.1367296 -56.28 0.0005199916    1.520    0.342
       310  -9.5504    193.0070    171.3483   9.3860567518e+01   7.9774579431e+00    0.2701049    0.2079614 -39.92 0.0002997402    1.240    0.194
       311  -8.1195    107.4817    171.4859   1.1388616578e+02   2.4640067750e+01    0.1511213     0.145452 -64.33   0.00080942    1.064    0.060
       312  -7.7458    102.6383    171.6869   1.1516076937e+02   2.5450009684e+01    0.1540817    0.1203898 -17.91 0.0007041539    1.754    0.430
       313  -7.8990     76.4808    171.5216   1.2186905191e+02   2.9782104020e+01    0.1460285    0.1337001 -74.17 0.0008096556    1.040    0.038
       314  -7.7733     44.3189    171.2779   1.3005625062e+02   3.4196530771e+01    0.1310962   0.09882851 -39.94 0.0002769632    1.576    0.366
       315  -8.5842    201.1179    170.1263   9.1958570837e+01   6.6723072784e+00    0.2661882    0.1964601 -41.76 0.0008704041    1.272    0.214
       316  -9.5463    205.0675    167.0511   9.0530834019e+01   6.5486029574e+00     0.262868    0.2119691  24.17 0.0003490515    1.397    0.284
       317  -8.1567    143.2065    169.7714   1.0466856568e+02   1.8246406356e+01    0.2075109    0.1810197 -18.25 0.0004374827    1.321    0.243
       318  -8.1623    119.1995    169.9104   1.1060964857e+02   2.2872687458e+01    0.2023145    0.1819192 -17.31 0.0004657713    1.301    0.231
       319  -8.2151    158.3257    168.9775   1.0094003590e+02   1.5397125997e+01     0.212892    0.1918551 -43.35 0.0004606287    1.099    0.090
       320  -8.1750     94.7950    169.4230   1.1675765921e+02   2.7364792639e+01    0.1812597    0.1488929  25.28 0.0003251457    1.411    0.291
       321  -9.3830    212.1210    167.8229   8.9328122867e+01   5.0671571089e+00    0.2404016    0.2140247 -50.88 0.0002846137    1.124    0.110
       322  -8.6208    197.1833    168.2217   9.2348704569e+01   7.8205059815e+00    0.2165183     0.193227 -15.67 0.0005029152    1.166    0.142
       323  -9.6997    199.5957    162.7297   9.0697000882e+01   8.4902311176e+00    0.3462055    0.2378766 -37.30 0.0004258377    1.411    0.291
       324  -8.4854    134.8320    167.8477   1.0630140220e+02   2.0358376403e+01    0.2273934    0.2068141 -21.74 0.0003675873    1.227    0.185
       325  -8.3043     37.3206    168.3645   1.3142087421e+02   3.5723011787e+01    0.1406516   0.09106739 -43.03 0.0007040013    1.782    0.439
       326  -8.8747    169.8823    166.6579   9.7822885534e+01   1.3581601892e+01    0.2402703    0.2028561 -34.16 0.0003476049    1.208    0.172
       327  -8.4865    150.2037    166.8724   1.0239134967e+02   1.7519653619e+01    0.2086077    0.1821776 -15.68 0.0003803973    1.317    0.241
       328  -8.5323      8.7803    167.4440   1.3830759784e+02   3.8713759681e+01    0.1406433     0.122294 -17.18  0.000612094    1.567    0.362
       329 -10.5711    218.7141    165.6020   8.7626587390e+01   4.2914986951e+00    0.2625665    0.2400845  -5.51 0.0005163938    1.146    0.128
       330  -8.2569    164.8880    166.1876   9.8844346595e+01   1.4699447982e+01    0.2097842    0.1801147 -17.07 0.0003783302    1.321    0.243
       331  -8.3683    127.7561    166.0523   1.0768089171e+02   2.2171739752e+01    0.2118789    0.1933003 -47.15 0.0004033891    1.108    0.097
       332  -7.8265     44.7019    165.6154   1.2915840123e+02   3.5558885158e+01    0.1443273   0.09295246 -42.60 0.0007018337    1.774    0.436
       333  -9.4874    192.0338    162.8695   9.2258613912e+01   9.9500506498e+00    0.2843188    0.2038337 -38.46 0.0004692476    1.354    0.261
       334  -9.1053    184.8300    163.5652   9.3910328615e+01   1.1240357221e+01    0.2564384    0.2047049 -41.50  0.000405704    1.204    0.170
       335  -8.1633     84.9548    167.5053   1.1896851655e+02   2.9466417243e+01    0.1996629    0.1484966  35.58  0.000430853    1.451    0.311
       336  -9.0830    120.1583    163.3273   1.0903341666e+02   2.4293626195e+01    0.2430499    0.2065451 -42.44 0.0004652396    1.217    0.179
       337  -8.1175    159.4849    163.4354   9.9486530623e+01   1.6422884318e+01    0.1533877    0.1494626 -22.07 0.0002204682    1.059    0.056
       338  -7.9403    111.2694    163.3233   1.1131166995e+02   2.5961376319e+01     0.151729      0.11992 -25.59 0.0002903956    1.569    0.363
       339  -8.0122     80.5156    163.5658   1.1942769674e+02   3.1157058541e+01    0.1467809    0.1365653 -66.35 0.0002112149    1.057    0.054
       340  -8.3470    172.6877    162.4263   9.6287445049e+01   1.3949036240e+01    0.1956528     0.149162  31.69 0.0004333697    1.442    0.306
       341  -9.8130    221.5133    160.2492   8.5998942543e+01   4.8283035322e+00    0.2516294    0.2293586 -38.69 0.0004084025    1.016    0.015
       342 -10.3588    213.1829    160.2761   8.7542786333e+01   6.3769259226e+00     0.298536    0.2403026 -45.33 0.0004119971    1.148    0.129
       343  -7.9037    181.4949    161.5270   9.4178389247e+01   1.2352950524e+01    0.1512733    0.1453312 -42.67 0.0002146996    1.003    0.003
       344  -7.9529    146.7437    161.3112   1.0202338301e+02   1.9514091949e+01    0.1529851    0.1220243 -86.43 0.0001967108    1.524    0.344
       345  -8.0378      5.6974    161.6909   1.3843732091e+02   4.0338488434e+01    0.1244843    0.0787162 -50.41 0.0003349039    1.605    0.377
       346 -10.0503    205.4858    159.3321   8.8812073059e+01   8.0425833552e+00    0.2705669    0.2523268   3.68 0.0003100549    1.152    0.132
       347  -9.1751    163.4893    160.0473   9.7831374089e+01   1.6368741095e+01    0.2580884    0.2173339  22.46  0.000404146    1.346    0.257
       348  -8.2553    152.9252    160.1492   1.0030153502e+02   1.8520030627e+01    0.2052805     0.183763  -9.63 0.0003521962    1.277    0.217
       349  -7.9009     84.7133    160.6490   1.1777565833e+02   3.1223690076e+01    0.1519917    0.1120936 -32.24 0.0005804249    1.663    0.399
       350  -8.7834    183.7088    158.1402   9.2969298899e+01   1.2634933920e+01    0.3661349     0.230152 -64.51  0.001388116    2.078    0.519
       351  -8.5007    191.9708    157.9577   9.1209663250e+01   1.1000320857e+01    0.2295939    0.2178216 -48.67 0.0008271817    1.022    0.021
       352  -9.0902    168.1448    157.8009   9.6285724169e+01   1.5911534318e+01    0.2283184     0.210245 -77.05 0.0005308609    1.139    0.122
       353  -8.5120    158.9322    158.2995   9.8493606987e+01   1.7706151935e+01     0.210503    0.2010936  34.78 0.0003945351    1.089    0.082
       354  -8.2773    136.1873    157.8428   1.0384265747e+02   2.2469247608e+01    0.2029113    0.1841804 -13.24  0.000362859    1.255    0.203
       355  -7.8256     55.4452    158.4967   1.2524159351e+02   3.6010568003e+01    0.1424425    0.1239973 -61.63 0.0005403503    1.084    0.078
       356 -10.2934     24.7125    155.8830   1.3297562938e+02   4.0096946745e+01    0.3411278    0.2313952  13.29  0.001877242    2.000    0.500
       357  -9.5056    176.7414    156.9389   9.4198858283e+01   1.4325319765e+01    0.2542439    0.2367048   5.57  0.000384118    1.173    0.147
       358  -8.0860    149.7246    157.3442   1.0044488542e+02   1.9827035901e+01    0.1587713    0.1232796 -85.72  0.000445963    1.624    0.384
       359  -8.9412    165.4442    153.3561   9.5906453421e+01   1.7469313012e+01    0.3634418    0.1913889  51.42  0.001402401    2.075    0.518
       360  -8.3304    128.0498    155.7727   1.0543007247e+02   2.4588907621e+01    0.2080086     0.204332  63.45 0.0002002457    1.046    0.044
       361  -8.3264     99.0736    156.4452   1.1312192853e+02   2.9858484298e+01    0.2117063    0.1522218  35.22  0.000660343    1.492    0.330
       362  -7.8827     61.2867    156.3312   1.2330631087e+02   3.5781469622e+01    0.1447332    0.1027164 -37.91 0.0004907853    1.619    0.382
       363  -8.1506     39.4625    156.5130   1.2919354405e+02   3.8422628083e+01    0.1376143    0.1166104 -66.95 0.0008087786    1.053    0.050
       364  -9.7647     17.9892    155.1613   1.3461643959e+02   4.0888705860e+01    0.2500078     0.147276 -86.27  0.001291142    1.662    0.398
       365  -8.9631    221.9683    154.9766   8.4812519135e+01   5.7774925284e+00    0.2110099    0.1885033 -37.80 0.0003333064    1.025    0.025
       366  -9.2873    216.0789    154.2785   8.5733808708e+01   7.0248888351e+00    0.2324766    0.1871204 -40.86 0.0003587544    1.131    0.116
       367  -9.6884    197.2110    154.6530   8.9430682743e+01   1.0642151809e+01    0.2663798    0.2358138 -35.33 0.0003390781    1.095    0.087
       368  -7.9859    154.7121    155.3058   9.8814523798e+01   1.9265830126e+01    0.1557404    0.1235275 -89.04 0.0002381302    1.569    0.363
       369  -8.0387    113.3019    155.3162   1.0912872741e+02   2.7549042778e+01    0.1548116    0.1228115 -19.23 0.0004068511    1.618    0.382
       370  -8.5707      5.4282    154.8058   1.3775082123e+02   4.2003269250e+01     0.184025   0.08742378 -61.19  0.000791239    1.673    0.402
       371  -8.1765    211.7289    153.9852   8.6478253225e+01   7.9181606178e+00    0.2056475    0.1693997 -44.69 0.0002980887    1.113    0.101
       372  -8.9842    206.1608    152.4257   8.7197068964e+01   9.3215310653e+00    0.2476661    0.1924477 -41.83 0.0003692946    1.193    0.162
       373  -8.8131    187.8371    152.9424   9.0961885977e+01   1.2905901953e+01    0.2301666    0.1981651 -27.59 0.0004258339    1.214    0.176
       374  -8.0677    192.5340    152.5851   8.9919672718e+01   1.2021571412e+01    0.1484854    0.1416285 -49.00 0.0001268428    1.014    0.014
       375  -9.6609    144.9167    151.2299   1.0024002138e+02   2.2243123909e+01    0.2928881     0.278832  74.25 0.0004182909    1.067    0.063
       376  -9.3210    143.3879    147.4779   9.9762572921e+01   2.3435432197e+01    0.3135262    0.2425372 -48.96 0.0006558193    1.262    0.208
       377  -9.3816    221.3683    150.8554   8.4050753186e+01   6.6990884968e+00    0.2379969    0.2130817  -2.66 0.0003137561    1.264    0.209
       378  -8.8302    157.1862    150.8661   9.7241459178e+01   1.9764778246e+01    0.2131205    0.1833439 -22.79  0.000452452    1.306    0.234
       379  -8.7641    152.0723    151.1227   9.8500454479e+01   2.0777960139e+01     0.231576    0.2102926  -5.15 0.0004181804    1.258    0.205
       380 -10.7483    133.1835    147.3017   1.0225365389e+02   2.5580026600e+01    0.6750885    0.3901582 -58.10  0.002000379    1.854    0.461
       381 -10.3497    132.0067    140.1145   1.0089892865e+02   2.7515747688e+01    0.5033335    0.3271857 -60.36  0.001461643    1.667    0.400
       382  -8.4362    107.9563    151.3177   1.0968898931e+02   2.9525646938e+01    0.2077051    0.1944791  34.42 0.0003368481    1.140    0.123
       383  -8.6228    211.8746    150.1793   8.5634451395e+01   8.6560982192e+00    0.2200001     0.187742 -13.27 0.0003509879    1.332    0.249
       384  -9.6650    214.8553    146.9117   8.4382875290e+01   8.7299084214e+00    0.2442528    0.2383179 -42.89  0.000348498    1.076    0.071
       385  -8.3424    202.5395    149.9265   8.7351392875e+01   1.0553954033e+01    0.2233277    0.1376132 -41.78 0.0006825956    1.519    0.342
       386  -8.0080    176.3397    150.2670   9.2801611535e+01   1.5870781485e+01    0.1513108    0.1226256   3.62 0.0003412859    1.598    0.374
       387  -9.2768     59.6200    150.1593   1.2268596476e+02   3.7550382079e+01    0.3102461    0.1014152 -54.38  0.001103286    2.602    0.616
       388  -9.4622      7.6270    149.8356   1.3662044091e+02   4.3024042071e+01    0.3014439    0.1078024  36.01  0.001361971    3.010    0.668
       389  -9.0088    197.0493    148.1813   8.8043510294e+01   1.2025534659e+01    0.2409714    0.2002969 -39.91 0.0002938573    1.147    0.128
       390  -9.3736     67.9997    149.0368   1.2015647169e+02   3.6674798062e+01    0.2300515    0.1656695 -32.72 0.0005179453    1.656    0.396
       391  -9.4144     53.8458    149.4084   1.2415240008e+02   3.8486644453e+01    0.2499015    0.1963515 -54.69  0.001023926    1.173    0.148
       392  -9.7969     50.7982    147.4033   1.2465308216e+02   3.9364961528e+01    0.2651244    0.2007556   4.22 0.0009871926    1.763    0.433
       393  -9.1118    182.0173    148.0497   9.1089182644e+01   1.5163193194e+01    0.2258641    0.2121434 -34.53 0.0003434437    1.072    0.067
       394  -8.5722    121.9744    148.4798   1.0538479735e+02   2.7542947682e+01    0.2216484    0.1559323  39.53 0.0003980494    1.477    0.323
       395  -9.4264     39.8349    146.9383   1.2761528229e+02   4.0752930243e+01    0.4048049    0.2122252  75.25  0.001525751    3.325    0.699
       396  -9.6919    190.0681    146.1254   8.8988146924e+01   1.3894805147e+01      0.50538    0.3006068  59.28  0.001427613    2.057    0.514
       397  -8.6233    161.9758    147.3166   9.5330496051e+01   1.9557980093e+01    0.2099798    0.2009815  41.57 0.0004209192    1.089    0.082
       398  -8.3456    150.0117    147.0087   9.8056244688e+01   2.2157365385e+01    0.2286994    0.1904524  -7.52  0.001074728    1.510    0.338
       399  -9.1299      2.6434    146.8206   1.3754341754e+02   4.4108313884e+01    0.1676618    0.1347331 -60.50 0.0005909689    1.156    0.135
       400  -8.7099    176.1649    144.3938   9.1510530251e+01   1.7190878160e+01     0.245169     0.203196 -34.71  0.000542813    1.238    0.192
       401  -9.2664    208.4368    143.1698   8.4753628992e+01   1.0751303937e+01    0.2491421     0.216268  -6.17 0.0004956722    1.367    0.268
       402  -7.8633    105.7206    144.6891   1.0885332019e+02   3.1560946480e+01    0.1522522     0.120122 -22.63 0.0002970649    1.563    0.360
       403  -7.6996     81.2908    144.3810   1.1553021673e+02   3.5832046712e+01    0.1567462    0.1096383 -31.05 0.0007017505    1.745    0.427
       404  -8.0564     10.3462    144.3267   1.3523161056e+02   4.4134404114e+01    0.1332956   0.07819106 -44.74 0.0007050157    1.748    0.428
       405  -8.4196    218.6924    142.9957   8.2851542424e+01   8.7605504264e+00    0.2011733    0.1649499 -41.79 0.0003627512    1.112    0.100
       406  -8.9220    200.1061    143.0932   8.6319040487e+01   1.2456292901e+01    0.2187609    0.2036429 -50.92 0.0003965469    1.004    0.004
       407  -8.8636    171.9226    143.0518   9.2125785905e+01   1.8388241111e+01    0.2289455    0.2232512 -39.51 0.0004274227    1.050    0.048
       408  -8.1225    120.0366    143.0899   1.0467797743e+02   2.9219343118e+01     0.182595    0.1744263 -60.13 0.0003487195    1.016    0.015
       409  -9.4407     73.7847    142.6882   1.1730315589e+02   3.7408896203e+01    0.2159678    0.1862731  -7.53  0.000685646    1.398    0.285
       410 -10.0004     65.3187    142.8824   1.1974316279e+02   3.8586127101e+01     0.240965    0.1771532 -79.26  0.001202694    1.456    0.313
       411  -8.2067    194.4234    141.7478   8.7132532365e+01   1.3909484706e+01    0.2030122    0.1389941 -35.76 0.0003993491    1.488    0.328
       412  -9.6976    138.9048    141.1787   9.9414269087e+01   2.5837397897e+01    0.3218456      0.27864  28.59 0.0004099769    1.269    0.212
       413  -8.8515    213.9913    140.7954   8.3217554676e+01   1.0120370417e+01    0.2120549    0.1873202 -17.09 0.0005056327    1.266    0.210
       414  -9.1440    155.4014    140.8523   9.5359166865e+01   2.2417996741e+01    0.2730189    0.2486729   6.66 0.0004284891    1.260    0.206
       415  -8.5624    152.0272    137.7043   9.5414450301e+01   2.3853333468e+01    0.2318356    0.2080537 -83.20 0.0004054506    1.181    0.153
       416  -8.4550    147.7427    141.4240   9.7310275959e+01   2.3920210512e+01    0.2098506    0.1526769  32.23 0.0005508242    1.556    0.357
       417  -9.8847    223.5941    144.7424   8.2363419545e+01   7.4748282330e+00    0.2522958    0.2304569 -23.59 0.0003809532    1.151    0.131
       418 -10.3319    229.8590    138.0139   7.9875869447e+01   7.5879378356e+00    0.3152304    0.2107993 -44.95 0.0003164427    1.316    0.240
       419  -8.5278    203.6338    139.9196   8.4940125910e+01   1.2385163861e+01      0.20804    0.1683508 -44.45 0.0004011426    1.146    0.128
       420  -9.1602    224.4728    138.4785   8.0879872489e+01   8.5263939740e+00    0.2377434    0.2114491 -45.17 0.0005290632    1.026    0.026
       421  -8.5743    186.8688    138.8692   8.8002254482e+01   1.6103300053e+01     0.222424    0.2026606 -20.71 0.0003266607    1.199    0.166
       422  -8.1640    181.4819    139.4850   8.9257587118e+01   1.7119243258e+01    0.1530549    0.1460751 -46.90 0.0001351034    1.036    0.034
       423  -8.9170    166.2998    138.5426   9.2326513820e+01   2.0588914643e+01    0.2529018    0.2319353 -35.75 0.0002810558    1.117    0.105
       424  -8.0609    160.5624    139.5552   9.3861467620e+01   2.1601341398e+01    0.1572072    0.1477198 -75.37 8.304915e-05    1.067    0.063
       425  -7.8479    123.6345    138.7292   1.0273210128e+02   2.9543617725e+01    0.1566584    0.1254597  -1.27 0.0004903949    1.661    0.398
       426  -7.6806    109.4554    138.5240   1.0645886445e+02   3.2358696478e+01    0.1557708    0.1459686 -32.01 0.0003170093    1.116    0.104
       427 -10.8797     68.8001    136.1816   1.1741442341e+02   3.9746582318e+01    0.4730214    0.3285947  74.27  0.001710591    1.943    0.485
       428  -8.8828    146.8716    136.8672   9.6449062649e+01   2.5147375526e+01    0.2299207    0.2099411 -17.98 0.0003371487    1.218    0.179
       429  -9.3976    137.4244    136.3450   9.8646153078e+01   2.7268137602e+01    0.3416209     0.270374 -21.00   0.00157505    1.552    0.356
       430  -9.2168    218.9428    135.9982   8.1300249511e+01   1.0089385367e+01    0.2148734    0.1915402 -41.37 0.0003984611    1.070    0.065
       431  -9.6688    208.2135    135.8100   8.3177074142e+01   1.2281816282e+01    0.2525234    0.2400448  28.27 0.0003607331    1.187    0.157
       432  -8.5542    143.0020    135.9846   9.7180522989e+01   2.6173188356e+01    0.2375948    0.1931706 -10.94 0.0004697639    1.577    0.366
       433  -8.2814      5.6907    136.6840   1.3549242323e+02   4.6297359263e+01    0.1292501   0.07576091 -46.70 0.0003330518    1.634    0.388
       434  -9.2665    198.3561    133.8497   8.4588322637e+01   1.4721769717e+01    0.4646588    0.2348789 -48.48  0.001882324    1.883    0.469
       435  -9.6194    192.8050    134.7259   8.5866473077e+01   1.5712508648e+01    0.2631429    0.2277299 -57.02 0.0002890484    1.106    0.096
       436  -8.8452    172.1531    135.1318   9.0238970677e+01   2.0067538806e+01    0.2260097    0.2089775 -22.76 0.0003469911    1.174    0.148
       437  -8.1361    126.9461    134.9593   1.0098383690e+02   2.9760561051e+01     0.184853    0.1786098  54.23 0.0002999175    1.060    0.056
       438  -9.0060    187.9844    133.4242   8.6529528476e+01   1.7011784731e+01    0.3328764    0.2017295 -36.17 0.0009084951    1.732    0.423
       439  -9.0474    163.5844    133.4107   9.1728051970e+01   2.2308194836e+01    0.2942377    0.2237847 -29.17 0.0006369795    1.495    0.331
       440  -8.5553    155.7890    134.0790   9.3671634509e+01   2.3856018284e+01    0.2212617    0.2009664 -48.10 0.0004383371    1.077    0.072
       441  -8.2888     21.8207    134.4213   1.3069163861e+02   4.5574765040e+01    0.1566592    0.1230466 -12.27  0.000716342    1.600    0.375
       442  -8.8668    217.5928    132.3057   8.0734407676e+01   1.1082130411e+01    0.3505991    0.2362868   9.57  0.001415464    2.940    0.660
       443  -8.4712    149.9708    133.3299   9.4862958653e+01   2.5282884671e+01    0.2140801    0.2017884  46.96 0.0004341732    1.095    0.086
       444  -8.2940    119.8490    133.2314   1.0243352744e+02   3.1598129487e+01    0.2146207    0.1825116 -20.86 0.0005428902    1.354    0.261
       445 -10.0535    221.3713    126.6601   7.8864821215e+01   1.1424545571e+01    0.3409196    0.2815834  16.60  0.001817733    1.632    0.387
       446  -8.2337    217.8068    124.1740   7.8923969269e+01   1.2623709327e+01    0.1877155    0.1654252 -21.62 0.0004016803    1.307    0.235
       447  -8.4060    222.2292    131.9895   7.9871085603e+01   1.0223206319e+01    0.2790538    0.1307005 -44.22 0.0007579942    1.904    0.475
       448  -9.4061    225.8804    131.7039   7.9197467079e+01   9.5630467903e+00     0.331345    0.2259111 -22.48  0.000409258    1.915    0.478
       449 -10.8437    232.8659    127.2950   7.7130522967e+01   9.0524080480e+00     0.485832    0.3569483 -23.60 0.0004830938    1.658    0.397
       450 -10.2981    129.6663    114.7984   9.5293018335e+01   3.3766690181e+01    0.6186365    0.3628743 -59.06  0.002471508    2.010    0.503
       451  -9.4991    129.5542    106.6732   9.3206534050e+01   3.5535829560e+01    0.2605213    0.2249979  76.65   0.00030417    1.294    0.227
       452  -9.6203    136.4593    130.2151   9.7416507620e+01   2.8878814094e+01    0.3934204    0.2413818 -42.57  0.001096816    1.636    0.389
       453 -11.0959    134.6918    123.2030   9.6137510885e+01   3.0838684185e+01     1.139811    0.3518255 -50.32   0.00332146    3.446    0.710
       454  -9.6416    134.0000    113.9945   9.3982775660e+01   3.3015989709e+01    0.3590152    0.2043268 -38.37 0.0008426154    1.862    0.463
       455 -10.6559    133.8680    107.6589   9.2371913279e+01   3.4398474791e+01    0.6818614     0.302364 -44.84  0.001895881    2.237    0.553
       456  -8.6431    114.3521    131.0186   1.0337750681e+02   3.3203822174e+01    0.2216162     0.187027 -48.72 0.0005342107    1.149    0.130
       457 -10.3058     64.2898    130.3138   1.1752374607e+02   4.1816086047e+01    0.2833179    0.2183108 -23.61 0.0007967281    1.525    0.344
       458  -7.9199    168.6518    130.6953   8.9957112710e+01   2.1792403925e+01     0.156311    0.1256025   2.98 0.0007041467    1.698    0.411
       459  -9.7564    161.0018    129.4539   9.1366930114e+01   2.3740479625e+01    0.3478132    0.2210973 -31.65  0.001433491    1.864    0.463
       460  -8.3695    126.0138    130.0473   1.0004767772e+02   3.1093788090e+01     0.288029    0.1830093 -43.31   0.00070157    1.570    0.363
       461  -8.8384    121.4186    126.8316   1.0047202117e+02   3.2772754337e+01    0.3038424    0.2438048  11.27 0.0006245166    1.574    0.365
       462  -9.2696    124.6558    125.1448   9.9203337869e+01   3.2499383228e+01    0.3756017    0.2078505 -61.88  0.001394835    2.293    0.564
       463  -7.6606    110.3610    130.2668   1.0428303386e+02   3.4153971823e+01    0.1539321    0.1226155  -3.66   0.00051865    1.643    0.391
       464  -8.2240      1.9941    130.7603   1.3572845710e+02   4.7940981125e+01    0.1312373    0.1067745  16.46 0.0005194789    1.564    0.361
       465  -9.9583    155.0048    128.3499   9.2477714051e+01   2.5297433466e+01    0.2694419    0.2137455 -34.62 0.0006313209    1.336    0.251
       466  -8.0251     32.4828    131.5272   1.2715126704e+02   4.5284990428e+01    0.1365886     0.111696 -53.42 8.993726e-05    1.092    0.085
       467  -8.4398     23.5085    128.4982   1.2926617087e+02   4.6846208542e+01    0.1330239    0.1077692 -57.02  3.72332e-06    1.057    0.054
       468  -8.7721    192.7303    127.0388   8.4121263329e+01   1.7314975764e+01    0.2227223     0.193797 -23.63 0.0006191249    1.295    0.228
       469  -8.7377    186.5359    127.2107   8.5382918978e+01   1.8620018707e+01    0.2214365    0.2052352   5.99 0.0004347512    1.264    0.209
       470  -8.7761    171.8494    126.9901   8.8380496288e+01   2.1885405469e+01    0.2291537    0.2091279  -7.69 0.0004387542    1.273    0.215
       471  -8.6161    165.6315    126.6749   8.9661432931e+01   2.3324764638e+01    0.2227567    0.1832386  -1.08 0.0004483397    1.608    0.378
       472  -8.0375    131.4097    129.4709   9.8514816270e+01   3.0110037329e+01    0.1554294    0.1493456 -42.95 0.0001705719    1.049    0.046
       473  -8.2378     36.3087    126.3755   1.2510762515e+02   4.6138986469e+01     0.146281   0.08642703 -38.56 0.0007030116    1.779    0.438
       474  -9.1327    199.9961    124.9691   8.2265606714e+01   1.6178606301e+01    0.2193372    0.2050141 -49.26 0.0003348262    1.058    0.055
       475  -9.8540    152.0551    124.2675   9.2170806166e+01   2.6841072037e+01    0.2716583    0.2184169 -47.31 0.0005663485    1.216    0.178
       476  -9.3203     30.5389    125.4648   1.2667053592e+02   4.6927525740e+01    0.2085534   0.09956533 -54.62 0.0001858128    1.708    0.415
       477 -10.4156    227.6992    123.1819   7.7080268746e+01   1.0833003769e+01    0.3711987    0.2933278 -56.72 0.0003864856    1.159    0.137
       478 -10.8100    225.7765    115.3248   7.5701268710e+01   1.2695213376e+01    0.4782393    0.3280189 -64.24  0.002407023    1.536    0.349
       479 -10.8357    230.6524    113.8086   7.4621804263e+01   1.2002230293e+01    0.6642626    0.2698335 -48.60  0.002134406    2.235    0.553
       480  -9.1984    179.6625    122.1802   8.5592981510e+01   2.1171910125e+01    0.3234942    0.2284603 -26.76  0.001024987    1.731    0.422
       481  -8.4693    107.8927    123.8895   1.0342060565e+02   3.6118632436e+01    0.2243197    0.1998295 -17.46 0.0002833807    1.236    0.191
       482  -9.7212     21.5211    122.9638   1.2893467013e+02   4.8329473717e+01    0.3855225    0.1228775 -38.72   0.00123426    4.701    0.787
       483  -8.1923      5.4366    124.5057   1.3389578418e+02   4.9176141407e+01    0.1271629   0.09725501 -59.69 0.0001708971    1.063    0.059
       484  -8.6445    170.0067    123.0136   8.7823602692e+01   2.3137881515e+01    0.2348107    0.1917626  -4.17 0.0003547033    1.637    0.389
       485  -8.5219    146.5284    123.5230   9.3299994414e+01   2.8214831033e+01    0.1547804    0.1515783 -35.34 0.0001034097    1.062    0.058
       486  -8.1464    127.9179    122.1347   9.7604252129e+01   3.2506391724e+01    0.2059085    0.1836634  -6.34 0.0003539278    1.290    0.225
       487  -9.3213    212.5027    120.5686   7.9035125688e+01   1.4413916680e+01    0.2390092     0.215544 -51.23  0.000314886    1.047    0.045
       488  -9.2871    187.9606    121.0465   8.3660168322e+01   1.9576877103e+01    0.2218256    0.2124663 -49.17 0.0003317379    1.073    0.068
       489  -8.7212    117.0060    121.0062   1.0020974331e+02   3.4995825611e+01    0.2434691    0.1908184  -7.99 0.0006833129    1.680    0.405
       490  -8.8264    202.7965    119.3690   8.0477875822e+01   1.6696828853e+01    0.2428826    0.2074898 -75.75 0.0004356279    1.198    0.166
       491  -8.8532     12.6606    120.6651   1.3120039299e+02   4.9566309173e+01     0.136489   0.07575551 -41.47 0.0007051404    1.752    0.429
       492  -8.1388    220.0388    119.0348   7.7428775192e+01   1.3156928072e+01    0.1735897    0.1498884 -53.26 0.0003746787    1.034    0.033
       493  -8.7467    193.9810    118.9547   8.2012458401e+01   1.8683116212e+01    0.2180067    0.2033751 -49.17            0    1.070    0.066
       494 -10.6604    157.2924    117.4557   8.9276579290e+01   2.7150055593e+01    0.4674133    0.2313166 -41.24 0.0008108837    2.041    0.510
       495  -8.1919    184.1773    117.8081   8.3643218806e+01   2.1070671197e+01    0.1958198    0.1772829 -14.67 0.0003284408    1.297    0.229
       496  -9.0024    173.8433    117.8175   8.5752934134e+01   2.3370701228e+01    0.2229659    0.2105193  -9.96 0.0005245497    1.206    0.171
       497  -8.8889     66.2376    117.0693   1.1403091023e+02   4.4701145623e+01    0.2899541    0.2317332  -9.93  0.001205114    1.466    0.318
       498  -7.9485    209.4589    117.4440   7.8863982520e+01   1.5658326079e+01    0.1459336    0.1319733 -60.82 0.0001041105    1.005    0.005
       499 -11.2513      7.3665    114.2324   1.3176351584e+02   5.1422625492e+01    0.4664367    0.3025328 -55.15  0.002809728    1.224    0.183
       500  -9.1095     15.2893    116.0475   1.2964871233e+02   5.0442963531e+01    0.2485333    0.1274011 -26.08  0.001156714    2.615    0.618
       501  -8.7224    163.1805    114.8204   8.7306412764e+01   2.6385471086e+01    0.2015201    0.1838377   0.85 0.0003244854    1.297    0.229
       502  -8.7534     21.2851    114.5580   1.2754053963e+02   5.0313553197e+01    0.2339162    0.1149357 -47.01 0.0007364086    1.753    0.430
       503  -9.0547    147.6804    116.0798   9.1164869896e+01   2.9579675638e+01    0.2181002    0.2016653 -44.31 0.0005396203    1.083    0.077
       504  -9.0610    219.1000    113.5577   7.6384855908e+01   1.4389085859e+01    0.2841382    0.1970673  21.93  0.001261831    2.491    0.599
       505  -8.9505    181.2015    114.3107   8.3401856296e+01   2.2442477655e+01    0.2254264    0.1884632  36.30 0.0005874312    1.368    0.269
       506  -9.5341    122.1509    114.1018   9.7076597254e+01   3.5493357914e+01    0.4218122    0.2631868 -38.49   0.00180855    1.673    0.402
       507  -9.2161    185.8322    113.0381   8.2184932655e+01   2.1664570090e+01    0.2388574    0.2154426  57.47 0.0003694883    1.156    0.135
       508  -9.2372    114.0501    112.9742   9.8968679304e+01   3.7389201520e+01    0.2428964    0.1867142 -11.47 0.0005408886    1.695    0.410
       509  -8.0148     41.4871    113.4521   1.2097798962e+02   4.8643982710e+01    0.1379908    0.1141449 -42.62 0.0008068003    1.096    0.087
       510  -9.1338    208.2038    111.6482   7.7776860540e+01   1.7042455902e+01    0.2023782     0.167606 -60.86 0.0003473789    1.126    0.112
       511  -9.1186    194.6212    111.3530   8.0123341063e+01   2.0049696576e+01    0.2616788    0.2362617 -38.65 0.0005599049    1.162    0.140
       512  -9.0130    203.0538    113.4287   7.9078166028e+01   1.7805169076e+01    0.3061138    0.2170674 -60.46  0.001022284    1.427    0.299
       513  -9.1780     17.1591    110.4599   1.2809017130e+02   5.1585443917e+01    0.2800657    0.1134307 -50.33  0.001160789    1.958    0.489
       514  -9.1325    168.1678    109.8911   8.5007575657e+01   2.6274226885e+01    0.2036045    0.1834967  -8.81 0.0004391861    1.325    0.245
       515  -8.5508    144.0009    110.0387   9.0502934193e+01   3.1676274528e+01    0.1851527     0.174846  58.59 0.0003595292    1.064    0.060
       516  -8.8999     66.6374    109.3177   1.1207382755e+02   4.6430953528e+01    0.2579266    0.1624653 -43.97 0.0007558101    1.470    0.320
       517  -9.0085     24.5707    110.2420   1.2570425882e+02   5.1030440981e+01    0.1900915   0.09510567 -51.49 0.0009378892    1.617    0.382
       518  -9.0863    176.6816    108.4508   8.2891988455e+01   2.4636135519e+01    0.2430095    0.1848683 -21.63 0.0005813273    1.675    0.403
       519 -10.3313    121.6204    108.1218   9.5657910294e+01   3.6902429299e+01    0.6847486    0.3021732  41.95  0.002515483    2.334    0.572
       520  -8.7024      1.8748    109.0872   1.3262062618e+02   5.2935971460e+01    0.2069521    0.1060752 -43.05  0.001117797    1.749    0.428
       521  -8.1351    155.3002    108.3042   8.7426382316e+01   2.9509607348e+01    0.1498213    0.1240368   4.33 0.0003740645    1.590    0.371
       522  -9.8167    179.4522    129.9237   8.7464741191e+01   1.9594568257e+01    0.2733865    0.2625838 -24.11  0.000408682    1.122    0.109
       523  -8.3257     36.9188    108.1644   1.2132287045e+02   5.0342653918e+01    0.2140467    0.1349787 -19.73 0.0007528273    1.985    0.496
       524  -8.1993    201.0936    107.4984   7.8064151693e+01   1.9374805259e+01     0.201227    0.1439315  56.30 0.0005163198    1.467    0.318
       525  -8.4230    190.0149    107.2877   8.0022294874e+01   2.1865376344e+01    0.2000998    0.1879099  82.57 0.0003904748    1.070    0.066
       526  -7.9030     59.3942    107.2817   1.1387970874e+02   4.7895184444e+01     0.145535    0.1004403 -19.43 0.0006998047    1.756    0.431
       527 -10.1259     12.2182    106.0721   1.2886397333e+02   5.2945763384e+01    0.2270489    0.2041062  63.74  0.001109886    1.363    0.266
       528  -8.1610    182.5656    106.5789   8.1272279596e+01   2.3676661943e+01    0.1491604    0.1390002 -73.76 6.956462e-05    1.010    0.010
       529  -9.3171    160.8540    105.9785   8.5601671181e+01   2.8725855928e+01    0.2380451     0.218221  52.73 0.0002880431    1.115    0.103
       530  -9.3456    112.9623    105.5606   9.7319599151e+01   3.9220102797e+01    0.2808138    0.2068551 -29.75 0.0003590322    1.497    0.332
       531  -8.1048     29.5260    106.4823   1.2336530858e+02   5.1445309968e+01    0.1338627    0.1071585 -44.34 0.0001688383    1.084    0.077
       532  -9.2690    166.4449    105.0113   8.4156038051e+01   2.7647812882e+01    0.3129198    0.2132386  70.82  0.001379839    1.750    0.428
       533  -9.2460    218.9117    103.2771   7.4159624390e+01   1.6342624767e+01    0.2578548    0.1940564 -38.33 0.0005701613    1.347    0.258
       534  -8.5382    205.4822    103.2627   7.6337585464e+01   1.9219026103e+01    0.2537975    0.1367252 -38.13 0.0006626906    1.880    0.468
       535  -8.7671    190.0969    102.4080   7.8849008411e+01   2.2787816305e+01    0.2522729    0.1937334 -35.70 0.0004638964    1.383    0.277
       536  -9.1822     18.9825    100.0169   1.2550959721e+02   5.3796337969e+01    0.2281003    0.2068128  58.82  0.001542884    1.373    0.272
       537  -9.9572      5.8703    102.4405   1.3025013160e+02   5.4181000054e+01    0.2333203    0.1291622 -54.32 0.0008443082    1.388    0.280
       538 -10.4254      5.4602     97.9233   1.2957377449e+02   5.5203895760e+01    0.4351158    0.2018928 -23.34  0.002049413    2.834    0.647
       539  -9.4287    129.7076    100.6559   9.1565072315e+01   3.6752704194e+01    0.3734749    0.2564453  -5.28  0.001316341    2.456    0.593
       540  -8.7455    141.0602    100.4460   8.8702890566e+01   3.4304903484e+01    0.2054644    0.1307962  25.35 0.0007560751    2.303    0.566
       541  -8.3696     34.6564     99.9259   1.2026863912e+02   5.2424319271e+01    0.2864061   0.08510718 -51.40  0.001104961    2.604    0.616
       542  -8.7310     24.5249     99.3703   1.2353254209e+02   5.3484777322e+01    0.2772146    0.1414911 -27.36  0.001035657    2.413    0.586
       543  -8.3297    195.1904    101.7614   7.7774697127e+01   2.1770640046e+01    0.1873809    0.1727502 -14.24 0.0004614625    1.318    0.242
       544  -8.9739     90.0107     98.0970   1.0192564667e+02   4.5150775679e+01    0.2473199    0.2118663 -65.72 0.0007192848    1.322    0.243
       545  -8.3556    225.3874     97.7961   7.1986074219e+01   1.5983699141e+01    0.1879763    0.1239661 -35.88   0.00050643    1.597    0.374
       546  -9.2651    229.2253     94.5750   7.0743167223e+01   1.5762192183e+01    0.3220669    0.1819473  38.10  0.001327595    2.879    0.653
       547  -7.8262    217.2685     98.2807   7.3315520768e+01   1.7600134703e+01    0.1245048    0.1120336  -4.34 0.0002075558    1.490    0.329
       548  -9.2028     65.7290    103.9604   1.1104010802e+02   4.7764683284e+01    0.2933072    0.1969927  15.61  0.001090134    1.798    0.444
       549  -8.2039    167.3082     98.3526   8.2299750571e+01   2.8757947757e+01    0.1502238    0.1219988   5.84 0.0007043227    1.717    0.418
       550  -9.8783    119.5472    102.1136   9.4608027000e+01   3.8603892961e+01    0.3435278    0.2659145 -31.35 0.0008088017    1.377    0.274
       551  -8.5780    122.1063     96.8304   9.2493139202e+01   3.9152997470e+01    0.2032365    0.1765254  -7.12 0.0004242854    1.311    0.237
       552  -8.2745    203.3317     95.9419   7.5021915694e+01   2.1046061697e+01    0.1951234    0.1288089 -33.14 0.0004197587    1.702    0.413
       553  -7.9779    195.2684     95.3268   7.6249114474e+01   2.2954611515e+01     0.135469    0.1172339  -1.12 0.0002494322    1.575    0.365
       554  -8.0159    135.6967     95.6799   8.8728212245e+01   3.6445200119e+01    0.1503903    0.1206483   5.00 0.0003148031    1.630    0.386
       555  -9.2312     21.1393     94.7605   1.2369523914e+02   5.4779394479e+01    0.2665833    0.1123158 -41.55  0.001228536    2.133    0.531
       556  -9.0415    235.3085     94.0704   6.9791164014e+01   1.4613603346e+01    0.1936381    0.1523857 -54.61 0.0005024673    1.096    0.087
       557  -7.9004    183.3611     94.2752   7.8137919482e+01   2.5848530244e+01    0.1437974    0.1168694  23.07 0.0004147862    1.660    0.398
       558  -8.0126     94.4856     94.4073   9.9566514901e+01   4.5114512085e+01    0.1438742    0.1352471  -5.42 0.0001142079    1.046    0.044
       559  -8.3213     75.7980     93.6434   1.0511382992e+02   4.8473267979e+01    0.1936143    0.1632802 -26.35  0.000635925    1.144    0.126
       560  -9.5368      4.4131     93.7860   1.2915458936e+02   5.6169013229e+01    0.2177732    0.1386359 -67.58 0.0007693481    1.425    0.298
       561 -10.0474      2.9774     89.7052   1.2886324392e+02   5.7130826656e+01    0.2642462    0.2362362 -52.47  0.001927614    1.150    0.131
       562  -8.7487     17.2929    103.2993   1.2671069920e+02   5.3195694011e+01    0.2158176    0.1434482 -40.79  0.000647076    1.343    0.256
       563  -9.4097    224.9298     90.5039   7.0483784432e+01   1.7364964019e+01    0.3075497     0.194353 -52.90 0.0008312864    1.420    0.296
       564  -8.1741    164.5479     92.4739   8.1375312500e+01   3.0514016517e+01    0.1467932      0.14268 -88.69 0.0001483428    1.047    0.045
       565  -7.7763     35.2710     92.3194   1.1829961988e+02   5.4022991849e+01    0.1342035   0.08351262 -32.81 0.0003264197    1.565    0.361
       566  -8.0130    188.3737     90.8145   7.6389170078e+01   2.5340817246e+01    0.1966262    0.1367018 -32.90 0.0005420485    1.617    0.382
       567  -8.8405    127.9613     91.2896   8.9455325938e+01   3.8997952233e+01    0.1979371    0.1827083  39.77 0.0001676203    1.083    0.077
       568  -8.8844     13.4621     91.4565   1.2562270635e+02   5.6079122986e+01     0.125483    0.0977776 -44.86  0.000807463    1.043    0.041
       569 -10.0825    236.5514     88.8891   6.8548041758e+01   1.5255325775e+01    0.2839282    0.2341434 -31.23  0.001008967    1.455    0.313
       570  -8.0249    103.5355     91.5176   9.6112592337e+01   4.3992067283e+01    0.1469471    0.1367844  -4.54 0.0008080519    1.081    0.075
       571  -8.9330    230.7181     89.6433   6.9490828015e+01   1.6313341293e+01    0.1252484    0.1080796  -9.74 0.0007016271    1.665    0.399
       572  -8.2289    203.4803     89.0153   7.3406180385e+01   2.2261296258e+01     0.208312    0.1325827 -43.54 0.0004312366    1.502    0.334
       573  -8.7251    158.1486     88.4294   8.1667408221e+01   3.2744998956e+01    0.2334082    0.2025277 -30.60  0.000429473    1.265    0.210
       574  -8.1174    183.4914     88.4566   7.6696338635e+01   2.6885326618e+01    0.1452367    0.1357608 -81.81 0.0001317806    1.026    0.026
       575  -9.1962     29.6128     88.2477   1.1929065884e+02   5.5439693641e+01    0.1892064   0.09466028 -46.68 0.0009078941    1.648    0.393
       576  -7.9799     76.0293     86.9879   1.0318089513e+02   4.9801174863e+01    0.1613095    0.1496475  -0.40 0.0003187605    1.050    0.048
       577 -10.7406      9.7570     85.9712   1.2575856717e+02   5.7501643421e+01    0.2851698    0.2218445  46.57  0.001063365    1.706    0.414
       578  -8.1646    226.2716     86.3467   6.9404476243e+01   1.7801759366e+01    0.1241407    0.1087407  -9.46 0.0002630833    1.621    0.383
       579  -8.3897    151.0488     86.0615   8.2572889601e+01   3.4815125254e+01    0.2245703     0.180129  13.84 0.0005189626    1.655    0.396
       580  -7.9512     28.2757     84.3906   1.1882877473e+02   5.6372060930e+01    0.1382626   0.07645066 -33.86 0.0006995272    1.732    0.422
       581 -10.5117      2.5250     82.2598   1.2753597478e+02   5.8725144976e+01    0.3234568     0.230177 -54.50  0.002142939    1.136    0.119
       582  -9.8908      9.5198     79.4809   1.2442620047e+02   5.8867022446e+01     0.232155    0.1323461 -41.29 0.0007236782    1.425    0.298
       583  -8.8182    217.5854     83.4779   7.0011505847e+01   2.0137051834e+01    0.2268546    0.1213656  49.10 0.0006139302    2.183    0.542
       584  -8.4604    205.9314     82.8820   7.1616887192e+01   2.2789148129e+01    0.1913879    0.1877003 -55.54            0    1.218    0.179
       585  -7.8497    170.7178     82.3079   7.7551583070e+01   3.0937764617e+01     0.147586    0.1088926 -75.82 0.0004651246    1.562    0.360
       586  -8.2946    185.5110     81.4996   7.4643330976e+01   2.7653841435e+01    0.1435195    0.1328727 -82.71 -7.264556e-05    1.027    0.026
       587  -7.9338    126.5366     81.3992   8.7043022964e+01   4.1168179818e+01    0.1440623     0.137143  37.48 0.0001820618    1.036    0.035
       588  -9.1106     19.3837     80.7758   1.2114845320e+02   5.7881248552e+01    0.1816638   0.08804012 -47.21  0.000724131    1.638    0.389
       589  -7.9684    196.7798     89.9725   7.4732921924e+01   2.3588852135e+01     0.178803    0.1124358 -42.88 0.0002059514    1.539    0.350
       590  -8.0928    158.9817     79.9863   7.9279171633e+01   3.4073940291e+01    0.1719554    0.1636226 -84.77 0.0003421645    1.022    0.021
       591  -7.9950    110.6585     80.7129   9.1009212698e+01   4.4648519579e+01     0.146869    0.1112238  11.09 0.0005084426    1.642    0.391
       592  -8.2717     23.5649     78.9299   1.1917624216e+02   5.7912294787e+01    0.1825056    0.0722978 -38.54 0.0005585027    2.348    0.574
       593  -8.1377    215.0767     78.4727   6.9271078302e+01   2.1526326117e+01    0.1848522    0.1295395  63.05 0.0004911511    1.457    0.314
       594  -8.4494    183.8172     76.8326   7.3800856424e+01   2.8845368286e+01    0.3628092   0.09529703 -41.82  0.001142976    3.587    0.721
       595  -8.7176    235.9577     77.7687   6.6330817578e+01   1.7234719712e+01    0.1563318    0.1050586  66.48 0.0003172407    1.557    0.358
       596  -8.2864    206.2965     77.0615   7.0239019993e+01   2.3695760485e+01     0.188581    0.1581633 -61.62 0.0002868578    1.087    0.080
       597  -8.5453    150.9447     77.2836   8.0240016752e+01   3.6405141821e+01    0.2046949    0.1771575  53.31 0.0004119601    1.128    0.113
       598  -9.0631     85.3084     77.2273   9.7383858183e+01   5.0126706150e+01    0.2407532    0.2008746  30.75 0.0008536523    1.186    0.157
       599  -8.0293    194.0422     75.9444   7.1883016245e+01   2.6646026098e+01    0.1674889    0.1484784 -71.55 0.0003684859    1.035    0.034
       600  -8.2024    174.5219     75.9450   7.5230807903e+01   3.1152890786e+01    0.2005527    0.1393021 -42.03 0.0003243415    1.462    0.316
       601  -8.7548    239.1931     75.1570   6.5400236880e+01   1.7001960559e+01    0.1832741    0.1601099 -59.33 0.0003742689    1.149    0.130
       602  -9.1257    234.4496     74.5274   6.5852107173e+01   1.8071117786e+01    0.1321176    0.1113917 -67.62 7.365418e-05    1.032    0.031
       603  -8.1073    157.4181     73.7570   7.7951179044e+01   3.5507972722e+01    0.1877915    0.1414289 -24.87 0.0005043356    1.595    0.373
       604 -10.4417      9.6155     72.9927   1.2288561625e+02   6.0172592348e+01    0.4140137    0.1986952 -40.83  0.002261255    1.688    0.408
       605  -9.8729    228.7125     72.3741   6.6124451231e+01   1.9610657985e+01     0.364638     0.239621  25.31  0.001268415    3.725    0.732
       606  -8.6564    205.3476     71.8090   6.9188626594e+01   2.4774281645e+01    0.4443712    0.2316592 -69.07  0.001760333    2.735    0.634
       607  -8.0372    140.0326     72.0549   8.1194644592e+01   3.9796347183e+01    0.1652806    0.1620467  76.40 0.0003464608    1.032    0.031
       608 -10.6282     92.5604     69.5892   9.2841160575e+01   5.0180303474e+01    0.3620882    0.3101473 -25.37  0.001024702    1.159    0.137
       609  -9.0404    170.4017     68.7020   7.4146078409e+01   3.3312898035e+01    0.3005275     0.241554 -14.12  0.001574299    1.653    0.395
       610  -7.6749    150.2619     70.3431   7.8504582771e+01   3.7735892629e+01    0.1383616    0.1129535  12.70 0.0003175148    1.596    0.373
       611  -8.2182    116.4274     69.4661   8.6151394177e+01   4.5427500842e+01    0.1410152    0.1307737  20.51 0.0003164495    1.074    0.069
       612  -7.6861    107.6088     68.7147   8.8272407459e+01   4.7386212529e+01     0.147864    0.1045811  17.26 0.0007004188    1.757    0.431
       613  -8.0902    138.6431     65.1998   7.9577085083e+01   4.1232896032e+01    0.1861989    0.1354535 -24.09 0.0003815024    1.620    0.383
       614 -10.6952      1.9401     68.4778   1.2471636165e+02   6.1542305670e+01    0.5133703    0.1572849 -55.64   0.00147656    2.389    0.581
       615  -9.9376     68.6027     63.9682   9.8676417050e+01   5.5277197464e+01    0.3049451    0.2734292  15.38 0.0009684614    1.101    0.092
       616  -7.7393    152.6748     64.6595   7.6468111357e+01   3.8093143855e+01    0.1439365    0.1095893  23.41  0.000705123    1.730    0.422
       617  -8.3873    145.9652     64.0218   7.7670184032e+01   3.9744563283e+01    0.2251603    0.1677767  25.32 0.0006968532    1.713    0.416
       618 -11.0098    238.5632     69.9058   6.4413159002e+01   1.7968616260e+01    0.4136344    0.2185326 -56.38  0.001610228    1.724    0.420
       619  -7.8123    208.3934     62.5369   6.6674121499e+01   2.5565159448e+01    0.1338607     0.115856 -75.03 0.0001205321    1.027    0.026
       620 -10.6973    124.1713    246.9104   1.2216014420e+02   4.7798985691e+00    0.2916136      0.26243  67.97 0.0004301935    1.100    0.091
       621  -9.4781    120.1580    248.6187   1.2322180995e+02   5.1019152209e+00    0.2666215    0.2452938  56.80 0.0005207259    1.061    0.058
       622  -9.3846     12.6324     27.4997   1.0788236828e+02   6.7846140193e+01    0.3288071    0.1560012 -32.49  0.001942644    1.779    0.438
       623  -9.2696    108.4258    249.0316   1.2569830777e+02   6.9074360112e+00    0.2331503    0.1756434  27.29 0.0006035547    1.504    0.335
       624 -10.0690     31.6480    247.3850   1.4064241338e+02   1.8134346299e+01    0.2675906    0.2357778 -38.38 0.0006878065    1.806    0.446
       625  -8.8010     23.9958    249.4744   1.4218369857e+02   1.8607873821e+01    0.1601275    0.1009924  44.77 0.0005654204    1.526    0.345
       626 -10.3291    133.0172    245.3710   1.2009968221e+02   3.6222217139e+00     0.264667    0.2424586  -5.31 0.0003514467    1.285    0.222
       627 -10.0012      1.9933     45.9176   1.1874261970e+02   6.5707406645e+01    0.2413827    0.1408272 -38.23 0.0003934502    1.307    0.235
       628 -10.2352      4.7439     41.6114   1.1624217341e+02   6.6258384746e+01    0.2118531    0.1687592 -24.88 0.0002829433    1.092    0.085
       629 -10.2810    113.4091    244.3023   1.2406137494e+02   7.0476191260e+00    0.3017164    0.2451294 -39.82 0.0006978929    1.529    0.346
       630  -9.6349     41.1330    244.7716   1.3866370698e+02   1.7510175855e+01    0.2337275    0.2197515 -41.22 0.0007941081    1.597    0.374
       631 -10.5673    104.6347    241.5831   1.2554970235e+02   9.0122527525e+00    0.3299048    0.2799585 -38.73 0.0007247248    1.494    0.331
       632  -9.4702    101.4338    238.7992   1.2586964533e+02   1.0099228593e+01    0.3031567    0.2237847   3.64  0.001358969    2.261    0.558
       633  -8.2023    217.0225     61.2791   6.5257873567e+01   2.3857448599e+01    0.1797447    0.1511296  89.93 0.0003312391    1.085    0.078
       634  -8.3372    157.5304     59.4985   7.4133821233e+01   3.7760095437e+01    0.1390633    0.1287771  69.41 7.156799e-05    1.035    0.034
       635 -10.9423     78.4792     53.0160   9.1850578624e+01   5.5417164453e+01    0.3738058    0.3580278   5.42  0.001693108    1.167    0.143
       636 -10.0502     75.4883     51.4878   9.2295025990e+01   5.6163997844e+01    0.2688418    0.2057868 -17.57  0.000678928    1.293    0.227
       637  -8.1738     47.7177     59.6819   1.0468205890e+02   5.8989172504e+01    0.1289063   0.08518458 -14.95 0.0002362493    1.583    0.368
       638 -10.8980     12.4941     40.1868   1.1241187339e+02   6.5913141986e+01    0.6858005    0.2835671  20.21  0.003282774    2.524    0.604
       639  -8.1280    164.8793     58.1072   7.2414449676e+01   3.6253252794e+01    0.1764198    0.1633017  24.12 0.0005074981    1.296    0.228
       640  -8.4539     31.2608     58.5398   1.1057896186e+02   6.1082862785e+01    0.1609173    0.1048182   3.37  0.000937088    1.612    0.380
       641  -8.8208    146.8937     56.8140   7.5484699815e+01   4.0629546980e+01    0.2067608    0.1796053  37.23 0.0004739182    1.230    0.187
       642  -9.4989    125.3210     56.3863   8.0056928710e+01   4.5569493589e+01    0.2316176     0.218128  74.25  0.000312612    1.108    0.097
       643 -12.2617    185.3794    235.4198   1.0763816259e+02  -3.2258499462e+00      1.93716     0.979529 -19.76  0.006639958    4.364    0.771
       644 -10.7465      2.3987     54.0722   1.2088619441e+02   6.4236963718e+01    0.4928706    0.2498271 -61.12  0.002749221    2.116    0.527
       645  -9.0219     34.1123     53.8970   1.0799983126e+02   6.1589455950e+01    0.2229574     0.168862 -78.84  0.001220812    2.668    0.625
       646  -8.2281     63.2381     53.1463   9.6954704666e+01   5.7891592554e+01    0.2159855    0.1238411  -2.52 0.0009338146    2.770    0.639
       647 -10.0684     19.9456     51.0300   1.1276894114e+02   6.3473867098e+01    0.3662508    0.2733822 -89.56  0.002004168    3.085    0.676
       648 -13.0673    197.2595    196.2153   9.8035006880e+01   2.1206133862e+00     2.198317     1.198703 -37.11   0.00903411    1.844    0.458
       649  -8.0969    163.2440     50.9951   7.0853385520e+01   3.7668899525e+01    0.1657997    0.1156542 -38.55 0.0005196836    1.538    0.350
       650  -9.1659    172.0722     49.9556   6.9102479688e+01   3.5754751947e+01    0.1918341    0.1723873  77.20            0    1.043    0.041
       651  -8.5777     38.4175     40.6923   1.0180855737e+02   6.3210923441e+01    0.2036002    0.1249805   5.91 0.0009810713    1.738    0.425
       652  -8.0813     65.6134     39.2154   9.1290482044e+01   5.9561359998e+01    0.1669844    0.1070645 -18.63 0.0004786916    1.621    0.383
       653  -8.2450     29.3919     37.7720   1.0440632110e+02   6.4686935499e+01    0.1611062    0.0897017 -29.77 0.0007883717    1.597    0.374
       654  -8.3987     23.9927     38.3364   1.0685929964e+02   6.5164601921e+01    0.1549414    0.1190605  -2.95 0.0003289222    1.109    0.099
       655  -8.8557     53.5377     36.5193   9.4545275638e+01   6.1785721124e+01    0.2017821    0.1073268 -45.42  0.001028443    2.390    0.582
       656  -8.0985    173.9058     33.9454   6.4837258929e+01   3.7436442674e+01    0.1500009    0.1283183  79.50 0.0002893571    1.019    0.019
       657  -8.5877     25.8976     34.1020   1.0453258305e+02   6.5604998621e+01    0.1758267    0.1093362 -10.38 0.0003972408    1.538    0.350
       658  -8.4841     21.0789     32.7409   1.0608999575e+02   6.6295200875e+01    0.1571111    0.1190214  -4.93 0.0004371609    1.081    0.075
       659  -9.0673     30.0459     31.3607   1.0177594102e+02   6.5545644099e+01    0.2117499    0.1404325 -22.13 0.0007191052    1.302    0.232
       660 -10.5016     69.5397     29.9410   8.6631268237e+01   6.0093528244e+01    0.3416854    0.2034705 -11.52  0.001845778    1.960    0.490
       661 -10.0130     66.4100     28.2984   8.7041446167e+01   6.0816351163e+01    0.2664548    0.1558121 -45.53  0.001414843    2.389    0.581
       662 -10.2861     59.2582     29.2921   8.9823602521e+01   6.1855045061e+01    0.3224132    0.1662167  28.08  0.001685083    1.931    0.482
       663 -12.9944    208.4656    244.6052   1.0459586419e+02  -8.3644938692e+00     1.111907    0.7680852  29.52  0.003548011    1.329    0.247
       664  -8.1941    102.3140     26.3509   7.6155684817e+01   5.4308372840e+01      0.13337   0.08507399  26.31 0.0007046354    1.727    0.421
       665 -10.2964     24.9307    240.0445   1.4133331903e+02   2.0458733750e+01    0.3371661    0.2066075 -57.39  0.001612416    1.946    0.486
       666  -7.9190    222.0197     22.0108   5.6568022085e+01   2.8140797231e+01    0.1445841    0.1112785 -85.49            0    1.044    0.042
       667  -9.7068     78.7536     22.0996   8.0948966160e+01   5.9344098237e+01    0.2242824    0.2091346 -29.59  0.001412647    1.335    0.251
       668 -10.5475     68.4085    240.2914   1.3289046415e+02   1.4790825251e+01    0.2539745    0.2513381 -18.67 0.0004283743    1.398    0.285
       669  -9.9252     51.3580    240.5869   1.3632321537e+02   1.7073201063e+01    0.2481589    0.2056379 -65.21  0.000738118    1.399    0.285
       670  -9.5464    129.5908    235.2556   1.1937347589e+02   6.1911964254e+00    0.2534179    0.2277314   3.74 0.0005333268    1.314    0.239
       671  -9.2218     35.1475    240.4436   1.3944454724e+02   1.9163727404e+01    0.2055087    0.1721073 -63.28 0.0006619529    1.475    0.322
       672  -9.6292      9.4283    239.4711   1.4412012289e+02   2.2285297358e+01    0.2499211    0.1956367 -50.42  0.001712647    1.864    0.464
       673 -10.0136    134.9906    239.0494   1.1877512445e+02   4.5239501500e+00    0.2481312    0.2380403  72.79 0.0004199748    1.093    0.085
       674 -10.2163    139.4638    234.8835   1.1719850176e+02   4.5920145848e+00     0.268088     0.248583   0.09 0.0004425078    1.207    0.171
       675 -10.0728    118.0388    238.5482   1.2231294256e+02   7.4522903237e+00     0.364522    0.2810189 -27.12  0.001157005    1.790    0.441
       676  -9.2321     61.9194    239.2921   1.3409846298e+02   1.5917440028e+01     0.218348    0.1678444 -66.06 0.0005200263    1.391    0.281
       677  -8.7047     66.8033     16.3873   8.2427047512e+01   6.2049226557e+01    0.1673868   0.08967932  37.66  0.000477838    1.587    0.370
       678  -9.7876     22.7952     15.8094   9.8717893837e+01   6.8392673724e+01    0.1865478    0.1464461  -4.71 0.0004190419    1.113    0.101
       679  -9.2735    112.2078    237.6988   1.2343941613e+02   8.5853278387e+00    0.2264802    0.2100119 -31.47 0.0005485688    1.323    0.244
       680 -10.4402     91.0450    235.9135   1.2770468578e+02   1.2344980472e+01    0.3058241    0.2718997 -21.38 0.0005000561    1.561    0.359
       681 -10.2785    125.3147    240.0643   1.2097676732e+02   5.9404562654e+00    0.2892329    0.2627956  11.08 0.0003866312    1.281    0.219
       682  -9.5910     63.1245     13.3269   8.2410814225e+01   6.2974638792e+01    0.2394045   0.07893503  42.24  0.001092519    2.515    0.602
       683  -9.4174     41.5079    236.9108   1.3792207460e+02   1.9131025506e+01    0.2553269    0.1814509 -51.14 0.0007518313    1.849    0.459
       684 -10.0668     77.7736    235.7527   1.3047199113e+02   1.4398288594e+01    0.2623984    0.2297265  66.22 0.0005031049    1.073    0.068
       685  -8.7448     57.4741     10.4520   8.3115094546e+01   6.4183349955e+01    0.1162686   0.08967362  21.32 2.397738e-05    1.029    0.028
       686  -9.5089      3.1208    236.1107   1.4503259603e+02   2.3635724348e+01    0.2302058    0.1783168 -59.84  0.001042108    1.655    0.396
       687  -9.7382    152.9253    233.1378   1.1404643123e+02   2.6379211033e+00    0.2546432     0.210583  20.65 0.0003249561    1.246    0.197
       688  -9.6391    108.2436    233.3372   1.2369978947e+02   1.0144585756e+01    0.2344544    0.2237423  43.84 0.0006014336    1.157    0.135
