#   1 NUMBER                 Running object number                                     
#   2 MAG_AUTO               Kron-like elliptical aperture magnitude                    [mag]
#   3 X_IMAGE                Object position along x                                    [pixel]
#   4 Y_IMAGE                Object position along y                                    [pixel]
#   5 X_WORLD                Barycenter position along world x axis                     [deg]
#   6 Y_WORLD                Barycenter position along world y axis                     [deg]
#   7 A_WORLD                Profile RMS along major axis (world units)                 [deg]
#   8 B_WORLD                Profile RMS along minor axis (world units)                 [deg]
#   9 THETA_WORLD            Position angle (CCW/world-x)                               [deg]
#  10 FWHM_WORLD             FWHM assuming a gaussian core                              [deg]
#  11 ELONGATION             A_IMAGE/B_IMAGE                                           
#  12 ELLIPTICITY            1 - B_IMAGE/A_IMAGE                                       
         1  -8.6988     13.0859     30.5107   7.2916153513e+01   6.7767620549e+01    0.1998008    0.1400845 -60.91 0.0007688208    1.568    0.362
         2  -8.3953     97.3994     14.7163   3.4288023794e+01   5.8107798045e+01    0.2306925    0.1168287 -31.38 0.0007166793    2.033    0.508
         3  -7.7150     83.6011     10.8337   3.6647432193e+01   6.1300348682e+01    0.1670755    0.1110803 -34.60 0.0006852534    1.650    0.394
         4  -8.5616     55.5319      9.8179   4.5871572240e+01   6.6269631649e+01    0.1899084    0.1822193 -21.24 0.0006328279    1.448    0.309
         5  -7.8306     47.5996      9.7796   4.9024496422e+01   6.7432229045e+01    0.1554492   0.09960982 -36.95 0.0005897737    1.641    0.391
         6  -8.0864     90.7905      8.6022   3.3579986202e+01   6.0119186635e+01    0.1691994    0.1193531  62.50  0.000578455    1.647    0.393
         7  -8.0709     70.4027      6.1900   3.8799367359e+01   6.4239531552e+01    0.1610184    0.1060262 -32.53 0.0005894619    1.634    0.388
         8  -8.4315     33.6333      5.0939   5.2834613626e+01   6.9851638704e+01    0.2292656    0.1214528 -42.53  0.001293956    2.153    0.535
         9  -7.5549    243.3330      4.3266   8.8931707346e+00   2.3766583331e+01    0.1198641   0.09380126  44.08 0.0007051424    1.714    0.417
        10  -8.4195     79.3047      3.7235   3.4818377510e+01   6.2862410214e+01    0.2168936    0.1350108 -32.19  0.001206975    1.746    0.427
        11  -7.4394     44.3948      2.7076   4.6929896690e+01   6.8751226914e+01   0.09801551   0.09475338 -72.93 0.0007004376    1.786    0.440
        12  -7.9643     62.5163      1.4068   3.9273141961e+01   6.6102461827e+01    0.1181395     0.099248  12.05 0.0001757088    1.074    0.069
        13  -9.2369    120.1389    245.1893   8.2390360076e+01   8.5565706052e+00    0.2878177    0.1778798  79.97  0.001616062    2.094    0.522
        14 -10.0672    248.6354    241.9249   5.9061073389e+01  -1.1492819734e+01    0.3891841    0.2088444 -38.49   0.00229912    2.364    0.577
        15  -9.4920    233.3725    246.3862   6.2330382722e+01  -9.7727274807e+00    0.4291705    0.2258455 -26.40  0.001873948    2.155    0.536
        16  -7.7582    125.4470    250.4863   8.2008677912e+01   6.8745164978e+00    0.1190448   0.09242377  52.50 0.0004477211    1.025    0.024
        17  -8.4411     94.3444    249.3301   8.7370768633e+01   1.1827114866e+01    0.2711988    0.1155603  61.98  0.001302774    2.535    0.605
        18  -7.7324     86.3579    250.2333   8.8829736538e+01   1.2839858236e+01    0.1454533   0.09224346  89.13 0.0005011274    1.648    0.393
        19  -9.0341      9.8562    244.5903   1.0091607615e+02   2.3303129803e+01    0.3213604   0.09269118  87.73  0.001440838    3.997    0.750
        20  -8.2776     67.4918    245.0019   9.1632365126e+01   1.6366426384e+01    0.1522105   0.09759671 -81.47 0.0005550855    1.552    0.356
        21  -8.1593     58.6818    245.0063   9.3121243077e+01   1.7535252470e+01    0.1757309   0.06845707  83.32 0.0007044824    4.239    0.764
        22  -8.8788    169.1710    243.2441   7.3233447941e+01   8.3064613901e-01    0.2200436    0.1624408  56.70  0.000664163    1.378    0.274
        23  -8.5222    139.3720    244.2107   7.8792533057e+01   5.6128524663e+00    0.1512871    0.1107652 -79.11 0.0006239588    1.752    0.429
        24  -9.0197     78.0243    243.2650   8.9681016712e+01   1.5214687870e+01    0.3159858     0.138345  65.20  0.001569061    2.435    0.589
        25  -8.3791     50.2938    243.9156   9.4445093846e+01   1.8800615574e+01    0.1765704   0.06542668  83.58 0.0007021791    4.339    0.770
        26  -8.5635    201.8040    242.7772   6.7280626996e+01  -4.4598536745e+00    0.1913918    0.1652871 -51.30 0.0007100482    1.601    0.376
        27  -9.0532    194.1797    240.1447   6.8259182299e+01  -2.8763729099e+00    0.2814882    0.1715494 -49.96  0.001267685    2.247    0.555
        28  -9.1574    183.3801    240.1714   7.0219859607e+01  -1.0967879160e+00    0.4255276    0.2497757  65.81  0.001947675    3.204    0.688
        29  -9.3547    160.1723    240.2479   7.4482227941e+01   2.7709505704e+00    0.3006209    0.2165562 -89.37  0.001288458    2.121    0.529
        30  -8.4448    153.4901    241.6046   7.5887513525e+01   3.6824067863e+00    0.1836091    0.1172411 -69.79 0.0009831403    2.315    0.568
        31  -8.2822     88.2363    242.0260   8.7781496062e+01   1.3963100078e+01    0.1608722    0.1224916  76.15 0.0005373759    1.163    0.140
        32  -8.5878    146.7070    239.8375   7.6912594193e+01   5.0839708803e+00    0.3277899    0.1898384  75.12  0.001062293    3.193    0.687
        33  -8.3722    240.4996    239.9972   6.0117668461e+01  -1.0103702980e+01    0.1971809    0.1048869 -25.33 0.0008180449    2.051    0.513
        34  -8.9330    242.3358    236.3432   5.9217583169e+01  -9.9587899014e+00    0.2354487    0.1345495   4.91  0.001290392    2.114    0.527
        35  -8.8663    135.8142    238.9937   7.8821524147e+01   7.0234408045e+00    0.1962241    0.1366259  63.38   0.00119433    1.411    0.291
        36  -9.1252    230.9804    236.2235   6.1141114388e+01  -8.2383309449e+00    0.3415298    0.2423374 -35.36  0.001583329    1.700    0.412
        37  -8.2826    209.0140    238.2435   6.5314727151e+01  -5.0379081323e+00    0.1449889    0.1336186 -74.87 0.0004889184    1.634    0.388
        38  -8.2942    129.1895    238.2244   7.9955094896e+01   8.2364900675e+00    0.1710865    0.1221901  66.94 0.0006282898    1.387    0.279
        39  -7.6371    190.2521    237.5833   6.8594163905e+01  -1.8806281042e+00    0.1111585   0.09199089  76.93 0.0005116991    1.739    0.425
        40  -8.4568     25.6221    236.4509   9.8036866286e+01   2.3058382538e+01    0.2222778   0.08497402  73.58  0.001144813    2.586    0.613
        41  -8.3605     13.9995    238.0000   9.9971875809e+01   2.4033587184e+01    0.1514179   0.04850989  38.87 0.0007994095    2.922    0.658
        42  -8.7842    217.2922    235.6691   6.3446076870e+01  -6.0345514587e+00    0.1944965    0.1635892  40.32 0.0006246595    1.285    0.222
        43  -9.4970    213.6902    231.6479   6.3449826687e+01  -4.9412072760e+00     0.286074     0.234889  78.40  0.001661207    2.086    0.521
        44  -9.0800    203.1471    234.3725   6.5771884022e+01  -3.5779393432e+00    0.2641652     0.193976 -55.49 0.0009936697    2.008    0.502
        45  -9.8232    175.6335    233.1240   7.0633297704e+01   1.2173813167e+00    0.4294498      0.25147 -59.08  0.002236868    2.552    0.608
        46  -8.5134    170.2594    235.4096   7.1957522486e+01   1.7923208573e+00    0.1831079    0.1468377 -87.06 0.0007017688    1.755    0.430
        47  -7.7884     58.0549    237.0000   9.2642788680e+01   1.9039718720e+01    0.1780062   0.05307043  40.49 0.0008014349    2.936    0.659
        48  -9.1537    247.7162    234.1705   5.7954513121e+01  -1.0500152223e+01    0.2213066    0.1691007 -31.78 0.0009278795    1.593    0.372
        49  -9.5446    246.5986    228.5280   5.7203285987e+01  -9.6847924688e+00    0.4852651    0.2141111 -26.54  0.002160415    2.482    0.597
        50  -8.2852    194.9640    233.1204   6.7066779802e+01  -2.0504343164e+00    0.3549137    0.2329007  68.83  0.001717798    2.829    0.646
        51  -8.9444    109.0759    234.2512   8.3232380951e+01   1.2145448552e+01    0.4340104     0.178287  58.16  0.001192578    2.653    0.623
        52  -8.8909     78.8389    234.5095   8.8780480331e+01   1.6650749707e+01    0.2244583    0.1271755  83.24   0.00127578    1.897    0.473
        53  -8.1756    123.0288    234.0353   8.0610583034e+01   9.9428502148e+00    0.2018535    0.1258323  69.04 0.0009288086    1.781    0.438
        54  -8.1493     99.7928    234.0458   8.4925164428e+01   1.3626942477e+01    0.2043061    0.1144983  74.87  0.001065637    2.122    0.529
        55  -8.5962    132.6647    232.5079   7.8618935875e+01   8.6115608363e+00    0.1997878    0.1398685  83.33 0.0007457081    1.774    0.436
        56  -9.0727     68.1161    231.4610   9.0437264938e+01   1.8705678492e+01    0.4588354    0.2072561  82.85  0.002122075    3.016    0.668
        57  -9.2592    186.3853    230.3373   6.8224059314e+01  -2.0807043598e-01    0.3063781    0.2317897 -83.49  0.001356718    2.268    0.559
        58  -8.3982     92.8395    231.6926   8.5967653685e+01   1.5105296617e+01    0.2395733    0.1306079  76.42  0.001233604    2.202    0.546
        59  -9.1375    235.9436    230.1957   5.9301888845e+01  -8.2744874106e+00    0.2678916    0.1627532 -32.22  0.000635739    1.812    0.448
        60  -9.0213      1.5852    230.3114   1.0156578457e+02   2.6663596825e+01    0.2269041   0.09393252  89.27  0.001388678    1.965    0.491
        61  -9.9022    149.6915    226.0081   7.4531802225e+01   6.8015542024e+00    0.5920948    0.3423759 -84.28  0.002354136    4.154    0.759
        62  -8.8631    140.0750    230.1075   7.6914313994e+01   7.7673942088e+00    0.2391024    0.1425161  57.41 0.0007391474    1.623    0.384
        63  -8.6160    229.5940    228.2863   6.0089113525e+01  -7.0540677083e+00    0.1551804     0.105432 -15.35 0.0008713453    1.567    0.362
        64  -8.9014    162.3706    227.7724   7.2358118282e+01   4.3184061178e+00    0.3090515    0.1877321  62.69  0.001565222    2.077    0.519
        65  -8.8595    128.0306    227.1363   7.8832818353e+01   1.0301774871e+01    0.3105528    0.1757468  68.04  0.001345937    2.261    0.558
        66  -8.0631    223.4657    226.9577   6.0948572301e+01  -5.9120079144e+00    0.1612566    0.1158137 -29.68 0.0004521417    1.543    0.352
        67  -8.0176    119.9825    227.2105   8.0379356496e+01   1.1623560464e+01     0.177791    0.1227204  77.31 0.0005172564    1.604    0.376
        68  -9.2527      8.4419    226.9846   1.0032292889e+02   2.6599996095e+01    0.1571161   0.07881323 -85.01 0.0005930539    1.625    0.384
        69  -8.8178    206.0661    225.4975   6.3841423056e+01  -2.8574255608e+00    0.2403738    0.1686452 -47.09  0.001057437    1.841    0.457
        70  -8.1135    200.2731    226.0106   6.4985720988e+01  -1.9519204321e+00    0.1619762    0.1489839   7.27 0.0004387663    1.163    0.140
        71  -8.1043     49.2254    226.2381   9.3380108373e+01   2.2157860455e+01    0.1723212   0.07580276 -87.77 0.0007323585    2.431    0.589
        72  -8.8047    180.6182    224.0341   6.8343564219e+01   1.7216037490e+00    0.2694199    0.1884542  61.13 0.0009203554    1.725    0.420
        73  -8.7523     94.0550    223.7995   8.4930451714e+01   1.6367392101e+01    0.2989326    0.1588151  74.21  0.001188448    2.342    0.573
        74  -8.0676     38.5867    224.4691   9.5119091305e+01   2.3788417819e+01    0.2256275   0.09686323  75.20  0.001148823    2.406    0.584
        75  -8.9357    216.4948    223.0446   6.1546539545e+01  -4.2610479177e+00    0.2444571    0.1990748 -53.90   0.00111284    1.763    0.433
        76  -8.5851    173.0799    222.9889   6.9615754269e+01   3.2027524537e+00    0.2190358    0.1868302 -67.11 0.0006230554    1.491    0.329
        77  -8.0268    113.6324    223.8410   8.1194562267e+01   1.3265149545e+01    0.1599345    0.1107601 -82.90 0.0004133428    1.639    0.390
        78  -8.9019    104.6889    223.4726   8.2868224309e+01   1.4770397629e+01    0.3011656    0.1845693  80.39  0.001460776    1.930    0.482
        79  -8.9478    159.2623    220.4579   7.1896207694e+01   6.0468332915e+00     0.263566    0.1873071  68.36 0.0009272638    1.709    0.415
        80  -7.7790     59.6703    223.3537   9.1282753577e+01   2.1361455045e+01    0.1293894   0.06721109  68.43 0.0007046219    1.777    0.437
        81  -9.9206    239.2904    220.6678   5.7115137299e+01  -7.6190435723e+00    0.3785182    0.2145133 -14.93  0.001657629    2.065    0.516
        82  -9.4961    225.7025    221.5615   5.9649773906e+01  -5.5719190265e+00    0.2922347    0.2086709  52.69  0.001265981    1.761    0.432
        83  -9.2538    192.3580    221.2635   6.5697542207e+01   9.2266839522e-02    0.2795103    0.2313114  87.85  0.001071199    1.815    0.449
        84  -7.9426    140.4665    222.5241   7.5836434059e+01   8.9855158621e+00    0.1308343    0.1064478  55.84 0.0002544502    1.068    0.063
        85  -8.7018     83.2072    220.5586   8.6653465089e+01   1.8607599736e+01     0.302715    0.1426125  64.78  0.001438444    2.312    0.568
        86  -8.2351     73.4781    220.7415   8.8504745942e+01   1.9975429003e+01    0.2759359    0.1284809  73.15  0.001255743    2.726    0.633
        87  -7.6424     27.3098    221.3710   9.6868520921e+01   2.5669166772e+01   0.09743181   0.07773948 -60.49 0.0007034315    1.769    0.435
        88  -8.1411    202.8135    219.8804   6.3523563781e+01  -1.5134041568e+00    0.1629682    0.1419551  51.70 0.0004900313    1.316    0.240
        89  -9.0949    120.2896    218.9098   7.9299803450e+01   1.3064506723e+01    0.3812555    0.2147739  78.97   0.00168931    2.834    0.647
        90  -8.6271    210.0449    218.8544   6.2020176861e+01  -2.6030859116e+00    0.1979382    0.1777347 -22.87 0.0006113295    1.269    0.212
        91  -8.0158    131.6794    219.6939   7.7170328116e+01   1.0993618695e+01     0.119794   0.09918304  14.70 0.0006016593    1.637    0.389
        92  -8.9137    248.5203    217.7477   5.5026576128e+01  -8.6789081166e+00    0.2414242    0.1354269  48.59  0.001286821    2.209    0.547
        93  -9.1772    133.0297    215.9819   7.6405709316e+01   1.1427150549e+01    0.5140733    0.2851503  74.48  0.002111833    3.204    0.688
        94  -8.7629     51.6955    217.2855   9.2241769033e+01   2.3564489476e+01    0.2515356    0.1392325  79.37 0.0009024181    1.679    0.404
        95  -7.8609    179.2883    217.6072   6.7594936603e+01   2.9512229877e+00    0.1258857   0.09866232  77.26 0.0007004571    1.770    0.435
        96  -8.6602    169.2280    215.8196   6.9258852147e+01   5.0366024101e+00    0.2651156    0.2005723 -84.47 0.0009241801    1.938    0.484
        97  -8.6008    143.0499    216.5029   7.4497337130e+01   9.5844163855e+00    0.2660793    0.1862989  80.97  0.001137828    1.876    0.467
        98  -8.3434     61.9414    216.9801   9.0320006620e+01   2.2289666376e+01    0.2012087    0.1087243  69.13 0.0007716735    1.725    0.420
        99  -8.3412     18.3907    215.5862   9.8053643349e+01   2.7737279569e+01    0.2162404   0.07352639  87.12 0.0009595627    3.285    0.696
       100  -8.7126    232.0467    214.3164   5.7276906965e+01  -5.6464124762e+00    0.2324941    0.1656407 -38.99 0.0007782819    1.662    0.398
       101  -8.0957    154.1743    214.7144   7.2041562368e+01   7.9218554418e+00    0.2104336     0.145522  58.86 0.0007353026    1.463    0.317
       102  -8.3523    185.7963    214.1626   6.5792305557e+01   2.3317060033e+00    0.1936493    0.1641949  57.51 0.0008192141    1.297    0.229
       103  -8.9969     93.1374    213.7243   8.4010708570e+01   1.8426158930e+01    0.3166077    0.1645174  65.95  0.001301096    2.114    0.527
       104  -9.2583     73.1758    211.5971   8.7679019276e+01   2.1803427278e+01    0.6152818    0.2192432  61.78  0.002246413    3.942    0.746
       105  -8.9822    248.3418    212.2811   5.4089838729e+01  -7.9702668780e+00    0.3705464    0.1626601  21.72  0.001493062    3.394    0.705
       106  -9.3863    213.9776    212.0513   6.0137584143e+01  -2.3092184090e+00    0.3606951    0.2361694  56.05  0.001407081    1.977    0.494
       107  -8.0108    224.8348    212.0369   5.8161512753e+01  -4.1488583744e+00    0.1747348    0.1437572 -60.99 0.0006185536    1.890    0.471
       108  -9.1199    204.3222    210.8549   6.1722483851e+01  -4.5398601243e-01    0.2575943    0.2282549 -69.30 0.0007344691    1.574    0.364
       109  -8.5604    161.8197    212.2015   7.0149821844e+01   6.9771099441e+00    0.2403181    0.1686374  62.18  0.000990094    1.582    0.368
       110  -7.7388    106.4885    212.5321   8.1232063608e+01   1.6539984407e+01     0.133085     0.103797  65.70 0.0008076995    1.102    0.092
       111  -9.2984    175.5135    209.8593   6.7082292047e+01   4.8818636218e+00     0.389697    0.2415134  67.53  0.001626952    2.566    0.610
       112  -8.8177    148.0954    210.4951   7.2620073092e+01   9.7523909113e+00    0.2701727     0.191768  82.12   0.00103249    1.896    0.472
       113  -8.7298    116.3507    210.4192   7.8992170820e+01   1.5313609717e+01    0.2914843    0.1696432  67.96 0.0007872009    2.013    0.503
       114  -8.4756    192.2710    209.8972   6.3841829544e+01   1.8379911906e+00    0.2095296    0.1627965 -45.62  0.001017645    1.518    0.341
       115  -8.5156     85.7969    209.4455   8.4981962867e+01   2.0387261659e+01    0.2459196    0.1450277  86.15  0.001285342    1.907    0.476
       116  -8.3697     46.8335    209.5719   9.2516472501e+01   2.5696798649e+01    0.2333704    0.1072529  69.37  0.001165507    2.194    0.544
       117  -8.3103     32.6327    210.3800   9.5196593085e+01   2.7211144822e+01    0.1871731   0.09720872  68.60 0.0008662727    1.638    0.389
       118  -9.0855      6.0846    208.0053   9.9747338562e+01   3.0431943692e+01    0.3547983    0.1135426  79.29   0.00152688    3.614    0.723
       119  -9.2094    236.4509    207.5922   5.5303972807e+01  -5.4655669464e+00    0.3452491    0.2095611 -42.48  0.001498903    2.000    0.500
       120  -9.2676    246.4204    207.0164   5.3469357237e+01  -6.9940409523e+00    0.2420168    0.1910634 -13.39 0.0004851024    1.192    0.161
       121  -8.1027    156.4677    207.9463   7.0553109743e+01   8.6881760654e+00     0.179643     0.134035 -55.96   0.00100969    1.557    0.358
       122  -8.2387    139.2306    208.0670   7.4045002179e+01   1.1781403159e+01    0.2556254    0.1504409  63.96  0.001193561    2.035    0.509
       123  -7.9073    126.4189    208.2472   7.6666408702e+01   1.4005001929e+01    0.1697882    0.1217929 -79.45 0.0005826326    1.622    0.383
       124  -8.6138     57.0263    205.8581   9.0256029918e+01   2.5155446098e+01    0.4393431    0.1826695  73.18  0.001776387    3.438    0.709
       125  -9.2141     99.5346    206.0514   8.1834628760e+01   1.8929657739e+01    0.3703716    0.2026914  73.27  0.001189136    2.350    0.575
       126  -8.1273    109.2030    205.1771   7.9757488034e+01   1.7526564072e+01    0.1862226    0.1334834  71.10 0.0005824032    1.361    0.265
       127  -9.3671    194.7902    203.3208   6.2224462123e+01   2.4197102004e+00    0.3410709    0.2603208 -38.85  0.001250453    1.466    0.318
       128  -9.3767    192.5069    197.0507   6.1553269005e+01   3.8594955742e+00    0.3547516    0.2615239 -57.69 0.0008262385    1.764    0.433
       129  -8.8476    183.6575    203.6201   6.4441319207e+01   4.4188055500e+00    0.2907715     0.208573  64.28  0.001150707    1.770    0.435
       130  -9.6951    163.8645    202.8084   6.8243345137e+01   8.2329517965e+00    0.4754187    0.2561688  57.91  0.001374225    2.226    0.551
       131  -8.6128    131.1500    203.6311   7.5044210592e+01   1.4052512841e+01    0.2728053    0.1891665  80.45  0.001045241    1.777    0.437
       132  -9.4486    250.1593    201.7416   5.1863059724e+01  -6.8953258144e+00    0.3554518    0.1685162 -30.90  0.001392484    2.093    0.522
       133  -9.1884    243.2877    200.7062   5.2849857012e+01  -5.6517902280e+00    0.3157175    0.1959738 -36.86  0.001107449    1.731    0.422
       134  -8.4217    210.9205    201.6307   5.8857892174e+01  -2.3604539061e-01    0.2288003    0.1745632 -59.22  0.000817207    1.887    0.470
       135  -8.8877    140.6478    201.0771   7.2706154900e+01   1.2831006400e+01    0.3703694    0.2297729  71.87  0.001202786    2.242    0.554
       136  -8.1443     72.7846    202.0359   8.6774325178e+01   2.3791925251e+01    0.1577359   0.09201296 -72.57 0.0004188657    1.667    0.400
       137  -8.1482     48.4471    201.9552   9.1566367756e+01   2.7042707523e+01    0.1764176   0.08029392  81.08 0.0008081721    2.571    0.611
       138  -8.2389     10.5764    202.3571   9.8642801620e+01   3.1116943330e+01    0.2080814   0.04531568  47.62 0.0009458109    3.251    0.692
       139  -7.9922    222.1411    201.1617   5.6697457238e+01  -2.1461810472e+00    0.1592622    0.1565229 -64.02   0.00052138    1.363    0.266
       140  -8.5374     79.6763    200.6826   8.5235130812e+01   2.3073635768e+01    0.2690639    0.1459535  72.39  0.001307363    2.082    0.520
       141  -9.4115    149.5508    198.3870   7.0444940100e+01   1.1699560941e+01    0.4058497    0.2668951 -89.86  0.001343715    2.473    0.596
       142  -8.8068    123.9966    199.0242   7.5854651086e+01   1.6211029690e+01    0.3033235    0.1974401 -89.75  0.001476458    2.045    0.511
       143  -9.2489    237.0999    198.3181   5.3486026458e+01  -4.2987319104e+00    0.2571156    0.1706292 -37.43 0.0008032273    1.637    0.389
       144  -8.2316    177.0857    198.8407   6.4918579528e+01   6.4517761633e+00    0.2021077    0.1726857  65.62 0.0005380582    1.311    0.237
       145  -9.2104    112.7838    198.1259   7.8070103769e+01   1.8330869434e+01    0.4013062    0.2206306  68.63  0.001763794    2.370    0.578
       146  -9.0191     88.6896    198.2377   8.3102047371e+01   2.2220206983e+01     0.347516    0.1936673  77.80  0.001319601    2.234    0.552
       147  -8.3349    202.3527    197.6913   5.9764861504e+01   1.9297358706e+00    0.2343956    0.1955741  80.80  0.001165864    1.734    0.423
       148  -8.9537     61.3397    196.7330   8.8527746593e+01   2.6470073818e+01    0.4386918    0.2057072  75.21  0.001941261    2.713    0.631
       149  -7.9217     29.2981    197.6361   9.4884716390e+01   3.0156685751e+01    0.1260999   0.06511641  71.20 0.0007033169    1.720    0.419
       150  -8.2155     12.6645    196.8733   9.7931739148e+01   3.2018047161e+01    0.2485828     0.091924  77.37  0.001146015    2.907    0.656
       151  -9.6727    245.8340    193.5405   5.1063201363e+01  -5.0876740182e+00    0.3266622    0.2677899 -72.12  0.001773367    2.218    0.549
       152  -8.1613    133.0241    195.9702   7.3507402200e+01   1.5199438594e+01    0.2175335    0.1528255  74.90  0.000628384    1.672    0.402
       153  -7.9843     53.6708    196.3576   9.0029587881e+01   2.7548419207e+01    0.1350185   0.07318701  70.47 0.0005568127    1.787    0.440
       154  -7.7476     36.2951    196.6302   9.3467112401e+01   2.9586091379e+01    0.1282784   0.06769239  71.79 0.0007028171    1.728    0.421
       155  -8.7171    224.7142    194.0154   5.4898439464e+01  -1.5426301019e+00    0.2849559    0.1597915 -45.61  0.001016064    2.165    0.538
       156  -8.9074    185.1169    194.5438   6.2558490845e+01   5.6723228250e+00    0.2361034    0.1948063 -54.61 0.0006680099    1.434    0.303
       157  -8.9288    160.7570    193.9972   6.7402006682e+01   1.0408495348e+01    0.2755428    0.2051849  88.90 0.0009750982    1.868    0.465
       158  -8.0903    231.0155    194.0691   5.3768690106e+01  -2.6535452491e+00    0.1776837    0.1628599 -78.24  0.000618175    1.618    0.382
       159  -8.8180     76.9157    193.7171   8.5009049389e+01   2.4931464640e+01    0.2323774    0.1629173 -89.23 0.0005751305    1.338    0.253
       160  -8.9013     44.0712    193.3258   9.1661860773e+01   2.9369855956e+01    0.3740174    0.1657754  68.86  0.001758951    2.477    0.596
       161  -8.2218    205.3353    191.5302   5.8054312309e+01   2.3651808281e+00    0.2060817    0.1252379 -38.34 0.0005482281    1.766    0.434
       162  -8.3185    179.2998    191.4334   6.3162980073e+01   7.3226688550e+00     0.218639    0.1680321 -70.82 0.0006047084    1.766    0.434
       163  -8.4162    172.5879    191.5925   6.4553804480e+01   8.5840688560e+00     0.252554    0.1889404  82.54  0.000750667    1.926    0.481
       164  -9.1882    139.8858    190.6289   7.1211208491e+01   1.4988458865e+01    0.3966231     0.249993  78.87  0.001195173    2.455    0.593
       165  -8.8001    215.8910    195.3498   5.6775394081e+01  -1.7004064078e-01    0.2611986    0.1840571 -52.90 0.0008763309    1.909    0.476
       166  -8.3091    198.6860    191.1830   5.9272829203e+01   3.6688892979e+00    0.1939324    0.1674524 -57.50  0.000727661    1.428    0.300
       167 -10.3797     92.5055    188.7451   8.1096210317e+01   2.3615671622e+01    0.9410698    0.2683555  51.05  0.003160065    3.753    0.734
       168  -8.5671      6.5670    190.3293   9.8647543638e+01   3.3921721991e+01    0.2110591   0.08389469 -85.07  0.001125307    2.083    0.520
       169  -7.4991    210.3179    189.6409   5.6747470088e+01   1.7419678000e+00    0.1291495    0.1093245  88.98  0.000704383    1.759    0.432
       170  -8.2564    148.3588    189.0121   6.9145521163e+01   1.3710733976e+01     0.250193      0.17996  69.07 0.0009160115    1.607    0.378
       171  -8.7653    129.2526    188.5330   7.3146301871e+01   1.7368851296e+01    0.2874771     0.199732  76.86 0.0008549095    1.728    0.421
       172  -8.2342    237.2982    188.0992   5.1506842586e+01  -2.8710709589e+00     0.182384    0.1524523 -19.45 0.0006918682    1.168    0.144
       173  -8.8786    216.3973    187.5626   5.5204338033e+01   9.4770670961e-01    0.2489926    0.2275217 -75.17 0.0008667579    1.488    0.328
       174  -8.7874    191.5048    187.2134   5.9939878397e+01   5.7084145758e+00    0.2969345     0.224439 -74.65   0.00111314    2.014    0.503
       175  -9.0906    155.9346    187.2978   6.7249924951e+01   1.2592022742e+01    0.3152214    0.2193937 -66.08 0.0007846517    1.776    0.437
       176  -9.5819    120.7586    186.0116   7.4586357057e+01   1.9420377132e+01    0.4843976     0.261708 -74.80  0.001987114    2.683    0.627
       177  -8.9803     54.8269    186.7249   8.8840757578e+01   2.9448297540e+01    0.3707944    0.1829556  76.49  0.001732045    2.370    0.578
       178  -8.9996     34.0982    187.6619   9.3154290180e+01   3.1715670086e+01    0.2829094    0.1358461  75.54  0.001442955    2.116    0.527
       179  -9.4792    249.1036    185.3840   4.8931033708e+01  -4.4891904694e+00    0.3276296    0.2925977 -40.26  0.001534467    1.406    0.289
       180  -8.3227    230.2693    187.2175   5.2589690829e+01  -1.5088957997e+00    0.1643159    0.1568374 -56.03 0.0006395694    1.380    0.275
       181  -8.6198    164.9106    186.4790   6.5222532664e+01   1.1008693307e+01    0.2470212    0.1955973 -75.36 0.0007255765    1.586    0.370
       182  -9.0952    109.7382    186.0240   7.6986547598e+01   2.1348180238e+01    0.3878126    0.2374396  78.46  0.001280131    2.141    0.533
       183  -8.7926    210.0917    184.0605   5.5717210818e+01   2.6857768440e+00    0.2468524    0.1828205 -34.07 0.0005342962    1.409    0.290
       184  -8.6816    202.7483    184.2968   5.7175731403e+01   4.0430583901e+00    0.2372815    0.2038419  73.78 0.0007878969    1.515    0.340
       185  -8.6951    183.0983    184.7699   6.1166190492e+01   7.7689081941e+00     0.260919    0.2253237 -76.04 0.0008468161    1.449    0.310
       186  -9.1140     66.8609    184.4419   8.6056823287e+01   2.8346506829e+01     0.390483    0.1904707  64.40  0.001211028    2.273    0.560
       187  -8.4571    224.2613    183.3198   5.2921186890e+01   1.6919294328e-01    0.2129348    0.1778411 -28.38  0.000553795    1.226    0.184
       188  -8.8443    174.3246    183.5582   6.2734018315e+01   9.7095388690e+00    0.2693693    0.2281958  88.13 0.0008180431    1.465    0.317
       189  -8.9985     44.6314    182.2467   9.0513109596e+01   3.1672193075e+01    0.3435526    0.1646993  69.86 0.0009390044    2.264    0.558
       190  -8.1138      1.9156    183.4855   9.9097790072e+01   3.5738479643e+01    0.1472916   0.09302431  47.71  0.001020385    1.579    0.367
       191  -7.8486     19.3435    182.6569   9.5681347361e+01   3.4316992089e+01    0.1274598   0.06450473  69.25 0.0007047023    1.786    0.440
       192  -7.8920    235.3557    180.8200   5.0423776564e+01  -1.4494748327e+00    0.1841753    0.1150576 -22.46 0.0005841455    1.662    0.398
       193  -9.2737    147.3809    180.2021   6.7826082024e+01   1.5637604383e+01    0.3879163    0.2785978  76.71  0.001137899    1.767    0.434
       194  -8.8625    144.0454    179.4649   6.8419752529e+01   1.6431147783e+01    0.2151308     0.190099 -89.07 3.988946e-05    1.193    0.162
       195  -9.5055     25.6254    178.7072   9.4108698830e+01   3.4532856602e+01    0.6014388    0.2186784  80.19   0.00220507    4.281    0.766
       196  -8.5824    137.7807    179.1792   6.9739163770e+01   1.7690236992e+01     0.325299    0.2038058  64.92  0.001298462    1.903    0.474
       197  -8.6741    250.5276    172.4768   4.6122258398e+01  -2.8672012836e+00    0.2650017    0.1645389 -27.63 0.0008899599    1.519    0.342
       198  -9.4054    249.0018    177.0573   4.7302508847e+01  -3.2760352293e+00    0.3251809     0.272934 -58.93  0.001119534    1.717    0.417
       199  -8.4771    247.3061    173.6879   4.6913188864e+01  -2.4874423481e+00    0.2017895    0.1183278  41.03 0.0003699891    1.715    0.417
       200  -9.4292    191.5949    178.2470   5.8199200535e+01   7.2584252299e+00    0.3099428    0.2680026  88.13 0.0006228551    1.494    0.331
       201  -9.2016     36.2323    176.7383   9.1740984918e+01   3.3834006410e+01    0.5495334    0.2155446  78.83  0.002017421    4.093    0.756
       202  -8.4387    205.4352    177.6295   5.5346789332e+01   4.6487107057e+00    0.2419313    0.1334254 -44.43 0.0006274583    1.979    0.495
       203  -7.9027    169.4276    178.2565   6.2758075956e+01   1.1672309383e+01    0.1892207    0.1383361 -60.44 0.0005100922    1.621    0.383
       204  -8.7524    129.3209    177.2589   7.1276619024e+01   1.9685367993e+01    0.3493071    0.2150703  85.67  0.001025209    2.657    0.624
       205  -8.6321    231.2408    176.4506   5.0285636711e+01  -3.7529307489e-02     0.284078    0.1671743 -37.26   0.00109585    1.714    0.416
       206  -8.3151    217.3221    176.9665   5.2946881417e+01   2.4746612032e+00    0.1897357    0.1649791 -25.25  0.000462572    1.164    0.141
       207  -8.7048     89.1767    176.6352   8.0170289670e+01   2.6768783980e+01    0.2831886    0.1846358  74.30 0.0007168361    1.644    0.392
       208  -9.3270     58.9765    175.5023   8.6728583629e+01   3.1370450696e+01    0.4918688    0.2112015  66.32  0.001931423    3.238    0.691
       209  -9.3196     55.7507    170.5130   8.6859240143e+01   3.2900429158e+01     0.446189    0.2106658  83.19  0.001823219    2.981    0.665
       210  -8.7024     12.7695    176.4204   9.6520962416e+01   3.6264366528e+01    0.2103539     0.110444  85.78  0.001144177    1.595    0.373
       211  -7.9360    211.4981    176.0056   5.3855699108e+01   3.7479173850e+00    0.1850047     0.120817 -61.99 0.0007954095    2.481    0.597
       212  -9.0463    183.0639    175.6696   5.9424506039e+01   9.4253165687e+00     0.297158    0.2297298 -58.03 0.0009473494    1.527    0.345
       213  -9.2972    158.5711    174.6428   6.4386456230e+01   1.4543216528e+01    0.4129986    0.2869058 -88.26  0.001166349    2.226    0.551
       214  -9.3874    104.1178    174.4685   7.6481121721e+01   2.4797869044e+01     0.514567    0.2616392  67.95  0.001841087    3.039    0.671
       215 -10.6800     75.8753    169.9075   8.2242156914e+01   3.0290886981e+01     1.212439    0.4392572 -75.56   0.00376717    4.665    0.786
       216  -8.4624    224.6360    174.1697   5.1024558946e+01   1.5464127851e+00    0.2025227    0.1670028 -48.62 0.0005240493    1.437    0.304
       217  -9.4127    175.9127    171.9111   6.0166690988e+01   1.1573535320e+01     0.366372    0.2734331 -64.62  0.000973056    1.670    0.401
       218  -8.1334    143.0078    172.2727   6.7351437118e+01   1.8106891641e+01    0.2063222    0.1558445 -85.72 0.0007836211    1.630    0.387
       219  -9.0277     45.1171    171.0163   8.9262655705e+01   3.4086380643e+01    0.2958201    0.1620488  80.60  0.001367229    1.890    0.471
       220  -8.4406    205.9281    170.4024   5.3790801401e+01   5.7914622595e+00    0.2565961    0.1927096 -56.31 0.0006837816    1.656    0.396
       221  -8.2548    134.6438    171.3747   6.9055923290e+01   1.9917748105e+01    0.2179861    0.1597124  77.12 0.0006397359    1.616    0.381
       222  -9.4407    121.3567    170.2943   7.1873738143e+01   2.2652130320e+01    0.3565474    0.2462064 -89.81  0.001003331    1.813    0.448
       223  -8.5876    237.1658    169.5006   4.7815734925e+01  -3.9215130584e-02    0.2378868    0.1799367 -28.19 0.0006008439    1.268    0.212
       224  -8.8189    230.2375    169.2319   4.8994534616e+01   1.2864143751e+00    0.3702787    0.1689689 -41.64  0.001580702    2.276    0.561
       225  -8.2400    198.2106    169.8714   5.5198947048e+01   7.4275022097e+00    0.2073603    0.1939541  79.32 0.0007536132    1.258    0.205
       226  -8.5847    149.7829    169.4355   6.5319001604e+01   1.7352124227e+01    0.2767871    0.2155138  83.69 0.0008954387    1.559    0.358
       227  -8.4215    244.7516    169.1550   4.6426610880e+01  -1.3566903828e+00    0.1897575    0.1772188 -28.19  0.000572852    1.220    0.181
       228  -9.1895    167.1129    168.3381   6.1325067829e+01   1.4061549144e+01    0.3553689    0.2632613  74.54  0.001186622    1.751    0.429
       229  -8.7360     87.8796    168.9501   7.9352725866e+01   2.8687584184e+01    0.2478722    0.1805355  46.86 0.0007065291    1.351    0.260
       230  -8.4818    218.8761    168.1490   5.0856301106e+01   3.6312795214e+00    0.1946453    0.1923963  83.44 0.0005028493    1.215    0.177
       231  -8.8639    111.5510    167.3080   7.3615887770e+01   2.5084180530e+01    0.3012846    0.1994287  81.99 0.0008582098    1.910    0.476
       232  -8.9637    191.9190    166.4970   5.5767754600e+01   9.3154709092e+00    0.2875741    0.2048524 -45.60 0.0005042081    1.496    0.332
       233  -8.9055    185.1630    165.9355   5.7034087480e+01   1.0808586616e+01    0.4468336    0.1910923 -41.68  0.001495869    2.458    0.593
       234  -7.4954     27.6530    167.6947   9.2716122044e+01   3.6729925249e+01    0.1120384   0.08351045 -50.48 0.0004250479    1.696    0.410
       235  -9.5906    137.3377    164.5375   6.7183409830e+01   2.0848628803e+01    0.7061746     0.307568  59.03  0.002256206    3.563    0.719
       236  -9.9986     95.0841    162.6525   7.6696666024e+01   2.8954251953e+01    0.8796276    0.4520143  78.50  0.002866519    4.186    0.761
       237  -8.9932     20.5082    165.8953   9.4081604934e+01   3.7824999092e+01    0.3071204    0.1419331  61.95  0.001600432    2.156    0.536
       238  -8.1666    233.9647    164.9464   4.7437870869e+01   1.2722385561e+00    0.1940515    0.1666223 -65.71 0.0004902452    1.584    0.369
       239  -9.4723     33.7520    163.3638   9.0964045253e+01   3.7064211110e+01    0.4969353    0.1705227  54.50   0.00207932    3.192    0.687
       240  -8.6507    246.0682    162.9526   4.4918972665e+01  -6.4442015244e-01    0.2559698    0.1705638 -32.16 0.0006746146    1.413    0.292
       241  -8.4933    239.8609    163.8098   4.6164340238e+01   3.5559217815e-01    0.1725099    0.1614308 -56.30 0.0005264006    1.340    0.254
       242  -8.5700    212.9454    163.4058   5.0983860374e+01   5.6038910616e+00    0.2491322    0.1915762 -50.05 0.0004651459    1.481    0.325
       243  -8.5916    159.4370    164.0395   6.2134768068e+01   1.6497843993e+01    0.2594877    0.2008653  74.48 0.0008035809    1.548    0.354
       244  -9.0105     60.8468    160.1226   8.4399051166e+01   3.4603766750e+01    0.3772954    0.2120523  73.01   0.00144488    2.069    0.517
       245  -8.7478    204.9036    162.6225   5.2370991930e+01   7.3625204620e+00    0.2719246     0.203244 -47.66 0.0006444455    1.462    0.316
       246  -9.2649      3.2703    161.8563   9.7384608080e+01   4.0201889371e+01    0.3935141     0.154898  63.85  0.001955446    2.618    0.618
       247  -9.0146    177.4928    160.4248   5.7493093497e+01   1.3459910192e+01    0.3298597    0.2621835 -78.18  0.001074566    1.634    0.388
       248  -8.7915    151.7042    160.6948   6.3181155693e+01   1.8775278160e+01    0.2895873    0.2221097 -78.03 0.0009777768    1.594    0.373
       249  -9.8035    250.1526    157.6179   4.3114433478e+01  -5.6083718564e-01    0.3537601    0.1848392 -37.35 0.0008741464    1.807    0.447
       250  -8.7566    246.7218    155.3296   4.3203571047e+01   4.2067644873e-01    0.1946792    0.1730836  21.95 0.0005158879    1.131    0.116
       251  -8.5629    227.4447    158.7975   4.7309009355e+01   3.5203485214e+00    0.2605394    0.1869405 -57.21  0.001025663    1.850    0.459
       252  -8.3497    128.1187    158.6953   6.8202230714e+01   2.3913774319e+01    0.2479024    0.1965944 -75.83 0.0005918519    1.348    0.258
       253  -9.5057    106.1637    157.8530   7.3250592515e+01   2.8159987668e+01    0.5226833    0.3397468  75.70  0.001724893    1.932    0.482
       254  -8.6232    196.3512    157.7010   5.3017914679e+01   1.0018932591e+01     0.262714    0.2118414 -66.09 0.0007897943    1.551    0.355
       255  -9.0909    167.5690    157.1718   5.8942752645e+01   1.6195274839e+01    0.3606903    0.2651953 -79.87  0.001283746    1.901    0.474
       256  -8.5600    217.9518    156.4490   4.8552840971e+01   5.7995133336e+00    0.2666547    0.1880948 -51.20  0.000695915    1.647    0.393
       257  -8.2984    188.1959    157.2344   5.4578426688e+01   1.1819777098e+01    0.1975656    0.1731538 -73.13 0.0005215587    1.351    0.260
       258  -9.6698     81.6053    155.2602   7.8739247876e+01   3.2789627388e+01    0.4684977    0.3512522  87.26  0.001632058    1.321    0.243
       259  -8.6552    157.7935    156.0778   6.0871909246e+01   1.8475246298e+01    0.2321224    0.2018122  88.18 0.0007195575    1.279    0.218
       260  -9.1804    119.4474    154.9522   6.9540846171e+01   2.6399229270e+01    0.3962135    0.2688984 -79.00  0.001370492    1.797    0.444
       261  -9.3326     50.0217    155.1866   8.6305939731e+01   3.7095934707e+01    0.4432701    0.1917403  59.26  0.001872901    2.807    0.644
       262  -9.4165    237.0593    150.0435   4.3716310455e+01   3.0947753906e+00    0.4101041    0.1838957  38.91   0.00167742    2.419    0.587
       263  -8.7911    243.2720    149.6536   4.2568046449e+01   1.9663357790e+00    0.2833211    0.2246818 -46.67  0.001581249    1.384    0.277
       264  -8.5370    243.0048    154.7050   4.3699214639e+01   1.2097274839e+00    0.1838556    0.1687772  14.71  0.000383894    1.092    0.084
       265  -8.6210    239.7095    152.6940   4.3832046909e+01   2.1543534417e+00    0.2052017    0.1711727 -23.46 0.0002287417    1.114    0.102
       266  -8.7624    240.4697    145.4613   4.2130423450e+01   3.1831328688e+00    0.2266266    0.1559488 -50.11 0.0005604469    1.665    0.399
       267  -9.2574    242.9663    142.7740   4.1119166935e+01   3.1374757399e+00    0.2838875    0.2054374  30.10 0.0008751737    1.482    0.325
       268  -8.1164    204.8101    155.1141   5.0779696934e+01   8.7273488189e+00    0.2131836    0.1937742 -64.56 0.0005648555    1.277    0.217
       269  -8.6091    144.4715    154.7683   6.3624666784e+01   2.1512442293e+01    0.2833639    0.2239141  79.64 0.0007312808    1.469    0.319
       270  -9.5256     68.2689    153.7138   8.1735845465e+01   3.5085894310e+01     0.444663     0.233025  70.48  0.001368757    2.607    0.616
       271  -8.6479    232.9415    153.8152   4.5254830804e+01   3.2743758610e+00    0.2144361     0.168893  84.82 0.0007257754    1.994    0.498
       272  -9.6162    133.0180    152.8668   6.5909476056e+01   2.4237953526e+01    0.4587894    0.2988089  73.59   0.00122907    2.116    0.527
       273  -8.8677    133.6838    148.0346   6.4766026369e+01   2.5172494528e+01    0.2771718    0.2292648 -17.93 0.0008510407    1.579    0.367
       274  -7.8320     60.2851    152.6551   8.3515945234e+01   3.6402256270e+01    0.1382281   0.08903261  77.91 0.0004094046    1.645    0.392
       275  -9.7941     29.2489    150.0942   9.0587107658e+01   4.0522315171e+01     0.534473    0.2325292  81.47   0.00220754    3.139    0.681
       276  -7.9743     20.4582    152.5138   9.2858635292e+01   4.0804116312e+01    0.1219921   0.09223503  88.71 0.0002078823    1.049    0.047
       277  -8.8484      2.7923    150.7612   9.6636032089e+01   4.2654084329e+01    0.3111596    0.1191907 -75.56  0.001608992    1.984    0.496
       278  -9.5201    248.9290    149.1561   4.1515591635e+01   9.8266899458e-01    0.3267874    0.1804619 -33.25 0.0007376953    1.676    0.403
       279  -8.7246    189.4963    150.0381   5.2742110215e+01   1.2915745270e+01    0.2843082    0.2307371 -69.79 0.0007759731    1.522    0.343
       280  -8.1578    182.3963    151.1405   5.4464181391e+01   1.4230325304e+01    0.2088893     0.139921 -54.79 0.0009066788    1.703    0.413
       281  -8.7016     98.4279    150.5927   7.3837797324e+01   3.1162567705e+01    0.3158242    0.2041154  82.29  0.000854937    2.014    0.503
       282  -8.1758    213.0194    149.6623   4.7999590701e+01   7.9973324276e+00    0.1971373    0.1769062  39.19 0.0003979744    1.121    0.108
       283  -8.2008    162.4302    150.3340   5.8617008081e+01   1.8685264445e+01    0.2514433    0.1813289  67.99 0.0006781939    1.668    0.400
       284  -8.5299    198.6734    148.5304   5.0544431398e+01   1.1231547877e+01    0.2678314    0.2108141 -68.23 0.0007724857    1.629    0.386
       285 -10.0558     89.2991    146.0785   7.5302919133e+01   3.3723729959e+01    0.6937937     0.370496 -88.30  0.002443467    3.442    0.709
       286  -9.9787     39.7956    146.9860   8.7720551317e+01   4.0150643728e+01    0.6248308    0.3132999 -82.69  0.002593427    1.975    0.494
       287  -9.0993    233.6423    147.3741   4.3728545169e+01   4.2044261166e+00    0.3124179    0.1597917 -35.87 0.0009649901    1.863    0.463
       288  -9.2692     78.2084    146.8078   7.8208702686e+01   3.5272112512e+01    0.3300834    0.2033232  84.37  0.001020782    2.046    0.511
       289 -10.3445     55.0596    144.6669   8.3665092956e+01   3.8927226656e+01    0.7721294    0.3885155  76.65  0.002931873    3.022    0.669
       290  -9.8501     55.8077    135.4126   8.2088689732e+01   4.1008770455e+01    0.4093235    0.2707331  -3.90  0.001896728    2.937    0.660
       291  -8.3661    223.1659    146.6609   4.5444351361e+01   6.4313232089e+00    0.2313536    0.1874585 -44.38 0.0003796156    1.283    0.221
       292 -10.4086    148.8594    144.8687   6.0518169130e+01   2.2729610463e+01    0.6096185    0.4083606  88.96  0.001471825    2.420    0.587
       293 -10.2030    106.7494    143.5150   7.0444886559e+01   3.1346208825e+01    0.8444727    0.5338374 -74.76  0.002633439    1.887    0.470
       294  -9.5340     13.4788    146.1906   9.3841826227e+01   4.2826841704e+01    0.3260052    0.1709481  68.36  0.001548215    1.947    0.486
       295  -7.6934    206.5824    146.4511   4.8520871863e+01   9.9286443723e+00    0.1427176    0.1402521 -28.53 0.0008018069    1.070    0.066
       296  -8.0578    175.5200    146.0068   5.4792028148e+01   1.6738546576e+01    0.2208778    0.1494951 -46.18 0.0005076269    1.520    0.342
       297  -9.8629    139.1371    144.8380   6.2795442406e+01   2.4767521028e+01    0.4352501    0.2911412 -75.00  0.001306006    2.010    0.502
       298  -9.7782    125.0027    142.4959   6.5710519275e+01   2.8140044660e+01    0.4989654    0.3227566 -78.99  0.001444301    2.159    0.537
       299  -8.8923    247.0232    143.6117   4.0628366052e+01   2.2232014057e+00    0.2622162     0.185835 -34.14 0.0006078858    1.305    0.234
       300  -7.9384    194.4562    143.9312   5.0359378900e+01   1.3008705663e+01     0.206477    0.1281533 -63.15 0.0006602675    2.401    0.584
       301  -8.6128    165.5491    143.8054   5.6484245494e+01   1.9363720094e+01    0.2849941    0.2294634  83.13 0.0007485669    1.518    0.341
       302 -11.0016     69.4421    140.8571   7.9446071557e+01   3.7935062873e+01    0.7640964    0.4443043  88.95  0.003405475    2.225    0.551
       303  -9.6559     69.9977    133.8570   7.8117151670e+01   3.9511145701e+01    0.4500228    0.2875867   2.48  0.001867663    3.293    0.696
       304  -7.4424    230.6351    142.3011   4.3133617137e+01   5.6586723676e+00     0.139885    0.1135297 -77.74 0.0007034781    1.730    0.422
       305  -8.3566    182.0008    141.3087   5.2342931766e+01   1.6252739349e+01    0.2680534    0.2087286 -69.72 0.0006555424    1.592    0.372
       306  -9.2619      2.5674    141.3690   9.5904259697e+01   4.4740649287e+01     0.325016    0.1535094  78.20  0.001314362    2.134    0.531
       307  -8.2615    250.5561    140.7219   3.9420168509e+01   2.0148683188e+00     0.187493    0.1190292 -42.32 0.0005870404    1.549    0.354
       308  -7.9931    238.5363    140.4988   4.1364017429e+01   4.3789692596e+00    0.1401333    0.1277288 -14.88 8.850312e-05    1.006    0.006
       309  -8.6235    172.4113    138.1467   5.3679683307e+01   1.9015702124e+01     0.305006    0.2281676 -89.42 0.0009730142    1.871    0.465
       310  -9.9730     23.1786    137.7175   9.0657081497e+01   4.3916481201e+01    0.4469437    0.2193964  69.35  0.002079553    2.432    0.589
       311  -7.5417    218.5040    138.5075   4.4464123241e+01   8.8288771272e+00    0.1439459    0.1383686 -48.09 0.0008082056    1.113    0.101
       312  -8.3110    207.4919    137.5445   4.6318294739e+01   1.1365770880e+01    0.2536664     0.133956 -48.87 0.0007180902    2.097    0.523
       313  -8.5877    197.5077    137.3409   4.8231672081e+01   1.3592366104e+01     0.296751     0.220041 -69.76 0.0009117792    1.815    0.449
       314  -9.0237    150.1793    135.9016   5.8204430094e+01   2.4382101666e+01    0.4517046     0.287313  16.64  0.001639767    2.876    0.652
       315  -8.8838    156.0423    133.9921   5.6397311784e+01   2.3511422116e+01     0.301543    0.2582995 -12.02 0.0009278814    1.404    0.288
       316  -9.5340    152.8463    128.9295   5.5947960007e+01   2.5300003253e+01    0.5432026    0.2685958 -52.41 0.0009837536    2.197    0.545
       317  -9.3086    139.9674    136.6555   6.0802641592e+01   2.6397814265e+01    0.2443034    0.1928303  25.94  0.001159129    1.502    0.334
       318 -10.3695     83.3601    133.0862   7.4451609708e+01   3.7720156655e+01    0.5974401     0.372838 -66.47   0.00185179    1.549    0.354
       319  -8.9646    250.7405    129.6570   3.6946694944e+01   3.7557587157e+00    0.4985323    0.1171162 -34.67  0.001490075    4.066    0.754
       320  -9.0724    248.4992    134.8950   3.8469114723e+01   3.3442975222e+00    0.3029355    0.2027442 -37.64 0.0008063148    1.381    0.276
       321  -8.8001    246.9673    129.9860   3.7620528348e+01   4.4421208338e+00    0.3020348    0.1794437 -39.72 0.0005520647    1.561    0.359
       322  -8.1741    162.6488    136.1482   5.5388500378e+01   2.1596590231e+01    0.2397224    0.1891953 -66.05 0.0006112226    1.433    0.302
       323  -9.2009     39.1482    135.7837   8.6428148398e+01   4.2819410196e+01    0.2633761    0.1821655  80.10 0.0008474751    1.432    0.302
       324  -7.7110    187.7486    135.3788   4.9762991245e+01   1.6142029014e+01    0.1539259    0.1183331 -70.47 0.0004127848    1.651    0.394
       325  -7.6595    231.3967    134.1679   4.1166913926e+01   6.8888842213e+00    0.1977527     0.126421 -44.84 0.0003947958    1.579    0.367
       326  -8.6695    179.4228    133.8123   5.1148739048e+01   1.8323169808e+01    0.2868919    0.2357363 -85.45  0.000896303    1.503    0.335
       327  -8.9586    112.7925    132.9339   6.6743110449e+01   3.2679937857e+01    0.3342916    0.2466701  83.66  0.001005682    1.661    0.398
       328  -7.7095    237.5255    133.4990   3.9966326251e+01   5.7491365612e+00    0.1406765    0.1303544 -30.75 0.0008093923    1.061    0.058
       329  -9.2936    143.0523    131.4799   5.8876923821e+01   2.6881542300e+01    0.3892572    0.2575571 -66.85  0.000864732    1.873    0.466
       330  -9.9662    132.2993    131.2416   6.1447223940e+01   2.9201798186e+01    0.5235435    0.3415534 -83.64  0.001104716    2.441    0.590
       331  -9.9082     97.7670    129.1372   6.9853316287e+01   3.6281911923e+01    0.6375372     0.223111 -51.76  0.002246265    2.686    0.628
       332  -9.9607     12.9527    128.9058   9.2198013287e+01   4.6769750302e+01    0.4819104    0.2189936  77.92  0.001913834    2.776    0.640
       333  -8.1028    204.4454    130.1761   4.5184102984e+01   1.3401779930e+01    0.2098642    0.1384262 -50.04 0.0007191719    1.621    0.383
       334  -8.0870    192.8165    130.0292   4.7456091116e+01   1.6041732566e+01    0.2440742     0.168867 -64.67 0.0005726215    1.901    0.474
       335  -9.2623    168.3262    129.4327   5.2528230314e+01   2.1723656228e+01    0.3165404    0.2523294 -75.45 0.0005863046    1.517    0.341
       336  -9.8732     73.0177    128.6864   7.6383030249e+01   4.0307452022e+01    0.4655938    0.2403866 -71.20  0.001204699    2.110    0.526
       337  -7.9499      1.6656    130.2930   9.5113246515e+01   4.7264223512e+01    0.1168171   0.07000065  71.31 0.0007024935    1.639    0.390
       338  -7.6341    220.5065    129.5473   4.2030455112e+01   9.9923776013e+00    0.1452953    0.1385856 -16.95 1.997117e-05    1.005    0.005
       339  -8.2041    211.5114    128.9217   4.3540082132e+01   1.2066941830e+01    0.2247943    0.1415912 -41.16 0.0007419042    1.549    0.355
       340 -10.6672     45.3009    123.8235   8.3050906374e+01   4.4960262307e+01     1.006192    0.4925981  78.66  0.003706722    3.836    0.739
       341 -10.5037     60.2040    125.0356   7.9195845508e+01   4.2907965575e+01    0.7229086    0.3972108  78.20  0.002894375    2.949    0.661
       342  -9.0988     59.1988    115.2412   7.7681600686e+01   4.5345198778e+01    0.4043317    0.2448999 -22.68  0.001732069    2.959    0.662
       343  -9.9352    117.9421    124.7480   6.3594087105e+01   3.3569848994e+01    0.5967931    0.4053641 -77.77  0.001515993    1.938    0.484
       344  -9.0105    179.2427    124.5656   4.8963306289e+01   2.0220070609e+01    0.3136452    0.2436164 -82.81  0.000801632    1.680    0.405
       345  -8.5774     84.7004    122.9542   7.2085756674e+01   3.9900515971e+01    0.4893039    0.3025096 -20.11  0.001842719    3.387    0.705
       346 -10.5205     28.4750    122.0237   8.7321578519e+01   4.7058769770e+01    0.7458049    0.3893309  87.07  0.003578893    2.280    0.561
       347  -9.6906     26.5721    113.8125   8.6664819397e+01   4.9124087992e+01    0.3817353    0.1958591   5.25  0.001722167    3.666    0.727
       348  -7.8392    244.1698    124.1307   3.6745945052e+01   5.9648584919e+00    0.1903947    0.1547702 -51.53 0.0004314643    1.301    0.232
       349  -8.0992    188.5614    123.7766   4.6815120088e+01   1.8228506856e+01     0.217254    0.1427804 -52.13 0.0009070734    1.643    0.391
       350  -7.8409    195.4380    121.9326   4.4970229296e+01   1.7001728506e+01     0.217334    0.1266566 -60.31 0.0006517261    2.418    0.586
       351  -8.8305    171.9644    121.3922   4.9758427465e+01   2.2543244675e+01    0.2860718    0.2119305 -58.40 0.0005063629    1.488    0.328
       352  -8.8793    158.6086    121.2898   5.2745309385e+01   2.5632845090e+01    0.3172664    0.2420489 -81.86 0.0007841292    1.697    0.411
       353  -9.9212    131.2711    118.7263   5.8740247594e+01   3.2213046150e+01     0.552727    0.3572636  84.52  0.002009151    2.723    0.633
       354  -9.6329     71.2096    120.0157   7.5221330520e+01   4.2614918314e+01    0.3373971    0.2224813 -87.97  0.001114959    1.867    0.464
       355 -10.0962    141.6376    117.8329   5.5930703904e+01   3.0176589525e+01    0.6513901    0.3281727 -52.67  0.001891794    2.120    0.528
       356  -9.7603      3.0041    117.0330   9.3429488585e+01   5.0141784264e+01    0.4544888    0.2037645  76.30  0.002138036    2.845    0.648
       357  -7.9878    231.4258    117.2612   3.7243033587e+01   9.7886148925e+00    0.2025961    0.1276139 -45.70   0.00093137    1.565    0.361
       358  -9.8218    109.4809    114.0587   6.3314387456e+01   3.7649177625e+01    0.5191308    0.3283871 -72.63  0.001653181    2.122    0.529
       359  -9.1065    108.8891    107.4193   6.1836877836e+01   3.9269339626e+01    0.3624529    0.2383828 -29.26  0.001140918    1.956    0.489
       360  -7.9946    185.6093    115.7620   4.5435124029e+01   2.0484420702e+01    0.2143152    0.1429378 -50.14 0.0004892973    1.561    0.359
       361 -10.0990     92.8196    112.5237   6.7547390063e+01   4.1007130109e+01    0.4953434    0.3050948 -71.13  0.001228621    1.981    0.495
       362 -10.0301     78.9582    112.3714   7.1443361585e+01   4.3275349501e+01    0.5536908    0.3409766 -83.07  0.001674087    2.323    0.570
       363  -8.1154    167.4028    114.2645   4.8972109115e+01   2.5062734931e+01    0.2165246    0.1469935 -52.04 0.0004422094    1.543    0.352
       364 -10.0263    133.7851    108.9937   5.5641437010e+01   3.3818927236e+01    0.6710369    0.3216929 -50.95   0.00201032    2.160    0.537
       365 -10.1226    122.0622    111.7674   5.9388056331e+01   3.5680672966e+01    0.5681055    0.3755366 -48.31  0.001627712    1.479    0.324
       366  -8.5680    174.8311    111.5952   4.6653265009e+01   2.3854164262e+01    0.3015648    0.1950138 -57.67 0.0006221409    1.804    0.446
       367  -8.9490    159.1003    111.5601   5.0161975503e+01   2.7558309373e+01    0.2928172    0.2109976 -59.76 0.0005109404    1.551    0.355
       368 -10.2685     66.2568    110.2085   7.4646280308e+01   4.5604711290e+01     0.409544    0.2829292 -76.54   0.00137376    1.534    0.348
       369  -9.8647     14.4498    110.7017   8.9592262082e+01   5.0796756715e+01     0.464173    0.2050076 -84.89  0.002143051    2.473    0.596
       370  -7.9785    241.6781    117.3216   3.5581562333e+01   7.6089335724e+00    0.1436166    0.1076281 -65.54 0.0003713152    1.675    0.403
       371 -11.2807    248.6550    105.5577   3.1784208184e+01   8.1023330089e+00    0.7840624    0.3524175 -33.01  0.003229105    2.097    0.523
       372  -7.9583    189.3580    107.3018   4.2514278762e+01   2.1236371487e+01    0.2225083    0.1393674 -47.80 0.0007846609    1.625    0.385
       373  -9.8707    119.1712    105.8153   5.8632390392e+01   3.7595765355e+01    0.3065378    0.2113665 -47.00  0.001178139    1.413    0.292
       374 -10.4344    108.7411     98.6176   5.9592698565e+01   4.1262304012e+01    0.6357576    0.4154174  71.25  0.001109542    2.323    0.570
       375  -8.8726    107.5937     92.6445   5.8290938907e+01   4.2790369636e+01    0.5232612     0.276146  27.05  0.001889703    2.913    0.657
       376 -10.7675     23.0147    102.5505   8.5957125815e+01   5.2002312648e+01    0.6835237    0.3611024  74.40  0.002380499    2.819    0.645
       377  -9.2560    139.7624    104.2652   5.2886000994e+01   3.3519700689e+01    0.3702459    0.2653398 -64.01 0.0008935418    1.626    0.385
       378  -8.8269     93.2856    104.6551   6.5535845675e+01   4.2737216262e+01    0.3322835    0.2209453  -8.05  0.001073769    2.811    0.644
       379  -8.8161     78.3075    104.8449   6.9937968986e+01   4.5122791121e+01    0.2573216    0.1860173 -11.02  0.001225598    2.059    0.514
       380 -10.5257     45.7366    102.1211   7.9096606583e+01   4.9977505104e+01    0.6935532     0.382306  75.42  0.002833208    3.301    0.697
       381  -8.3558    193.1067    114.7718   4.3661300939e+01   1.8916289142e+01    0.2725131    0.1977971 -50.16 0.0005872995    1.417    0.294
       382  -8.5102    166.7532    104.0789   4.6456828210e+01   2.7284956757e+01    0.2442955    0.2073454 -66.49 0.0005828622    1.273    0.214
       383  -9.5095    150.5659    102.7851   4.9846943628e+01   3.1366322319e+01    0.4397484    0.2759113 -63.08  0.001054395    2.081    0.520
       384  -9.4619      6.5348    102.5536   9.0727939460e+01   5.3166828505e+01     0.266216    0.1603148 -85.57   0.00113018    1.518    0.341
       385  -9.5775    128.4051    101.8581   5.5140730526e+01   3.6528914282e+01    0.3356223    0.2662712  77.85 0.0009791905    1.526    0.345
       386  -8.4782    159.7780    100.8952   4.7178072052e+01   2.9589369329e+01    0.2890989    0.2104976 -60.64  0.000631464    1.554    0.357
       387  -9.1946     81.9782     99.7627   6.7639886338e+01   4.5719791028e+01    0.3491234    0.2491381 -88.23 0.0009502356    1.909    0.476
       388  -9.3561     95.1312     96.8403   6.3016045550e+01   4.4179283073e+01    0.3419546    0.2357061 -62.52 0.0006194568    1.548    0.354
       389 -10.1312     64.0151     95.7235   7.2127453624e+01   4.9251852810e+01    0.5482218    0.3418683  85.35  0.001749743    2.783    0.641
       390  -7.8621    175.5919    101.8411   4.3934393383e+01   2.5605824165e+01    0.2200907    0.1439806 -51.26 0.0005012385    1.607    0.378
       391  -8.3145    176.5214     93.2522   4.1422026728e+01   2.7040800111e+01    0.2861012    0.1470387 -44.21 0.0005895381    1.940    0.485
       392  -8.3050    164.8934     93.8987   4.4106668291e+01   2.9755316823e+01    0.2845961    0.2072865 -48.27 0.0006441821    1.388    0.280
       393  -8.1360    151.5117     94.5082   4.7349085694e+01   3.2840442310e+01    0.1556974    0.1533061   8.90 0.0001605835    1.057    0.054
       394  -7.5393    188.7083     93.3541   3.8980717668e+01   2.4029118368e+01    0.1629969    0.1190751 -69.44    0.0007029    1.681    0.405
       395  -9.1736    139.1777     92.2159   4.9711907128e+01   3.6172945982e+01    0.3662525    0.2580961 -65.28 0.0007523539    1.755    0.430
       396 -10.1910    124.0308     90.9811   5.3286272947e+01   3.9784015184e+01     0.563614    0.4018003  42.99  0.001124819    1.439    0.305
       397  -9.7222     34.8755     89.6569   7.9990488365e+01   5.3908409713e+01      0.46449    0.2583487 -85.61  0.001524086    2.552    0.608
       398  -9.4342      5.3763     91.7612   8.9567249015e+01   5.5639566081e+01    0.2399613    0.1559901  74.74  0.001043082    1.786    0.440
       399  -7.7714    157.8203     91.5939   4.5060600406e+01   3.1917937401e+01    0.2156306     0.150676  64.82 0.0005455305    1.599    0.375
       400  -8.8759     42.9754    109.1649   8.1231558543e+01   4.8638266806e+01    0.2845636    0.1587337   6.43  0.001259202    3.240    0.691
       401  -8.1017    150.8737     88.8086   4.5889809757e+01   3.4130836363e+01    0.2148505    0.1846513 -78.32 0.0003621694    1.308    0.236
       402 -10.0054     86.4326     85.9472   6.2684651443e+01   4.8072578651e+01    0.5570586    0.3589522 -69.59  0.001595006    2.082    0.520
       403  -9.2153     46.1328     92.4240   7.6986782952e+01   5.2154315470e+01    0.3638641    0.2135691  -0.32   0.00165004    2.960    0.662
       404  -8.5120     70.5705     85.8692   6.7628023030e+01   5.0555583571e+01    0.2170192    0.1700026  42.31   0.00120611    1.424    0.298
       405  -9.6929     48.4928     84.1851   7.4366000866e+01   5.3744419848e+01     0.442987    0.2891735  75.14  0.001704362    2.466    0.595
       406  -7.5209    179.3406     85.6683   3.8755011030e+01   2.7767300570e+01    0.1658471    0.1210891 -75.01 0.0007051495    1.747    0.428
       407  -9.6767    104.8755     83.0317   5.6330344296e+01   4.5363179783e+01    0.4115402     0.303914 -77.54 0.0008286686    1.893    0.472
       408  -9.0096    249.7706     80.9425   2.5888547437e+01   1.1822835705e+01    0.1910877    0.1065722 -34.87 0.0007700439    1.643    0.391
       409  -8.2535    158.0795     83.8419   4.2793619466e+01   3.3359744628e+01    0.2346036    0.2039979 -73.42 0.0005455973    1.256    0.204
       410  -9.0264    140.8489     82.4617   4.6469959762e+01   3.7743474775e+01    0.3682232    0.2163887 -47.08  0.000831968    1.742    0.426
       411  -7.3906    185.3109     82.3119   3.6643537434e+01   2.6890338020e+01    0.1558738    0.1229475  17.73   0.00033222    1.628    0.386
       412  -8.3759     63.9927     82.3354   6.8819768808e+01   5.2246599790e+01    0.1816466     0.169892 -51.80 0.0005470847    1.069    0.065
       413  -9.0155     22.7110     90.0467   8.3929859625e+01   5.4853687783e+01    0.3461405    0.1861768 -40.95  0.001368655    1.898    0.473
       414  -9.6506     24.8003     80.3653   8.1391428965e+01   5.6840098426e+01    0.4435125    0.2625305 -89.11  0.001591821    2.331    0.571
       415  -9.3569      9.7372     80.8171   8.6452252619e+01   5.7789434693e+01    0.3122388    0.1744494  65.73  0.001467148    2.669    0.625
       416  -8.9049     74.6077     80.1442   6.4785008630e+01   5.1206241409e+01     0.334364    0.2199044 -69.10  0.001042828    1.946    0.486
       417  -8.0593    150.4075     80.2474   4.3512626759e+01   3.5904125831e+01    0.2196649    0.1435463 -49.74 0.0007971912    1.608    0.378
       418  -8.8249    119.4475     79.9363   5.1290740104e+01   4.3031489751e+01    0.2788571    0.2324878 -78.96 0.0008362519    1.462    0.316
       419  -8.2784    166.9879     79.3542   3.9538580597e+01   3.2005197853e+01    0.2169976    0.1975069  62.74  0.000435445    1.093    0.085
       420  -7.9922    184.1954     78.0206   3.5668720444e+01   2.7935157637e+01    0.2121445    0.1203977 -36.19  0.000856517    1.765    0.433
       421  -7.6904    175.0000     77.9753   3.7474579906e+01   3.0253403610e+01    0.2471754   0.08828155 -36.48 0.0003854113    2.811    0.644
       422  -7.7109    189.4831     75.9914   3.4106614596e+01   2.6961243575e+01    0.2262514    0.1185157 -56.45 0.0008091623    2.448    0.591
       423  -7.8441    157.1289     76.1550   4.0760827200e+01   3.5033343176e+01    0.2143048    0.1825269 -74.08 0.0004620751    1.310    0.236
       424  -8.6847    140.7529     75.4156   4.4380798401e+01   3.9120559659e+01     0.305384     0.192466 -55.61 0.0008305765    1.868    0.465
       425  -9.2275    128.1106     75.1622   4.7510841683e+01   4.2077014143e+01    0.3598168    0.2586053 -65.49 0.0005997815    1.781    0.439
       426  -8.0911    205.7805     75.1986   3.1020173189e+01   2.3027526198e+01    0.1958714    0.1772999   9.94 0.0003960666    1.297    0.229
       427  -9.8071     82.5390     72.4741   5.9996610224e+01   5.1563066837e+01    0.4667298    0.2864887 -65.53 0.0009526827    2.319    0.569
       428 -10.0064     63.3205     73.4321   6.6613716144e+01   5.4251146017e+01    0.4728664    0.2499042 -60.15  0.001223951    2.079    0.519
       429  -8.0660     10.3374     75.3030   8.5260599704e+01   5.8950948898e+01    0.1231073   0.06800808 -42.10 0.0007038154    1.668    0.400
       430  -8.4043    163.4949     73.3804   3.8545001510e+01   3.3959457340e+01    0.3062753     0.151408 -38.01 0.0009735111    2.022    0.505
       431  -8.5257    115.6623     72.6273   5.0090062746e+01   4.5276908829e+01    0.2740078    0.1796828 -44.44  0.000534006    1.511    0.338
       432  -8.1574     42.7335     72.5899   7.3463711963e+01   5.6893952265e+01    0.2110634    0.1458308 -75.65 0.0006168301    1.751    0.429
       433  -7.7677    175.6123     72.1944   3.5697021573e+01   3.1123046214e+01     0.208922    0.1501272 -23.49 0.0005339989    1.589    0.371
       434  -9.4043    105.8879     71.6192   5.2564123235e+01   4.7477421946e+01    0.2795809    0.2042095 -49.87 0.0005412538    1.403    0.287
       435  -9.3173     95.1941     70.9008   5.5539361361e+01   4.9669023822e+01    0.4022362    0.2299477 -56.26  0.001118685    2.095    0.523
       436  -9.1953     28.7687     70.5701   7.7875971998e+01   5.8641550890e+01    0.5227047    0.2233357 -25.01  0.001868076    4.831    0.793
       437  -9.4959     51.5011     69.3517   6.9531830019e+01   5.6606745361e+01    0.4354032    0.2261079 -66.11  0.001475236    2.507    0.601
       438  -8.8294     16.6267     69.8707   8.2008802916e+01   5.9714469814e+01    0.2677125    0.1767425 -84.41  0.001051525    1.789    0.441
       439  -8.9575    147.2524     67.9001   4.0521177518e+01   3.8943391793e+01    0.3595379    0.2266026 -46.76  0.001021069    1.656    0.396
       440  -8.6545    138.6964     65.7115   4.1876506540e+01   4.1386232294e+01    0.2998565    0.1915671 -45.82 0.0006447222    1.625    0.385
       441  -8.9056    110.0505     63.4543   4.8729734765e+01   4.8186504332e+01    0.2689527    0.1975424 -54.75 0.0005734881    1.548    0.354
       442  -8.7527    102.7206     63.6042   5.0917057173e+01   4.9641670801e+01    0.2658099    0.2269471 -55.08 0.0006246525    1.285    0.222
       443  -8.7784     37.2831     63.8748   7.3119249273e+01   5.9280488384e+01    0.2262663    0.1792222 -80.74   0.00139189    1.581    0.368
       444  -8.5340     64.5263     62.9624   6.3085502845e+01   5.6237177259e+01    0.2706213    0.1545655  -8.05  0.001030836    3.514    0.715
       445  -8.0417     17.3335     63.3170   8.0304208698e+01   6.1051509431e+01    0.1264092   0.06950948 -37.92  0.000364255    1.691    0.409
       446  -8.3507     52.1419     61.6855   6.7086674476e+01   5.8109236494e+01    0.2655964    0.1523917  -5.27  0.001140843    3.016    0.668
       447  -9.0646     97.3437     60.3108   5.1442684973e+01   5.1298685450e+01    0.2506778    0.2395763  72.59  0.000673692    1.218    0.179
       448  -9.6176     73.3960     59.2164   5.8825478669e+01   5.5661210616e+01    0.3591417    0.2212045 -53.91  0.001177766    1.775    0.437
       449  -8.1202     89.1481     59.2564   5.3644366460e+01   5.3013676118e+01    0.1860993    0.1653036 -69.35 0.0006465885    1.382    0.276
       450  -8.9854    121.6733     65.8748   4.6293228456e+01   4.5255557335e+01    0.3174558    0.2130239 -51.61 0.0006941889    1.649    0.393
       451  -8.3711    130.7153     57.5621   4.1224876549e+01   4.4677070585e+01      0.24372    0.1733398 -56.29  0.000655197    1.668    0.401
       452  -9.9202     23.5294     56.2196   7.6220130704e+01   6.2060111290e+01    0.3956608    0.2560014  88.15  0.001998719    2.732    0.634
       453  -9.5260      7.4942     56.7533   8.2474762639e+01   6.3026088278e+01    0.2829795    0.1774181 -80.24  0.001226507    1.861    0.463
       454  -8.1342    139.9846     55.9654   3.8445470577e+01   4.2750871263e+01    0.2289708    0.1785189 -69.42 0.0005159731    1.587    0.370
       455  -9.2365    119.2386     55.3765   4.3478252429e+01   4.7651123683e+01    0.3713569    0.2272958 -47.84  0.001525808    1.801    0.445
       456  -8.6998     44.0311     55.3937   6.8165503303e+01   6.0301436581e+01    0.2254581     0.165472 -63.15  0.001009474    1.543    0.352
       457  -9.3074     62.8134     53.6484   6.0674498966e+01   5.8288377872e+01     0.520906    0.1749787 -50.17  0.001705476    3.060    0.673
       458  -9.0955     53.9981     53.6028   6.3873859726e+01   5.9473736218e+01    0.3614872    0.1747128 -55.31  0.001394848    2.265    0.559
       459  -8.4189    105.9693     53.0155   4.6375190059e+01   5.0886228181e+01    0.2204524    0.1769146 -72.53 0.0006286288    1.711    0.415
       460  -8.0108    163.3286     52.7100   3.2347340681e+01   3.7472038631e+01    0.1543293    0.1155913 -75.26 0.0002883982    1.620    0.383
       461  -9.5139     92.5001     50.5212   4.9561620605e+01   5.3966522850e+01    0.3590367    0.2355699 -53.19  0.001052382    1.860    0.462
       462  -8.4959     74.4594     51.8081   5.5947460947e+01   5.6879386576e+01     0.257276    0.1653103  -2.05  0.001188463    2.231    0.552
       463  -8.4849    144.8459     48.8415   3.5011980062e+01   4.2705051744e+01    0.2047803    0.1723426 -62.07 0.0004800832    1.328    0.247
       464  -8.4517    129.9203     49.1209   3.8603419580e+01   4.6246526017e+01    0.2196793    0.2012219 -78.95 0.0005849981    1.241    0.194
       465  -8.3983    120.8716     47.1863   4.0234979818e+01   4.8629952941e+01    0.2090249    0.1982418 -64.07 0.0005659167    1.181    0.154
       466  -8.3706    112.1985     46.6841   4.2386358694e+01   5.0621881780e+01    0.2342067    0.1865524 -44.04 0.0005787963    1.341    0.254
       467  -8.9170     82.0370     46.0002   5.1307325219e+01   5.6635865280e+01    0.2747692     0.189916 -47.63 0.0008215025    1.580    0.367
       468  -8.3716     45.0406     44.4527   6.4215513134e+01   6.2278015641e+01    0.2149805     0.159709 -56.34 0.0005975693    1.518    0.341
       469  -8.8432     16.8837     44.5004   7.5620857784e+01   6.4881510266e+01    0.2002979    0.1441016 -67.69 0.0005789102    1.547    0.354
       470  -8.3754    132.8195     43.1111   3.5857794877e+01   4.6484128319e+01    0.2182665    0.1959164 -68.16 0.0004690802    1.265    0.209
       471  -9.2844     69.6203     41.3164   5.3842246001e+01   5.9484713884e+01    0.3473432    0.2403084 -56.38  0.001147319    1.936    0.483
       472  -8.6486     58.4314     42.5928   5.8408696594e+01   6.0915766672e+01    0.2504075    0.1976954 -73.40 0.0009681429    2.034    0.508
       473  -9.6071      5.2211     41.9009   7.9739660185e+01   6.6116384458e+01    0.3116032    0.1783843 -74.35  0.001356762    2.148    0.534
       474  -8.7043     93.0174     41.9812   4.6293807270e+01   5.5286054310e+01     0.223763    0.1585547   6.68 0.0006924845    1.681    0.405
       475  -8.9158    105.8218     40.8276   4.2061179427e+01   5.2892024125e+01    0.2665025    0.1870923 -43.18 0.0005769231    1.538    0.350
       476  -8.7386     36.8415     40.5639   6.6153163699e+01   6.3888739114e+01     0.218549    0.1494066 -61.43 0.0007092507    1.822    0.451
       477  -7.9150    160.6382     39.7608   2.8843900693e+01   4.0074004650e+01     0.206594    0.1304304 -42.35 0.0004552981    1.647    0.393
       478  -9.3258    150.9641     39.6333   3.0706689028e+01   4.2541390738e+01    0.2246266    0.2000924   7.73 0.0003862079    1.237    0.191
       479  -8.5143     95.7225     37.8937   4.3930912727e+01   5.5394562626e+01     0.244258    0.1784623 -47.36 0.0008435288    1.586    0.370
       480  -8.1911     80.8425     36.5234   4.8137360275e+01   5.8390111908e+01    0.2175198    0.1475478 -37.50 0.0006162087    1.459    0.315
       481  -7.9673    133.5806     35.8223   3.3174687067e+01   4.7345048604e+01    0.1969409    0.1308981 -42.81 0.0006047913    1.626    0.385
       482  -9.3399     26.2268     34.7358   6.8576511773e+01   6.5966248797e+01    0.3902061    0.1726751 -52.61  0.001536704    2.063    0.515
       483  -7.9355    125.9952     35.4714   3.4828705553e+01   4.9189180659e+01    0.2054144    0.1349033  54.62 0.0003192668    1.463    0.316
       484  -8.6323    111.8052     34.4727   3.8067164189e+01   5.2540581586e+01    0.2431494    0.1908431 -26.99 0.0004970095    1.294    0.227
       485  -8.3931    119.4730     32.9938   3.5540928773e+01   5.1032661764e+01    0.2059463    0.1358747 -32.34 0.0006126809    1.562    0.360
       486  -8.4791     60.9246     32.5202   5.3625799610e+01   6.2248375932e+01     0.219826    0.1638256 -47.07 0.0006003164    1.547    0.354
       487  -8.8649     48.5252     32.8234   5.8565329903e+01   6.3897770767e+01    0.2171885    0.1850379 -42.95 0.0007296056    1.329    0.247
       488  -8.8351     72.3834     31.1759   4.8919638059e+01   6.0659951080e+01    0.2222235    0.1856995 -55.30 0.0007385249    1.610    0.379
       489  -9.2042    175.6283    247.5858   7.2647701094e+01  -8.4280873382e-01      0.27764    0.2077861  76.11  0.001268046    1.971    0.493
       490  -7.8480     42.3195     29.6813   5.9866323860e+01   6.5177516491e+01    0.1057921   0.09701715 -73.23 0.0003443189    1.662    0.398
       491  -8.7703     81.6351     27.4066   4.4252835492e+01   5.9596718928e+01    0.2591794    0.1975383 -59.31    0.0010047    1.965    0.491
       492  -8.9498      3.4016     26.8995   7.6155264831e+01   6.9026178085e+01    0.2544597    0.1472429 -65.41  0.001242916    1.951    0.488
       493  -8.6587     91.8862     26.2814   4.0570844912e+01   5.7807640805e+01    0.2163879    0.1751989 -36.46 0.0006319706    1.347    0.258
       494  -8.1902     34.9276     22.9808   6.0316495613e+01   6.7104535060e+01     0.158064    0.1476215 -80.97 0.0006744328    1.745    0.427
       495  -8.2757    104.0418     22.7409   3.5687141532e+01   5.5766094194e+01    0.1740905    0.1105663  52.04 0.0008782017    1.520    0.342
       496  -8.9260     63.6733     20.7079   4.7689869365e+01   6.3584366774e+01    0.2802685    0.1675056 -42.00  0.001055533    1.878    0.467
       497  -8.6919     48.4364     21.3786   5.3912343989e+01   6.5711132663e+01    0.2096156    0.1810506 -22.60 0.0006796321    1.203    0.169
       498  -8.0542     19.4306     21.2305   6.6634521955e+01   6.8891112551e+01    0.1483727   0.09523673 -51.15 0.0005482915    1.600    0.375
       499  -7.7322    120.7021     20.3908   3.0610210519e+01   5.2335441211e+01    0.1396603    0.1036496 -62.14 0.0007011127    1.791    0.442
       500  -8.9016     74.1329     19.3176   4.3377062202e+01   6.2026111163e+01    0.2299901    0.1689993 -34.16 0.0006891384    1.436    0.304
       501  -8.4986    101.4296     28.8732   3.8799817124e+01   5.5526719865e+01    0.2472042    0.1240461 -35.17  0.000826193    2.026    0.506
       502  -7.9240     38.9699     18.4529   5.6632426553e+01   6.7341669244e+01    0.1329498    0.1029426  56.17 0.0004788195    2.288    0.563
       503  -7.8844    187.4007     17.5242   1.7900576298e+01   3.5984563822e+01    0.1375789    0.1256845  85.50 -3.025494e-05    1.026    0.025
       504  -8.2708    112.5704     16.9345   3.1239427603e+01   5.4579527931e+01     0.189935     0.130196 -21.53 0.0003807023    1.533    0.348
       505  -8.0318     87.9589     17.4645   3.8148717922e+01   5.9694902813e+01    0.1850525    0.1204264  48.20  0.000332777    1.503    0.334
       506  -8.0938     30.0362     15.9694   5.9529714424e+01   6.8720414651e+01    0.1504173    0.1429703 -63.78 0.0008112428    1.697    0.411
       507  -8.7094    156.4342    248.2473   7.6190704371e+01   2.2095137786e+00    0.2916376    0.1445934  59.83  0.001315828    2.704    0.630
       508  -7.6509     17.2757     13.6813   6.4577961167e+01   7.0292497006e+01    0.0936876   0.08386313 -50.21 0.0002349118    1.572    0.364
       509  -8.8311    132.3273    247.8770   8.0491724208e+01   6.1843689424e+00    0.2703953    0.1723069  80.21 0.0008861197    2.162    0.537
       510  -8.3114    113.1654    248.4327   8.3976676517e+01   9.1245606486e+00    0.2026609    0.1194073  89.26  0.001112059    2.336    0.572
       511  -9.1818    243.1634    246.0407   6.0626170457e+01  -1.1158182965e+01     0.361675    0.1788886 -21.26  0.002033076    2.345    0.574
       512  -8.6952    218.6218    246.9604   6.4949214530e+01  -7.6183771967e+00    0.2831842    0.1333941 -36.51  0.001552237    2.532    0.605
       513  -8.9731    103.6996    246.3245   8.5446326684e+01   1.0924479628e+01    0.3986756    0.1932559 -81.29  0.001905463    3.225    0.690
       514  -9.1008    224.6561    245.6763   6.3712348239e+01  -8.3880700488e+00    0.2324683    0.1597248  13.69  0.001128471    1.372    0.271
       515  -9.6798    223.4993    242.0239   6.3350992623e+01  -7.7823315446e+00    0.2393114    0.2141049 -59.03  0.001407304    1.780    0.438
       516  -9.2222    210.8627    246.2690   6.6197744554e+01  -6.3336423700e+00    0.2035304    0.1665691 -56.11 0.0008075864    1.877    0.467
       517  -9.3524    146.9814    245.7755   7.7596679234e+01   4.1261321731e+00    0.2997432    0.1770753  68.38  0.001364503    2.359    0.576
