#   1 NUMBER                 Running object number                                     
#   2 MAG_AUTO               Kron-like elliptical aperture magnitude                    [mag]
#   3 X_IMAGE                Object position along x                                    [pixel]
#   4 Y_IMAGE                Object position along y                                    [pixel]
#   5 X_WORLD                Barycenter position along world x axis                     [deg]
#   6 Y_WORLD                Barycenter position along world y axis                     [deg]
#   7 A_WORLD                Profile RMS along major axis (world units)                 [deg]
#   8 B_WORLD                Profile RMS along minor axis (world units)                 [deg]
#   9 THETA_WORLD            Position angle (CCW/world-x)                               [deg]
#  10 FWHM_WORLD             FWHM assuming a gaussian core                              [deg]
#  11 ELONGATION             A_IMAGE/B_IMAGE                                           
#  12 ELLIPTICITY            1 - B_IMAGE/A_IMAGE                                       
         1 -15.8650    216.2465     75.7571   6.5064321786e+01   2.0707571581e+01     3.969377     2.448488 -87.72   0.01051445    2.807    0.644
         2 -13.7684    232.3122      3.0558   4.2980060573e+01   2.6196996093e+01     1.077307    0.3007063  54.74  0.003712239    3.487    0.713
         3 -14.7388    222.1282     23.4977   4.9583652803e+01   2.6528687792e+01      1.56728    0.8314701  10.87  0.005274512    3.930    0.746
         4 -18.3766    241.8791     44.8277   5.2946998690e+01   1.8846116777e+01     7.720195     6.636029  -9.36   0.02713948    1.270    0.213
         5 -11.3259    134.8939     18.7715   6.2246758843e+01   4.9613138392e+01    0.7234566    0.5397499   5.31  0.002462779    1.435    0.303
         6 -11.3455    142.5418     13.4837   5.8669661101e+01   4.8362227184e+01     1.091855    0.3591048 -19.11   0.00263956    3.634    0.725
         7  -8.8125    155.1322     14.3757   5.6604780027e+01   4.5113136148e+01    0.2245491    0.1847249   2.88 0.0006583647    1.283    0.220
         8  -9.4498    125.8029     14.0678   6.2454966718e+01   5.2292316431e+01    0.2838763    0.2313589  23.78  0.001341382    1.168    0.144
         9 -11.8835    118.9236      9.8596   6.2360476703e+01   5.4325176183e+01    0.7262136    0.4541084  38.55  0.002739343    1.516    0.340
        10  -9.0370    208.7413     13.7344   4.8428726426e+01   3.1128348401e+01    0.2504301     0.175914 -32.42 0.0008499512    1.432    0.302
        11 -11.2497     52.0508      7.7412   8.2029643141e+01   6.6770946804e+01    0.7075675    0.3425055  12.21  0.002801246    4.128    0.758
        12 -10.0093    205.0377      8.4263   4.7329945251e+01   3.2665220282e+01    0.3808699     0.193521  48.16   0.00157553    2.037    0.509
        13 -14.4703    220.4746     40.4280   5.4538500463e+01   2.4813695913e+01     1.065856     0.476064 -28.13  0.002473382    2.216    0.549
        14 -10.2382    249.1996      4.6912   4.1898839060e+01   2.1876555726e+01    0.1908156    0.1694012 -89.11 0.0002886158    1.091    0.083
        15  -9.2427    123.9844    205.9980   1.1062120159e+02   1.6883155581e+01     0.169268    0.1374814  61.34  0.001140184    1.015    0.015
        16  -8.5313    247.6755    201.7290   8.8175100280e+01  -4.3405394755e+00    0.1249954   0.07716519  19.90 0.0002723753    1.575    0.365
        17 -10.6674    185.0036    168.8983   9.3244241491e+01   1.1972291266e+01     0.276231    0.2009535 -56.65  0.001454402    1.677    0.404
        18  -9.3731    154.9832    168.6746   9.9110011795e+01   1.7951231689e+01    0.3381619    0.2056906  68.04  0.001348226    2.177    0.541
        19 -11.3926    202.1840    166.0228   8.9422065378e+01   8.9684926069e+00    0.5716169    0.3865797  60.63  0.001757256    1.736    0.424
        20  -9.1439    203.4714    160.5409   8.8076040317e+01   9.5766221303e+00    0.3134556    0.2344054 -67.03  0.001572986    1.946    0.486
        21  -8.9226     89.3023    170.0718   1.1266982269e+02   2.9025722372e+01    0.1651972    0.1335312 -88.55 0.0002668509    1.094    0.086
        22 -10.1019    157.5329    161.1534   9.7223962756e+01   1.8834488825e+01    0.2895116    0.2309805 -67.27  0.000815129    1.412    0.292
        23 -10.7166    188.3723    157.4001   9.0325140357e+01   1.3219387344e+01    0.3959448    0.2550783  69.35  0.001339383    2.242    0.554
        24 -11.1200    190.9391    150.4239   8.8374150698e+01   1.3874988132e+01    0.7154786    0.3338565 -58.51  0.002186917    4.717    0.788
        25  -8.5573    146.2937    156.9903   9.8766230999e+01   2.1825170597e+01     0.184142    0.1725826  84.71  0.000248838    1.057    0.054
        26  -9.3133    191.4146    181.6509   9.4394275911e+01   8.6578271142e+00    0.2482521    0.2149834 -84.82 0.0008216447    1.490    0.329
        27  -9.8855    169.8362    155.6019   9.3649025346e+01   1.7371880318e+01     0.270754    0.2043641  74.56 0.0007424803    1.626    0.385
        28  -9.4800     89.3188    155.0577   1.1058463980e+02   3.2104901148e+01    0.2320607    0.1619316  61.42 0.0006787953    1.369    0.270
        29 -11.6747     50.1384    151.7341   1.1848510176e+02   3.7962941619e+01    0.2930043    0.2822171 -64.27  0.000830295    1.422    0.297
        30 -13.9231     62.3501    145.8199   1.1513975948e+02   3.7763902835e+01     1.423757     1.240966   5.56  0.005274639    1.772    0.436
        31 -11.0948    195.3273    168.8621   9.1268778970e+01   9.9012077710e+00    0.2800813     0.259479  89.57  0.001692002    1.292    0.226
        32  -9.0756    155.4964    153.5034   9.6181924678e+01   2.0675831490e+01    0.2013695    0.1279834  56.57 -9.503901e-05    1.591    0.371
        33  -9.5633    152.4142    151.1900   9.6374291105e+01   2.1736157965e+01    0.3157457    0.2180495 -72.69 0.0008551926    1.882    0.469
        34  -9.4734    150.4750    147.0203   9.5957661989e+01   2.2933998372e+01    0.2875037     0.206948 -57.05  0.001301935    1.482    0.325
        35 -10.8686    197.7834    179.3939   9.2802315535e+01   7.7659695682e+00    0.4938597    0.3617049  -2.00  0.002291404    1.763    0.433
        36  -9.6916    207.5983    148.8697   8.4843680013e+01   1.0598650523e+01    0.5619668    0.3224472  73.88  0.001819458    4.445    0.775
        37 -10.6463    175.5350    149.0588   9.1158160477e+01   1.7375351866e+01    0.4656529    0.2555771  48.09  0.001656969    1.718    0.418
        38  -9.2998    136.0893    140.8445   9.7841462115e+01   2.7012174030e+01    0.2798415     0.248296 -86.00  0.001593109    1.130    0.115
        39 -10.1366    133.7633    146.3584   9.9433028588e+01   2.6338023873e+01      0.76818    0.1950381 -52.73  0.002303391    4.380    0.772
        40  -9.4703    132.5730    137.7713   9.8004605366e+01   2.8321578367e+01    0.5000829    0.1589872 -49.12  0.001709795    3.175    0.685
        41  -9.9849    144.4907    146.4832   9.7132411362e+01   2.4232577095e+01    0.2188926    0.1278941  55.83 0.0009824795    1.762    0.433
        42 -12.3245    188.7452    138.7456   8.6263023711e+01   1.6391142935e+01    0.9567668    0.5052543  56.24  0.001674778    2.075    0.518
        43  -9.3015    191.9201    144.1317   8.6826797792e+01   1.4753891843e+01    0.2508073    0.2127653  65.71 0.0004516314    1.301    0.232
        44 -11.5536    210.3869    135.7014   8.1383044164e+01   1.2161440993e+01    0.7376825    0.5541481  84.06  0.003463433    2.010    0.502
        45  -9.1432    197.3706    120.3698   8.0245038353e+01   1.7714721949e+01    0.2564925    0.2425246  13.55  0.001402023    1.045    0.043
        46  -9.4474    194.1554    118.3710   8.0387114920e+01   1.8810518990e+01     0.279557    0.2152118  71.62  0.001004844    1.574    0.364
        47 -11.5005    203.0923    126.1624   8.0534851195e+01   1.5399492429e+01    0.6355549    0.4058385 -50.32  0.001902433    1.812    0.448
        48 -10.3330    206.0000    122.9605   7.9210443369e+01   1.5289360925e+01    0.3304099    0.1969128 -43.50 0.0009003911    1.761    0.432
        49 -10.5415    165.7416    135.2836   9.0224212006e+01   2.2032604755e+01    0.3667836    0.1771571 -34.12   0.00129912    2.557    0.609
        50 -10.8593    191.0849    131.8540   8.4225148494e+01   1.7100980084e+01    0.4563845    0.2119511  54.72  0.001033444    2.316    0.568
        51 -10.4673    135.9210    127.8313   9.5155091083e+01   2.9722454763e+01    0.6762551    0.2194774 -50.41  0.002246995    3.184    0.686
        52  -9.0834    135.0803    119.8929   9.3570141154e+01   3.1541036462e+01    0.3066873    0.1829361 -51.73 0.0009281593    1.680    0.405
        53 -10.4179    134.7297    109.6569   9.1220142322e+01   3.3744751725e+01     1.158446    0.1875795 -46.24  0.002683277    6.083    0.836
        54  -9.3816    133.0432     99.5794   8.9074150298e+01   3.6181400409e+01    0.3051274    0.2264239 -75.71  0.001238348    1.722    0.419
        55 -10.1601    198.4120    130.9055   8.2560675074e+01   1.5630877941e+01    0.2973419    0.2366192  87.07 0.0008719415    1.704    0.413
        56 -11.6657    160.1695    129.0878   9.0025840235e+01   2.4432020978e+01    0.4992727    0.4395789   1.81  0.002525148    1.342    0.255
        57 -13.1355    184.8595    121.4368   8.3007466033e+01   2.0392097723e+01      1.25499    0.9849644  67.49  0.006160493    1.448    0.310
        58 -11.7625    162.8822    120.4999   8.7424470446e+01   2.5522452942e+01    0.6893077    0.4517207 -58.97  0.002304748    1.811    0.448
        59 -11.6025    168.3510    114.2650   8.4708863831e+01   2.5508042966e+01    0.6956116    0.5958335  44.01  0.003210237    1.160    0.138
        60  -9.7995    153.0351    124.8621   9.0623228289e+01   2.6797558260e+01    0.4097212     0.283696 -77.29  0.001785153    2.066    0.516
        61 -11.6089    198.4571    174.4791   9.1758624920e+01   8.3905155938e+00    0.6575512    0.3040247  60.29  0.002357123    3.516    0.716
        62 -11.7592    122.0999    102.1905   9.2452826899e+01   3.7838041738e+01     0.864047    0.4903424 -68.28  0.003279524    2.721    0.632
        63  -9.6910    125.8054    115.0164   9.4642419990e+01   3.4401914745e+01    0.3360051    0.2012833 -64.99   0.00141652    2.043    0.510
        64 -10.7570    127.9619    111.5174   9.3297974654e+01   3.4718476056e+01     0.420233     0.322683 -63.18  0.001140582    1.353    0.261
        65  -8.6268     97.2379    128.2208   1.0430644279e+02   3.6627363096e+01    0.1853946    0.1462142  82.11 0.0004850613    1.315    0.240
        66 -13.4121     23.6165    164.2614   1.2498571725e+02   3.8140405933e+01      0.87521    0.7943553 -75.98  0.006979899    1.444    0.307
        67 -10.0447    118.1983    109.2263   9.5142638436e+01   3.7090105153e+01    0.1977749    0.1653037  84.96 0.0004341181    1.326    0.246
        68 -10.0473    145.6508    104.3466   8.7296073424e+01   3.2528775400e+01     0.269818    0.2546776   2.82  0.000447068    1.155    0.134
        69 -12.5483     10.7082    171.2756   1.2786410169e+02   3.7928294128e+01      0.96342    0.3926371  86.98  0.005404363    2.197    0.545
        70 -10.2530    174.6523     89.9830   7.6921761873e+01   2.8616063602e+01    0.2719187    0.2337884  45.48 0.0003177341    1.166    0.142
        71  -9.7444    165.4939    100.5726   8.1795299266e+01   2.8802362117e+01     0.272858    0.2382305  38.50 1.387266e-05    1.168    0.144
        72 -11.7465    168.4815     93.5792   7.9242923463e+01   2.9428796500e+01    0.8202626    0.7290549 -11.34  0.002040774    1.211    0.174
        73  -8.2171     34.7533     99.3283   1.1500124380e+02   5.0886731784e+01    0.1170074   0.07847565  88.67 0.0003231562    1.542    0.351
        74 -10.3798    138.7300     95.0994   8.6498120133e+01   3.5895964758e+01    0.3980899    0.3081031 -45.99  0.001389298    1.262    0.208
        75 -10.6934    151.8111     91.3799   8.2374007514e+01   3.3736703406e+01    0.3360253    0.2915926 -53.91 0.0005057431    1.177    0.151
        76  -9.1862     84.0033     91.7104   9.9913900209e+01   4.6693976575e+01    0.1848781     0.168696 -62.30 0.0004448981    1.033    0.032
        77 -10.9979    154.2565     99.9205   8.4141038570e+01   3.1506956324e+01    0.5343479    0.3711261  40.40  0.002454067    1.508    0.337
        78  -8.1333     79.7217     76.6856   9.7303153781e+01   5.0546940686e+01    0.1337772   0.09728616 -27.29 0.0002563687    1.568    0.362
        79 -10.9559    101.4712     71.6394   8.9558107723e+01   4.8037405881e+01    0.2884488    0.2380196 -63.18  0.001573243    1.324    0.245
        80 -11.2494    108.9192     67.4950   8.6198232570e+01   4.7479857934e+01    0.4551603    0.2477991 -22.07  0.001677213    2.950    0.661
        81 -11.2843    100.0176     63.2393   8.7378022893e+01   4.9953675445e+01    0.3712826    0.3080561  16.27  0.002058243    1.353    0.261
        82  -9.4330    104.4760     56.4704   8.3881581457e+01   5.0410968016e+01    0.1413218    0.1304472 -29.76 7.264945e-05    1.034    0.033
        83 -10.9751    121.1424     44.6204   7.5172805205e+01   4.9099521039e+01    0.5439059    0.1930217 -31.21  0.001397311    2.947    0.661
        84 -12.2049    123.0473     37.6421   7.2145529512e+01   4.9781616723e+01    0.7274716    0.4790771 -43.08  0.003492107    1.608    0.378
        85 -10.7336    111.0842     38.3066   7.5566507628e+01   5.2223013752e+01    0.4163259    0.1901961 -26.70  0.001636351    2.376    0.579
        86  -9.5706     91.9877     34.9426   7.9840034099e+01   5.6436275530e+01    0.2080857    0.1795113 -21.20 0.0004540815    1.047    0.044
        87 -11.9714      6.2679    155.7107   1.2761827707e+02   4.1354446720e+01    0.9110448    0.4155445  89.75  0.005511667    1.790    0.441
        88  -9.6586    126.2025     31.3804   6.9026760148e+01   4.9994941775e+01    0.2357521    0.1931071  -8.12  0.001263349    1.214    0.176
        89  -9.5167    112.4011     29.7862   7.1963396169e+01   5.3233256838e+01    0.1986515    0.1277483 -17.08 0.0008239942    1.625    0.385
        90 -10.1458    179.4849     25.5496   5.6193014909e+01   3.7494916563e+01    0.7607676     0.451834  78.53  0.002168164    1.980    0.495
        91  -9.6726     53.8516     27.3083   8.9803083489e+01   6.3524843742e+01    0.2168725    0.1461503 -44.18 0.0008060375    1.388    0.279
        92 -10.5176    192.2255    193.7722   9.6361366144e+01   6.6734963731e+00    0.7900314    0.4059693 -63.72  0.002579118    6.038    0.834
        93 -10.6038    126.8249     26.1724   6.6907584923e+01   5.0566964349e+01     0.292837     0.261413  59.41 0.0008699105    1.224    0.183
        94 -10.8034    127.5979     22.2697   6.5231464294e+01   5.0895269691e+01    0.3986356    0.2707517  62.86  0.001959947    1.625    0.385
        95 -10.0264     78.6489     22.2346   7.8959839676e+01   6.0702862514e+01    0.4512022    0.1017018 -37.84  0.001480953    3.999    0.750
        96 -10.6099    223.6483    192.2089   9.0513764173e+01   1.0502613630e+00    0.2388662     0.230186  41.77  0.001122988    1.278    0.217
        97 -12.5175    213.2938    186.4747   9.1290262017e+01   3.7506190110e+00     0.815554    0.5356529  37.37  0.004165912    1.331    0.249
        98 -10.4902    207.0537    184.5961   9.2064746997e+01   5.2028058181e+00    0.3484952    0.2013466  29.60 0.0006026042    1.847    0.459
        99  -8.0314    154.3248    189.6777   1.0272751919e+02   1.4385200287e+01    0.1319237   0.09382947  74.63 0.0004844643    1.683    0.406
       100  -8.9859    200.1905    188.1747   9.3948908534e+01   5.9907823937e+00    0.1741893    0.1441926  59.12 0.0004294595    1.324    0.245
       101 -10.4564    245.0551    182.4234   8.5044331876e+01  -1.5884560574e+00    0.4199808    0.3254143  72.43  0.002019159    2.180    0.541
       102  -8.6457    244.9782    244.2817   9.5492480567e+01  -8.2510161579e+00    0.1528761    0.1053098  31.86 0.0003242241    1.070    0.066
       103 -10.0716    138.7920    230.7464   1.1097506880e+02   1.0575287564e+01    0.1895533    0.1626149  50.67 0.0004107965    1.179    0.152
