#   1 NUMBER                 Running object number                                     
#   2 MAG_AUTO               Kron-like elliptical aperture magnitude                    [mag]
#   3 X_IMAGE                Object position along x                                    [pixel]
#   4 Y_IMAGE                Object position along y                                    [pixel]
#   5 X_WORLD                Barycenter position along world x axis                     [deg]
#   6 Y_WORLD                Barycenter position along world y axis                     [deg]
#   7 A_WORLD                Profile RMS along major axis (world units)                 [deg]
#   8 B_WORLD                Profile RMS along minor axis (world units)                 [deg]
#   9 THETA_WORLD            Position angle (CCW/world-x)                               [deg]
#  10 FWHM_WORLD             FWHM assuming a gaussian core                              [deg]
#  11 ELONGATION             A_IMAGE/B_IMAGE                                           
#  12 ELLIPTICITY            1 - B_IMAGE/A_IMAGE                                       
         1 -13.3128    223.5259      6.5801   3.5309496135e+01   2.9130843750e+01     1.199974    0.8577703  58.39  0.004871562    1.528    0.346
         2 -14.2898    196.5921     37.3531   4.5867496410e+01   3.1905499491e+01     2.458604     1.584044  14.66    0.0107546    2.633    0.620
         3  -9.7906    189.5766     15.0938   4.0737445305e+01   3.6221547806e+01    0.2223953    0.1977036  36.52 0.0009868552    1.310    0.237
         4 -10.6631     74.1031     13.0186   6.3467778715e+01   6.3281265355e+01    0.3568135    0.2143974  62.89   0.00173439    2.452    0.592
         5 -11.8450    109.6206    200.8715   1.0421306654e+02   1.8087394588e+01    0.5696432     0.304256 -44.31  0.001971276    2.276    0.561
         6 -10.6236    139.9829    249.1604   1.0426048456e+02   4.4325700361e+00    0.3020031    0.2611673  65.67  0.002097178    1.293    0.227
         7 -10.6371    125.1683    249.1610   1.0711749207e+02   6.6531476341e+00      0.28206    0.1992153 -73.49  0.001751906    1.830    0.453
         8  -9.7187    107.2149    250.2273   1.1066833614e+02   9.0986575324e+00    0.1710292    0.1430623  40.44 0.0007715441    1.147    0.128
         9 -19.5133     12.2216    160.8756   1.2218012280e+02   3.9224854377e+01     18.72811     4.020292 -78.35   0.06027155    4.666    0.786
        10  -8.6887    106.6734    242.3332   1.0994704838e+02   1.0537196188e+01    0.1277684   0.07924978  63.12 0.0003359176    1.714    0.417
        11  -9.3201     96.1383    201.3912   1.0729618754e+02   2.0069787424e+01    0.2611782    0.1696861 -88.70  0.001310003    1.874    0.466
        12  -9.1054     87.8247    204.1492   1.0948422160e+02   2.0714309470e+01    0.3248364    0.1733037 -77.74  0.001366122    2.279    0.561
        13 -10.8549    204.5658    199.3567   8.3575596142e+01   2.1102441183e+00    0.4382251    0.1859033  32.33  0.001810982    2.399    0.583
        14  -9.6142    120.0458    194.0415   1.0083810479e+02   1.7825288204e+01    0.2030115    0.1914973  56.62 0.0003810832    1.019    0.019
        15  -9.2896    133.3746    195.5664   9.8058613415e+01   1.5246236335e+01    0.2465978    0.1738702 -49.88 0.0006595193    1.521    0.343
        16  -9.1057    158.0610    235.4902   9.8906122261e+01   3.8281943252e+00    0.1793492    0.1700981 -19.08   0.00096943    1.213    0.176
        17  -8.3598    168.8502    233.8722   9.6526975099e+01   2.3803544657e+00    0.1634284    0.1351218  47.26 0.0004119637    1.275    0.216
        18 -10.3217    149.1170    187.5811   9.3133181231e+01   1.4096478571e+01     0.370407    0.2262415  52.98  0.001338655    1.826    0.452
        19 -10.7164    167.8736    220.8910   9.4734128155e+01   4.6577601789e+00    0.2080556    0.1662465  12.72  0.001103107    1.258    0.205
        20 -10.8335     99.0094    181.1040   1.0375366001e+02   2.4090508861e+01    0.3814586    0.2966788  -3.59     0.001897    1.870    0.465
        21 -10.3540    143.9010    178.0029   9.2564721871e+01   1.7031217781e+01    0.3793431    0.2322589 -43.95 0.0009623142    1.712    0.416
        22 -10.3020    189.3513    177.3728   8.2368332383e+01   8.6545529044e+00    0.5303648    0.3556723 -56.77  0.002480103    1.975    0.494
        23  -9.1419    149.5204    177.2638   9.1124441812e+01   1.6146594314e+01    0.2386775    0.1452273 -52.80 0.0002424273    1.777    0.437
        24 -11.6646    183.9193    211.6134   8.9926448914e+01   3.5490494592e+00     0.510075    0.4458658   5.69   0.00317381    1.069    0.065
        25 -10.1321    139.0029    170.3026   9.2248361336e+01   1.9591122545e+01    0.3950805     0.228424  39.86  0.001296829    1.682    0.405
        26 -11.7571    193.7899    200.4524   8.5931230994e+01   3.7570240769e+00     1.566724    0.8091457 -40.62  0.007329984    2.029    0.507
        27  -9.2907    240.4630    169.4588   7.0892401153e+01   9.3802210096e-01    0.1352591     0.114228 -12.00 9.659176e-05    1.017    0.016
        28  -8.6657    229.6924    165.6743   7.2015786407e+01   3.3938282855e+00    0.1434618   0.09841581  -1.83 0.0004489069    1.652    0.395
        29  -9.5316    187.6353    162.7103   7.9652238231e+01   1.1762825342e+01    0.3581385    0.2195303 -53.51   0.00155318    1.989    0.497
        30 -11.7690     52.1736    156.1587   1.1181228621e+02   3.6489557471e+01      0.57195     0.343349  61.22  0.001859145    1.834    0.455
        31 -11.5612     93.2698    151.8647   1.0028947003e+02   3.1877950164e+01    0.7065926    0.4831319 -37.34  0.003339218    1.715    0.417
        32 -10.8357    133.8824    145.7113   8.8411422423e+01   2.6074097900e+01     1.224634    0.3267017 -54.59  0.002956117    5.393    0.815
        33  -9.5228    187.0530    151.3010   7.7250127594e+01   1.4106173482e+01    0.2124168    0.1946042  23.05 0.0006629472    1.084    0.078
        34  -8.6183    112.5242    150.5320   9.4946710067e+01   2.8947161014e+01    0.1479873    0.1438992 -81.16 0.0001333839    1.004    0.004
        35  -9.1697    174.8448    149.1451   7.9417590530e+01   1.7028325910e+01     0.227918    0.2138709 -80.61 0.0007006117    1.246    0.197
        36  -8.5904    109.6366    147.8654   9.5166107549e+01   3.0091019860e+01      0.20604    0.1389165 -66.40 0.0003223807    1.620    0.383
        37 -10.7792    105.6394    138.1360   9.4210026956e+01   3.3123022866e+01      0.56522    0.3412477 -32.68  0.002303885    2.137    0.532
        38 -11.6106     93.5255    137.8606   9.7502325158e+01   3.5240676942e+01    0.2924742     0.271796 -33.67 0.0005055771    1.142    0.124
        39 -10.3838    105.9712    130.7198   9.2484404028e+01   3.4845057559e+01    0.3949111     0.328317 -59.29  0.001244496    1.180    0.152
        40 -10.2914    135.7890    128.8448   8.3992867146e+01   2.9536482701e+01    0.6871785    0.1750372 -46.67  0.001871784    3.842    0.740
        41  -9.4036    135.0000    121.3534   8.2327942809e+01   3.1391535430e+01    0.5988908   0.09356072 -46.52  0.001255146    6.335    0.842
        42 -10.5963    113.6408    129.1360   8.9990195528e+01   3.3821646838e+01    0.3548605    0.3011665  -7.72 0.0008393955    1.388    0.279
        43  -9.1857    160.4001    127.7660   7.7628509344e+01   2.4564242208e+01    0.3762858    0.1969389 -44.78  0.001459479    1.882    0.469
        44 -10.3735    101.1119    124.9993   9.2549884678e+01   3.7076879141e+01    0.3211844    0.2516639 -22.89  0.000759339    1.508    0.337
        45 -11.0149    119.8115    122.8050   8.6767785825e+01   3.4128423377e+01    0.5607079    0.3730568 -11.05  0.002156502    2.488    0.598
        46  -9.3989    109.1921    118.4023   8.8651657427e+01   3.7185887348e+01    0.2519543    0.2058272 -48.30 0.0003306869    1.172    0.147
        47 -10.0643    231.1805    113.6789   6.0056036796e+01   1.2050711012e+01    0.2791575    0.2640125  65.03 0.0007709995    1.219    0.180
        48  -9.1735    167.6920    112.6837   7.2058543930e+01   2.6101350479e+01    0.3185631    0.2318597 -79.71  0.001321611    2.079    0.519
        49  -9.2410    134.6030    112.2687   8.0061988332e+01   3.3501182327e+01    0.3919538    0.1487205 -42.73  0.001264433    2.594    0.614
        50 -11.4911    118.2158    110.0362   8.3933886496e+01   3.7381177853e+01    0.6443505    0.4612553  60.85  0.002206046    1.723    0.420
        51  -9.3713    205.5856    110.1171   6.3617347819e+01   1.8087665962e+01    0.2716739    0.2187353  41.74 0.0007020084    1.327    0.246
        52  -9.6751    134.5132    106.4720   7.8513976028e+01   3.4790833849e+01      0.31395     0.151414 -46.82 0.0008229925    2.062    0.515
        53 -10.2828     65.4264    104.8497   9.8763267933e+01   4.7472903275e+01    0.4368501    0.2782848  -0.44  0.001917793    2.384    0.581
        54 -10.3217    107.6292    210.9585   1.0602870072e+02   1.6323288845e+01    0.3882916    0.2158986  32.91  0.001892909    1.819    0.450
        55  -9.2729     63.2718     99.7357   9.8263941620e+01   4.8980467696e+01    0.3568382    0.1775928  17.54  0.001395565    2.927    0.658
        56 -11.6059     51.2548     89.6342   9.9922744667e+01   5.2832005620e+01    0.4248633    0.3019055  30.47  0.000954741    1.592    0.372
        57  -8.6444    156.3668     82.1579   6.6092063992e+01   3.4737482447e+01    0.2200244    0.1393836 -46.80  0.000407963    1.628    0.386
        58  -8.0854    161.3115     88.6843   6.6876805073e+01   3.2335255664e+01    0.1581204    0.1234712 -74.67 0.0002960449    1.638    0.389
        59 -15.3690     72.4948    150.8063   1.0565895350e+02   3.5223631146e+01     7.939267     3.979213  83.50   0.01080892    4.854    0.794
        60  -9.1626     64.8446     70.1913   8.9544478962e+01   5.5437867340e+01    0.1931844    0.1830372 -40.51 0.0003413273    1.165    0.142
        61 -11.2557    171.5978     61.5261   5.6768494657e+01   3.4592259166e+01    0.5236363    0.3672455  -1.37   0.00231564    2.000    0.500
        62 -11.8926    119.3646    246.1960   1.0790354478e+02   8.0073245317e+00    0.6171166    0.3040078  29.69  0.002378871    2.197    0.545
        63 -12.6608    180.8446     51.2095   5.2104571972e+01   3.3873496720e+01    0.7299166    0.7084147  44.86 0.0009233601    1.087    0.080
        64 -10.9811    107.6368    203.8440   1.0507033550e+02   1.7780621164e+01    0.4086678    0.2669733  64.86 0.0004486646    1.728    0.421
        65  -8.4614    168.1756    248.1321   9.8693512042e+01   3.0867443119e-01    0.1480785    0.1261732  46.50  0.001003101    1.263    0.208
        66 -12.6603    112.9720    205.8098   1.0416432738e+02   1.6530702657e+01     1.126987    0.3026898 -53.92  0.003924355    3.831    0.739
