#   1 NUMBER                 Running object number                                     
#   2 MAG_AUTO               Kron-like elliptical aperture magnitude                    [mag]
#   3 X_IMAGE                Object position along x                                    [pixel]
#   4 Y_IMAGE                Object position along y                                    [pixel]
#   5 X_WORLD                Barycenter position along world x axis                     [deg]
#   6 Y_WORLD                Barycenter position along world y axis                     [deg]
#   7 A_WORLD                Profile RMS along major axis (world units)                 [deg]
#   8 B_WORLD                Profile RMS along minor axis (world units)                 [deg]
#   9 THETA_WORLD            Position angle (CCW/world-x)                               [deg]
#  10 FWHM_WORLD             FWHM assuming a gaussian core                              [deg]
#  11 ELONGATION             A_IMAGE/B_IMAGE                                           
#  12 ELLIPTICITY            1 - B_IMAGE/A_IMAGE                                       
         1 -15.0739      8.0112    146.0514   1.4484021747e+02   4.4062553848e+01      6.38858     1.605619 -82.92   0.02212461    4.413    0.773
         2 -13.3894    197.1770     29.2199   6.8413402520e+01   3.2383908916e+01     1.481251     1.372206  84.83  0.006715999    1.047    0.045
         3 -13.5297    211.8723      8.8231   6.1259164985e+01   3.0964494941e+01     1.369844    0.9558704  44.43  0.007336523    1.724    0.420
         4 -12.0287      3.7067      4.8124   1.1746704893e+02   7.4127115730e+01    0.6315869    0.2684611 -45.38  0.003701445    1.829    0.453
         5 -10.8415     81.2201    248.7927   1.3856248985e+02   1.4837775634e+01    0.2537404    0.1508864  62.68  0.001638765    1.384    0.277
         6 -11.0811    247.9945    249.0786   1.0928569440e+02  -1.0557958375e+01    0.3305408    0.1796824  40.53  0.002068507    1.741    0.425
         7 -10.9015    241.7520    248.1116   1.1015823366e+02  -9.5953279181e+00    0.2249498    0.1283719 -17.81  0.001417081    1.906    0.475
         8 -11.7285    139.3903    249.7948   1.2830010117e+02   5.9745515626e+00    0.4337786    0.2247435  43.02  0.002474225    1.488    0.328
         9 -11.4969    124.9192    249.9845   1.3092292994e+02   8.2063052745e+00    0.5179787    0.1359106  39.53  0.002036704    3.280    0.695
        10 -11.2788    128.8772    245.5654   1.2973295482e+02   8.2704613523e+00    0.2441785    0.1837949  83.27  0.001619687    1.562    0.360
        11 -10.4254     46.9893    249.3327   1.4442273422e+02   1.9197406400e+01    0.2123379    0.1281033  67.13  0.001116049    1.248    0.199
        12 -10.9668     50.0958    246.2543   1.4371639414e+02   1.9344461282e+01    0.3247469    0.1243013  49.52  0.001845642    1.894    0.472
        13 -10.8741     29.3001    249.0982   1.4729158591e+02   2.1294637734e+01    0.3967213    0.1849151 -74.83  0.002587743    2.119    0.528
        14 -11.3723     33.6856    249.1466   1.4658832062e+02   2.0792138495e+01    0.3720362     0.200815  48.87  0.002493607    1.446    0.308
        15 -11.9315     34.7866    244.4052   1.4615673786e+02   2.1481243637e+01    0.4261015    0.2738326  38.42  0.003020179    1.735    0.424
        16 -12.1537     19.9395    243.6474   1.4853131174e+02   2.3250053197e+01    0.5498374    0.2248137  68.07  0.003314174    1.979    0.495
        17 -12.2369     12.9006    240.5573   1.4951968466e+02   2.4520306100e+01    0.4443746    0.2308224 -70.54   0.00305927    2.044    0.511
        18 -11.4685     13.7452    249.8125   1.4977396479e+02   2.2842995055e+01    0.6286528    0.2491331  38.10  0.003836578    2.427    0.588
        19 -11.0165      2.8490    247.9855   1.5137522741e+02   2.4243788069e+01    0.3333575    0.1994486  78.50  0.002635323    1.216    0.178
        20  -9.1177     76.0000    243.9247   1.3908846366e+02   1.6377806972e+01    0.1623373   0.06033416 -68.49 0.0005951085    2.994    0.666
        21  -8.5178     57.3052    240.3489   1.4209369991e+02   1.9469572788e+01   0.09112318   0.08699586 -54.77 0.0007041786    1.700    0.412
        22 -10.7411     22.3219    237.1712   1.4783563653e+02   2.4133552395e+01    0.2423481     0.181599 -50.14  0.001757454    2.321    0.569
        23 -14.1854    104.0136    229.4490   1.3261814027e+02   1.4823098313e+01     4.360682          nan  44.24  0.008518809   12.357    0.919
        24 -12.5809     48.3034    216.1931   1.4196799191e+02   2.5062609685e+01    0.6891402     0.567652  88.25    0.0036162    1.226    0.185
        25 -13.5353     52.8908    208.3795   1.4047227680e+02   2.6031333191e+01     2.813003    0.6564068  56.91  0.008177335    6.597    0.848
        26 -10.4227    173.9647    222.8851   1.1834253021e+02   4.3033981362e+00    0.3931119    0.2414683  51.59  0.002141973    1.598    0.374
        27 -10.5832      1.6415    216.0386   1.5031969302e+02   3.0068966700e+01    0.4200768   0.07805423 -79.71   0.00169588    4.558    0.781
        28 -12.4335      9.9392    206.9836   1.4843913905e+02   3.1032440367e+01    0.6468509    0.3811287  36.22   0.00325065    1.899    0.473
        29  -8.8928    152.4989    213.0477   1.2105180384e+02   9.6331211154e+00    0.1630273    0.1315913 -54.46 0.0003426948    1.461    0.315
        30 -11.6432     60.1511    199.7445   1.3826003509e+02   2.6851517172e+01    0.2530521    0.2143542 -76.04 0.0005033478    1.303    0.233
        31  -9.5321    192.3534    193.8412   1.0998628811e+02   5.5802070393e+00    0.4613969    0.2319237 -61.91  0.001395149    6.100    0.836
        32 -10.3811     15.2912    197.4640   1.4692120800e+02   3.2411911923e+01    0.3415465    0.1328319  47.74  0.001364813    2.110    0.526
        33  -8.8517     92.4863    214.9381   1.3330197505e+02   1.9247046336e+01    0.1636066    0.1160012 -73.19 0.0004205893    1.488    0.328
        34 -12.8147     33.3420    233.8728   1.4581153516e+02   2.3511573149e+01    0.2751291    0.2146368  86.20 0.0007267896    1.253    0.202
        35 -11.9142     66.6173    191.2070   1.3605905228e+02   2.7770533497e+01    0.2630259    0.2241241 -72.99 0.0004746375    1.284    0.221
        36 -13.9547     38.2948    227.0241   1.4453912281e+02   2.4198934495e+01     0.809082    0.5302626  59.99  0.002357908    1.159    0.137
        37 -10.0726     54.4733    229.4541   1.4181847788e+02   2.1789107680e+01    0.2663359    0.1474125  68.40 0.0009717235    1.544    0.352
        38 -13.2123     63.5397    176.3747   1.3508211877e+02   3.1394061012e+01    0.4716483    0.2740814 -48.35  0.001846673    2.217    0.549
        39 -10.7851     76.9364    178.2037   1.3228659210e+02   2.9123304090e+01    0.2346283    0.1975653  85.64 0.0003281441    1.053    0.050
        40 -10.0537     97.8092    174.7668   1.2705357850e+02   2.6649448666e+01    0.2866591    0.1995164  69.39 0.0007535059    1.468    0.319
        41 -11.8496     85.1974    168.6123   1.2908393107e+02   3.0016592869e+01    0.7801607    0.6451209  25.64  0.004512784    1.534    0.348
        42 -10.3127     56.4237    223.3418   1.4100358965e+02   2.2680366550e+01    0.3093283    0.2568631 -26.37  0.001633561    2.287    0.563
        43 -10.0956     97.2460    152.9139   1.2366922957e+02   3.1645432552e+01    0.3127132    0.2940232 -63.18  0.000786493    1.162    0.139
        44  -9.1410    100.0825    148.6853   1.2220459784e+02   3.2135389169e+01    0.2049869    0.1936812 -15.17 0.0004155647    1.315    0.239
        45 -12.0295     85.8677    152.0114   1.2635897307e+02   3.3700972804e+01     0.285659    0.2489536 -50.93 0.0005855987    1.287    0.223
        46  -8.8964    134.0000    147.9866   1.1369575244e+02   2.5940584869e+01    0.2479825   0.08503626 -49.86 0.0008100237    2.995    0.666
        47 -12.1948     67.3486    143.6510   1.2973891232e+02   3.8377916530e+01    0.6790334    0.4219298  66.35  0.002856513    1.792    0.442
        48  -9.7819    109.2033    137.7426   1.1775147164e+02   3.3034543246e+01    0.4294987    0.2914426 -19.18  0.001561577    2.625    0.619
        49 -10.4710     96.2854    134.9772   1.2057257395e+02   3.5970815588e+01    0.2391974    0.2246432 -32.18 0.0004282112    1.241    0.194
        50  -8.2307    192.2831    144.2868   9.9903832299e+01   1.4289634327e+01    0.1459023    0.1144315   8.15 0.0002636261    1.525    0.344
        51  -8.1249     80.2802    132.2706   1.2434735412e+02   3.9199843963e+01    0.1297395    0.1076374 -31.93 0.0002046862    1.492    0.330
        52 -10.8419     31.3685    131.6920   1.3750390718e+02   4.5365721634e+01    0.2673982     0.194019  62.71  0.001010331    1.393    0.282
        53  -9.9144     55.2606    129.2891   1.3068213601e+02   4.3346790011e+01    0.3901584    0.1257928 -51.70  0.001452645    3.003    0.667
        54 -11.4752     22.1512    126.6158   1.3933714993e+02   4.7372016106e+01    0.3962575    0.2103831  54.46  0.001165195    2.041    0.510
        55  -8.9189    106.4026    124.0677   1.1554638011e+02   3.6709680819e+01    0.1980406     0.170465 -59.65 0.0003716688    1.122    0.109
        56  -9.3944    168.1224    113.2792   9.7500500368e+01   2.5794984901e+01    0.3000124    0.2288633 -84.12  0.001327503    1.743    0.426
        57  -8.8640    202.9957    111.7560   8.9982689516e+01   1.7875202163e+01    0.1957997    0.1287478  52.10 0.0005015283    1.560    0.359
        58  -9.8275    157.9603     76.6902   8.9493229667e+01   3.5327927777e+01    0.2265669    0.2060111  56.23 0.0006977566    1.091    0.084
        59 -12.2504    151.3897    248.3153   1.2596278798e+02   4.2857514893e+00    0.6883134    0.2259673  37.87  0.002955872    2.683    0.627
        60  -9.2172     38.6408     65.3123   1.2260204987e+02   5.9908947273e+01    0.2030337    0.1483578  42.84  0.001064633    1.674    0.403
        61 -11.8574     11.7658     54.5486   1.3048782772e+02   6.4343865321e+01    0.3984182    0.2227752  19.46 0.0007810966    2.163    0.538
        62 -10.8575      2.4189     37.7136   1.3020552548e+02   6.8279613638e+01    0.2870955   0.07907559 -59.78  0.001302684    2.611    0.617
        63 -11.8669    171.3744    248.0393   1.2232778624e+02   1.1262382018e+00     0.447645    0.2368023  35.43  0.002517287    1.581    0.367
        64 -10.6294     97.9906    249.3525   1.3566448814e+02   1.2359310997e+01    0.2106729    0.1655131  31.59  0.001459447    1.579    0.367
