#   1 NUMBER                 Running object number                                     
#   2 MAG_AUTO               Kron-like elliptical aperture magnitude                    [mag]
#   3 X_IMAGE                Object position along x                                    [pixel]
#   4 Y_IMAGE                Object position along y                                    [pixel]
#   5 X_WORLD                Barycenter position along world x axis                     [deg]
#   6 Y_WORLD                Barycenter position along world y axis                     [deg]
#   7 A_WORLD                Profile RMS along major axis (world units)                 [deg]
#   8 B_WORLD                Profile RMS along minor axis (world units)                 [deg]
#   9 THETA_WORLD            Position angle (CCW/world-x)                               [deg]
#  10 FWHM_WORLD             FWHM assuming a gaussian core                              [deg]
#  11 ELONGATION             A_IMAGE/B_IMAGE                                           
#  12 ELLIPTICITY            1 - B_IMAGE/A_IMAGE                                       
         1 -13.6956    216.4444     35.9349   3.9111442307e+01   2.7183246879e+01     1.028761    0.7468908 -70.85    0.0042844    1.284    0.221
         2 -13.3418    222.8851     28.8055   3.6856020182e+01   2.6659645883e+01    0.7990324    0.5104366  61.75  0.001475662    1.626    0.385
         3 -13.6715    237.9507     15.0258   3.2652322352e+01   2.5089313062e+01    0.7470343    0.5954997 -61.19  0.002625739    1.083    0.077
         4 -10.6052      2.0000     13.4875   9.1420386872e+01   7.2346191598e+01    0.2353213   0.05256189 -49.46 0.0009361769    3.946    0.747
         5  -9.5989     80.7970    182.6234   1.0316160590e+02   2.6238383555e+01     0.237182     0.184099 -54.57 0.0009299128    1.329    0.247
         6 -15.2862     96.5925    228.4200   1.0549849740e+02   1.3861718329e+01     6.672366    0.9713742  37.49  0.004386447    5.064    0.803
         7 -14.5508      9.0829    207.7609   1.2211861739e+02   2.8917740173e+01     1.359226      1.11843 -77.12  0.007060715    1.264    0.209
         8 -13.0038     25.0010    206.2254   1.1871873794e+02   2.7713225261e+01    0.4608878    0.3732883 -47.34 0.0008967968    1.612    0.380
         9 -15.7656     32.1195    189.6544   1.1575581472e+02   3.0714254833e+01     5.629166     2.317178  78.84   0.02077785    3.700    0.730
        10 -11.8734     55.0002    179.0263   1.0912140183e+02   3.0603090781e+01    0.4215905    0.2837554 -35.51    0.0021205    2.018    0.504
        11 -11.7817     60.9871    173.3336   1.0686864404e+02   3.1215395231e+01    0.3275738    0.2688039 -36.14 0.0005894242    1.471    0.320
        12 -11.1137    104.0078    172.3249   9.5616433186e+01   2.5018036680e+01    0.4624851    0.1111592  40.24  0.001353577    3.821    0.738
        13 -13.2862     56.9019    128.6888   1.0085879360e+02   4.2813888030e+01     2.641637    0.8725355 -72.30  0.005649519    8.329    0.880
        14  -9.6298     40.8485    164.8333   1.1096659980e+02   3.5697233753e+01    0.1843985     0.138731  74.82 0.0002584929    1.304    0.233
        15 -13.3037     58.2700    159.8300   1.0566970403e+02   3.4875198569e+01    0.5506873    0.3235743 -43.87  0.001462212    1.927    0.481
        16  -8.5699    151.6716    151.3338   7.9404308911e+01   2.0953084959e+01     0.156532    0.1242601  86.18 0.0007051866    1.721    0.419
        17  -9.2324    122.8194    151.0866   8.6588119650e+01   2.6671052400e+01    0.2268393    0.2023205  84.69 0.0004830428    1.249    0.199
        18  -9.9231    133.7543    144.2803   8.2260751461e+01   2.6125881451e+01    0.7997295    0.1393284 -51.01  0.001634472    7.108    0.859
        19 -12.3498     33.9458    158.0481   1.1194794993e+02   3.8084687956e+01    0.6297709    0.3215168  68.43  0.002410253    2.504    0.601
        20 -10.8178     95.8913    142.2296   9.2038837607e+01   3.3656388542e+01    0.5954458    0.3721206 -22.13  0.002301367    2.583    0.613
        21 -15.0289     58.4167    247.2650   1.1516657884e+02   1.5395940443e+01     6.499707     1.084414  32.08   0.01449145    8.948    0.888
        22 -12.1083     82.7981    141.4635   9.5619543769e+01   3.5979960565e+01    0.3191997    0.2735339 -52.29 0.0004593358    1.124    0.111
        23 -12.1892     44.2556    218.5284   1.1565365871e+02   2.2925293954e+01    0.4545019    0.3390952  71.18 0.0004384602    1.150    0.130
        24 -11.8395     29.5478    218.4207   1.1868490016e+02   2.4602535207e+01    0.2684876    0.2364956 -87.05  0.001555177    1.214    0.176
        25 -10.8159    106.7586    131.2757   8.6553593320e+01   3.4377399018e+01     0.400865    0.3343366  36.96   0.00119433    1.231    0.188
        26 -11.7042     68.5236    130.0018   9.7560171273e+01   4.0941610870e+01    0.3136151    0.2811285 -84.02  0.001596036    1.145    0.126
        27 -10.9925     66.4312    125.6936   9.7328063567e+01   4.2300046647e+01    0.3446213    0.2281326 -47.00  0.001664473    1.437    0.304
        28 -10.5173     94.4575    127.7256   8.9287079816e+01   3.7429671757e+01    0.3012782    0.2424053 -33.42  0.000540601    1.312    0.238
        29 -11.5072     71.8477    163.6100   1.0259570650e+02   3.2122043674e+01    0.3141354    0.2811654 -86.14 0.0004009191    1.054    0.051
        30 -10.0592    114.6507    125.4623   8.2953262047e+01   3.4254260206e+01    0.2756386     0.184304 -30.02 0.0008058082    1.772    0.436
        31 -15.3688      4.6204    176.5666   1.2096389328e+02   3.6275266418e+01     9.698102    0.6989382 -75.57   0.02012077   11.389    0.912
        32 -13.4532     78.4056    156.8420   9.9701143501e+01   3.2841205946e+01     1.623159    0.8949135  62.41  0.001494734    2.539    0.606
        33  -9.5948    109.7135    201.1653   9.8907298860e+01   1.7519315352e+01    0.2128904    0.1685486 -89.36 0.0006392147    1.450    0.310
        34  -9.5351    105.1126    119.9485   8.4316479029e+01   3.7363312869e+01    0.2209269    0.2111039 -29.60  0.000292871    1.035    0.034
        35  -9.2025    167.8373    113.0146   6.6446125354e+01   2.5649405851e+01    0.2590385    0.1744983 -66.23  0.001072065    2.005    0.501
        36 -10.3493    192.9553    194.9157   7.9234493258e+01   4.4378892666e+00    0.6378366    0.3059567 -60.88  0.001609838    7.974    0.875
        37  -9.7542    205.4074    110.3132   5.8377957635e+01   1.7939519863e+01    0.3004513    0.1992402  46.14  0.001363379    1.633    0.388
        38 -13.3025     68.2905    144.1439   1.0031078841e+02   3.7451315715e+01    0.8798943    0.6057717  89.65   0.00250581    1.760    0.432
        39 -10.4096     44.6072     90.6191   9.6807241018e+01   5.3449629636e+01    0.2529893    0.1865467  72.30 0.0007498105    1.973    0.493
        40  -9.8431     57.0493     76.4752   8.8378171131e+01   5.5051577428e+01    0.2012366    0.1339485  30.12  0.001028029    1.588    0.370
        41  -9.5612     62.8400     70.1506   8.4275794364e+01   5.5542466499e+01    0.1972776    0.1929342 -86.94  0.000671139    1.281    0.219
        42 -10.6390     13.4089     60.1629   1.0147794525e+02   6.2940131613e+01    0.1954724    0.1858434 -31.06 0.0004109801    1.227    0.185
        43 -14.6524      7.7074    240.5331   1.2418206953e+02   2.2344721750e+01     1.892497     1.135181 -82.62   0.01285711    1.499    0.333
        44  -9.0042     27.2218     52.0984   9.3015622626e+01   6.3455516856e+01    0.1475991    0.1433356 -29.93 0.0004200957    1.309    0.236
        45 -13.3786    208.7864     39.5329   4.0804325761e+01   2.8433566358e+01    0.7093047    0.5541216 -44.87  0.002726926    1.240    0.193
        46  -9.7081    174.4529    249.2330   9.2108591213e+01  -1.6761066387e+00    0.1456728    0.1226881 -57.46 0.0006318293    1.643    0.391
        47 -12.4234     31.3943    233.4266   1.1937353022e+02   2.1301475132e+01    0.6517425    0.2526395  77.07  0.002716213    3.503    0.715
        48 -10.6036    129.2151     36.7464   5.2756841100e+01   4.7749640970e+01    0.3944713    0.2526214 -71.98  0.001270401    2.464    0.594
        49  -8.5330    130.6838     30.2737   5.0318345358e+01   4.8196079642e+01     0.132845    0.1034803 -79.31 0.0003241438    1.563    0.360
        50  -9.0573     57.2646    194.4279   1.1039734639e+02   2.6693989621e+01    0.1793995    0.1094726  48.23 0.0004816219    1.539    0.350
        51  -9.7100     43.0186     18.4977   7.2540179002e+01   6.7131512433e+01    0.1730106    0.1074055  33.74 0.0004953067    1.530    0.347
        52 -10.4587    189.6906     15.0316   3.7017449483e+01   3.5731548408e+01    0.1767107    0.1550341 -67.41 0.0006988949    1.103    0.093
