#   1 NUMBER                 Running object number                                     
#   2 MAG_AUTO               Kron-like elliptical aperture magnitude                    [mag]
#   3 X_IMAGE                Object position along x                                    [pixel]
#   4 Y_IMAGE                Object position along y                                    [pixel]
#   5 X_WORLD                Barycenter position along world x axis                     [deg]
#   6 Y_WORLD                Barycenter position along world y axis                     [deg]
#   7 A_WORLD                Profile RMS along major axis (world units)                 [deg]
#   8 B_WORLD                Profile RMS along minor axis (world units)                 [deg]
#   9 THETA_WORLD            Position angle (CCW/world-x)                               [deg]
#  10 FWHM_WORLD             FWHM assuming a gaussian core                              [deg]
#  11 ELONGATION             A_IMAGE/B_IMAGE                                           
#  12 ELLIPTICITY            1 - B_IMAGE/A_IMAGE                                       
         1 -10.1623    141.9168     19.6359   2.9027636751e+02   6.6680799576e+00   0.02355681   0.01005147 -40.04  0.001894398    2.732    0.634
         2  -9.8531    201.5976     11.9032   2.8954247274e+02   6.4319238448e+00   0.01108887  0.008771219   2.12  0.000446714    1.337    0.252
         3  -9.4150    229.3247      8.9976   2.8920584741e+02   6.3141637767e+00  0.009040933  0.008111506 -45.49   0.00044341    1.094    0.086
         4  -9.5647    211.7411      8.2341   2.8940403533e+02   6.4181300667e+00  0.009198381  0.007068355 -33.71 0.0005614891    1.337    0.252
         5  -8.9570    139.4250      5.7752   2.9022406981e+02   6.8372966750e+00  0.009383567  0.005627134 -48.77 0.0006395674    1.622    0.384
         6  -8.8917     50.6958      5.3478   2.9124706977e+02   7.3204583855e+00   0.00674849  0.004905808  63.20 0.0007041078    1.695    0.410
         7  -9.7812    249.2972      4.4188   2.8894894465e+02   6.2571203694e+00   0.01254733  0.006428432  18.93    0.0011388    2.096    0.523
         8  -9.2037    184.7103    241.9523   2.9107919752e+02   3.9353141911e+00   0.01208544   0.00557431  54.78 0.0008866594    3.491    0.714
         9  -9.7896    160.7888    240.8538   2.9134814143e+02   4.0766276103e+00   0.01908124   0.01162253  71.32  0.001713511    2.553    0.608
        10  -9.7582    241.8095    240.7292   2.9041530927e+02   3.6409654434e+00    0.0147647  0.008869331  20.88  0.001143343    1.698    0.411
        11  -9.0187    195.8456    240.1340   2.9094049739e+02   3.8957288078e+00   0.01013635   0.00863259  52.71  0.001207392    1.278    0.218
        12  -9.8547    232.6883    238.3455   2.9050631018e+02   3.7170324095e+00   0.02026435  0.009762912  49.34  0.001707027    2.625    0.619
        13  -9.9254    205.0732    236.5471   2.9081347279e+02   3.8863201403e+00   0.01950229   0.01067237  52.41  0.001679744    2.326    0.570
        14  -9.2159    176.5052    236.5064   2.9114197749e+02   4.0408638344e+00  0.006383778  0.006281876  32.30 -0.0001619589    1.060    0.057
        15  -9.4195    248.1205    235.1916   2.9031052269e+02   3.6691823320e+00   0.01022973   0.00741889  58.84 0.0009256777    1.648    0.393
        16 -10.2274    216.6719    234.2343   2.9066659120e+02   3.8497558560e+00   0.01951172    0.0128447  52.47  0.001793859    1.778    0.438
        17  -8.8757     49.4874    235.5111   2.9259915885e+02   4.7353680081e+00   0.00655551  0.006105802 -23.28  3.03381e-05    1.051    0.048
        18  -9.7465    195.1945    233.3518   2.9090855320e+02   3.9755830210e+00   0.01420729   0.01059551  37.68   0.00160181    1.362    0.266
        19  -9.9692    238.5919    231.3360   2.9039762947e+02   3.7640219860e+00   0.02415631   0.01060889  45.22  0.001998195    2.648    0.622
        20  -9.8421    186.7616    231.1496   2.9099279294e+02   4.0458614650e+00   0.01887362   0.01138532  60.85  0.001754787    2.297    0.565
        21  -9.2921    157.8657    231.7523   2.9132892215e+02   4.1948636047e+00   0.01303966  0.008498835  74.62  0.001246222    2.216    0.549
        22 -10.1346    248.3041    230.2335   2.9027954471e+02   3.7239688118e+00   0.01857164   0.01089525  26.65  0.001793714    1.677    0.404
        23  -9.1044    226.7014    231.5904   2.9053584743e+02   3.8253661215e+00  0.008955062   0.00580843  35.97 0.0008150584    1.541    0.351
        24  -9.1890    223.7677    227.8256   2.9054767928e+02   3.8835709838e+00  0.009057197  0.007399119  55.76 0.0007682452    1.367    0.268
        25 -10.1419    150.1686    226.6468   2.9138788758e+02   4.2938304498e+00   0.01746046   0.01159155  71.49  0.001542767    2.103    0.524
        26  -9.2457    206.9127    226.8205   2.9073572985e+02   3.9858689495e+00   0.01022993  0.008536447 -23.22 0.0006093949    1.233    0.189
        27 -10.0055    161.9736    225.8597   2.9124738525e+02   4.2390755272e+00   0.01412957   0.01014615 -78.74  0.001216674    1.618    0.382
        28  -9.5409    200.3492    225.9918   2.9080643093e+02   4.0306177028e+00   0.01266404  0.008735533  51.12  0.001339543    1.647    0.393
        29  -9.4142    128.2860    225.9618   2.9163592871e+02   4.4194039514e+00  0.009451956  0.008467501 -54.06   0.00116122    1.111    0.100
        30  -9.8650    217.2601    224.1715   2.9060126980e+02   3.9598271885e+00    0.0174027   0.01213397  82.15  0.001409993    1.928    0.481
        31  -9.9591    181.4898    224.6456   2.9101565234e+02   4.1475166283e+00   0.01886516  0.009927852  36.46  0.001739223    1.882    0.469
        32 -10.5136    241.1369    222.4880   2.9031684921e+02   3.8498266400e+00   0.02995397   0.01194968  40.28  0.002461628    2.596    0.615
        33 -10.3822    228.4334    221.9953   2.9046007697e+02   3.9239850959e+00   0.02713984    0.0141144  44.23   0.00250898    2.109    0.526
        34 -10.2697    222.0558    216.6012   2.9050203402e+02   4.0191272257e+00    0.0275859  0.009231588  30.44  0.002055004    2.747    0.636
        35 -11.9401    215.3934    210.3884   2.9054251410e+02   4.1250236377e+00   0.03250685   0.02505462  43.72  0.003524763    1.364    0.267
        36 -10.3975    211.6168    202.0908   2.9053765759e+02   4.2388038790e+00   0.02137529   0.01422713 -86.46  0.001975932    1.966    0.491
        37  -9.3813    173.1103    222.8730   2.9110180678e+02   4.2126636075e+00   0.01021725  0.008876138  62.86 0.0006906091    1.289    0.224
        38 -10.2821    192.7297    220.9780   2.9086495046e+02   4.1281692258e+00   0.01779382   0.01242574  64.33   0.00185246    1.826    0.452
        39  -9.8803    210.5226    219.5705   2.9065200684e+02   4.0479826072e+00   0.01384539   0.01108893  57.79  0.001142909    1.419    0.295
        40  -9.4165    203.9799    220.3624   2.9073189952e+02   4.0743863786e+00  0.009407084  0.008511747   9.53  0.001161112    1.097    0.088
        41 -10.9704    248.8570    216.6109   2.9019385193e+02   3.8742375727e+00   0.03410254   0.01906123  59.50  0.002982059    2.619    0.618
        42  -9.1457    240.4523    214.5169   2.9027830053e+02   3.9432087457e+00   0.01116406  0.009962346   0.52 0.0007972248    1.124    0.110
        43 -11.1171    237.0562    208.6692   2.9028329560e+02   4.0273527306e+00   0.03199233   0.01637161  55.07  0.002671646    2.804    0.643
        44 -10.0694    233.1895    215.1890   2.9036574293e+02   3.9748832447e+00   0.01616167   0.01234691  62.45   0.00138209    1.559    0.359
        45  -9.6470    168.8424    216.1830   2.9111204700e+02   4.3110008317e+00   0.01013809  0.008839157  58.78  0.001066811    1.267    0.211
        46 -10.5127    185.8003    213.3396   2.9090027529e+02   4.2515445732e+00   0.02069436   0.01354883 -72.19  0.001497847    1.707    0.414
        47  -9.2062    154.6054    214.7917   2.9126790256e+02   4.4034203344e+00  0.009408125  0.006322649 -78.52 0.0009587205    1.776    0.437
        48 -10.7092    131.8366    213.4784   2.9152252955e+02   4.5408839633e+00   0.02213334  0.009679486 -66.28  0.001862281    2.490    0.598
        49 -11.4272    203.1369    198.7236   2.9061564583e+02   4.3224949701e+00   0.02518977   0.01519272  69.14  0.002257169    2.569    0.611
        50 -11.0056    204.7143    206.2882   2.9064153285e+02   4.2288347900e+00   0.02337767   0.01300388 -74.49  0.001936359    2.209    0.547
        51 -10.7231    175.8383    210.3288   2.9099745017e+02   4.3391833966e+00   0.02242509   0.01410417  73.04  0.002083835    2.390    0.582
        52  -9.7073    147.8697    210.0817   2.9131810251e+02   4.4927619060e+00   0.01387538  0.009589067  85.73  0.001410604    1.935    0.483
        53 -10.0855    191.7642    208.4939   2.9080342760e+02   4.2739118040e+00   0.01446254   0.01037989 -63.78  0.001152055    1.422    0.297
        54 -12.0226    231.4477    186.8842   2.9022087672e+02   4.3027826363e+00    0.0395436   0.02608185  45.59  0.004166027    1.640    0.390
        55 -12.7184    224.5536    193.3005   2.9033758853e+02   4.2678426341e+00   0.05957839   0.03656711  69.82  0.005449529    2.480    0.597
        56 -11.2934    249.7211    178.1251   2.8995959859e+02   4.3025194210e+00   0.03576267   0.01249377 -57.35  0.002865858    2.623    0.619
        57 -12.5849    235.2930    197.2026   2.9023677192e+02   4.1658990088e+00   0.06292026    0.0266295  43.21  0.005215454    2.617    0.618
        58 -11.0667    236.0935    182.1713   2.9013995482e+02   4.3306940110e+00   0.03103576   0.01781601  66.65  0.002653153    2.824    0.646
        59 -11.3913    238.5761    188.9187   2.9015072660e+02   4.2413567515e+00    0.0265827   0.02284185 -48.78  0.002816875    1.141    0.124
        60 -12.0427    247.6328    193.1080   2.9007097459e+02   4.1452626883e+00   0.03700987   0.02869918 -85.84  0.004183668    1.521    0.343
        61 -12.1362    244.0141    183.1326   2.9005444277e+02   4.2770522645e+00   0.05798889   0.02798963  50.00  0.004884338    2.669    0.625
        62 -11.7238    196.5828    204.7047   2.9072590655e+02   4.2905576948e+00   0.03305508   0.01478257  48.37  0.002436334    2.854    0.650
        63  -8.8027     97.3010    205.3084   2.9187303704e+02   4.8187925228e+00   0.00681049  0.004711852 -28.00            0    1.600    0.375
        64  -9.7531    184.1321    202.9496   2.9085902607e+02   4.3775129833e+00   0.01672192  0.009312115 -61.33  0.001632476    1.788    0.441
        65 -10.1069    164.1424    203.1177   2.9109018765e+02   4.4834548617e+00   0.01210759  0.009057408 -67.21  0.001259459    1.397    0.284
        66 -10.7771    222.0341    201.9900   2.9041719998e+02   4.1836708184e+00   0.01849736    0.0117183  53.33  0.001849601    1.897    0.473
        67 -11.2673    227.7650    210.0286   2.9039808583e+02   4.0622534083e+00   0.02634066   0.01558531 -35.07  0.002572258    1.883    0.469
        68 -10.4155    178.2630    199.4370   2.9090616209e+02   4.4487274952e+00   0.01818162   0.01169309  51.81  0.001845955    1.820    0.451
        69 -10.2415    148.8404    197.7593   2.9123528041e+02   4.6262956153e+00   0.01884055   0.01196833  89.40  0.001790973    2.238    0.553
        70 -11.0319    216.2452    195.4627   2.9044579134e+02   4.2883992227e+00   0.02245931   0.01684391  86.51  0.001840094    1.663    0.399
        71 -10.5149    210.5045    190.1816   2.9048109588e+02   4.3788443248e+00   0.01815596   0.01150016  27.04  0.001285984    1.555    0.357
        72  -9.9775    210.1037    195.8150   2.9051852201e+02   4.3176086391e+00    0.0153009   0.01245119  69.00  0.001470627    1.447    0.309
        73 -10.6228    206.6243    191.8240   2.9053532397e+02   4.3813193602e+00    0.0166127   0.01103965  84.95  0.001268181    2.104    0.525
        74 -10.6486    185.6047    194.0743   2.9079041241e+02   4.4694801747e+00   0.01866557   0.01328424 -71.20  0.002034973    1.527    0.345
        75  -8.9120     60.4998    194.5224   2.9223470753e+02   5.1381068969e+00  0.006389522  0.006270282  -4.04 0.0001458393    1.030    0.029
        76  -9.0514    160.3036    193.6579   2.9107937379e+02   4.6106739318e+00  0.006735313  0.004914884  63.01 0.0006593226    1.680    0.405
        77 -10.7361    204.9144    211.6673   2.9067054271e+02   4.1672097436e+00   0.02701258   0.01310848  24.79  0.002471195    2.050    0.512
        78  -8.9194     34.3468    186.6842   2.9249087142e+02   5.3667900354e+00  0.006866875  0.004819707  58.36  0.000704788    1.722    0.419
        79  -9.3237    191.0258    187.3304   2.9068872804e+02   4.5161318787e+00  0.009198189  0.008513505  14.39 0.0007107421    1.070    0.066
        80  -9.5957    147.8045    179.8554   2.9114307190e+02   4.8334935769e+00   0.01038134  0.008653738 -28.06 0.0008676653    1.221    0.181
        81  -9.8543    218.3504    177.9426   2.9031947809e+02   4.4741869101e+00   0.01612157   0.01069959  80.55   0.00157291    2.142    0.533
        82  -8.6405     25.5139    178.9515   2.9254793882e+02   5.5012905165e+00   0.00985521  0.004429969 -40.71 0.0008087769    2.489    0.598
        83  -9.7445    191.9870    176.7837   2.9061623229e+02   4.6296582320e+00   0.01728906  0.006537842 -51.50  0.001419019    2.457    0.593
        84  -9.2985    211.8742    176.4992   2.9038560744e+02   4.5254288014e+00   0.00973207  0.006309958  24.37    0.0010135    1.533    0.348
        85 -11.7036    244.3184    202.5621   2.9016419234e+02   4.0568176313e+00   0.04955394   0.02508704  54.84  0.004112149    2.845    0.649
        86  -9.3472    236.8369    168.8371   2.9005365068e+02   4.4766930363e+00  0.009230852  0.007793613  68.30  0.001083327    1.364    0.267
        87 -10.8633    124.5030    206.2419   2.9156498151e+02   4.6618819149e+00    0.0177095  0.009702183  43.00            0    1.950    0.487
        88  -9.1855    166.5202    168.4938   2.9086128755e+02   4.8604626579e+00  0.006428762  0.006238418 -15.80 0.0002315186    1.010    0.010
        89  -8.9648    184.3847    164.8380   2.9063419281e+02   4.8051766170e+00  0.009531142  0.005507221 -49.36 0.0005647668    1.677    0.404
        90 -10.4860    234.5014    146.4843   2.8995011984e+02   4.7407904285e+00   0.02128436  0.006659836  22.88  0.001505314    3.436    0.709
        91 -11.3769    242.6600    155.1386   2.8990673637e+02   4.5992940114e+00   0.03533404   0.01348651  44.13  0.002713599    3.060    0.673
        92 -11.5394    240.9632    149.3594   2.8989253646e+02   4.6734830870e+00    0.0351148   0.01557149  24.00  0.002657696    2.274    0.560
        93  -9.9938    244.9667    144.7586   2.8981961660e+02   4.7035661964e+00    0.0165709   0.01169546  58.42  0.001451729    1.711    0.415
        94 -11.6067    248.3676    143.1896   2.8977132584e+02   4.7028039107e+00   0.03346176   0.01545055 -61.18  0.002998779    2.139    0.532
        95  -8.9804    200.6545    162.3177   2.9043212638e+02   4.7456546378e+00  0.006868284  0.004831085  58.69 0.0005189232    1.723    0.420
        96  -8.9974    118.4732    152.4945   2.9132197870e+02   5.2996961720e+00   0.00644405  0.006218514 -18.46 6.374162e-05    1.002    0.002
        97  -9.2764    214.2079    149.8310   2.9020325422e+02   4.8129074427e+00  0.009330005  0.007359277 -26.89 0.0005543634    1.326    0.246
        98 -10.8796    242.5977    138.9258   2.8981282713e+02   4.7819930345e+00   0.02639814   0.01206675  47.60  0.002186947    2.692    0.629
        99  -8.7903    226.2409    134.0187   2.8997245017e+02   4.9257137458e+00  0.008524745  0.005398126 -60.61 0.0006557375    1.571    0.364
       100  -9.5471     95.8794    134.6254   2.9147861528e+02   5.6226049624e+00  0.009819233  0.005470936  36.73  0.000948265    1.787    0.441
       101 -10.1160    236.0516    130.2084   2.8983727175e+02   4.9154754468e+00   0.01530147  0.009788868  44.94 0.0006610936    1.685    0.407
       102  -9.6206    231.2908    129.9888   2.8989079035e+02   4.9437154394e+00   0.01565729   0.01068372 -68.07  0.001342868    1.556    0.357
       103 -10.5271    230.3745    153.4542   2.9003828703e+02   4.6847088076e+00   0.02291055    0.0115774  31.93  0.002118383    1.911    0.477
       104  -9.1276    186.5895    128.6331   2.9039771510e+02   5.2007403811e+00   0.01246646  0.005751015 -56.43 0.0008236774    2.050    0.512
       105 -10.1484    201.0023    125.7827   2.9021503184e+02   5.1548956303e+00   0.02013107  0.009484293 -57.08  0.001834572    2.018    0.505
       106  -8.8109    240.2213    123.4042   2.8974954465e+02   4.9694258859e+00  0.009371887  0.005682608  36.65 0.0009428051    1.648    0.393
       107  -9.7806    213.4875    123.0112   2.9005504712e+02   5.1185430262e+00   0.01660295   0.00870108 -22.45  0.001340357    2.927    0.658
       108  -9.7283    232.1532    121.1322   2.8982914856e+02   5.0386607352e+00   0.01000819     0.008462 -28.93 0.0004734132    1.195    0.163
       109  -9.2654    171.5270    120.9623   2.9052656069e+02   5.3684509361e+00   0.01024919  0.006207902 -58.66  0.001035917    1.618    0.382
       110  -9.6975    192.3483    118.4912   2.9027218254e+02   5.2837267980e+00   0.01357385  0.008824982  55.86 0.0009546404    1.886    0.470
       111  -8.7043    166.0000    119.0555   2.9057915235e+02   5.4197652214e+00   0.01008305  0.003658812 -62.39 0.0005250821    2.758    0.637
       112  -9.8685    213.4575    119.4897   2.9003483395e+02   5.1583199559e+00   0.01254636  0.006131824 -58.36 0.0009524987    1.969    0.492
       113  -9.4251    110.0323    115.4887   2.9120388894e+02   5.7618583989e+00   0.01027309  0.006339741  23.19 0.0009476649    1.622    0.383
       114  -9.4014    209.7548    114.1454   2.9004628014e+02   5.2384706212e+00  0.009738081  0.008769499  62.62 0.0006035733    1.223    0.183
       115  -9.3656    153.0513    114.0253   2.9069911205e+02   5.5463008435e+00   0.01064059  0.007679265  62.26 0.0009287589    1.703    0.413
       116  -9.6117    241.4204    112.2058   2.8967033017e+02   5.0888615693e+00   0.01029404  0.007495704  31.37 0.0005452917    1.361    0.265
       117  -9.7841     25.9628    111.0880   2.9214887440e+02   6.2634148411e+00   0.01107867  0.007380219 -25.91  0.001133184    1.721    0.419
       118  -9.6576    237.0130    107.4974   2.8969355581e+02   5.1656777054e+00   0.01256538  0.008488731 -40.80 0.0008397818    1.502    0.334
       119  -9.0043    197.4660    106.9509   2.9014584887e+02   5.3858811998e+00  0.009625312  0.006297808 -60.42 0.0004835009    1.521    0.343
       120  -9.2735    108.4343    106.8073   2.9117175096e+02   5.8682022957e+00    0.0094281  0.005611543 -48.51  0.000940793    1.636    0.389
       121 -10.2787    228.5163    104.3074   2.8977274577e+02   5.2475643944e+00    0.0146909  0.009873692  40.70 0.0009063141    1.536    0.349
       122  -9.1937    213.9599    104.8398   2.8994349944e+02   5.3203829905e+00   0.01002874  0.008236694 -25.67 0.0004580002    1.256    0.204
       123  -9.0479    205.4816    105.5109   2.9004508648e+02   5.3587157710e+00  0.006483448  0.006181309 -20.39 9.227745e-05    1.017    0.016
       124 -10.4212    246.8595    102.8871   2.8955327287e+02   5.1641719028e+00   0.01494257   0.01330951 -50.90 0.0009379545    1.109    0.098
       125  -9.9535    206.0335     98.4393   2.8999742726e+02   5.4352675725e+00   0.01597257    0.0132258  -5.47  0.001841596    1.265    0.209
       126  -9.2707    171.5328     96.0301   2.9038100696e+02   5.6489585522e+00  0.009302409  0.005662341  82.40 0.0008097698    2.616    0.618
       127  -9.8214    234.2764     94.9387   2.8965167668e+02   5.3217095531e+00  0.009317848  0.008485221 -50.70 0.0006657999    1.088    0.081
       128  -8.6480    245.0000     93.9668   2.8952253831e+02   5.2745318287e+00   0.01039806  0.003657339 -62.33 0.0004160571    2.845    0.649
       129  -9.5964    150.8822     92.3425   2.9059763726e+02   5.8020140542e+00  0.009174164  0.008360011   9.01 0.0007315562    1.088    0.081
       130  -8.8863    245.3022     87.5131   2.8948133074e+02   5.3454400621e+00   0.01157846  0.005776135 -61.26 0.0009035635    1.989    0.497
       131  -9.0825    227.5102     88.4765   2.8969182187e+02   5.4310178270e+00  0.006442144  0.006217252 -16.42 0.0008101363    1.001    0.001
       132  -9.2044    236.0232     86.7049   2.8958343455e+02   5.4048123665e+00  0.008933517  0.008344973   9.63 0.0004262953    1.057    0.054
       133  -9.8604    218.2622     86.5693   2.8978719394e+02   5.5025510114e+00   0.01207467  0.007115197 -40.91  0.001187765    1.763    0.433
       134  -9.0256    192.5571     84.5892   2.9007182141e+02   5.6639591308e+00   0.01741435  0.006895029 -69.34  0.001311603    3.160    0.684
       135  -9.5086    186.3685     83.2179   2.9013514722e+02   5.7128619221e+00   0.01788756   0.01313934 -66.55  0.001997236    1.419    0.295
       136  -9.4668    171.7778     83.9177   2.9030746175e+02   5.7838916857e+00   0.01375033  0.007383144  49.38  0.001244672    2.241    0.554
       137 -10.3084    103.6693     82.6623   2.9108601650e+02   6.1656478046e+00   0.01234796   0.00856614  78.34  0.001250782    1.955    0.489
       138  -9.0562    244.8295     80.7836   2.8944742359e+02   5.4236433057e+00  0.009016689  0.007421732  53.33 0.0005738092    1.337    0.252
       139  -9.4528    240.1795     76.5511   2.8947620877e+02   5.4964220076e+00   0.01267141  0.008935755 -55.25 0.0009969576    1.386    0.278
       140  -9.4257    158.0110     76.3500   2.9042204706e+02   5.9434241670e+00   0.01347226  0.007385687 -77.86  0.001187609    2.437    0.590
       141 -10.3151    140.0767     75.3705   2.9062324465e+02   6.0513120460e+00   0.01332256  0.008901011 -87.98  0.001329345    1.981    0.495
       142 -10.3147    230.4322     71.7220   2.8956021543e+02   5.6035314618e+00   0.01179673  0.006507581 -67.89 0.0006248122    1.975    0.494
       143  -8.9509    107.4934     71.5449   2.9097702583e+02   6.2701405538e+00  0.006432096   0.00620865 -13.60 0.0002787655    1.005    0.005
       144  -9.9765     62.5130     69.9777   2.9148741235e+02   6.5299585073e+00   0.01004789  0.006265292 -59.73 0.0005298678    1.584    0.369
       145  -9.6908    239.3340     68.2091   2.8943715459e+02   5.5947597974e+00   0.01154844  0.009894744 -59.17 0.0006692922    1.173    0.148
       146  -8.9138    219.7161     68.9624   2.8966751643e+02   5.6926170940e+00  0.008839752  0.008251765 -46.53 0.0001867288    1.060    0.056
       147  -9.1989    215.4724     69.5090   2.8971960535e+02   5.7094633360e+00  0.006380916   0.00627316  -5.04 0.0002429247    1.031    0.030
       148  -8.9495    188.1966     69.2674   2.9003255979e+02   5.8598532561e+00   0.00892612  0.007460911  63.67 0.0006197758    1.367    0.269
       149  -9.4406    234.5312     66.9511   2.8948510353e+02   5.6349346315e+00   0.01509979  0.005171949 -54.76  0.001104248    2.636    0.621
       150 -10.3423     43.6079     67.4679   2.9169124015e+02   6.6598095106e+00   0.01197352  0.009771883  33.95    0.0014115    1.234    0.189
       151  -8.4789    176.5417     67.4891   2.9015655625e+02   5.9429019344e+00  0.006563684  0.006079821 -24.38 0.0001403766    1.058    0.055
       152  -9.8662    245.2751     65.7970   2.8935463696e+02   5.5896509979e+00   0.01064551  0.009695483  72.25 0.0006091767    1.218    0.179
       153  -9.0102    208.1803     73.8737   2.8982914587e+02   5.6998870697e+00  0.009410092  0.007305868 -28.03 0.0006427867    1.351    0.260
       154  -9.3326    214.3268     62.0312   2.8968907872e+02   5.7997239169e+00  0.009158444  0.008203994 -59.66 0.0005870331    1.130    0.115
       155  -8.9622    218.6278     61.7206   2.8963770463e+02   5.7799120911e+00  0.006924776  0.004739488 -21.74 0.0007010621    1.695    0.410
       156  -8.6158    205.4970     61.5532   2.8978803875e+02   5.8529258562e+00  0.006413545  0.006216293  -9.54 0.0001131179    1.011    0.011
       157  -8.8461    231.7545     58.9930   2.8947053232e+02   5.7394200512e+00  0.008733305  0.005443261 -61.07 0.0006963979    1.602    0.376
       158  -9.1299    174.0822     59.2773   2.9013693350e+02   6.0485432338e+00  0.009127894  0.008132217  27.57 0.0007325255    1.123    0.110
       159  -9.2614    140.5041     54.5002   2.9049644367e+02   6.2837544875e+00   0.00642487   0.00624073 -14.16 -0.0002814358    1.012    0.011
       160  -9.4856    149.5170     52.4823   2.9038063523e+02   6.2577573320e+00  0.006448077  0.006210604 -17.49 9.454008e-05    1.001    0.001
       161  -8.8000    105.5135     52.5159   2.9088885001e+02   6.4948935669e+00  0.006386776  0.006270687  -3.40 2.701701e-05    1.031    0.030
       162  -9.2583    195.0089     49.6832   2.8983952392e+02   6.0431465347e+00    0.0113933  0.006729298 -61.74 0.0007304884    1.697    0.411
       163  -9.1544    220.9592     44.5298   2.8951027448e+02   5.9604617151e+00  0.009903387  0.006353628  21.60 0.0009996332    1.573    0.364
       164  -8.6821    189.9807     44.4947   2.8986715561e+02   6.1286886418e+00  0.009053794  0.005374207 -11.74 0.0004765586    2.330    0.571
       165  -9.0880    132.3811     43.8115   2.9052777033e+02   6.4478200226e+00  0.009289245  0.005625829 -50.29 0.0004989121    1.597    0.374
       166  -8.7350    214.0000     42.9749   2.8958137099e+02   6.0156543912e+00   0.01051802  0.003657089 -62.34 0.0007932528    2.879    0.653
       167  -8.5578    184.3449     43.3091   2.8992521296e+02   6.1725240252e+00  0.006993646  0.004715067 -25.32 7.306748e-05    1.700    0.412
       168  -9.6070      5.1124     41.2496   2.9198360387e+02   7.1613832850e+00   0.01273472  0.008509298  74.39  0.001249474    2.100    0.524
       169  -9.4442    173.8035     40.1453   2.9002829935e+02   6.2651342831e+00  0.009606345  0.009149888  65.16  0.001215995    1.133    0.117
       170  -9.7928    105.6258     39.8051   2.9081334425e+02   6.6372484674e+00  0.009371698  0.008465739  -5.01  0.001155491    1.106    0.096
       171 -10.6716     94.6219     38.7577   2.9093434842e+02   6.7083470995e+00    0.0275121   0.01411597 -28.22  0.002292088    2.722    0.633
       172 -10.4489    248.6763     37.5225   2.8914999915e+02   5.8888341894e+00   0.01566684   0.01164916 -29.80  0.001058868    1.427    0.299
       173  -9.1420    242.5215     37.5352   2.8922094785e+02   5.9220917032e+00  0.006450759  0.006189134 -17.60 3.026279e-05    1.008    0.008
       174  -9.7575    229.4518     37.0565   2.8936868899e+02   5.9983715330e+00   0.01247983  0.009540815  21.73 0.0005601682    1.304    0.233
       175  -9.4659    218.3707     34.3904   2.8948076405e+02   6.0884110127e+00   0.01203397  0.007855209 -65.41  0.000608176    1.591    0.371
       176  -9.2958    104.4647     34.4847   2.9079568664e+02   6.7033376613e+00  0.006432493  0.006211408 -18.30 1.053299e-05    1.003    0.003
       177 -10.0177    163.7574     31.4255   2.9009321351e+02   6.4174906538e+00   0.01987724   0.01157325 -86.10  0.001729444    2.565    0.610
       178  -8.9460    194.2696     29.6642   2.8973093722e+02   6.2721190740e+00  0.006500054  0.004957531  66.52  0.000524529    1.595    0.373
       179  -8.8151    101.5002     26.4900   2.9078323953e+02   6.8092158755e+00  0.006395193  0.006263472  -6.73 7.992717e-05    1.026    0.026
       180  -9.7386     91.2304     23.6776   2.9088547960e+02   6.8961954793e+00   0.01191338  0.009601301 -54.38  0.001396756    1.222    0.182
       181  -9.1635    220.9786     23.7957   2.8938868782e+02   6.1932754169e+00  0.008791635  0.005109164  23.74 0.0008601402    1.721    0.419
       182  -9.0339    249.4970     22.4970   2.8905255815e+02   6.0531025621e+00  0.006530727  0.006127834 -22.09 -0.0001044271    1.041    0.039
       183  -9.2863    243.8121    248.2933   2.9043630541e+02   3.5450535628e+00   0.01042412  0.007711489  43.05 0.0008431185    1.418    0.295
       184  -9.5411    206.3454     20.1945   2.8953627476e+02   6.3130653039e+00   0.01063723  0.008805618  -2.75 0.0005788537    1.262    0.207
       185 -10.7747    240.9315     18.4393   2.8912743711e+02   6.1451625756e+00   0.01246728  0.009617887 -57.62 0.0005865843    1.285    0.222
       186  -9.5043    120.7288     16.8171   2.9050457757e+02   6.8142067781e+00   0.01092933  0.007590778 -41.96  0.001081966    1.444    0.307
       187  -8.6806      4.3060     16.6351   2.9184954927e+02   7.4425720428e+00  0.006820556  0.004888735  63.87  0.000703737    1.743    0.426
       188  -9.3125    131.4233     13.7638   2.9036320292e+02   6.7907690631e+00  0.009292981  0.005679355 -49.19 0.0007880356    1.590    0.371
       189  -8.6765    212.6875     13.2991   2.8942278799e+02   6.3561224755e+00    0.0066077  0.004884084  59.13 0.0004387217    1.605    0.377
       190  -9.3448    234.0881    248.0356   2.9054659725e+02   3.6004473080e+00   0.01666969   0.00699374  38.02  0.001415994    2.369    0.578
       191  -8.6092    160.5108     10.5500   2.9000856359e+02   6.6696292425e+00  0.006430365  0.006197203 -13.18 0.0001308108    1.005    0.005
       192  -9.8250    225.1337    245.7643   2.9063634613e+02   3.6743346108e+00   0.01955027   0.01242389  77.37  0.001826231    2.367    0.577
       193  -9.5221    146.7260    243.1640   2.9152345291e+02   4.1263735346e+00   0.01868394  0.008550541 -80.08  0.001305815    3.991    0.749
       194  -9.3168    120.3191    245.6580   2.9184198813e+02   4.2404427638e+00  0.006823499  0.004881679  61.71            0    1.718    0.418
       195 -10.1350    249.5526    243.1424   2.9034034340e+02   3.5720045658e+00    0.0158284   0.01161519  76.82  0.001691011    1.756    0.430
