#   1 NUMBER                 Running object number                                     
#   2 MAG_AUTO               Kron-like elliptical aperture magnitude                    [mag]
#   3 X_IMAGE                Object position along x                                    [pixel]
#   4 Y_IMAGE                Object position along y                                    [pixel]
#   5 X_WORLD                Barycenter position along world x axis                     [deg]
#   6 Y_WORLD                Barycenter position along world y axis                     [deg]
#   7 A_WORLD                Profile RMS along major axis (world units)                 [deg]
#   8 B_WORLD                Profile RMS along minor axis (world units)                 [deg]
#   9 THETA_WORLD            Position angle (CCW/world-x)                               [deg]
#  10 FWHM_WORLD             FWHM assuming a gaussian core                              [deg]
#  11 ELONGATION             A_IMAGE/B_IMAGE                                           
#  12 ELLIPTICITY            1 - B_IMAGE/A_IMAGE                                       
         1 -12.9877    170.6623     26.7134   6.0005028247e+01   3.9304573645e+01     1.067122    0.9934104  47.86  0.005542954    1.070    0.066
         2  -8.7709    116.1765     12.6252   6.5130652903e+01   5.4859057205e+01    0.2625138    0.1935396  29.88  0.001346934    1.359    0.264
         3  -9.9900    120.3098      8.9824   6.2608381463e+01   5.4275929410e+01    0.4657246    0.3474142  45.72  0.001711388    1.282    0.220
         4  -9.5195    145.4950      4.9732   5.6148640911e+01   4.8327827548e+01    0.2158741    0.1411381 -18.31  0.000455193    1.557    0.358
         5  -8.9764    171.3047      2.6497   5.1525734928e+01   4.1703028928e+01    0.1554786    0.1010365 -55.42 0.0007041304    1.703    0.413
         6  -8.9114    250.5654    239.0834   9.5877721802e+01  -5.8427366734e+00    0.1285285   0.08942022  -9.46 0.0003363899    1.490    0.329
         7 -11.8798    233.1465    250.0394   9.9948026671e+01  -4.3480320755e+00    0.1907419    0.1184186  36.02 0.0003173779    1.202    0.168
         8  -9.8777    135.9893    248.7449   1.1479814886e+02   9.8083037606e+00    0.2587975    0.1996762  -9.53  0.001865876    2.336    0.572
         9 -19.0990     78.3545    211.5461   1.2101899378e+02   2.3269854307e+01     4.952813     3.973263  63.91    0.0197819    1.096    0.088
        10 -12.2101    158.3587    141.9712   9.5344411601e+01   2.2611103780e+01    0.7099335    0.5368261  76.50  0.002854631    1.695    0.410
        11  -8.8308     10.8147    230.1631   1.3312235879e+02   2.7790064836e+01    0.1337728   0.08090685  69.24 0.0003153865    1.108    0.097
        12  -8.5129    227.8213    143.8686   8.2670700968e+01   8.3055852898e+00    0.1959093    0.1569184  14.65 0.0003824602    1.165    0.142
        13  -8.4802     13.5187    143.1216   1.2810324360e+02   4.3554413977e+01    0.1527296   0.08568545 -81.32 0.0002604505    1.402    0.287
        14  -9.4652    170.2043    237.6421   1.0814183315e+02   6.1143719832e+00    0.1785448    0.1447041  25.59 0.0001809019    1.262    0.208
        15  -8.6109     26.4243    137.8384   1.2477659485e+02   4.3541038088e+01     0.211144    0.1580872   1.63 0.0009596964    2.293    0.564
        16  -9.9454      9.3321    215.7871   1.3281283390e+02   3.0253839336e+01    0.1547852    0.1112992  67.76 0.0002494472    1.125    0.111
        17 -10.0854     31.6209    134.9738   1.2329340108e+02   4.3665588532e+01    0.2792418    0.1695017  29.17  0.001503435    2.075    0.518
        18  -8.6026     14.4442    133.8565   1.2716511705e+02   4.5433415174e+01    0.1960575    0.1156765 -45.40  0.001161594    2.359    0.576
        19 -11.3459    160.6361    128.7728   9.2030897002e+01   2.4571464153e+01    0.4426972    0.4176558 -74.77  0.001757069    1.135    0.119
        20 -11.3852    152.9330    130.3909   9.4037218285e+01   2.5861005881e+01    0.5799157     0.283251  50.61  0.002248936    2.048    0.512
        21 -10.0069    160.7066    208.4353   1.0604978615e+02   1.1378682658e+01    0.2280075    0.1968516 -68.14 0.0005329784    1.459    0.315
        22 -11.8835     12.0677    206.6668   1.3200019151e+02   3.1541906198e+01    0.4502883    0.3923512  57.02  0.003502841    1.495    0.331
        23 -10.9072      2.2428    197.4579   1.3324112988e+02   3.4026140584e+01    0.4356777    0.1031962 -71.20  0.002219317    3.571    0.720
        24  -9.6506    206.1453    201.0000   9.7091688863e+01   4.7709135914e+00    0.2430336    0.1425831  41.32 0.0006766301    1.419    0.295
        25  -9.2198     11.5725    197.8205   1.3168887974e+02   3.3132762923e+01    0.2297598    0.1281605 -60.31  0.001574151    2.323    0.569
        26  -9.8402     17.3380    193.1004   1.3046737827e+02   3.3441844305e+01    0.2991486    0.1332704 -75.16  0.001254951    1.994    0.499
        27  -9.9128    115.4128    116.9152   9.9711633657e+01   3.5943459975e+01    0.2556674    0.2095228  40.40 0.0005324167    1.295    0.228
        28  -9.8497     37.9714    116.7977   1.1960394872e+02   4.7045500463e+01    0.2330987    0.1918663  33.17 0.0009290803    1.512    0.339
        29  -9.4405    168.5122    114.0026   8.6889146276e+01   2.5600933136e+01    0.3351836    0.2397669 -70.12  0.001504799    1.963    0.491
        30 -11.0101    177.3133    217.4824   1.0441255938e+02   7.4668721467e+00    0.3741612    0.3102597 -70.64  0.001661079    1.722    0.419
        31  -9.1980     14.3137    178.8929   1.3024981550e+02   3.6353047683e+01    0.1630867    0.1172047 -70.12 0.0004962435    1.533    0.348
        32  -9.6296     79.7653    104.5803   1.0629391059e+02   4.4629889644e+01    0.3130901     0.124803  42.03  0.001281915    2.644    0.622
        33  -8.9381    250.2546    177.3337   8.5765727081e+01   1.4037763022e-01    0.1900962     0.152338 -47.94 0.0008210459    1.918    0.479
        34  -8.8509     21.2997    101.9438   1.2213200164e+02   5.1891002945e+01    0.2324562    0.1538455 -20.90  0.001108096    2.462    0.594
        35 -10.1536    221.4530    176.8568   9.0342841116e+01   5.1305884839e+00    0.2987676    0.2116556 -48.18  0.001713085    1.961    0.490
        36  -9.5230    100.0251     97.5334   9.9174115337e+01   4.2902774259e+01    0.3730547    0.2362202  27.54  0.001693153    2.125    0.529
        37  -8.7479    169.8283     96.1483   8.1983604236e+01   2.8551951456e+01    0.2108468     0.202641 -74.09 0.0003268103    1.111    0.100
        38 -10.8943    239.4116    173.5078   8.6758172914e+01   2.4036670723e+00    0.3998176    0.2018703  37.13 0.0009500277    1.765    0.433
        39  -9.9352    240.1643    168.4241   8.5661658322e+01   2.8774628189e+00     0.226374    0.1872176   7.83 0.0002800551    1.040    0.039
        40  -9.2961    240.0803    163.6419   8.4737889463e+01   3.4702555938e+00    0.1782962    0.1395529  27.24 0.0004512697    1.131    0.115
        41  -9.0929    198.6944    238.4969   1.0370051243e+02   1.7155764076e+00    0.1719454     0.163207  41.97  0.001313624    1.380    0.275
        42 -10.0813    208.3187    161.1771   8.9618282689e+01   9.6396645285e+00    0.2215986    0.1931336  32.77 0.0002862561    1.084    0.077
        43 -10.3256     62.8329     91.3768   1.0830596575e+02   4.9977867547e+01    0.4483312    0.2279571  36.09  0.001627539    2.241    0.554
        44  -9.8322    111.4300     90.6456   9.4344696911e+01   4.2287113004e+01     0.435669    0.1650756  53.46  0.001428855    3.468    0.712
        45  -9.5046     55.7696     92.0217   1.1053724300e+02   5.0715040234e+01    0.3159041    0.1962874  24.39   0.00123428    2.138    0.532
        46  -9.4097    225.7340     88.7871   6.9842097224e+01   1.6658573207e+01    0.2338185    0.2203582  35.94 0.0004367302    1.116    0.104
        47  -8.8162     35.0768     85.1917   1.1550356303e+02   5.4490801612e+01    0.1870226    0.1457767 -51.46 0.0006109155    1.258    0.205
        48  -8.2641    230.6102     84.7134   6.8032749004e+01   1.6135228086e+01    0.1537664    0.1043636  22.49 0.0007006502    1.757    0.431
        49  -8.9860     48.2037     81.7785   1.1071269435e+02   5.3920091373e+01    0.1999706    0.1558889  40.00 0.0009122692    1.497    0.332
        50  -9.9839     22.8671    157.0298   1.2716389559e+02   3.9862729062e+01    0.1749934    0.1373079  61.09 0.0006537726    1.229    0.186
        51  -9.1119    112.8803     77.1640   9.0128975711e+01   4.4812045818e+01    0.2173405    0.1937966 -72.27 0.0003732857    1.202    0.168
        52  -9.5527    192.2252    153.3069   9.0974475232e+01   1.3928223308e+01    0.4242527    0.2131573 -51.39  0.001759309    2.805    0.643
        53 -11.9392    148.0033     68.1143   7.8499043316e+01   3.8789152767e+01    0.8625477    0.6558015  54.31  0.001714366    1.360    0.265
        54 -12.8009    157.9315     55.0061   7.2052037657e+01   3.8582333080e+01       1.2698     1.105996 -21.20   0.00394377    1.142    0.124
        55 -11.6002    162.7927     45.8549   6.7993969557e+01   3.8763794522e+01    0.5762969    0.5617673 -17.49 0.0007370688    1.008    0.008
        56 -10.3130    143.6371     59.3551   7.6638496311e+01   4.1374360216e+01    0.3745081    0.2413148  -8.47  0.001372745    2.181    0.542
        57 -10.3833    125.9315     55.3974   7.9579917131e+01   4.6206385486e+01     0.265228    0.2248385 -32.02 0.0002687385    1.130    0.115
        58  -9.3913    221.5954     40.0522   5.6971842651e+01   2.4357471013e+01    0.3435699    0.2290138 -29.60  0.001653681    1.396    0.284
        59  -7.9260    141.6583     41.7253   7.0924041091e+01   4.4732787761e+01    0.1573152    0.1129498  25.11 0.0002761512    1.617    0.382
        60  -8.6038    211.9599    247.6834   1.0282088662e+02  -1.1443348758e+00    0.1489494   0.09955008  35.82 0.0002828254    1.090    0.083
        61  -9.6086    187.5332    153.8349   9.1963523750e+01   1.4770865374e+01    0.4186358    0.2327143  41.59  0.001997105    1.668    0.401
        62  -8.6585     13.9172    246.5133   1.3323976270e+02   2.4999745739e+01    0.1437245   0.07832665  77.32 0.0006190249    1.389    0.280
        63 -10.6628    190.3470     15.1846   5.3315997099e+01   3.5373912849e+01     0.297498    0.2393837 -74.70  0.001537826    1.321    0.243
        64  -9.5198    190.0260    242.6214   1.0558238260e+02   2.5775903453e+00    0.1807687    0.1505856 -25.27 0.0005647545    1.552    0.356
