#   1 NUMBER                 Running object number                                     
#   2 MAG_AUTO               Kron-like elliptical aperture magnitude                    [mag]
#   3 X_IMAGE                Object position along x                                    [pixel]
#   4 Y_IMAGE                Object position along y                                    [pixel]
#   5 X_WORLD                Barycenter position along world x axis                     [deg]
#   6 Y_WORLD                Barycenter position along world y axis                     [deg]
#   7 A_WORLD                Profile RMS along major axis (world units)                 [deg]
#   8 B_WORLD                Profile RMS along minor axis (world units)                 [deg]
#   9 THETA_WORLD            Position angle (CCW/world-x)                               [deg]
#  10 FWHM_WORLD             FWHM assuming a gaussian core                              [deg]
#  11 ELONGATION             A_IMAGE/B_IMAGE                                           
#  12 ELLIPTICITY            1 - B_IMAGE/A_IMAGE                                       
         1 -13.8317     66.8723    134.3565   1.1138772798e+02   3.9792058416e+01     3.211355     1.641675 -59.75   0.01576848    1.895    0.472
         2 -13.4995     58.2048     92.3944   1.0682927370e+02   5.0695247332e+01     3.288695     1.743898  39.00   0.01548538    1.975    0.494
         3 -13.5345    114.9825     71.1513   8.2969944033e+01   4.5646846156e+01     2.632178     2.150193  46.18   0.01336676    1.267    0.211
         4 -13.4553    123.2932     37.3100   6.8362124984e+01   4.9799338126e+01     2.955078     2.132548  -0.30  0.006781316    1.655    0.396
         5 -13.1976     90.0193     39.7992   7.9086114489e+01   5.7018736334e+01     1.762201     1.519334  27.89  0.009522593    1.211    0.174
         6 -13.0313    135.2680     97.6060   8.5392898917e+01   3.6031626924e+01     2.406301      1.33518 -36.95   0.01014122    1.857    0.461
         7 -11.5733     66.4350     39.9627   8.7971713434e+01   6.1466358892e+01     1.259207    0.6783178 -21.10  0.004525215    3.292    0.696
         8 -11.5765     55.6718     37.5227   9.1560047966e+01   6.3700357705e+01     1.378965    0.7726917 -72.65  0.004534979    4.547    0.780
         9 -12.0951     90.3021     13.4808   6.6539971519e+01   6.1132834058e+01     1.398086      0.87854 -12.96  0.006473321    1.689    0.408
        10 -10.1962    107.4338      8.2106   5.9269779204e+01   5.7626144809e+01    0.4439269    0.2707111 -48.97  0.001960841    1.950    0.487
        11 -11.1203    101.4681      6.8970   6.0058915011e+01   5.9254371473e+01    0.7726839     0.431264  69.62  0.002699624    2.065    0.516
        12 -11.7393    102.3187     20.3919   6.6474155569e+01   5.7381682947e+01     1.479953     0.839122  -1.82  0.005705602    2.533    0.605
        13 -13.9200    115.4051     95.8520   9.0102999988e+01   4.0450003019e+01     3.113986     2.104405 -69.59   0.01129497    1.990    0.497
        14 -10.2718    106.0168      2.5021   5.6762328710e+01   5.8569566135e+01    0.5059327    0.3410092  63.98  0.001800671    1.502    0.334
        15  -9.0716      3.5206      5.4490   1.0774513070e+02   7.6081278322e+01    0.1215908   0.09511681 -46.96 0.0001277444    1.013    0.013
        16  -8.1101    172.0035      2.9774   4.6698043679e+01   4.1006341962e+01    0.1662471    0.1570631 -28.21  0.000948639    1.050    0.048
        17  -8.6840     50.0107      1.3530   7.4830413437e+01   7.1096161525e+01    0.1761772    0.1221277  41.97            0    1.532    0.347
        18  -8.7488      6.6752      1.6932   1.0333492018e+02   7.6652778732e+01    0.1289278   0.07135842 -33.07 0.0005895744    1.648    0.393
        19  -9.9372     10.6729    236.4931   1.3047998740e+02   2.6383971040e+01     0.233575    0.1256887 -67.01  0.001750265    2.382    0.580
        20 -11.5712    247.1985    229.2115   8.9695106606e+01  -1.4304507208e+00    0.4308282    0.2804444  18.38  0.002718925    1.064    0.060
        21 -10.6935    249.1211    223.8397   8.8633446824e+01  -1.2182600322e+00    0.2902862    0.1886703  10.02  0.002230528    1.143    0.125
        22 -11.3642    246.5752    248.1018   9.2379449249e+01  -2.8512069568e+00    0.4988251    0.2922162  34.65  0.003046571    1.538    0.350
        23 -11.4292    249.7694    240.6789   9.0925347203e+01  -2.6531409386e+00    0.5340376    0.2931704 -24.61  0.004000331    2.018    0.504
        24 -10.2368    195.2774    248.7405   1.0020733889e+02   3.3094999439e+00    0.2736545    0.1735155  16.87  0.002061583    1.376    0.273
        25 -11.7619    173.8098    244.1849   1.0313793753e+02   6.5146701007e+00    0.5610129    0.4558405  60.77  0.004456181    1.824    0.452
        26 -11.8613    166.3657    248.5042   1.0483542337e+02   7.0163231780e+00    0.7728228    0.3058318  42.35  0.004528257    2.010    0.503
        27  -8.7174      7.0264    250.5160   1.3139703065e+02   2.4632126564e+01    0.1295657   0.06441396  39.11 0.0005792577    1.521    0.342
        28 -10.7175     53.1499    234.2772   1.2315867114e+02   2.2647009362e+01    0.4384633    0.3161381  24.01  0.002935592    1.705    0.413
        29 -10.2675     68.5324    231.3932   1.2027102382e+02   2.1403642988e+01    0.4281593    0.2001584  27.68  0.002466017    2.401    0.584
        30 -11.4259     60.2681    228.4399   1.2156845671e+02   2.2770836078e+01    0.7456577    0.2459711  41.34  0.004204648    2.085    0.520
        31  -9.7096    160.8373    234.8289   1.0424958512e+02   9.2658546682e+00    0.2073559    0.1375685  17.21 0.0005023995    1.546    0.353
        32  -9.9310    164.6540    233.7801   1.0347761367e+02   8.8754301000e+00    0.2621006     0.209018 -79.81  0.001905222    2.271    0.560
        33 -11.2627    169.5946    232.2780   1.0245956333e+02   8.3821385181e+00    0.4828474    0.3506997 -29.78  0.003653997    1.723    0.420
        34 -11.4347    164.6313    226.4342   1.0260919460e+02   9.7428379195e+00    0.4412135    0.2687337  26.34   0.00198344    1.420    0.296
        35 -10.6186    160.5279    227.4788   1.0344834362e+02   1.0181112224e+01    0.3216038    0.1745161  33.38  0.001507842    1.431    0.301
        36 -11.2402    236.7001    230.6208   9.1453299558e+01  -2.5867138959e-01    0.2521138     0.240222  -4.97   0.00190356    1.901    0.474
        37  -9.3989    128.7477    231.9616   1.0953711662e+02   1.3898507680e+01    0.1088805   0.09390682 -53.37 0.0006337643    1.536    0.349
        38 -11.5266      7.1641    230.0185   1.3089957367e+02   2.7679184929e+01    0.8016134     0.385179  27.48  0.005463461    2.260    0.557
        39 -11.9103     12.2027    206.7311   1.2933751265e+02   3.1065687364e+01    0.8309667    0.4888418  39.86  0.006160009    1.444    0.307
        40 -11.3914      3.9419    213.3111   1.3103211985e+02   3.0643412951e+01    0.5140556    0.3540866 -85.57  0.004247923    1.490    0.329
        41 -11.4091     14.1086    222.6141   1.2950426366e+02   2.8255086899e+01    0.6369972    0.2743044  33.84  0.004204141    1.990    0.497
        42 -11.1025     11.4084    216.5889   1.2979560884e+02   2.9472220534e+01    0.4605719    0.2896406  38.04  0.003598691    1.433    0.302
        43  -9.1057    114.8534    229.0647   1.1174269030e+02   1.6106938737e+01    0.1786253     0.140791 -72.26  0.001131164    1.652    0.395
        44 -11.1106     99.2260    226.9714   1.1439066232e+02   1.8399968851e+01    0.3292573     0.269621  32.03  0.001541054    1.243    0.196
        45 -10.0185    185.1529    226.7762   9.9143991985e+01   6.8842726659e+00    0.1704751    0.1590706  -0.59 0.0009550707    1.390    0.281
        46 -10.0724    181.5056    226.5495   9.9729825506e+01   7.4086441140e+00    0.2766327    0.1815453 -19.54  0.001914149    1.852    0.460
        47  -8.5563    144.4160    228.7745   1.0642557591e+02   1.2217911828e+01    0.1234928   0.09990393 -19.42 0.0004864007    1.583    0.368
        48 -10.8665    128.4834    225.5054   1.0892635377e+02   1.4798551339e+01    0.2636654    0.2135596  -9.98  0.001647695    1.654    0.396
        49 -11.2953    125.8248    221.0353   1.0894279112e+02   1.5774911052e+01    0.3870122    0.2880914  28.10 0.0007339834    1.255    0.203
        50  -9.2942     88.5201    224.4378   1.1614264994e+02   2.0102956633e+01    0.2671947     0.104704 -65.23  0.001471501    3.175    0.685
        51 -10.4288    107.5010    223.4829   1.1256132998e+02   1.7853111013e+01    0.3929145    0.2388386  19.32  0.002353154    2.194    0.544
        52  -9.3931    157.7121    222.0071   1.0328580455e+02   1.1245738934e+01    0.1902229    0.1407962  26.01 0.0007098576    1.146    0.127
        53  -9.2849    148.8382    220.6140   1.0470440781e+02   1.2662946929e+01       0.1956    0.1524585 -34.58 0.0006997742    1.617    0.382
        54 -11.0022    131.9767    217.6857   1.0744469565e+02   1.5403024462e+01    0.5208721     0.285891 -66.42  0.002949135    2.950    0.661
        55  -9.5586    114.7726    221.5701   1.1103569627e+02   1.7178679591e+01    0.2065705    0.1598949   8.30 0.0009270082    1.695    0.410
        56  -8.7196     91.5805    220.6517   1.1526296964e+02   2.0299182180e+01    0.1770658   0.08254907 -46.67  0.000955374    3.258    0.693
        57  -9.2868    191.9213    218.4112   9.6886099848e+01   6.8753869270e+00    0.2150525    0.1440419 -41.48  0.001468143    2.017    0.504
        58 -10.8888     99.8989    218.7823   1.1354172952e+02   1.9531108078e+01    0.4668038    0.2780739  59.72  0.002990071    1.716    0.417
        59  -8.7381     75.1829    219.8529   1.1826214297e+02   2.2412633743e+01    0.1651895    0.1100686  53.08 0.0005329995    1.184    0.155
        60  -9.7641    175.8603    216.7874   9.9424217426e+01   9.3289187004e+00    0.2191673    0.1641341 -34.74  0.001086772    1.648    0.393
        61  -9.3864    143.8327    216.3004   1.0510187444e+02   1.3939216354e+01    0.2120532    0.1547236 -38.44  0.001453802    1.729    0.422
        62  -9.5682    249.5949    215.7728   8.7356209923e+01  -5.8841443301e-01    0.1277881   0.08712268 -23.36 0.0009512336    1.665    0.399
        63  -9.2823    112.2859    214.3106   1.1077186960e+02   1.8579484052e+01     0.219169    0.1713446   1.18  0.001430602    1.791    0.442
        64  -8.6642    228.6974    214.6681   9.0361378201e+01   2.2227424614e+00    0.1130221   0.06440504  11.59 0.0007035293    1.654    0.395
        65  -8.1477    208.3081    213.3395   9.3432176921e+01   5.1383945701e+00    0.1153496   0.06888597  11.74 0.0007043221    1.685    0.406
        66  -9.9458     78.2003    211.3616   1.1703205951e+02   2.3412856651e+01    0.2856666    0.2251361  24.47  0.002089071    1.479    0.324
        67  -8.5481    186.0142    211.9661   9.6997331711e+01   8.4509679702e+00      0.18209    0.1142386  11.63 0.0008943584    1.735    0.424
        68  -9.1692    115.8535    210.5498   1.0969806746e+02   1.8664153391e+01    0.1981191    0.1411543  80.57 0.0009491169    1.875    0.467
        69 -11.0541    245.4441    209.4395   8.6996230553e+01   5.0578952563e-01    0.3165741    0.1657885  34.64  0.002061887    1.615    0.381
        70 -10.1316    248.5311    205.1834   8.5862846746e+01   4.9182684658e-01    0.2241919    0.1496577  31.70  0.001246466    1.394    0.283
        71  -9.4992    202.7389    209.2282   9.3750585908e+01   6.3687755972e+00    0.2287709    0.1814448   0.54  0.001253874    1.205    0.170
        72  -9.7745    212.5310    207.5879   9.1879360788e+01   5.1586586569e+00    0.2090686    0.1562439  37.50  0.001487553    1.402    0.287
        73  -8.8715    134.6215    208.5560   1.0589267312e+02   1.6333632204e+01    0.2496331   0.09108837  38.79   0.00120422    2.175    0.540
        74 -10.1693    123.9972    205.9959   1.0762335684e+02   1.8222997319e+01    0.1638371    0.1311661  41.18            0    1.009    0.009
        75  -8.3964     99.3400    206.6342   1.1249339308e+02   2.1499795887e+01    0.1216508   0.07115369  61.17 0.0007029274    1.843    0.458
        76 -10.3071     74.2065    201.3338   1.1698900464e+02   2.5577270905e+01     0.392693     0.277947   1.47  0.002340651    2.521    0.603
        77  -9.5040     34.4576    213.3349   1.2547271353e+02   2.7892393106e+01    0.2528263    0.1768757 -51.22  0.001845494    2.126    0.530
        78  -7.9241    162.3993    208.2812   1.0068674041e+02   1.2343326753e+01     0.119805   0.07623456  16.25 0.0006992003    1.768    0.434
        79 -10.6314    249.8784    199.1101   8.4680329288e+01   8.7512735846e-01    0.3401344     0.183522 -14.12  0.001685483    1.742    0.426
        80  -9.2962     89.1548    199.6095   1.1382815581e+02   2.3993689961e+01    0.2194832    0.1452291  64.14 0.0009289935    1.512    0.339
        81  -8.8058    164.6926    198.6425   9.8923358983e+01   1.3295700531e+01    0.1853774    0.1231545  12.10 0.0007800093    1.751    0.429
        82  -8.5177    149.4656    198.9931   1.0184143938e+02   1.5545021801e+01     0.146002    0.1042679 -85.62 0.0008090295    2.605    0.616
        83 -11.1089    173.5689    195.4313   9.6809623432e+01   1.2376416652e+01     0.384012    0.3639331   6.85  0.002300613    1.246    0.197
        84  -9.7283    126.5679    197.1981   1.0606206518e+02   1.9211553943e+01    0.2423472    0.1971285  13.71  0.001070922    1.396    0.284
        85  -8.1752    112.3202    197.6555   1.0895783117e+02   2.1181808770e+01     0.120988   0.07839669  62.27 0.0007049652    1.727    0.421
        86  -8.8380    131.8559    195.2531   1.0476721407e+02   1.8737680695e+01    0.1830068    0.1414031  50.08  0.001212437    1.215    0.177
        87  -9.1627    180.7194    193.9365   9.5275737652e+01   1.1476006042e+01    0.1775742    0.1547606 -38.15 0.0007521773    1.460    0.315
        88  -9.1120    135.5724    193.2961   1.0377320488e+02   1.8487251638e+01    0.2744735    0.1480695  55.30  0.001396342    2.222    0.550
        89  -8.4147     43.8524    194.2517   1.2259216808e+02   3.0271903631e+01    0.1948066    0.0708761  59.96 0.0009342475    2.732    0.634
        90  -9.6669     59.9813    192.0775   1.1913109590e+02   2.8897707948e+01    0.2302638    0.1522903 -71.39 0.0008294003    1.628    0.386
        91  -9.0833    124.5597    192.1120   1.0582016903e+02   2.0315867838e+01    0.2030456    0.1385477  45.89 0.0004404497    1.264    0.209
        92  -8.5437    250.6217    189.8526   8.3022504996e+01   1.6530346909e+00    0.1456438    0.0905359 -27.90 0.0009567388    1.734    0.423
        93  -8.3239    241.3214    190.6623   8.4566509110e+01   2.8582070014e+00   0.09316252   0.08952749  -1.31 0.0007050338    1.713    0.416
        94  -9.0738    138.3970    180.1378   1.0134883207e+02   2.0146657306e+01    0.2536154    0.1704419  88.58  0.001241149    2.853    0.650
        95  -8.7460    138.9001    189.5791   1.0260448266e+02   1.8561814369e+01     0.213213    0.1640929 -83.42  0.001239412    1.893    0.472
        96  -9.6095    140.9656    184.6773   1.0149351959e+02   1.9014028494e+01    0.3523533     0.198537  21.73  0.001616841    2.286    0.563
        97  -9.6600    203.9753    188.4180   9.0272435920e+01   8.5940448186e+00    0.3077319    0.1961401  50.43  0.001780337    1.991    0.498
        98  -8.8755    156.1653    187.9536   9.8972698904e+01   1.6131535954e+01    0.1765156    0.1537755  58.16  0.001002645    1.350    0.259
        99  -8.3837    129.3305    188.6785   1.0440464166e+02   2.0158953304e+01    0.1223241   0.08513666  62.38 0.0007049183    1.695    0.410
       100  -8.8542    120.5992    187.1000   1.0598021623e+02   2.1725372693e+01    0.2339416    0.1203947 -63.17  0.001085087    2.593    0.614
       101  -9.7016     95.3139    187.4044   1.1129008230e+02   2.5286958711e+01     0.490858    0.1748648  51.90  0.002037379    3.105    0.678
       102  -9.6781    230.8881    186.2109   8.5437062252e+01   4.8114935007e+00    0.3343923    0.1858013  52.42  0.001723412    2.916    0.657
       103  -8.7178    197.4957    181.9723   9.0320044188e+01   1.0401624379e+01    0.2059385    0.1148322 -36.76 0.0006998834    2.019    0.505
       104  -8.7456    148.6278    186.8209   1.0027936526e+02   1.7482871327e+01    0.1487903    0.1175323 -61.56 0.0009411859    1.661    0.398
       105  -8.9162    108.8027    185.5294   1.0823410180e+02   2.3719986195e+01    0.2843896    0.1555206  70.21  0.001273136    3.152    0.683
       106  -8.7550    198.4056    185.7704   9.0800459677e+01   9.7794563314e+00    0.2543446    0.1407298  -4.34  0.001223548    2.698    0.629
       107 -10.3627    211.0233    183.3374   8.8208218409e+01   8.1199477410e+00    0.4255714    0.2388759  15.88  0.002293034    1.951    0.487
       108 -10.0412     13.7795    182.8233   1.2813499292e+02   3.5249619606e+01    0.3170339    0.2201938   4.13  0.002111762    2.365    0.577
       109  -9.1726    175.2078    179.1976   9.3932979987e+01   1.4357152887e+01    0.2431609    0.1552748   0.73  0.001268772    2.126    0.530
       110  -8.4613     66.3349    185.6793   1.1726336565e+02   2.9327736823e+01    0.1250913   0.06987763  60.88 0.0007049793    1.704    0.413
       111  -9.0760    183.3944    180.9110   9.2689821788e+01   1.2793680104e+01    0.2095108    0.1483334  41.53 0.0006003156    1.343    0.256
       112  -9.5230    147.9674    181.0526   9.9545697405e+01   1.8481017755e+01    0.1904191    0.1445323  67.77  0.000883194    1.761    0.432
       113 -10.5838    204.7095    176.1642   8.8042517959e+01   9.9900831715e+00    0.3204873    0.2346155 -16.41 0.0009953661    1.357    0.263
       114 -10.4482    208.6095    170.0259   8.6257568142e+01   1.0136507294e+01    0.4714614    0.2542715  18.85  0.001955887    2.154    0.536
       115 -10.0612    214.3555    167.9069   8.4880477389e+01   9.4699322580e+00    0.2749712    0.1682698  11.50  0.001257722    1.747    0.428
       116  -9.0169    174.3273    183.6531   9.4830530195e+01   1.3870412140e+01     0.179321    0.1166972 -44.97   0.00104083    1.887    0.470
       117  -8.6040    157.0225    181.0551   9.7745963035e+01   1.7029518509e+01    0.1902696    0.1362661  10.73 0.0004874365    1.616    0.381
       118  -9.7016     27.1481    182.6747   1.2535331237e+02   3.4086134116e+01    0.2149466   0.09857372  79.79   0.00119712    2.133    0.531
       119  -9.8678    149.2350    174.9842   9.8341543892e+01   1.9238981836e+01    0.2579655    0.2453649   2.22  0.001466463    1.137    0.120
       120  -9.7241     76.3628    175.5101   1.1409597846e+02   3.0002083816e+01    0.3482521    0.1711961  55.36  0.001279871    2.002    0.501
       121  -9.2513    105.1447    174.9051   1.0766690820e+02   2.6143448426e+01    0.2734553    0.1571321  65.30    0.0013415    2.305    0.566
       122  -8.2517    218.4649    174.4230   8.5383341033e+01   8.0239419202e+00    0.1235523   0.09468715  12.92 0.0004186866    1.058    0.055
       123  -8.0625     93.4782    174.4785   1.1018034695e+02   2.7896317185e+01     0.122365    0.1053225  54.30 0.0008098945    1.001    0.001
       124 -11.2601     22.4706    139.4292   1.2367932331e+02   4.3414819353e+01    0.9643617     0.729498  49.88  0.004763146    1.253    0.202
       125 -11.9232     17.0504    111.9454   1.2290090525e+02   5.0117615914e+01     2.016682    0.8334369  67.35  0.008896095    2.731    0.634
       126 -11.6731     46.8459    103.7709   1.1262689418e+02   4.9318051863e+01     1.020873    0.5250512  54.80  0.004738846    2.185    0.542
       127 -12.9384     41.6377    119.3354   1.1643067735e+02   4.6187235690e+01      2.50108     1.095632  67.86  0.009854781    3.244    0.692
       128 -11.7513     60.2298    110.5729   1.0959241451e+02   4.6109503475e+01     1.782421    0.4157639  34.12  0.005940424    4.057    0.753
       129 -10.0790    211.6517    248.3802   9.7612732718e+01   1.2991530000e+00    0.2845472    0.1835673  42.40  0.002131516    1.706    0.414
       130 -12.1549     55.9948    147.0132   1.1581814596e+02   3.8349385789e+01     1.003605    0.5902029  43.80  0.003918831    1.561    0.359
       131 -12.6638     39.9732    144.8090   1.1965589768e+02   4.0588182063e+01     3.080107     1.128874 -81.30   0.01304378    2.963    0.663
       132 -12.0675     36.6529    132.2854   1.1930150412e+02   4.3709637640e+01     1.270255    0.5947276  76.18  0.005764073    2.527    0.604
       133 -11.5294     71.2604    115.1778   1.0711122447e+02   4.3566344067e+01     1.123765    0.4254111 -54.89  0.004523008    2.470    0.595
       134 -12.0212     76.6367    101.3160   1.0278180441e+02   4.6010279750e+01     1.496373    0.7077831 -64.95  0.006112199    2.271    0.560
       135 -11.2345    167.8098    242.7211   1.0396444859e+02   7.4531736976e+00    0.3545554    0.1898172  43.10  0.001625548    1.580    0.367
       136  -9.4212    232.0667    177.4896   8.3718519953e+01   5.5856180629e+00    0.1828495    0.1337147  -9.58 0.0008958896    1.227    0.185
       137  -8.7188    193.4009    173.0910   8.9507343255e+01   1.2223705116e+01    0.2127838    0.1407493  26.64 0.0005358226    1.345    0.256
       138  -8.5124    176.9541    171.3290   9.2256541065e+01   1.5200249864e+01    0.1788699    0.1457239  24.14 0.0006264347    1.053    0.050
       139  -9.5013    161.8944    170.4638   9.5045039632e+01   1.7856018562e+01    0.2815067    0.1793514  45.12  0.001550855    1.483    0.326
       140  -8.7022     29.4555    170.7012   1.2415638434e+02   3.6203993240e+01    0.1493411   0.09291746 -69.61 0.0009527279    1.643    0.391
       141  -9.4144    121.6337    168.8797   1.0321406257e+02   2.4724447836e+01    0.3981965     0.237017 -80.90  0.001763261    3.146    0.682
       142  -8.4621    199.0311    167.4619   8.7472164458e+01   1.2045831635e+01    0.1799164   0.09105025  22.68 0.0008072088    2.391    0.582
       143  -8.2783    129.6921    177.3932   1.0274934090e+02   2.1971895793e+01     0.127072   0.09129028  70.40 0.0007008329    1.827    0.453
       144  -9.9360    156.5669    164.5815   9.5104501807e+01   1.9690964827e+01    0.4214737    0.2598942  21.80  0.002116521    1.896    0.473
       145  -8.8139     99.1522    166.1373   1.0783495985e+02   2.8664497541e+01    0.2521646    0.1352536  56.92  0.001065531    2.060    0.515
       146  -9.5553    149.6783    164.4725   9.6508094313e+01   2.0881869669e+01    0.3317516    0.2073148  55.54  0.001688651    1.884    0.469
       147  -8.5640    139.2182    164.8343   9.8775526678e+01   2.2580877357e+01    0.2048332    0.1351647  76.58 0.0007410871    2.772    0.639
       148  -8.8065     80.2039    164.6167   1.1199737938e+02   3.1626466715e+01    0.3057159    0.1353385  65.38  0.001132473    3.919    0.745
       149  -9.1125    185.7853    163.6596   8.9198183155e+01   1.4812351918e+01    0.2052424    0.1400787  22.01 0.0007568042    1.416    0.294
       150  -9.3337     71.1141    163.6843   1.1400792156e+02   3.3002948352e+01    0.3279705    0.1495302  47.56  0.001387513    1.956    0.489
       151  -8.8122     93.2053    161.0658   1.0851614319e+02   3.0518356584e+01    0.2550003    0.1372392  58.76   0.00121707    2.117    0.528
       152  -8.4940    144.7172    159.7412   9.6733759038e+01   2.2529109263e+01    0.1698785    0.1399958  56.16 0.0004341975    1.301    0.231
       153  -8.7471     23.3278    159.6680   1.2485589162e+02   3.9010460338e+01    0.1913214   0.09479203  61.30 0.0007987852    1.762    0.432
       154  -9.3698     23.3366    155.9762   1.2461916167e+02   3.9778791431e+01    0.2724766    0.1077352 -58.93  0.001341809    2.744    0.636
       155  -9.5035    106.2813    158.2862   1.0507504783e+02   2.9106181128e+01    0.3839898    0.2164389  64.91  0.001728423    2.501    0.600
       156  -9.3433    104.8127    153.8071   1.0473412820e+02   3.0212141768e+01    0.3383635     0.217649  18.80  0.001605614    2.142    0.533
       157  -9.7052    213.1156    155.3494   8.2682727578e+01   1.1269496533e+01    0.2724726    0.2518542  43.47  0.001486586    1.419    0.296
       158  -9.4037    119.0694    155.1760   1.0163481247e+02   2.7668737051e+01    0.3424297     0.213555  77.80  0.001491391    2.844    0.648
       159 -10.0130     81.7462    152.4984   1.1009010851e+02   3.3880240746e+01    0.4785032    0.3057427 -61.64  0.002660227    1.614    0.380
       160  -8.2744    243.6656    154.6734   7.7617040227e+01   6.3489325523e+00    0.1303061   0.07722663  10.17 0.0007051561    1.717    0.418
       161 -10.4757    133.7013    151.2883   9.7645098378e+01   2.5932469230e+01    0.6079226    0.3104498 -54.04  0.002778913    2.276    0.561
       162  -9.9170    230.5518    149.9992   7.8724894223e+01   9.0103875340e+00    0.4168745    0.2299316 -44.42   0.00204182    2.606    0.616
       163 -10.5908    235.9550    147.0019   7.7264282001e+01   8.4766506718e+00    0.3907583     0.163432  41.83  0.001859811    2.312    0.568
       164  -8.0973    205.6586    159.6949   8.4827842187e+01   1.1965467600e+01    0.1342502   0.08579851  12.26 0.0007041159    1.682    0.406
       165  -9.5377    189.7947    147.6254   8.5319408558e+01   1.6444781506e+01    0.4531238    0.1594877 -32.44  0.001734647    3.119    0.679
       166  -9.3479     91.4553    148.9941   1.0721670312e+02   3.3214768074e+01    0.2297516    0.2232009  58.37  0.001516485    1.115    0.103
       167  -8.9460     27.4664    149.5943   1.2318257478e+02   4.0761056689e+01    0.2491156     0.115594  66.72  0.001269393    2.109    0.526
       168  -8.3453    220.9267    149.2074   8.0131874645e+01   1.0728259189e+01    0.1621079   0.09399483  41.91 0.0008564235    1.696    0.410
       169  -9.8548    149.3345    145.4680   9.3095178222e+01   2.4207343412e+01     0.430345    0.2859435  80.55  0.001773521    3.197    0.687
       170  -9.7004    107.2097    145.0388   1.0274051129e+02   3.1587271825e+01    0.5531635    0.2969936  68.27  0.002066533    3.532    0.717
       171  -7.7427    195.3227    146.6274   8.4085751533e+01   1.5588871304e+01    0.1240044    0.1074829 -76.17 0.0007031633    1.811    0.448
       172  -8.4177     13.3360    146.6646   1.2644962653e+02   4.2590188662e+01    0.1274945   0.06338644  61.72 0.0005573621    1.744    0.427
       173  -9.3682     98.3258    151.0334   1.0585457208e+02   3.1766430531e+01    0.1802946    0.1650679  85.50 0.0006581995    1.092    0.084
       174 -10.1520    248.5405    144.2710   7.4802012361e+01   6.7496943893e+00    0.2620931    0.1681818  59.90  0.001384045    2.682    0.627
       175  -9.0417    125.3584    143.2886   9.8097881868e+01   2.8888450146e+01    0.3329613    0.2190435  85.31  0.001440157    2.735    0.634
       176 -12.2795    152.5088     98.4413   8.1527035695e+01   3.2175717856e+01     4.348217     1.851409 -23.07   0.01105062    5.730    0.825
       177 -13.0817     99.1559    132.2811   1.0252649496e+02   3.5539087215e+01     2.268314      1.27819  35.99   0.01077038    1.789    0.441
       178 -11.6638     96.9133     96.9611   9.5644678904e+01   4.3678111925e+01     1.644237    0.7178971  56.73  0.005287685    3.805    0.737
       179 -12.1011    103.1899     57.0835   8.1621559346e+01   5.0959376840e+01     1.000583    0.8678474 -51.30  0.005268338    1.176    0.150
       180 -12.8427    129.5649    119.6131   9.2235431147e+01   3.2792790516e+01      2.43167     1.234766 -63.00  0.008695779    3.280    0.695
       181  -8.8436    107.8202    248.8870   1.1468012441e+02   1.4343280428e+01    0.1457014    0.1111788  32.77 0.0006610835    1.217    0.178
       182 -12.8301    114.1855    120.1312   9.6228712940e+01   3.5548091097e+01     2.120568     1.192866  62.21  0.008503733    2.594    0.615
       183  -8.3690    197.2958    137.6933   8.1842333831e+01   1.6525454385e+01    0.1203656    0.1090791 -72.10 0.0002044308    1.586    0.370
       184  -9.6051    151.2918    134.8219   9.0501841789e+01   2.5744668188e+01    0.4228545     0.387021  29.23  0.002512684    1.027    0.026
       185 -11.9134     93.0229    113.5747   1.0054943846e+02   4.0626551778e+01     1.414518    0.5935844 -53.31  0.005666568    2.317    0.568
       186 -10.5157     12.2875    128.3649   1.2556242224e+02   4.6694009995e+01    0.7672411     0.254658  79.97  0.002989654    3.578    0.721
       187  -9.1732    232.1472    132.9935   7.4916094165e+01   1.0833068256e+01    0.2025174    0.1372604 -45.56  0.001087612    1.977    0.494
       188  -9.4910    153.6198    130.5117   8.9063750952e+01   2.6074340617e+01    0.2999633    0.2099514 -78.12  0.001311925    2.570    0.611
       189  -8.1530    179.3208    124.6317   8.2357138007e+01   2.2013755385e+01    0.1380076    0.1133787 -74.67 0.0007036657    1.793    0.442
       190 -10.6754    159.3459    116.9984   8.4715157427e+01   2.7360366049e+01    0.4333111    0.3154796 -74.32  0.001910474    2.203    0.546
       191 -10.2518    152.0574    122.1306   8.7531531746e+01   2.7903506568e+01    0.4593477     0.231664 -33.12  0.001883897    2.253    0.556
       192 -10.1259    153.8895    115.6789   8.5602327951e+01   2.8715599983e+01    0.4031688    0.2597356 -59.37  0.001579097    2.114    0.527
       193  -9.6860    158.9028    112.0953   8.3619239599e+01   2.8330278384e+01    0.3284132    0.2316115 -51.15  0.001117887    1.609    0.378
       194 -10.1823    159.4818    107.4568   8.2330421458e+01   2.9040764382e+01    0.3633294    0.3278083 -48.07  0.001697441    1.195    0.163
       195  -9.0019    250.0481    124.0000   7.0301315853e+01   8.8313173444e+00    0.1885863   0.06918927  48.89 0.0001542823    2.976    0.664
       196  -8.8007    249.3076    118.3121   6.9151915449e+01   9.6250351948e+00     0.132025   0.08442596   8.98 0.0003614468    1.622    0.383
       197  -9.0873      3.5703    117.9409   1.2727973573e+02   4.9653310987e+01    0.2958377    0.0831935  62.53  0.001096705    4.034    0.752
       198  -9.6525    165.3062    116.2160   8.3245879177e+01   2.6274439539e+01    0.4003796    0.2905515  18.90  0.001577494    1.575    0.365
       199  -9.7333     17.4887    249.2268   1.2971519326e+02   2.3907230732e+01    0.2397788   0.06605679  43.19  0.001511892    2.079    0.519
       200 -10.0270    197.0053    102.7285   7.3686275857e+01   2.1816241989e+01    0.4053601    0.2226214 -37.84  0.001819541    1.790    0.441
       201  -9.7185    249.8321    103.1869   6.5643839710e+01   1.1323990470e+01    0.3410369   0.08875635 -24.55  0.001136418    3.725    0.732
       202  -8.5398      3.7998    247.1423   1.3183189358e+02   2.5388519514e+01    0.1087805    0.0894473  56.60 0.0006137663    1.319    0.242
       203 -10.3507     51.9972    121.7044   1.1374262466e+02   4.4500391027e+01    0.3097894    0.2437005  30.66 0.0002215289    1.423    0.297
       204  -8.9256    217.3666    101.3295   6.9911532672e+01   1.7796257024e+01    0.3264654     0.198305  17.91  0.001048377    2.054    0.513
       205  -8.8816      8.2713     96.4344   1.2421701336e+02   5.4388230215e+01    0.1949439    0.1241082   8.33  0.001132796    2.108    0.526
       206  -9.2980     15.0471     93.2567   1.2164349244e+02   5.4709593957e+01    0.2212332    0.1394812 -57.46  0.000599752    1.496    0.332
       207  -9.7392     20.9585     91.9494   1.1947713376e+02   5.4597114616e+01    0.2705042    0.2247733   2.74  0.001742851    1.557    0.358
       208  -9.3638     86.3001     86.7137   9.6268131654e+01   4.7833453277e+01    0.3004375    0.2247289  83.54 0.0009713839    1.742    0.426
       209 -11.0042     51.5261     64.5396   1.0259764392e+02   5.8206664525e+01     1.227308    0.3619007 -57.25  0.004308971    2.906    0.656
       210 -10.0979     48.0194     84.3036   1.0868028096e+02   5.3886337224e+01    0.3554772    0.3002778 -54.32  0.001109704    1.141    0.123
       211 -10.1058     49.5680     77.5982   1.0665531854e+02   5.5326175128e+01    0.4529902    0.2650584 -40.26  0.001541869    1.905    0.475
       212  -8.7685     17.3209     84.3085   1.1976090338e+02   5.6718205662e+01    0.1283901   0.08101078 -47.73 0.0006213412    1.643    0.391
       213  -9.7075      8.6267     83.2708   1.2276328958e+02   5.7528975809e+01    0.3308178    0.2451936 -75.60 0.0009870112    1.100    0.091
       214  -9.2360     24.3491     81.1173   1.1673048572e+02   5.6969139675e+01    0.3239217    0.1680822  74.99  0.001004972    2.405    0.584
       215 -10.9097     11.9349    243.6914   1.3045863531e+02   2.5199665195e+01    0.3275963       0.1587  48.20  0.001576432    1.353    0.261
       216 -11.0717     95.2888     66.2662   8.7302584673e+01   5.0699087724e+01    0.7467334    0.4875434 -32.32  0.002963353    1.647    0.393
       217  -9.2173    184.2878     77.7963   6.9227174669e+01   2.8462041871e+01    0.2722344    0.1714326 -32.92 0.0008003212    1.498    0.333
       218  -8.4662      3.3405     75.3171   1.2383346132e+02   5.9737075244e+01    0.1280235   0.07379395 -50.10 0.0003410638    1.709    0.415
       219  -9.5829    217.2978     73.8635   6.2807900037e+01   2.1532537107e+01     0.270043    0.2272024 -23.16  0.000782181    1.070    0.066
       220 -10.2403    137.3514     80.3460   7.9949602183e+01   3.8919814509e+01    0.3628223     0.283898 -39.13 0.0008985408    1.250    0.200
       221  -9.1535     82.2014     72.6284   9.3648435674e+01   5.1721756201e+01    0.3048295    0.2200777 -79.96   0.00104788    1.844    0.458
       222 -11.7032     64.0977     77.5365   1.0134609632e+02   5.3441393808e+01    0.8671518    0.7992182  12.07  0.005150214    1.244    0.196
       223  -7.7650     16.3668     70.6583   1.1814159083e+02   6.0111258857e+01    0.1356162   0.08234411  66.52 0.0007026452    1.852    0.460
       224  -9.9967     62.9797     63.4459   9.7793760584e+01   5.6890408532e+01    0.4691248    0.2579411 -58.17  0.001933229    1.734    0.423
       225 -10.0069     83.9271     64.1237   9.0371855253e+01   5.3295492977e+01     0.479796    0.2964988 -22.56  0.001952249    2.386    0.581
       226 -11.7326    108.1176     34.1049   7.1037955565e+01   5.3964970808e+01     1.023681    0.5783755  35.62  0.004195215    2.053    0.513
       227  -9.1406     20.0272    173.0183   1.2635743373e+02   3.6604725943e+01    0.3065873   0.09855618  65.20  0.001358863    3.202    0.688
       228  -8.7363     18.1909     62.2462   1.1593123676e+02   6.2036137538e+01    0.2140993   0.09101185 -41.25 0.0005933221    2.617    0.618
       229  -9.1650     73.1717     60.1939   9.2904978754e+01   5.6025028844e+01    0.3350653    0.2206055 -64.93  0.001104276    1.762    0.433
       230  -9.8256     62.4501     55.9200   9.5586582532e+01   5.8679552949e+01    0.4294903    0.1160915 -49.19  0.001390692    3.206    0.688
       231  -8.5684     15.1478    170.6453   1.2729857957e+02   3.7493414293e+01    0.1886838   0.08985573  30.17  0.001102716    2.101    0.524
       232 -11.4917     18.3886    240.4232   1.2931807678e+02   2.5114071596e+01    0.4787873    0.3979705  38.37   0.00445626    1.442    0.307
       233 -10.5566     53.5214     48.7280   9.6806533021e+01   6.1586022308e+01    0.9039555    0.2720405 -48.80  0.003192817    2.832    0.647
       234 -11.7524     39.5071    221.9499   1.2496078963e+02   2.5975279629e+01     1.070085    0.3736194  32.51  0.005905321    2.524    0.604
       235  -9.1968     22.7202     51.6384   1.1163257406e+02   6.4262863346e+01    0.3466251    0.1822098 -37.21  0.001683793    2.086    0.521
       236  -9.5829     22.1654     47.8199   1.1093868645e+02   6.5218278832e+01    0.3276362    0.1957162 -43.52  0.001534673    1.572    0.364
       237  -8.5237     30.9816     51.9014   1.0788203483e+02   6.3483174754e+01     0.204729    0.1480489  77.29 0.0008402633    1.725    0.420
       238  -8.6858    218.9485    143.5586   7.9297715728e+01   1.1796760932e+01    0.1890345    0.1171098  40.66  0.001021599    1.579    0.366
       239  -8.8386     17.2995    143.0800   1.2524814598e+02   4.3046746777e+01    0.1604245    0.1172531  81.73 0.0003003564    1.119    0.106
       240  -8.9604     46.2573     49.1347   1.0012540961e+02   6.2453624875e+01    0.2247164    0.1838703   0.40 0.0009220559    1.441    0.306
       241  -8.8429    196.3342    142.6784   8.3079042949e+01   1.5976842701e+01     0.122381    0.1090436 -82.46 0.0007050066    1.705    0.413
       242  -8.4120     16.6312     45.3237   1.1300990922e+02   6.6222069230e+01    0.1292756   0.08868279  68.79 0.0007035435    1.803    0.445
       243 -10.5643    248.8000    139.1944   7.3718371024e+01   7.2841632885e+00    0.2672904    0.2055376   4.65  0.001740214    1.069    0.065
       244  -9.9040      5.0151     41.7724   1.1805928212e+02   6.7746461320e+01    0.4317909    0.1806149  86.36  0.001688362    3.469    0.712
       245  -8.6184     36.7992     41.2082   1.0182504293e+02   6.5374347275e+01    0.2093589    0.1351232  76.49 0.0006984562    2.709    0.631
       246  -9.0586     25.8768     36.7269   1.0581479087e+02   6.7498193000e+01    0.2366969    0.1587058  89.85  0.000733368    2.028    0.507
       247  -8.5088     38.3154     35.3471   9.8918986329e+01   6.6510289232e+01       0.1429   0.08989719 -30.10 0.0007047673    1.721    0.419
       248  -9.0730      6.6727     34.0729   1.1543349162e+02   6.9483631447e+01    0.1790501    0.1706625  60.19 0.0006459001    1.278    0.218
       249  -9.9836    222.4031     32.6867   5.0741242564e+01   2.5373768049e+01    0.2735133    0.2218098 -43.97 0.0004535987    1.169    0.144
       250  -8.8649     12.8557     31.7196   1.1132288399e+02   6.9668986535e+01    0.2279974    0.1462646  84.57 0.0006725174    2.023    0.506
       251 -10.5716     71.2802     27.1010   8.0187112823e+01   6.3048362225e+01    0.4311051    0.2815949  12.81  0.001932459    2.137    0.532
       252  -8.5002      2.1947     28.1192   1.1649716076e+02   7.1087524842e+01    0.2172337    0.1247371 -16.30 0.0008268984    2.103    0.524
       253  -9.0104     62.3339     26.3378   8.3533751321e+01   6.4819117355e+01    0.2794175    0.1797732   0.23  0.001218252    2.356    0.576
       254 -10.4351     66.1842     23.1910   8.0318440203e+01   6.4691500713e+01    0.4122145     0.358246  83.59  0.002302379    1.601    0.375
       255  -9.7292     68.3073     19.3632   7.7452915516e+01   6.4939355482e+01    0.3607579    0.2269301  -4.46  0.001524228    2.197    0.545
       256  -9.2151     43.9923     25.6527   9.1863016169e+01   6.7830187652e+01    0.2169326    0.1620242 -31.57 0.0004639129    1.219    0.180
       257  -9.0094    110.3604     24.3836   6.6151470961e+01   5.4883427053e+01    0.2509662    0.2093545  14.73 0.0006043545    1.240    0.193
       258 -11.0289     83.4359     19.6622   7.1952427884e+01   6.1795391725e+01    0.6781153    0.3686264  54.14  0.002435358    1.991    0.498
       259 -11.5026     30.6100    230.8088   1.2692339965e+02   2.5445796174e+01    0.6273027    0.3652383  74.11  0.004798704    1.524    0.344
       260 -11.4943     27.9703    214.1059   1.2670745754e+02   2.8389067147e+01    0.6461193    0.3712023  85.44  0.004657005    1.647    0.393
       261 -10.2640     33.4584    208.2502   1.2541443477e+02   2.8852153766e+01     0.359533    0.2025553  42.78  0.001852816    1.399    0.285
       262 -11.7015     49.9278    223.8501   1.2317165815e+02   2.4599485434e+01    0.8818422     0.429522 -44.22  0.004444571    4.717    0.788
       263 -11.8527     51.7602    215.8859   1.2238002946e+02   2.5690978987e+01    0.8429995    0.5385732 -38.95  0.005282229    2.914    0.657
       264  -8.7077     58.7208     22.0531   8.2975102196e+01   6.6226223341e+01    0.1954472    0.1596709 -27.63 0.0003463728    1.091    0.083
       265  -9.7769     13.0760     21.3874   1.0772582206e+02   7.1998106620e+01    0.2537227    0.2095107 -21.36 0.0008652353    1.267    0.211
       266  -9.4228    188.4444     20.5671   5.0786799852e+01   3.5008735123e+01    0.2475607    0.2348938 -29.91 0.0005614093    1.012    0.011
       267  -9.6785      6.9497     57.4233   1.1997698471e+02   6.3889861046e+01     0.248295    0.1377992  78.79  0.001168536    1.987    0.497
       268  -8.6445     26.1842     54.6137   1.1076792161e+02   6.3265485453e+01    0.3103611    0.1476957  43.52  0.001436223    2.515    0.602
       269 -11.7355    237.8464    240.9843   9.2705948501e+01  -1.2665741244e+00    0.3566155    0.2416226  16.96  0.001536973    1.020    0.020
       270 -10.3427     29.3146     18.4604   9.6470969092e+01   7.1133890351e+01    0.3374223    0.2094069  33.45 0.0009058547    1.867    0.464
       271  -9.5795      2.5954     18.3934   1.1345304784e+02   7.3295403291e+01    0.3528752    0.1210226 -36.25  0.001505564    3.005    0.667
       272  -8.7305     50.5253     15.5034   8.3315549228e+01   6.8762672961e+01    0.2212513    0.1232506  27.40 0.0006704489    2.180    0.541
       273  -9.5802     41.0957     13.9505   8.7341241942e+01   7.0493135011e+01    0.2403755    0.1813539  20.59 0.0003655301    1.441    0.306
       274  -8.4608     80.3059     12.6295   6.9319304488e+01   6.3488843015e+01    0.1448517       0.1072 -56.32 0.0007033664    1.758    0.431
       275  -8.3373     25.2850     11.3223   9.5265387649e+01   7.3016208512e+01      0.13232   0.08263822 -27.20 0.0002677932    1.597    0.374
       276  -9.1742     36.0433    240.4723   1.2638173845e+02   2.3455445744e+01    0.1531975    0.1250881 -67.27  0.001360511    1.698    0.411
       277 -10.0793    107.7791    237.5449   1.1376031444e+02   1.5842456905e+01    0.3294848    0.2007079  82.27  0.002101959    2.579    0.612
       278 -10.4640    231.9289    236.6760   9.3007365190e+01  -1.8733969777e-01    0.2137391     0.118647  -3.24  0.001450289    1.889    0.471
