#   1 NUMBER                 Running object number                                     
#   2 MAG_AUTO               Kron-like elliptical aperture magnitude                    [mag]
#   3 X_IMAGE                Object position along x                                    [pixel]
#   4 Y_IMAGE                Object position along y                                    [pixel]
#   5 X_WORLD                Barycenter position along world x axis                     [deg]
#   6 Y_WORLD                Barycenter position along world y axis                     [deg]
#   7 A_WORLD                Profile RMS along major axis (world units)                 [deg]
#   8 B_WORLD                Profile RMS along minor axis (world units)                 [deg]
#   9 THETA_WORLD            Position angle (CCW/world-x)                               [deg]
#  10 FWHM_WORLD             FWHM assuming a gaussian core                              [deg]
#  11 ELONGATION             A_IMAGE/B_IMAGE                                           
#  12 ELLIPTICITY            1 - B_IMAGE/A_IMAGE                                       
         1 -10.1785     24.2918     65.7142   1.2595265357e+02   5.9914864456e+01    0.7591341    0.2348602 -49.50  0.003472756    2.337    0.572
         2  -9.3368     39.5053      7.5673   9.9629139363e+01   6.7708774619e+01    0.3853118    0.2377455   3.74  0.002368941    1.529    0.346
         3 -10.5675     39.1131     29.8276   1.0898845223e+02   6.4804647111e+01    0.8077296    0.3977097 -51.31   0.00397104    2.886    0.654
         4 -11.7162     43.3992     20.0946   1.0345522112e+02   6.5674965065e+01    0.8170865    0.7083426  38.99  0.004980805    1.653    0.395
         5 -12.1599    139.9924     14.8270   7.4204265870e+01   4.8213241630e+01      1.74593     1.104856  25.13   0.00887196    1.892    0.471
         6 -10.3461    128.0916     17.7425   7.7508171614e+01   5.0663567690e+01    0.5699969    0.3683121  44.81  0.001927118    1.378    0.274
         7 -11.7506    130.8427      4.9206   7.2701278837e+01   5.1234200508e+01     1.638933    0.6349097  54.25  0.007356827    2.049    0.512
         8 -10.7878    120.9009      3.8874   7.4278394357e+01   5.3551456548e+01    0.6010209    0.4234122  63.29  0.002601256    1.336    0.252
         9 -11.6251    109.5595      4.2578   7.6808044928e+01   5.5974267938e+01     1.889289     0.430043  61.14  0.006062073    4.562    0.781
        10 -11.9512    155.4388     20.6380   7.3236742786e+01   4.3930993184e+01     1.063628    0.6141723  57.05  0.003517764    1.506    0.336
        11 -13.4772    168.4863     16.1670   6.9826609385e+01   4.1221493099e+01     2.367244     1.342843  63.39  0.009442716    1.528    0.346
        12 -11.9989     82.1233      7.1454   8.4868207454e+01   6.1149492909e+01     2.013036    0.9616659  -1.22  0.008958962    3.043    0.671
        13  -9.1067     10.3943     25.7096   1.1934642136e+02   6.8051053393e+01    0.4202011    0.1120162 -43.69   0.00201776    2.660    0.624
        14 -12.8810    168.4903      5.1026   6.6718587824e+01   4.2304480793e+01     2.822615    0.7458538  70.74  0.009177775    3.875    0.742
        15 -10.2724    117.0445     16.4749   7.9477288170e+01   5.3243868048e+01    0.8954944    0.3026147 -31.60   0.00365634    3.055    0.673
        16  -9.8822    111.9258     15.6491   8.0365551865e+01   5.4427409280e+01    0.5032152    0.2477385  34.21  0.002325696    2.138    0.532
        17  -9.5174     93.7826     17.6833   8.5730550444e+01   5.7906346098e+01    0.3758034    0.3502158 -47.19  0.001808529    1.398    0.284
        18  -9.0947     64.4255     16.5106   9.4272255681e+01   6.3177783144e+01    0.2355086    0.2060715 -33.30   0.00122466    1.478    0.323
        19 -10.2462    248.6153     15.3643   6.0464860042e+01   2.2174575788e+01    0.3255964    0.2302018 -39.30  0.001353909    1.477    0.323
        20  -8.3598     19.8776     14.5348   1.1091697896e+02   6.8946142921e+01    0.3447276    0.1797927 -17.15   0.00206627    1.892    0.471
        21  -9.8792    103.4560     11.5541   8.0909591527e+01   5.6595748803e+01    0.4064265    0.3469045   5.06  0.002389202    1.159    0.137
        22  -8.8852     70.0108     14.1719   9.1447841276e+01   6.2545190441e+01    0.2556373    0.2242108  84.87  0.001666824    1.974    0.493
        23 -10.3533     71.1071      5.4727   8.7474276202e+01   6.3248419370e+01    0.5346307    0.3025858  38.57  0.002481531    1.530    0.346
        24 -11.2103    199.4289      8.3992   6.3731494487e+01   3.4448823654e+01    0.6724164    0.2089017  65.70  0.002342957    2.629    0.620
        25  -9.3670    203.8234      4.6896   6.2353282398e+01   3.3767858978e+01    0.2718331    0.1691495 -34.81  0.001495796    1.746    0.427
        26 -10.4757    249.7987      4.2343   5.8104230985e+01   2.3207623774e+01    0.5561392     0.246665 -33.51  0.002782922    2.376    0.579
        27  -8.3292     52.3682      1.6948   9.2105675397e+01   6.6580422988e+01    0.2802951     0.162069  31.65   0.00170401    1.510    0.338
        28  -9.5275     61.8122      1.8788   8.8924061383e+01   6.5115431860e+01    0.4784741    0.2620939  25.46  0.002788476    1.691    0.409
        29  -7.8105     56.6674      1.3147   9.0419731856e+01   6.5972091083e+01    0.1628511   0.08802789  33.44 0.0007324264    1.608    0.378
        30  -8.7417     54.6956      7.5876   9.3883257298e+01   6.5639325170e+01    0.2461499    0.1952771  69.59   0.00110603    2.561    0.610
        31 -10.3664    225.2492     28.6028   6.5655877990e+01   2.5894742506e+01    0.4569019    0.4267235 -79.70  0.001745582    1.154    0.134
        32  -8.5599     48.5994      6.5950   9.5678838954e+01   6.6616570206e+01    0.2049741    0.1219414  36.43  0.001048596    1.627    0.385
        33  -9.0233    229.9966      6.3101   6.0181584738e+01   2.7425084678e+01    0.1845283    0.1438913  89.10  0.001011481    1.079    0.073
        34 -10.3069    217.4798      1.9117   6.0353580356e+01   3.0804744677e+01    0.5145888    0.1885027  67.90  0.002283139    2.291    0.564
        35  -8.5191     26.1396      2.3595   1.0283303102e+02   6.9868183379e+01    0.2350332    0.1182727 -31.12   0.00148019    1.749    0.428
        36  -8.7290     16.6900      1.7756   1.0678789077e+02   7.0896015660e+01    0.1781937    0.1295486  19.66  0.001207015    1.458    0.314
        37  -8.3477     40.4095      1.4826   9.6510543531e+01   6.8260044119e+01    0.2078549   0.09585781  38.43  0.001194781    2.120    0.528
        38 -10.3838     81.5305     40.8664   9.8069697434e+01   5.7192626832e+01    0.4967049    0.3506765  -9.87  0.002798814    1.459    0.315
        39  -8.5481     65.6524     51.7739   1.0716539109e+02   5.7944562781e+01    0.2469347    0.1993171 -88.61  0.001361282    2.286    0.563
        40 -10.9530     15.2798     75.3834   1.3130609459e+02   5.8632899039e+01    0.7355012    0.3260616 -37.75   0.00384377    2.154    0.536
        41  -8.0118     22.6629     52.3236   1.2290795555e+02   6.2587390712e+01    0.1543268    0.1324304 -84.58  0.001074785    1.714    0.417
        42  -8.3067    203.2279     49.0169   7.3494233441e+01   2.8469410528e+01    0.1838465    0.1167803 -35.68 0.0007852599    1.629    0.386
        43  -8.4654    111.2343     45.7396   9.1109678331e+01   5.0872839033e+01    0.2817432    0.1900715 -19.33   0.00142654    1.605    0.377
        44 -10.3721      3.5006     40.3781   1.2689356623e+02   6.6026274025e+01    0.3967693    0.3491493 -74.32  0.002611934    1.572    0.364
        45  -9.8706    173.9037    243.1261   1.2208809948e+02  -8.3280968625e-01    0.2725446    0.1811601  72.33  0.001382883    2.336    0.572
        46 -10.0356     50.8012     35.1980   1.0655032965e+02   6.2602533130e+01    0.6284938    0.3327159 -50.48  0.003145071    2.550    0.608
        47 -10.4485    161.4002    241.2606   1.2417917195e+02   1.6440335045e+00    0.3876887    0.2834481  77.81   0.00219865    1.810    0.448
        48 -10.1960    199.1414    224.7444   1.1436482872e+02  -2.4054715733e+00     0.303496    0.1435542  44.45  0.001399025    1.911    0.477
        49  -9.2587    108.7716     39.0494   8.9460808670e+01   5.2324444997e+01    0.3380291    0.1920667  48.65  0.001302127    1.677    0.404
        50  -8.9061     69.4468     36.9126   1.0057596020e+02   5.9728383884e+01     0.313454    0.2338628 -25.10  0.001934843    1.228    0.185
        51  -9.6138     66.5419     30.5695   9.9162340003e+01   6.1071989989e+01    0.5679786    0.2131537 -31.34  0.002498126    2.630    0.620
        52 -10.0776     49.6978     27.5274   1.0402856795e+02   6.3865185464e+01      0.34191    0.3124605   4.10  0.001648328    1.316    0.240
        53  -8.5878     27.4481     35.4983   1.1569581468e+02   6.5102051162e+01    0.2076643    0.1586027 -19.85  0.001206547    1.060    0.057
        54  -9.0684     12.6606     34.0774   1.2123598643e+02   6.6531409454e+01    0.3389713    0.1648239 -51.73  0.001995663    1.845    0.458
        55  -7.4937     59.2719     35.3917   1.0354204834e+02   6.1445236747e+01    0.1297616   0.08171673  -9.43 0.0006989575    1.725    0.420
        56  -9.5428    208.4859    222.9594   1.1227768383e+02  -3.7805401881e+00    0.1893288    0.1277643 -37.02   0.00104598    1.630    0.387
        57  -9.0999    123.9945    206.0067   1.2645186997e+02   1.4825802653e+01    0.1942266    0.1707814  66.26            0    1.006    0.006
        58  -9.0766    238.9885    203.5069   1.0302811601e+02  -6.1025288452e+00    0.1979464    0.1197784  38.80   0.00103356    1.592    0.372
        59 -11.9131     10.7640    139.2238   1.4270156137e+02   4.5051780220e+01    0.6700603     0.487179 -72.69  0.004581646    1.062    0.058
        60 -12.6729    241.3311    133.4017   8.7868230636e+01   5.2520008187e+00     1.559967     1.179683  50.27   0.00523176    1.438    0.304
        61  -9.2142     41.0623    142.0113   1.3574925267e+02   4.1667987667e+01    0.2723288    0.1921915  36.81  0.001625795    1.658    0.397
        62 -10.8332     11.7434    127.8950   1.4109566230e+02   4.7511261725e+01    0.4600131    0.1706876 -60.35  0.002295096    1.987    0.497
        63  -8.5968     97.8258     27.6618   8.8355287634e+01   5.5984004418e+01    0.4079424    0.2356447  -6.81  0.001943898    2.208    0.547
        64  -9.4154    104.6949     25.5605   8.5736660347e+01   5.4862841778e+01    0.4287449    0.3389517  40.41  0.002584895    1.147    0.128
        65  -8.6908    124.9624     28.5926   8.1849028044e+01   5.0174009356e+01    0.2666091    0.2101303 -19.22  0.001526435    1.356    0.263
        66 -10.3966     17.3483    126.4066   1.3949004366e+02   4.7420785304e+01     0.409618    0.1749092 -79.77  0.001873158    2.447    0.591
        67  -8.1829     61.7161     29.0409   1.0024678518e+02   6.2002123828e+01     0.174722    0.1352027 -14.81 0.0006217357    1.122    0.108
        68 -10.6121     13.0037    119.4960   1.3965666536e+02   4.9293497896e+01    0.5344341     0.179756  47.92  0.002229405    4.164    0.760
        69 -10.5130     10.6702    116.6929   1.3987689618e+02   5.0080307020e+01    0.3751724    0.1880995 -36.53  0.001971496    2.501    0.600
        70  -8.2840     24.3112    116.3203   1.3617823376e+02   4.9131162775e+01    0.1256226   0.07585572 -44.22 0.0007036524    1.647    0.393
        71 -10.9420     18.4922    105.7085   1.3607010459e+02   5.1949765417e+01      0.64346    0.3276251 -76.39  0.003334966    1.966    0.491
        72  -8.1896     18.8740     21.8475   1.1426446674e+02   6.7984467680e+01    0.1357584    0.1179513 -21.67  0.000657879    1.322    0.244
        73 -10.1773     29.5501    101.9948   1.3222307777e+02   5.1884523371e+01    0.4728216    0.1959977 -48.69   0.00227936    2.020    0.505
        74  -8.1895     24.2607     95.8464   1.3262981644e+02   5.3666116597e+01    0.2101401    0.1264853  43.00  0.001209423    2.091    0.522
        75  -7.7934      8.3806     18.1425   1.1746206268e+02   6.9358316319e+01    0.1398125   0.08575892 -49.24 0.0009365361    1.724    0.420
        76 -12.1997     42.5636     81.7338   1.2379939316e+02   5.5029124838e+01     1.017251     0.879948 -27.72   0.00558358    1.134    0.118
        77  -9.3365      2.7854     88.8629   1.3783204317e+02   5.6589046244e+01    0.3088208     0.229512  88.37  0.002134298    1.517    0.341
        78  -8.3057    100.8138     83.0393   1.0599070931e+02   4.6430599573e+01    0.2624542    0.1901518  57.67  0.001289193    1.681    0.405
        79 -10.7848      4.1571     76.1973   1.3511650059e+02   5.9140494120e+01    0.5643388    0.4857724 -71.39  0.003253029    1.237    0.192
        80  -9.8186    188.1802    247.5428   1.2007905697e+02  -3.9486332067e+00    0.2367218    0.1920422  19.69  0.001534641    1.232    0.188
        81 -10.3211     86.7533     31.0903   9.2840279055e+01   5.7634635061e+01    0.3211414     0.263607  17.59  0.002015749    1.085    0.078
        82 -10.2676     11.6028     70.5710   1.3148647156e+02   5.9844926223e+01    0.4964661    0.1959265 -57.02  0.002602232    1.869    0.465
        83  -8.5721    221.0412     80.4884   7.8691485262e+01   1.9150322654e+01    0.2222748    0.1427796  60.68 0.0009405342    1.591    0.372
        84  -9.1575    227.7440     78.5214   7.7189529501e+01   1.7903323435e+01    0.3255255      0.24743  36.62  0.001638908    1.656    0.396
        85  -7.7643    204.0108     76.0630   8.0348817760e+01   2.4013894957e+01    0.1834768     0.164789 -51.97 0.0009123881    1.088    0.081
        86  -8.7041     82.8765     68.7632   1.0706893144e+02   5.2294801062e+01    0.4435615     0.378354   4.66  0.002625612    1.184    0.156
        87  -7.6645    226.7421     89.6545   8.0027269372e+01   1.6240816732e+01    0.1399495    0.1161112   0.07 0.0002684497    1.593    0.372
        88  -9.8296     16.1876     63.6991   1.2830125337e+02   6.0905675590e+01     0.319339     0.187226 -61.71  0.001754307    1.576    0.365
        89  -9.3551     48.3571     62.0224   1.1645754900e+02   5.8321158585e+01    0.4103602    0.2597811  18.48  0.002335672    1.796    0.443
        90  -9.4189     74.7790     67.8405   1.0935396283e+02   5.3737023733e+01    0.4721284    0.3411629  -1.96  0.002540906    1.628    0.386
        91  -8.5377     63.1554     70.1903   1.1386534025e+02   5.4940742683e+01    0.2560216    0.1349946 -40.14   0.00125087    1.698    0.411
        92  -8.4878    198.3503     54.7988   7.5742219456e+01   2.8826169668e+01    0.2402234    0.1997937  65.08 0.0006248417    1.158    0.136
        93  -8.3605    100.5337     53.5052   9.6734924652e+01   5.1815486930e+01    0.2484716    0.1182587  35.49   0.00102992    2.294    0.564
        94 -10.1326     82.3452     47.5908   1.0021111194e+02   5.6030510699e+01    0.4349991    0.3914074  -5.22  0.001849498    1.054    0.051
