#   1 NUMBER                 Running object number                                     
#   2 MAG_AUTO               Kron-like elliptical aperture magnitude                    [mag]
#   3 X_IMAGE                Object position along x                                    [pixel]
#   4 Y_IMAGE                Object position along y                                    [pixel]
#   5 X_WORLD                Barycenter position along world x axis                     [deg]
#   6 Y_WORLD                Barycenter position along world y axis                     [deg]
#   7 A_WORLD                Profile RMS along major axis (world units)                 [deg]
#   8 B_WORLD                Profile RMS along minor axis (world units)                 [deg]
#   9 THETA_WORLD            Position angle (CCW/world-x)                               [deg]
#  10 FWHM_WORLD             FWHM assuming a gaussian core                              [deg]
#  11 ELONGATION             A_IMAGE/B_IMAGE                                           
#  12 ELLIPTICITY            1 - B_IMAGE/A_IMAGE                                       
         1  -8.7440     18.9389      9.2262   9.1156347809e+01   7.1648985795e+01    0.1272999   0.08490843  17.59 0.0002995595    1.548    0.354
         2  -8.4859    116.4815      5.5027   5.3765763729e+01   5.5176551951e+01    0.1354179    0.1184092  40.19 0.0008103949    1.004    0.004
         3  -9.8121    110.9725      4.9833   5.4772248128e+01   5.6504206395e+01    0.1954952    0.1688765  34.90            0    1.022    0.022
         4  -9.6297     50.9433      3.4508   7.2791087948e+01   6.8443897835e+01    0.1749708    0.1342375  -4.81  0.000308209    1.088    0.081
         5  -9.4185     14.8395      2.1033   8.9830320796e+01   7.3092173533e+01    0.1542539   0.09743133 -18.72  0.001026235    1.282    0.220
         6  -9.0252    240.1924    240.4090   8.9040967763e+01  -9.0634225129e+00     0.152515   0.09271999  41.22 0.0006101195    1.696    0.410
         7  -9.2437    225.2517    249.6371   9.3027011280e+01  -7.9633342864e+00    0.1875794    0.1398305 -72.03 0.0009554447    4.217    0.763
         8  -9.7163    210.4847    249.6743   9.5599260532e+01  -5.8053278343e+00    0.2445933    0.1524164 -14.29  0.001233184    1.950    0.487
         9  -9.2740    244.0028    236.2824   8.7729300082e+01  -9.1400935922e+00    0.1624444    0.1221557  16.95  0.001059592    1.044    0.042
        10  -9.1947    229.4465    236.2381   9.0222201706e+01  -7.0314176302e+00    0.1400239    0.1092914 -36.62 0.0009435145    1.680    0.405
        11  -9.1134    244.9729    230.2134   8.6563616834e+01  -8.5872914282e+00    0.1432179     0.124117 -29.92  0.001022914    1.588    0.370
        12  -9.9968    235.6117    229.8826   8.8115256603e+01  -7.1863699111e+00    0.2018674    0.1454405 -41.45  0.001282567    1.909    0.476
        13  -8.9765    229.6705    228.3575   8.8899657460e+01  -6.1130424425e+00    0.1053218   0.09564666  62.80 0.0007043739    1.787    0.440
        14  -8.8951    206.4991    226.5139   9.2764958441e+01  -2.2526925542e+00    0.1242039    0.1018068  25.08 -5.104745e-05    1.047    0.045
        15  -8.9826    228.3676    222.6739   8.8178077728e+01  -5.2021025375e+00    0.1099149    0.0960981  61.15 0.0007035816    1.807    0.446
        16 -10.3935    239.6715    220.6859   8.5856128980e+01  -6.6735314606e+00    0.2370485    0.1452519 -36.24   0.00139741    1.870    0.465
        17 -10.3791    247.8866    217.6772   8.3921516035e+01  -7.5250858907e+00    0.3376924    0.2311256 -45.99  0.001992118    2.243    0.554
        18  -9.0629    232.6818    213.3464   8.5799913763e+01  -4.6681741574e+00    0.1073347    0.1012041  75.86 0.0007048777    1.727    0.421
        19  -9.7940    240.8582    209.0734   8.3600673067e+01  -5.3845986471e+00    0.2816026    0.1915042 -53.96  0.001482979    2.715    0.632
        20  -9.7161    247.1138    207.4718   8.2230114268e+01  -6.1376984953e+00    0.2205949    0.1552351 -44.39  0.001299852    1.984    0.496
        21 -10.0966    235.7799    204.1832   8.3602340495e+01  -3.9388958199e+00     0.178929    0.1446627 -84.78 0.0009475994    2.802    0.643
        22  -9.6615    243.5914    201.0076   8.1647974208e+01  -4.7503187507e+00    0.3567894    0.2308351 -53.30   0.00178682    2.832    0.647
        23  -9.6195    250.0899    201.1792   8.0564155600e+01  -5.7809750341e+00    0.2569048    0.1594939 -32.57  0.001487712    1.636    0.389
        24 -10.3043    247.0604    193.9167   7.9714020297e+01  -4.3452357875e+00    0.2847251    0.2359092  78.11  0.001622923    2.407    0.584
        25  -9.6048    231.0507    188.1847   8.1427606758e+01  -9.0300484857e-01    0.2882371    0.1727604 -48.97  0.001398039    2.336    0.572
        26  -9.3757    244.0282    188.4774   7.9190404801e+01  -3.1092011395e+00    0.1857878    0.1168486  38.28  0.001021142    1.574    0.365
        27  -9.7737    224.4816    192.9816   8.3545059749e+01  -4.8662446798e-01    0.1621774    0.1143172 -58.23 0.0005012229    2.386    0.581
        28  -9.0087    215.4665    186.9744   8.4068042667e+01   2.0032678029e+00    0.1747878    0.1172576 -59.57 0.0008093692    2.528    0.604
        29  -9.7729     77.6039    185.6857   1.1321074180e+02   2.6596979788e+01    0.2163057    0.1872094  54.09 0.0005858633    1.168    0.144
        30  -9.4883    249.4590    184.7138   7.7523297350e+01  -3.4652313544e+00    0.2365933    0.1117904 -37.37  0.001129703    2.129    0.530
        31  -9.1856    224.7331    184.7982   8.1916527932e+01   6.9642089084e-01    0.1649152    0.1608603  58.72 0.0009630776    1.382    0.276
        32  -9.5826    241.8508    181.7559   7.8248784990e+01  -1.7932233900e+00    0.2300671    0.1701859 -54.78  0.001241031    2.083    0.520
        33  -9.5390    236.0119    181.5166   7.9228364912e+01  -7.6853103624e-01    0.2139439     0.190079 -77.73  0.001270511    1.815    0.449
        34  -9.7059    247.8335    179.1033   7.6688747846e+01  -2.4085183945e+00    0.2650696     0.165816 -40.11  0.001419141    1.747    0.428
        35  -9.0059    219.3563    178.6935   8.1702078223e+01   2.6053646980e+00    0.1266407    0.1113924  85.24 0.0007041371    1.722    0.419
        36  -8.5880    198.2919    177.6340   8.5560619763e+01   6.7072522810e+00    0.1335205    0.1135836 -84.36 0.0007027072    1.710    0.415
        37  -9.0061    210.4588    176.2482   8.2899000809e+01   4.6420031742e+00    0.1836237    0.1302022 -46.69 0.0009417296    1.640    0.390
        38  -9.3807    224.1642    174.0197   7.9861322739e+01   2.4712155437e+00    0.2076863    0.1580087 -60.21  0.001072286    1.980    0.495
        39  -9.0291    228.5007    171.9912   7.8650978227e+01   2.0039821940e+00    0.1742896     0.115504 -56.33 0.0006943035    2.357    0.576
        40  -8.6873    188.3331    172.6794   8.6581281034e+01   9.5034649859e+00    0.1393832    0.1153856  82.92 0.0007049419    1.699    0.412
        41 -10.3511    237.9029    170.3063   7.6622250979e+01   5.8541601822e-01    0.2795475    0.1816574 -46.18  0.001210138    1.858    0.462
        42  -9.2132    212.2884    169.4478   8.1153850021e+01   5.4273362417e+00    0.2259205    0.1692221 -55.80 0.0008145395    1.768    0.434
        43  -9.5668    219.4157    169.1284   7.9735714579e+01   4.1342563481e+00    0.2634936    0.1863088  58.39 0.0009031767    1.880    0.468
        44  -9.9944    246.7387    169.8590   7.5001316590e+01  -8.8109504981e-01    0.2841471    0.1705567  51.89  0.001207845    2.150    0.535
        45  -9.7024    213.5614    164.2323   7.9815758099e+01   6.0609658711e+00    0.2564863    0.2330738  88.48  0.001378046    1.497    0.332
        46  -9.5132    205.9844    162.9575   8.1012035642e+01   7.7568312881e+00     0.216731    0.1835163 -87.42  0.001132893    1.716    0.417
        47  -8.8705    231.6687    160.2805   7.5623450715e+01   3.2797077795e+00    0.1250361    0.1119941 -79.11 0.0004748229    1.607    0.378
        48  -9.5715    238.0736    159.2768   7.4278372421e+01   2.2607369245e+00    0.2272782    0.1940981  60.66  0.001224902    1.558    0.358
        49  -8.5066      2.6680    159.7076   1.2718875880e+02   4.0553566709e+01    0.1070894   0.07428217 -56.00  0.000246901    1.632    0.387
        50  -9.3475    246.0369    158.0355   7.2648310937e+01   1.0203012749e+00    0.1990832     0.168211 -63.51  0.001135234    1.716    0.417
        51  -9.2285    197.7742    158.1945   8.1622364170e+01   1.0243677031e+01    0.2331359     0.165749 -85.46 0.0009503893    2.779    0.640
        52  -8.4555    222.6442    157.2782   7.6617453558e+01   5.4767569292e+00    0.1311564    0.1144755 -87.44 0.0005027877    1.655    0.396
        53  -9.3753    216.5145    156.7635   7.7650443251e+01   6.7545427334e+00    0.2729225    0.2247926  79.19  0.001384674    1.788    0.441
        54  -9.2735    234.0306    154.7908   7.4022803883e+01   3.7203997959e+00     0.208294    0.1678971  85.08  0.001070755    2.049    0.512
        55  -9.1953    242.6386    154.3247   7.2430390401e+01   2.2049703716e+00    0.1301149    0.1088063 -68.94 0.0007041867    1.785    0.440
        56  -9.5908    204.1997    152.7645   7.9150389111e+01   9.9170138608e+00    0.4376042    0.2665437  70.54  0.001590541    3.396    0.705
        57  -8.9470    250.5194    152.5180   7.0723511236e+01   1.0679360023e+00    0.1353463    0.1160495 -11.08 9.192481e-05    1.003    0.003
        58  -8.7957    221.9935    152.5158   7.5697577897e+01   6.4011548950e+00    0.1832659    0.1295695  73.60   0.00080875    2.444    0.591
        59  -8.9441    188.0000    156.0256   8.3155753873e+01   1.2642640980e+01      0.24548   0.08338086 -41.17 0.0008107452    3.000    0.667
        60  -9.5343    244.7386    150.0202   7.1144389017e+01   2.4951267360e+00     0.222936    0.1967144 -80.85  0.001288318    1.657    0.396
        61 -10.3352    236.0420    148.2185   7.2234374828e+01   4.4019029808e+00    0.3767206    0.2886592  72.25  0.001500927    2.007    0.502
        62  -9.0499    215.4714    148.9693   7.6128513618e+01   8.3026656172e+00    0.2033067    0.1200463 -56.87 0.0008099036    2.569    0.611
        63  -9.4581    224.2718    147.1990   7.4100743096e+01   6.8504976158e+00    0.2568469     0.195698  79.39    0.0012319    2.124    0.529
        64  -9.6608    208.1039    145.8745   7.6842060254e+01   1.0350553503e+01    0.2160212    0.2065083 -75.36 0.0009164271    1.247    0.198
        65  -9.1480    247.6581    144.3168   6.9414523334e+01   2.8530010238e+00    0.1990131    0.1094472 -51.69 0.0008375869    2.548    0.608
        66  -9.2601    244.0385    141.0373   6.9287707304e+01   4.0443023504e+00    0.2717099    0.1939823 -67.77  0.001281627    2.366    0.577
        67  -8.8344    214.6747    143.3250   7.5005191067e+01   9.4503137229e+00    0.1422626    0.1171524 -74.24 0.0007048839    1.691    0.409
        68  -9.5265    182.2278    142.5277   8.1349586906e+01   1.6452512798e+01    0.2815156    0.1993967 -76.80   0.00116723    2.298    0.565
        69  -9.3172    230.7117    142.1530   7.1815128957e+01   6.4273966002e+00    0.2296885    0.1710977 -51.04  0.001175652    1.569    0.363
        70  -9.8926    198.8071    140.5855   7.7463643775e+01   1.3266955394e+01    0.2747829    0.2130689 -17.11 0.0006879432    1.387    0.279
        71  -9.1063    166.9670    140.8409   8.4310440373e+01   2.0081402466e+01    0.2569239    0.1810161  73.67  0.001082097    2.042    0.510
        72  -9.1538    218.9856    138.6963   7.3140884281e+01   9.3746113015e+00    0.2023362    0.1915119  27.92   0.00115707    1.111    0.100
        73  -9.2250    209.9501    139.0079   7.4911480381e+01   1.1196828713e+01    0.2278455     0.187033 -77.64  0.001133073    1.688    0.407
        74  -9.3940    173.2554    139.0831   8.2499550086e+01   1.9078253074e+01    0.2946137    0.2068077  75.21  0.001229672    2.130    0.531
        75  -9.9953    235.4251    136.3801   6.9691147097e+01   6.4575600886e+00     0.279576    0.2468784 -63.88  0.001306067    1.415    0.293
        76  -8.9566    193.3920    137.2404   7.7779840757e+01   1.5059233662e+01    0.2167538    0.1382431 -48.70  0.000945543    1.691    0.409
        77  -9.0350    249.1943    136.1773   6.7365742886e+01   3.8477529086e+00    0.1806004    0.1568534 -49.51 0.0009482109    1.325    0.245
        78  -8.6636    188.2805    136.6392   7.8695382208e+01   1.6285580594e+01    0.1520968    0.1208635 -73.29 0.0005357453    1.671    0.402
        79  -9.3326    242.7371    134.6410   6.8070653740e+01   5.3180809221e+00    0.2354015     0.162242 -50.49 0.0008747716    1.682    0.406
        80  -9.3065    225.8732    134.1706   7.0849036950e+01   8.7437150473e+00    0.2159585    0.1960861 -56.85  0.001206872    1.275    0.215
        81  -9.5808    179.8695    133.1450   7.9649307452e+01   1.8816746948e+01    0.2350181    0.2155902  89.21 0.0009062862    1.252    0.201
        82  -8.7657    143.3004    132.6309   8.7959427588e+01   2.6891950969e+01    0.1603578    0.1226609 -86.99 0.0007032085    1.739    0.425
        83  -9.2810    205.9693    131.0162   7.3798379799e+01   1.3492962576e+01    0.2351752    0.1872638 -76.25 0.0009402681    1.733    0.423
        84  -9.4831    249.2868    130.4884   6.6077295869e+01   4.7301873905e+00    0.3000111      0.14028  52.77  0.001277909    2.533    0.605
        85  -8.9907    192.4889    129.9840   7.6233242058e+01   1.6638556005e+01    0.2152882    0.1284876 -60.12 0.0008094901    2.458    0.593
        86  -8.9289    186.6024    129.7700   7.7401544856e+01   1.7986266479e+01    0.2183393     0.140873 -49.82 0.0006711257    1.669    0.401
        87  -8.8480    221.3220    129.6518   7.0608599974e+01   1.0464056415e+01    0.1474569    0.1145308 -67.62 0.0005204465    1.741    0.426
        88  -9.7514    241.7647    127.0404   6.6499833685e+01   6.7405721403e+00    0.3164262    0.2071468 -56.39  0.001481046    2.004    0.501
        89  -9.9307    200.3194    126.6362   7.3846717756e+01   1.5537288820e+01    0.3352228    0.2196778 -62.27  0.001162186    2.161    0.537
        90  -9.1647    228.4186    126.1697   6.8536397392e+01   9.5849028838e+00    0.2094329    0.1253144 -44.69 0.0009423542    1.690    0.408
        91  -9.7781    180.2030    125.5390   7.7723960452e+01   2.0250860636e+01     0.325373    0.2562883 -81.98  0.001184967    1.720    0.419
        92  -8.8085    170.3096    124.6692   7.9679786380e+01   2.2658019858e+01    0.1581075    0.1251642 -81.35 0.0003945385    1.668    0.400
        93  -8.8192    188.4907    123.4981   7.5467611179e+01   1.8778554226e+01    0.1530593    0.1481064 -61.36  8.91361e-05    1.097    0.089
        94  -9.8066    194.4752    121.3941   7.3721955564e+01   1.7828720116e+01    0.3033949    0.2054177 -65.56  0.001113064    2.108    0.526
        95  -8.9136    203.4669    121.5320   7.1982849997e+01   1.5784339298e+01    0.1500198     0.144091 -31.48  0.000166932    1.043    0.042
        96  -8.5400    231.6924    120.3521   6.6605673539e+01   9.8910411152e+00    0.1465536    0.1095412 -62.52 0.0007043006    1.714    0.417
        97  -8.8937    157.9934    120.4937   8.1458527662e+01   2.6297089863e+01    0.2181474     0.139787  72.11 0.0008090863    2.427    0.588
        98  -8.9299    248.4683    119.5285   6.3713061764e+01   6.6351790610e+00    0.1394695    0.1230903 -31.27 0.0001145498    1.053    0.051
        99  -9.5527     18.5703    118.8690   1.1943891274e+02   4.8688114630e+01    0.1915301    0.1463002  72.76 0.0005650937    1.330    0.248
       100  -9.1284    220.5080    120.9866   6.8690589143e+01   1.2147674874e+01    0.2148087    0.1161002 -54.76 0.0008100081    2.541    0.606
       101  -9.2643    140.3472    118.6583   8.5288298928e+01   3.0587129903e+01    0.1644043     0.124965 -89.72 0.0007045628    1.793    0.442
       102  -8.7350    231.2919    116.6702   6.5797813296e+01   1.0595782345e+01    0.1443073    0.1092993 -61.50  0.000339626    1.626    0.385
       103  -9.0311    212.4625    115.9443   6.8912247547e+01   1.4796398083e+01    0.2158221    0.1190693 -55.75 0.0008082953    2.468    0.595
       104  -9.4335    186.0563    115.0216   7.3834970824e+01   2.0973370295e+01    0.2534464    0.1928682 -73.73  0.001129717    1.755    0.430
       105  -9.8951    219.6767    113.9989   6.7139975223e+01   1.3548573021e+01     0.366046    0.1006357 -47.84 0.0008496257    6.063    0.835
       106  -9.0279    195.3928    114.2488   7.1741456037e+01   1.8968081301e+01    0.2262726    0.1375569 -47.45 0.0008112241    1.706    0.414
       107  -8.8715    173.6947    114.3507   7.6304765586e+01   2.3968999863e+01    0.1615824    0.1247277 -75.84 0.0007041725    1.705    0.414
       108  -8.6008    168.6691    112.3059   7.6888196005e+01   2.5545868711e+01    0.1597538    0.1261663 -83.03 0.0007038206    1.659    0.397
       109  -9.0890    177.5166    111.0315   7.4607700903e+01   2.3737959951e+01    0.2269929    0.1305447 -60.06 0.0008096907    2.500    0.600
       110  -8.5539    155.3110    110.6681   7.9546327447e+01   2.8964167273e+01    0.1614593    0.1262824 -81.31 0.0007043186    1.674    0.402
       111  -8.6851    201.4900    109.5144   6.9348160471e+01   1.8444207518e+01    0.1520901    0.1458332 -40.29 2.688665e-05    1.038    0.037
       112  -8.9890    190.3184    109.6304   7.1571361283e+01   2.1014875994e+01    0.1631533    0.1213547 -71.34 0.0004869966    1.790    0.441
       113  -9.2241    183.6527    109.3815   7.2874747365e+01   2.2622512268e+01    0.2428258    0.1898401 -74.81   0.00107715    1.644    0.392
       114  -9.0041    161.3570    109.1941   7.7733686336e+01   2.7876202182e+01    0.2317698    0.1426986 -50.49 0.0009416318    1.721    0.419
       115  -9.4893    223.6498    105.9673   6.4480233350e+01   1.4063785157e+01    0.2932749     0.192646 -89.39  0.001171121    2.714    0.632
       116  -9.3097    206.1682    105.9394   6.7556451100e+01   1.8016292999e+01     0.259584    0.1650776 -59.63 0.0009068798    2.040    0.510
       117  -9.5087    150.4981    103.5120   7.8773631069e+01   3.1558628585e+01    0.2992616    0.1427384 -52.01  0.001032951    2.437    0.590
       118  -9.1495    141.4215    104.2245   8.1218954979e+01   3.3469562340e+01    0.2338006    0.1461228 -54.42 0.0009516074    1.760    0.432
       119  -9.0551    230.3359    103.6583   6.2811981520e+01   1.2990018125e+01    0.1517663    0.1090301 -64.71 0.0007050558    1.761    0.432
       120  -8.8167    201.2603    103.6000   6.7869944152e+01   1.9577724566e+01    0.1602055     0.114031 -61.84 0.0006965513    1.718    0.418
       121  -9.5392    167.1935    100.9172   7.4162781046e+01   2.8172704891e+01    0.3011642    0.1810488 -47.57  0.001226951    1.712    0.416
       122  -9.4943    160.4739    100.5202   7.5582738690e+01   2.9844248036e+01    0.2942459    0.1410863 -50.30  0.001028053    2.355    0.575
       123 -10.0699    212.7619     96.3474   6.3915556271e+01   1.8188592900e+01    0.3962539    0.2319758 -68.10  0.001417457    3.026    0.670
       124  -9.5198    211.1718     91.9868   6.3063074569e+01   1.9313785070e+01    0.3137614    0.1817901 -55.14  0.001134522    2.063    0.515
       125  -9.5162    195.3693     98.0252   6.7527309214e+01   2.1982934715e+01    0.2876902    0.2211031 -83.62  0.001312719    1.708    0.414
       126 -10.3779    231.6875     91.1508   5.9524099487e+01   1.4764520585e+01    0.3012136     0.200128 -63.15  0.001016794    1.880    0.468
       127  -9.0861    203.1814     98.7404   6.6247424216e+01   2.0004307068e+01    0.2508404    0.1580537 -71.72 0.0009341387    2.657    0.624
       128  -9.3635    189.2623     93.5371   6.7506384853e+01   2.4269127650e+01    0.2646813    0.2393871  81.45 0.0009220816    1.199    0.166
       129  -9.2191    177.6282     93.4907   6.9850827257e+01   2.7098266226e+01    0.3022803    0.1816327 -61.07  0.001133492    2.312    0.567
       130  -9.3013    164.4204     94.2300   7.2924649860e+01   3.0150393640e+01    0.2298537    0.1449634 -49.42 0.0009472268    1.669    0.401
       131  -8.8557    242.3305     93.6628   5.8553534253e+01   1.2044771159e+01    0.1483939      0.10243 -62.02 0.0007052032    1.735    0.424
       132  -9.6355    158.4491     90.7853   7.3304930314e+01   3.2257380290e+01    0.3317217    0.2218078 -61.71  0.001360315    1.903    0.474
       133  -9.7936     25.0327     90.6088   1.1319566640e+02   5.4805650754e+01    0.2330279    0.1470427 -58.32 0.0004329796    1.262    0.208
       134  -9.2792    151.1010     88.6542   7.4415834628e+01   3.4429711485e+01    0.2857877    0.2128132 -50.29 0.0008695264    1.394    0.283
       135  -9.2989    183.9749     96.4999   6.9368281915e+01   2.4997374503e+01    0.2179417    0.1413228  82.52 0.0008096062    2.503    0.601
       136  -9.3583    163.9772     86.7864   7.0896565018e+01   3.1690847263e+01    0.2960401    0.1937595 -50.71  0.001086817    1.635    0.388
       137  -8.9642    236.9550     90.4755   5.8568255110e+01   1.3714718987e+01    0.1911979     0.124337 -85.13 0.0008085272    2.444    0.591
       138  -8.8940    246.6851     85.3210   5.5945422448e+01   1.2434950704e+01    0.1448462   0.09913659 -60.82 0.0007040317    1.657    0.397
       139  -9.2944    206.2740     85.0221   6.2077190125e+01   2.1671728680e+01    0.2251468    0.1887789 -41.01  0.001152591    1.138    0.121
       140  -9.4300    170.9210     83.9424   6.8564038987e+01   3.0521271347e+01    0.2531072    0.1915228 -74.82  0.001119735    1.693    0.409
       141  -9.2365    185.5292     83.0755   6.5347754655e+01   2.7070887761e+01    0.2391452    0.1496826 -36.86 0.0009231199    1.562    0.360
       142  -9.7958    159.6112     82.5079   7.0624521381e+01   3.3563695218e+01    0.3216879    0.2313711 -63.11  0.001156296    1.705    0.413
       143 -10.1223    209.9943     80.7797   6.0321328628e+01   2.1496406087e+01    0.2918041    0.1747073 -47.60  0.001266173    1.670    0.401
       144  -9.5424    150.9788     80.0199   7.1877483495e+01   3.6127358560e+01    0.2575389    0.1959164 -75.18  0.001137549    1.728    0.421
       145  -9.8789    119.5904     79.7977   7.9919428294e+01   4.3364195846e+01    0.2204876    0.1415117 -51.22 0.0005242723    1.661    0.398
       146  -9.4750    174.9345     78.4766   6.6146058234e+01   3.0518426538e+01    0.3095844    0.2078968 -51.63  0.001038691    1.599    0.375
       147  -9.5127    103.4937     78.9929   8.4362612248e+01   4.6824335598e+01    0.2137852    0.1294449 -65.43 0.0008105517    2.565    0.610
       148  -9.4060    201.1765     77.9472   6.1056112041e+01   2.4107067690e+01    0.2471866    0.1942499 -58.09 0.0009560017    1.335    0.251
       149  -9.3312    189.2031     78.2199   6.3285390035e+01   2.7012707641e+01    0.2548897     0.103085 -43.67 0.0007148572    2.470    0.595
       150  -8.6139    135.3108     78.6523   7.5331261208e+01   4.0089549500e+01    0.1597762    0.1237288 -75.57 0.0003983345    1.711    0.416
       151  -9.5284    130.3952     78.2467   7.6490331127e+01   4.1291371457e+01     0.219254      0.14243 -49.24  0.000628062    1.622    0.384
       152 -10.0330    157.8442     75.8752   6.9038572348e+01   3.5224969183e+01     0.383051    0.2465677 -49.17  0.001359994    1.655    0.396
       153  -8.8737    139.6810     74.3463   7.2878148241e+01   3.9893095309e+01     0.160652    0.1232599 -74.62 0.0007049027    1.729    0.421
       154  -9.6606    163.6102     72.0616   6.6616607446e+01   3.4480186013e+01    0.3564529    0.1742929 -45.52  0.001326684    2.144    0.533
       155  -9.7394    243.4082     76.3032   5.4222070418e+01   1.4534678049e+01    0.2006574     0.115874 -42.71 0.0006389128    1.545    0.353
       156  -9.8443    183.6231     76.8726   6.3962003546e+01   2.8634384836e+01    0.3029843    0.1511665 -31.94  0.001146295    2.071    0.517
       157  -8.8397     98.3408     73.7100   8.4285039572e+01   4.8902677642e+01    0.1435603    0.1188443  88.86 0.0004903239    1.647    0.393
       158  -9.5950    206.4749     73.9624   5.9082367748e+01   2.3474544299e+01    0.2264965    0.1095675 -53.33 0.0008097176    2.530    0.605
       159  -9.2408    238.9903     72.4736   5.3878196439e+01   1.6095696349e+01    0.1892236    0.1171303 -80.27 0.0005839463    2.361    0.576
       160 -10.0324    166.6653     78.5373   6.7895583088e+01   3.2562145422e+01    0.3596143    0.2305366 -53.77  0.001503206    1.769    0.435
       161  -9.5112    116.4972     72.5018   7.8483561269e+01   4.5476082133e+01    0.1500351    0.1455408 -21.60  0.000810514    1.029    0.028
       162  -9.8354    107.4801     71.4476   8.0769459555e+01   4.7562829178e+01    0.2693368    0.1359812 -51.32  0.001029856    2.264    0.558
       163 -10.7104    229.8927     69.8101   5.4454518194e+01   1.8568206762e+01     0.366385    0.1494273 -42.15  0.001422202    2.217    0.549
       164  -9.4503    222.1372     71.1324   5.5899385939e+01   2.0170838393e+01    0.2070254    0.1623586 -61.00  0.000805672    1.308    0.235
       165  -8.8508    170.4256     70.2115   6.4633211378e+01   3.3095242492e+01    0.2269366    0.1387376 -46.63 0.0007388649    1.694    0.410
       166  -9.4018    157.2070     70.1836   6.7442027447e+01   3.6403462697e+01    0.2194254     0.184647 -68.37 0.0006601021    1.346    0.257
       167  -8.9044    212.4933     66.4876   5.6126460419e+01   2.3207147760e+01    0.1476804    0.1373373 -59.07 7.443021e-05    1.019    0.019
       168  -9.6050    187.4854     68.9603   6.0978091778e+01   2.9008689041e+01    0.2359138    0.1480117 -35.05 0.0007912199    1.571    0.364
       169  -9.5622    101.2592     68.2255   8.1598521833e+01   4.9438269398e+01    0.3018763    0.1753718 -60.42  0.001169125    2.571    0.611
       170  -9.2714    182.3815     68.2083   6.1703195841e+01   3.0419444682e+01    0.2275328    0.1337437 -44.93 0.0009455917    1.713    0.416
       171  -9.3167    203.4725     66.0563   5.7425003686e+01   2.5486268787e+01    0.2359103    0.1420732 -35.04  0.001036062    1.606    0.377
       172  -9.3132    197.3838     64.1748   5.7902454209e+01   2.7299413639e+01    0.2232367    0.1274025 -44.89 0.0008266183    1.727    0.421
       173  -9.1605    171.1508     64.1477   6.2666064770e+01   3.3935358481e+01     0.219485    0.1820643 -70.37 0.0007208143    1.345    0.256
       174  -9.8611    111.6907     64.3348   7.7167905577e+01   4.8057333852e+01    0.2311931    0.1843623 -79.43   0.00110273    1.764    0.433
       175 -11.8819    192.7708     58.0923   5.6954528761e+01   2.9410866636e+01    0.8862965    0.2243219 -32.45  0.002562867    3.867    0.741
       176  -9.8339    158.0003     61.5948   6.4593989304e+01   3.7678004248e+01    0.3043264    0.2083817 -49.68   0.00114444    1.571    0.363
       177  -9.5993    164.8566     58.6661   6.2249904377e+01   3.6426429680e+01    0.3140254    0.1646978 -41.47  0.001254062    1.919    0.479
       178 -11.4573    241.3696     56.8291   4.9766185889e+01   1.7884697570e+01    0.2956329    0.2805866 -31.46  0.001822373    1.150    0.131
       179  -9.4289    250.4842     56.0182   4.8521001321e+01   1.5984434494e+01     0.212159    0.1189002 -35.88    0.0010295    1.584    0.369
       180  -9.5347    226.6884     56.3422   5.1477184721e+01   2.1339949533e+01    0.1532348   0.09831695 -61.92 0.0007045965    1.699    0.412
       181 -11.0742    240.1968     49.6038   4.8153349036e+01   1.9172540667e+01     0.264772    0.1949851 -29.72 0.0006167601    1.369    0.269
       182  -9.2139    139.9557     55.4802   6.6687775321e+01   4.3150322361e+01    0.2111163    0.1368528  84.12 0.0008093371    2.507    0.601
       183  -9.4755    131.4407     54.9310   6.8586087194e+01   4.5280798975e+01    0.2207278    0.1195828 -54.65 0.0008075844    2.605    0.616
       184  -9.8459    153.1473     59.6984   6.5048135916e+01   3.9206476224e+01    0.2811006    0.2024416 -45.69 0.0009200172    1.443    0.307
       185  -9.3413    220.7638     59.0151   5.2960351129e+01   2.2354112661e+01    0.1957846    0.1143686 -34.33 0.0008818405    1.626    0.385
       186  -8.9162    178.6851     50.3319   5.7092629022e+01   3.4178765836e+01    0.1583758    0.1115745 -66.79 0.0007045973    1.683    0.406
       187  -9.7678    246.4859     47.0024   4.6834838016e+01   1.8119150373e+01    0.2044668   0.08370026 -51.11 0.0008092221    2.459    0.593
       188  -9.7621    219.3703     47.1817   5.0071391744e+01   2.4402804819e+01    0.2143764    0.1141001 -43.24 0.0009470003    1.743    0.426
       189  -9.6804     95.5018     47.0202   7.5908183291e+01   5.4442221864e+01    0.2198801    0.1340502 -35.27 0.0008564118    1.592    0.372
       190  -9.4576    122.6959     46.3288   6.7813477725e+01   4.8706569947e+01    0.1459966     0.116395 -69.32 0.0005187027    1.650    0.394
       191 -11.2225    234.3892     39.2084   4.6271300576e+01   2.1922364594e+01    0.3710292    0.1889633 -47.60  0.001132029    1.803    0.445
       192 -11.4989    233.4897     34.4704   4.5208969537e+01   2.2752105527e+01    0.3712438    0.2778083 -50.12  0.002093794    1.203    0.169
       193  -8.5429    179.3295     37.6482   5.3171751027e+01   3.5799841247e+01    0.1588284    0.1057981 -65.40 0.0006430789    1.771    0.435
       194  -9.4483    168.5004     36.5195   5.4636053667e+01   3.8745068804e+01    0.2687761    0.1187302 -41.19  0.001031643    2.307    0.567
       195  -9.0580    149.4719     34.1012   5.7386609786e+01   4.3934692309e+01     0.211512    0.1453876 -26.80 0.0004275361    1.535    0.348
       196 -10.9897    246.1532     32.1380   4.3380497100e+01   2.0156204634e+01    0.2465622    0.1581671 -42.26  0.001031576    1.373    0.272
       197  -9.0095    125.5569     30.0288   6.1134820307e+01   5.0353841508e+01    0.2117314    0.1395723 -26.03 0.0009387297    1.578    0.366
       198  -8.8396     42.4474     27.5451   8.8018528976e+01   6.6205652622e+01     0.125063    0.1003931 -18.40 0.0001004338    1.002    0.002
       199  -9.5966    250.4039     25.8224   4.1540876812e+01   2.0001072448e+01    0.1737864    0.1201716 -21.51 0.0009513128    1.702    0.412
       200  -9.0116    136.5957     24.9974   5.6843597429e+01   4.8293852997e+01    0.2038326    0.1395162 -22.08 0.0003736232    1.565    0.361
       201 -10.7103    242.6935     23.4407   4.1677523075e+01   2.2013722076e+01    0.3324327    0.1268377 -22.73  0.001222073    3.583    0.721
       202  -8.5187    118.4406     24.4942   6.0750788127e+01   5.2721838669e+01    0.1399093    0.1283589  28.82 0.0001741797    1.009    0.009
       203  -8.7742     84.7362     21.3644   6.8954824537e+01   6.0361010497e+01    0.1247817    0.1024136 -52.58 0.0003734799    1.644    0.392
       204 -10.1024    231.7403     18.2311   4.1443922508e+01   2.5154424849e+01    0.2435016     0.147261 -38.79  0.001277692    1.532    0.347
       205  -9.4273      8.7933     18.8127   1.0076075153e+02   7.0863006534e+01    0.1708131    0.1147511 -29.85 0.0004746133    1.157    0.136
       206  -8.8858     23.5074     15.4775   9.1704888153e+01   7.0235382748e+01    0.1186613   0.08939247 -21.25 2.364652e-05    1.014    0.013
       207  -8.6253      2.6526     15.7173   1.0282854657e+02   7.1786127416e+01    0.1176704   0.06051323 -29.08 0.0002479133    1.646    0.392
       208  -8.9384     29.9491     12.9753   8.7296614154e+01   6.9963680053e+01    0.1409737    0.1086224 -14.08  0.000348216    1.017    0.017
       209  -9.3996    168.0412    249.5380   1.0318362634e+02   7.4311728955e-01    0.1822114   0.09363098  40.05 0.0004105258    1.522    0.343
       210  -9.6779    250.0869    245.2841   8.8155793274e+01  -1.0955014750e+01    0.1566732    0.1129894  20.54 0.0005143437    1.098    0.089
       211  -9.6494    177.6994    242.0918   1.0041865569e+02   2.4176959732e-01    0.1588868    0.1396626  24.58  0.000446515    1.124    0.110
       212  -9.1588    248.3826    240.1364   8.7617152380e+01  -1.0175041046e+01    0.1369888   0.09890684 -31.72  0.000932146    1.709    0.415
