#   1 NUMBER                 Running object number                                     
#   2 MAG_AUTO               Kron-like elliptical aperture magnitude                    [mag]
#   3 X_IMAGE                Object position along x                                    [pixel]
#   4 Y_IMAGE                Object position along y                                    [pixel]
#   5 X_WORLD                Barycenter position along world x axis                     [deg]
#   6 Y_WORLD                Barycenter position along world y axis                     [deg]
#   7 A_WORLD                Profile RMS along major axis (world units)                 [deg]
#   8 B_WORLD                Profile RMS along minor axis (world units)                 [deg]
#   9 THETA_WORLD            Position angle (CCW/world-x)                               [deg]
#  10 FWHM_WORLD             FWHM assuming a gaussian core                              [deg]
#  11 ELONGATION             A_IMAGE/B_IMAGE                                           
#  12 ELLIPTICITY            1 - B_IMAGE/A_IMAGE                                       
         1 -14.3146    166.3544     54.6004   6.8540287663e+01   3.6620287870e+01     1.994827     1.328156  23.95  0.006018627    1.962    0.490
         2 -14.1348    180.2421     39.6730   6.1480212455e+01   3.5206367905e+01    0.9640504    0.8902996  82.10  0.002819037    1.076    0.071
         3 -13.8949    184.8563     33.0464   5.8780005081e+01   3.4876448066e+01    0.7959419    0.7374085 -35.39  0.001878762    1.104    0.094
         4 -13.1928    229.8120      2.4800   4.5639795203e+01   2.7203798384e+01     1.931066    0.2419629  73.03  0.005006589    7.137    0.860
         5 -12.9390    198.1683     23.4434   5.4210033163e+01   3.2647552990e+01    0.4692954     0.385709  33.76  0.001744403    1.397    0.284
         6 -14.7916    200.9852      7.6777   4.9522910529e+01   3.3609096404e+01     1.221807     1.137568 -10.72  0.004041872    1.231    0.188
         7 -13.5229    189.7390     14.3434   5.2632408001e+01   3.5755400134e+01    0.5939401    0.4973994 -82.17  0.002077893    1.165    0.142
         8 -10.9154    113.1321      3.6474   6.1188529141e+01   5.5899656291e+01    0.2137565    0.1824099 -29.75 0.0005518669    1.301    0.231
         9  99.0000     12.9829    205.9032   1.3497708634e+02   3.0402020311e+01    0.3754862     0.139962  35.63  0.002093519    2.588    0.614
        10 -14.0611    246.2331    241.9315   9.6055519085e+01  -8.2618072131e+00     1.153775    0.6034524 -23.92  0.007173374    1.988    0.497
        11  99.0000     59.7019    235.1846   1.2852149630e+02   1.9944675051e+01     8.716574      7.02592  82.09    0.0676764    1.181    0.153
        12 -11.3313    149.0698    179.8481   1.0386629666e+02   1.6594817935e+01    0.2275907    0.2051877 -57.19 0.0008242862    1.220    0.180
        13 -11.3429    188.2962    154.4031   9.0560811262e+01   1.3727493191e+01    0.6040573    0.3180037  45.89  0.002615007    1.878    0.467
        14 -12.5271    133.5761    145.3872   1.0075555794e+02   2.6464805003e+01     1.332678    0.4695076 -57.19  0.003938878    4.186    0.761
        15 -11.1073    124.6705    152.5103   1.0432530386e+02   2.6617720425e+01    0.3113371    0.2136693  72.88  0.001415516    1.965    0.491
        16 -11.1185    144.2870    147.1758   9.8605603459e+01   2.3996972950e+01     0.625491    0.2841298 -62.23    0.0018945    4.237    0.764
        17 -10.8725    174.4399    148.6758   9.2199025277e+01   1.7594724262e+01    0.3255951    0.2834347 -81.83   0.00111187    1.458    0.314
        18 -10.3003    161.0695    148.9815   9.5177154908e+01   2.0264867430e+01    0.2362603    0.1852454 -88.85   0.00112698    1.797    0.444
        19 -11.4616    204.4776    175.9009   9.1819217530e+01   6.9719456131e+00    0.3534158    0.3337211   9.68  0.001112058    1.136    0.120
        20 -12.6184    110.7093    138.1826   1.0490768391e+02   3.2290430679e+01     0.701342    0.4671493 -26.17  0.003090176    2.174    0.540
        21 -12.1575    106.1254    130.9796   1.0458988107e+02   3.4724486323e+01    0.4720204    0.3721909 -79.09  0.001453121    1.420    0.296
        22 -11.3485    105.3954    124.6235   1.0340366810e+02   3.6294992763e+01    0.2704015    0.2344763 -22.63 0.0003844175    1.325    0.245
        23 -12.7561     99.9384    137.3855   1.0751355049e+02   3.4331298669e+01    0.4582096    0.3205968  33.63 0.0009467916    1.555    0.357
        24 -11.0369    141.9506    138.7386   9.7321419680e+01   2.6222013278e+01    0.3253779    0.2027915 -38.02 0.0009758328    1.721    0.419
        25 -11.6184    135.6280    127.5686   9.6296992156e+01   2.9869792186e+01    0.6532803    0.2055255 -49.69  0.002007694    3.381    0.704
        26 -10.7969    160.3570    127.5172   9.0419905062e+01   2.4691748770e+01    0.3909044    0.2671558 -61.91  0.001586416    1.872    0.466
        27 -10.6383    121.3171    122.9261   9.8821060056e+01   3.3719843927e+01    0.3096968    0.2269172 -14.42  0.001390651    1.919    0.479
        28 -11.3267    117.1933    128.8552   1.0124779688e+02   3.3191199103e+01     0.325491    0.2639011 -24.58  0.000602695    1.453    0.312
        29 -10.4953    112.0621    118.1109   1.0012076200e+02   3.6550606944e+01    0.2379348    0.2091833  38.70 0.0003365484    1.181    0.153
        30 -11.1933    168.1364    113.1888   8.5080705833e+01   2.5808200698e+01    0.3672186    0.3019843 -76.88 0.0008165371    1.543    0.352
        31 -10.9842    134.5764    104.9857   9.0872670996e+01   3.4888037562e+01    0.5925745    0.1451985 -44.60  0.001610698    4.023    0.751
        32 -11.6001    119.5103    110.5798   9.6272232316e+01   3.6787952570e+01     0.616135    0.3412432  62.22  0.002247774    2.794    0.642
        33 -10.5638    196.9210    176.6231   9.3419685773e+01   8.2528131457e+00    0.2973641    0.2184367  39.85 0.0008867889    1.292    0.226
        34 -10.7712    205.1499    110.1750   7.6824698187e+01   1.7996725563e+01    0.3615108    0.2330135  40.43  0.001121007    1.632    0.387
        35 -11.8680    193.0607    195.1913   9.7650418429e+01   5.9898987014e+00    0.8819916    0.4767881 -62.11  0.002984538    5.416    0.815
        36 -11.1125    161.1055    199.6513   1.0471864592e+02   1.0891909065e+01    0.1910417     0.180316 -77.77  0.000403175    1.259    0.206
        37  -9.8685    150.8430     81.1997   8.0077503578e+01   3.5933090294e+01    0.2135282    0.1807548  13.88 0.0004500413    1.315    0.239
        38 -10.6464     81.6038     76.0687   9.7875894313e+01   5.1181040888e+01    0.2283086    0.1936388  47.37  0.000502958    1.332    0.250
        39 -10.7130    167.5741    231.3583   1.0823467201e+02   4.8430803571e+00    0.2913472    0.1973733 -16.20  0.001468736    2.098    0.523
        40 -10.8794    176.7116     74.9672   7.2679825930e+01   3.0774956502e+01    0.2725145    0.2405858  88.98 0.0002173231    1.271    0.213
        41 -12.9386    171.8171     71.0408   7.2490341757e+01   3.2637740969e+01    0.7116647    0.4517959 -79.98  0.001257887    2.784    0.641
        42 -10.1551    228.0130    232.0146   9.7528848161e+01  -4.6131370341e+00    0.1401204    0.1105359   8.25 0.0005123649    1.093    0.085
        43 -10.4155    185.4534    170.2111   9.4426311338e+01   1.1497764180e+01    0.3594233    0.2281646 -60.13  0.001598648    2.400    0.583
        44 -10.4308     13.4909     59.9535   1.1831189045e+02   6.2357285811e+01    0.1739276     0.161369  73.55 0.0004473591    1.349    0.259
        45 -11.6184    230.3313    166.7449   8.5210188763e+01   3.6839610437e+00    0.3294436    0.1481534 -44.35  0.001368307    2.709    0.631
        46 -10.1344    124.0006    161.2099   1.0612545920e+02   2.4887933989e+01    0.2173328    0.1778664  71.37 0.0006841822    1.321    0.243
        47 -18.9570     34.7401     99.6504   1.1892980992e+02   5.1762786547e+01     14.80095     1.086993 -64.52    0.0287544   11.073    0.910
        48  99.0000     52.9816    207.0207   1.2756333625e+02   2.5945750232e+01    0.2919399    0.1215039 -75.07    0.0011303    2.416    0.586
