#   1 NUMBER                 Running object number                                     
#   2 MAG_AUTO               Kron-like elliptical aperture magnitude                    [mag]
#   3 X_IMAGE                Object position along x                                    [pixel]
#   4 Y_IMAGE                Object position along y                                    [pixel]
#   5 X_WORLD                Barycenter position along world x axis                     [deg]
#   6 Y_WORLD                Barycenter position along world y axis                     [deg]
#   7 A_WORLD                Profile RMS along major axis (world units)                 [deg]
#   8 B_WORLD                Profile RMS along minor axis (world units)                 [deg]
#   9 THETA_WORLD            Position angle (CCW/world-x)                               [deg]
#  10 FWHM_WORLD             FWHM assuming a gaussian core                              [deg]
#  11 ELONGATION             A_IMAGE/B_IMAGE                                           
#  12 ELLIPTICITY            1 - B_IMAGE/A_IMAGE                                       
         1 -12.0695    191.9809     36.6266   5.2483400545e+01   3.2395222628e+01     1.009275    0.8789749 -40.61  0.003266224    1.146    0.128
         2 -12.4680    200.4604     27.2595   4.8606525919e+01   3.1393308910e+01     0.910346    0.7790312  19.53  0.001308184    1.392    0.282
         3 -11.1521    223.0242      2.7769   3.9696071800e+01   2.8466240225e+01     0.750005    0.3384081  77.13  0.003388305    2.131    0.531
         4  -9.5800     57.3997      4.1968   7.1769786188e+01   6.7036519441e+01    0.1719711    0.1016122 -32.16   0.00095802    1.725    0.420
         5  -7.9456    111.9931    217.9831   1.1158108167e+02   1.5045082546e+01     0.154306    0.1195631  52.70 0.0004230212    1.083    0.077
         6  -9.2875    117.3857    250.1900   1.1412122506e+02   8.8672423067e+00     0.248189    0.1238566  51.43  0.001423867    1.617    0.382
         7 -19.1679      7.9407    139.2579   1.2518378547e+02   4.4579809052e+01     17.82609     2.861866 -75.94   0.05296289    5.801    0.828
         8 -10.4161     50.8727    184.0841   1.2006683721e+02   3.0461016376e+01    0.3048165    0.1886947 -66.13  0.001813303    1.541    0.351
         9  -8.6204     99.3600    180.6884   1.0929139436e+02   2.4382623183e+01    0.2163106     0.176259  49.92 0.0006033325    1.178    0.151
        10 -10.6312     75.4094    176.7871   1.1401628796e+02   2.8832675852e+01    0.4206041    0.2750075 -44.35   0.00222695    2.020    0.505
        11 -10.5961     79.7704    171.2369   1.1231480590e+02   2.9426602538e+01    0.3526689    0.2657311 -50.88   0.00106284    1.513    0.339
        12  -9.9572     58.7407    177.1131   1.1767656192e+02   3.0991136037e+01    0.2719657     0.196286 -73.61 0.0006205363    1.263    0.208
        13  -7.7323    130.5077    212.9930   1.0733706838e+02   1.2924216458e+01    0.1643798    0.1261739 -62.59 0.0005564056    1.484    0.326
        14  -9.7329    103.7699    172.2370   1.0704197835e+02   2.5475174191e+01    0.3034855    0.2268721  75.44  0.001643425    1.400    0.286
        15  -7.9436    163.4176    169.2051   9.3231514968e+01   1.5070494195e+01    0.1949005    0.1376759 -59.94 0.0009332007    1.706    0.414
        16  -8.4827    192.8576    165.1283   8.6253224632e+01   9.9142475265e+00    0.2099331     0.200737  76.81 0.0008277873    1.246    0.198
        17 -10.5979     93.5541    154.9228   1.0661275826e+02   3.0991601817e+01    0.6036353    0.4057149 -29.36  0.002781568    2.339    0.572
        18  -8.4579     65.4372    155.2474   1.1341611305e+02   3.5026404870e+01    0.1866426    0.1136245 -80.26 0.0009448251    1.625    0.385
        19  -8.6990    187.9503    155.0000   8.5075013761e+01   1.2753827693e+01    0.2488623   0.08144564  45.63 0.0008078248    2.980    0.664
        20  -9.7083    134.0000    144.9923   9.4927720204e+01   2.5946582231e+01    0.8013419     0.225874 -55.13  0.002072888    5.054    0.802
        21  -9.8866    105.9352    140.1314   1.0082694583e+02   3.2306763088e+01    0.4847637    0.2957215 -38.42  0.002133427    1.984    0.496
        22 -10.5837     93.6677    140.1215   1.0393834434e+02   3.4386794150e+01    0.2791028     0.247679 -47.77  0.000373404    1.202    0.168
        23  -9.3774     76.8593    133.8753   1.0712910517e+02   3.8442882899e+01    0.2007133    0.1780052 -54.00 0.0004826529    1.164    0.141
        24 -10.1002    114.3054    130.2897   9.6613958882e+01   3.3048560815e+01    0.3622888    0.2915537 -19.42  0.001449861    1.588    0.370
        25  -8.9742    105.8174    130.1263   9.8777336657e+01   3.4638055115e+01    0.3693941    0.2312361 -60.93  0.001675045    1.615    0.381
        26  -8.9693    136.0000    130.0724   9.1099800407e+01   2.8817767110e+01    0.2551327    0.0861297 -47.05 0.0008015937    2.937    0.659
        27  -8.6952    162.5166    128.7404   8.4490726042e+01   2.3403458139e+01    0.3751863     0.242866  82.34   0.00132047    3.050    0.672
        28  -9.2122    101.1914    126.6256   9.9236263713e+01   3.6266696852e+01    0.2629283    0.2179764 -36.80 0.0005468898    1.315    0.240
        29  -9.7117     67.8690    125.2962   1.0796233209e+02   4.1733533949e+01    0.2516019     0.174002 -72.07  0.001319911    1.363    0.266
        30  -9.7643    119.6819    123.7668   9.3731678981e+01   3.3507741081e+01    0.3274798    0.2277133 -17.73  0.001374436    2.184    0.542
        31  -9.1692    134.7097    119.5305   8.8861829579e+01   3.1406040644e+01     0.281703    0.1363817 -46.59   0.00105964    2.029    0.507
        32  -8.8999    109.5903    119.4560   9.5369486240e+01   3.6414355362e+01     0.272584    0.2357473  75.31 0.0005770642    1.263    0.208
        33 -11.3860     44.7787    114.5879   1.1247434825e+02   4.7053263866e+01    0.4755277    0.2021502 -63.62  0.001852824    1.945    0.486
        34  -8.4809     96.6059    200.5529   1.1251437787e+02   2.0742300553e+01    0.3106343    0.2272515 -23.96  0.001063769    2.525    0.604
        35 -10.1825     58.8397    111.8847   1.0794379941e+02   4.6084669699e+01    0.2929383    0.1633329 -48.50 0.0008635217    1.682    0.405
        36  -9.7709    115.7117    109.8902   9.1363385558e+01   3.7423214921e+01     0.362656    0.2301737  19.25   0.00142727    2.443    0.591
        37  -8.7938    205.3255    110.1705   7.0806902612e+01   1.7193541459e+01    0.2746785    0.2024207  39.85  0.001298897    1.420    0.296
        38  -8.6288    167.4532    112.3074   7.9176189560e+01   2.5634764890e+01    0.4048869    0.2591643 -87.34  0.001328723    3.447    0.710
        39  -9.7933    195.2657    198.6894   9.2319869184e+01   3.8516066337e+00     0.309157    0.2126892 -75.49  0.001349885    3.281    0.695
        40 -10.1496     41.3256     91.8362   1.0919319419e+02   5.2745565866e+01    0.2347587    0.1995894 -49.70 0.0007022847    1.099    0.090
        41  -8.3302    208.2733    197.0002   8.9540005550e+01   1.7713247753e+00    0.1610637    0.1132885 -31.39 0.0006689323    1.511    0.338
        42  -8.8768     82.3985    195.3369   1.1479066072e+02   2.3914452413e+01    0.2206994    0.1949359 -25.57  0.001408427    1.697    0.411
        43  -7.7489    155.6903     80.6743   7.2861524975e+01   3.4642624193e+01    0.1625443    0.1241693  10.94 0.0007038888    1.656    0.396
        44  -8.9284     65.5192     70.5054   9.5649692545e+01   5.4658863850e+01    0.2588029    0.1373703  33.31  0.001200931    2.130    0.531
        45  -8.8162    182.3163    216.3296   9.7787801026e+01   3.4450158701e+00    0.1295667   0.09150022  12.11 0.0007045997    1.680    0.405
        46  -9.2507    158.4556     60.4168   6.5903057048e+01   3.7536125595e+01    0.3052998    0.2560685 -75.05 0.0008031141    1.400    0.286
        47  -8.5520    160.8486     54.1635   6.3387002111e+01   3.7934147892e+01    0.2362128    0.2050599 -77.23 0.0005793763    1.302    0.232
        48 -11.6199    181.0553     47.3407   5.7443069056e+01   3.3752936042e+01    0.7914704    0.5677546 -12.94  0.002056342    1.629    0.386
        49  -8.9598    109.9830    223.6687   1.1262709247e+02   1.4348274140e+01    0.1783969    0.1361593  52.95 0.0006755135    1.081    0.075
        50 -10.3247    177.6893    222.0441   9.9552860918e+01   3.3869420412e+00    0.2765093    0.2386807  58.08  0.001101534    1.310    0.236
        51  -7.4614     78.2996    193.2740   1.1539423053e+02   2.4925716630e+01    0.1066867   0.09969988 -28.94 0.0002543411    1.532    0.347
        52  -8.2984     76.3721     13.6728   6.9643679301e+01   6.2635464394e+01    0.1216997    0.1036207 -62.91  0.000703037    1.823    0.451
        53  -8.2824    149.6154    189.7818   9.9929596897e+01   1.3800159397e+01    0.1806084     0.130564 -64.31 0.0007549987    1.662    0.398
        54  -9.1086    151.9518    220.5262   1.0421540973e+02   8.0180879907e+00    0.2048837    0.1068483  41.81  0.001038676    1.612    0.380
