#   1 NUMBER                 Running object number                                     
#   2 MAG_AUTO               Kron-like elliptical aperture magnitude                    [mag]
#   3 X_IMAGE                Object position along x                                    [pixel]
#   4 Y_IMAGE                Object position along y                                    [pixel]
#   5 X_WORLD                Barycenter position along world x axis                     [deg]
#   6 Y_WORLD                Barycenter position along world y axis                     [deg]
#   7 A_WORLD                Profile RMS along major axis (world units)                 [deg]
#   8 B_WORLD                Profile RMS along minor axis (world units)                 [deg]
#   9 THETA_WORLD            Position angle (CCW/world-x)                               [deg]
#  10 FWHM_WORLD             FWHM assuming a gaussian core                              [deg]
#  11 ELONGATION             A_IMAGE/B_IMAGE                                           
#  12 ELLIPTICITY            1 - B_IMAGE/A_IMAGE                                       
         1 -14.5615     67.5966    142.0899   7.9046560099e+01   3.8298352789e+01     2.305963     1.352837  82.18  0.009786299    2.239    0.553
         2 -13.6416    200.8974     49.0965   2.3613178350e+01   2.8306294136e+01       1.2619     1.000086  26.47  0.004463703    1.658    0.397
         3 -12.5318    230.2448     24.8055   1.4533214328e+01   2.4653863565e+01    0.7582387    0.4231917 -71.43  0.003852567    1.858    0.462
         4 -12.8089    233.5848     19.1625   1.2951353450e+01   2.4567767171e+01    0.8646702    0.5297847 -70.42  0.004858667    1.559    0.359
         5 -11.9979     28.7686     13.7954   5.6795092308e+01   7.2859034784e+01    0.5847495    0.2164492  44.72  0.002356497    3.551    0.718
         6 -11.0104     18.8971     11.7980   6.2056528791e+01   7.4438540495e+01    0.3635233    0.1442351  32.32  0.001707996    2.622    0.619
         7 -11.7651    243.3192      7.4020   9.6584845289e+00   2.3770597141e+01    0.3459367    0.2528217 -66.93  0.002264729    1.166    0.142
         8 -10.6748     58.0697      9.0089   3.9010454896e+01   6.8516170472e+01    0.2065141    0.1818269  21.88 0.0006741645    1.021    0.021
         9 -10.8024     16.8776      3.1152   5.7996061282e+01   7.6093224657e+01    0.1742049    0.1585788 -17.08 0.0006999449    1.241    0.194
        10  -9.6606     77.5218    187.5211   8.2615498702e+01   2.6304417005e+01    0.2629631    0.1647403 -80.91   0.00135608    1.778    0.438
        11  -9.5499    100.9895    250.2883   8.3974612002e+01   1.1362766682e+01    0.1695723     0.141693  43.95 0.0006243095    1.105    0.095
        12  -9.8156    101.3697    245.8077   8.3494005799e+01   1.2018725276e+01    0.2340315    0.1923484 -64.40  0.001703614    1.538    0.350
        13 -11.3640    102.9155    239.1680   8.2559902481e+01   1.2883068020e+01    0.5475566    0.3338639 -31.41  0.002348817    2.923    0.658
        14  -9.5348     93.8769    249.7212   8.5297931689e+01   1.2393979433e+01    0.2133899     0.121286  65.34  0.001230746    2.073    0.518
        15 -10.5669     75.0000    249.5684   8.8928943590e+01   1.4849600322e+01    0.3096788    0.1516076 -76.04  0.001557555    2.598    0.615
        16 -11.0014     76.1701    244.4797   8.8319779631e+01   1.5547950815e+01    0.4066314    0.2878219  27.39  0.002703575    1.498    0.332
        17 -15.7080      2.3939     86.6790   9.3134613187e+01   5.8930689597e+01     11.97956    0.7322524 -75.47   0.02228854   12.265    0.918
        18 -11.2190    125.7425    213.3863   7.4930166495e+01   1.3947146169e+01    0.3802067    0.1976737 -64.51  0.001700141    2.701    0.630
        19 -10.8516    116.7433    187.9845   7.3388911482e+01   2.0146208238e+01    0.2862038    0.1750744  12.75  0.001204984    2.733    0.634
        20  -9.5267     72.3584    186.4819   8.3743191011e+01   2.7258089612e+01     0.225622    0.1505694  56.65 0.0005700084    1.358    0.264
        21 -11.1821    115.3616    183.0260   7.2964950415e+01   2.1375705991e+01    0.2720428    0.2286742  24.07  0.001565107    1.260    0.207
        22 -11.6769     98.1488    181.4625   7.6841885737e+01   2.4498349398e+01    0.4444306    0.3504646   6.07  0.001344773    1.711    0.416
        23  -9.6858    172.5067    178.0468   5.9503453246e+01   1.2413671668e+01    0.1918354    0.1315198 -40.67 0.0005559133    1.546    0.353
        24 -10.9767    126.7684    177.0527   6.9342167929e+01   2.0651845483e+01    0.3084601    0.2191784  81.74  0.001486112    2.013    0.503
        25 -11.5968    180.9621    173.1792   5.6894286745e+01   1.1763718719e+01    0.5899156    0.4251758 -42.61  0.003129884    1.486    0.327
        26 -10.6064    114.2459    178.0059   7.2451728183e+01   2.2597347466e+01    0.1875663    0.1807664  85.95 0.0004809672    1.100    0.091
        27 -10.3750    141.2813    211.4513   7.1407151901e+01   1.1866502579e+01    0.2224112    0.1939299  71.06 0.0006679124    1.384    0.278
        28  -9.6742    199.3919    172.6264   5.3257666488e+01   8.6716630437e+00    0.3500266     0.176601 -57.22  0.001203457    4.770    0.790
        29 -11.6503    103.1078    171.4944   7.4143069454e+01   2.5846771369e+01    0.3783538    0.2603258  58.14  0.001910587    1.483    0.325
        30 -11.6337     85.7063    168.4446   7.8086768756e+01   2.9317142825e+01    0.4201072    0.2025771  38.91  0.001837266    1.898    0.473
        31 -11.1785    110.5824    167.2173   7.1594414391e+01   2.5516467198e+01    0.3174821    0.2480715 -73.95  0.001422326    1.421    0.296
        32 -11.4697    247.3010    164.9085   4.3777359815e+01   2.1760362749e+00    0.5301005    0.1891063 -39.92  0.002332393    2.816    0.645
        33 -11.3994     82.4854    151.1776   7.6290467150e+01   3.3842124048e+01    0.6515658     0.322961  61.79  0.002418807    2.812    0.644
        34 -11.0890     54.9165    146.8592   8.3431059227e+01   3.8858525875e+01    0.7250318    0.5080047 -71.64  0.003855301    1.354    0.262
        35 -12.8912     73.7669    159.9999   8.0015635338e+01   3.3075402042e+01    0.8470173    0.6143795 -26.69  0.004171746    2.058    0.514
        36  -9.2422    241.5263    249.5100   5.8784210118e+01  -6.9190083659e+00    0.1046062   0.07352873   9.22 0.0001550971    1.006    0.006
        37 -11.5320    133.8067    145.7666   6.1806495733e+01   2.5884395286e+01     1.215217    0.3150757 -54.24  0.003026222    5.713    0.825
        38  -9.1355     33.1041    149.7981   9.0018002889e+01   4.0686079145e+01    0.2033233    0.1470957  62.10 0.0006314847    1.259    0.206
        39 -11.8898     90.2501    146.3563   7.3320986090e+01   3.3729943878e+01     0.645052    0.4502256 -16.87  0.002800435    2.403    0.584
        40 -11.7802    104.8594    132.2994   6.6508667369e+01   3.4472597842e+01    0.7177037    0.4012021 -36.17  0.002428998    2.401    0.583
        41 -11.6872     91.1752    133.0757   7.0551596003e+01   3.6752285979e+01    0.2902365    0.2830341  38.45 0.0003740008    1.116    0.104
        42  -9.9347     41.5357    134.0533   8.5681748109e+01   4.3676115175e+01    0.2025147    0.1740024  51.02  0.000559187    1.174    0.148
        43 -10.5230    114.7618    131.7977   6.3690795550e+01   3.2701064388e+01    0.3285077    0.2140927  80.62  0.001278648    2.480    0.597
        44  -9.0086    135.6659    206.6992   7.1915208832e+01   1.3570427767e+01    0.1279061   0.09581064   6.29 0.0002430883    1.655    0.396
        45 -10.1249    139.9129    131.0154   5.7074709130e+01   2.7797681020e+01    0.2238556    0.2190541  81.99 0.0003696083    1.035    0.034
        46 -10.4366    192.5087    194.0014   5.8439503849e+01   6.5012733775e+00    0.3288793    0.1836049 -60.06  0.001288423    4.326    0.769
        47 -10.2315     75.0119    127.5083   7.4270566709e+01   4.0789718040e+01    0.3036636    0.2086862  65.63  0.001422255    1.633    0.388
        48 -10.1234     74.0522    122.9345   7.3672617160e+01   4.2076510814e+01    0.4475701    0.2707335  72.87  0.001416101    2.323    0.570
        49 -11.2345    112.4527    126.5779   6.3150362992e+01   3.4349950538e+01    0.3102787     0.268042  -4.72 0.0007155089    1.434    0.303
        50 -10.3029     81.6473    135.8566   7.3860227636e+01   3.7675226516e+01    0.2997057    0.2008334  33.74  0.001420461    1.563    0.360
        51 -10.5039     99.4224    122.1880   6.5836337368e+01   3.7875814843e+01      0.30057    0.2659502 -21.59 0.0007640871    1.335    0.251
        52 -10.1875     39.8127    127.6245   8.5340033925e+01   4.5492078399e+01     0.192215    0.1143398  43.78 0.0005945595    1.668    0.401
        53  -9.2039    162.0108    119.5077   4.9225568966e+01   2.5437459912e+01    0.2154593    0.1482334  48.91 -6.488499e-05    1.477    0.323
        54 -10.2284     55.5087    161.6709   8.5156617806e+01   3.5194132323e+01    0.3042955    0.2434716 -33.37  0.001502392    1.681    0.405
        55 -11.3834     82.2747    169.9922   7.9188878044e+01   2.9490529405e+01    0.4631853    0.2631971  61.53    0.0015646    1.976    0.494
        56  -9.4262    108.0764    116.5109   6.2010233275e+01   3.7542554407e+01    0.2200001    0.2036427 -60.01 0.0003395552    1.073    0.068
        57  -9.0374    158.3749    114.1681   4.8687646902e+01   2.7287362988e+01    0.2238816    0.1363891 -52.37 0.0007769004    1.782    0.439
        58 -10.4083     92.0871    155.4126   7.4383615742e+01   3.1296929305e+01     0.389257    0.2498998  79.03   0.00107418    2.075    0.518
        59  -9.8306    205.4390    110.2268   3.8668309927e+01   1.7811120561e+01      0.23664    0.1967702  47.51 0.0005963484    1.298    0.230
        60 -11.0112    133.6516    106.7910   5.2616853786e+01   3.4310254761e+01     0.570911    0.3485363 -53.47  0.002389962    1.741    0.426
        61 -11.6900     53.6165    107.5918   7.7348606850e+01   4.8905891113e+01    0.4716779    0.2288164 -65.10  0.001297782    1.949    0.487
        62 -10.9244    115.2349    108.7421   5.8035710492e+01   3.7862767974e+01    0.2886148    0.1953467  47.92  0.001286092    1.483    0.325
        63 -11.6984     45.2297    105.6395   7.9924481404e+01   5.0458984608e+01    0.4261879    0.2556591  38.52  0.001650063    1.731    0.422
        64 -10.7986    110.3197    103.7843   5.8120896323e+01   4.0009973833e+01    0.3240741    0.1990744  42.76 0.0008646433    1.649    0.394
        65 -10.6524     46.3739     90.6024   7.6375386458e+01   5.4107044595e+01    0.2655683    0.1269004  35.91  0.001131668    2.178    0.541
        66 -18.6857     13.4897    224.3008   9.9542253762e+01   2.6343308441e+01     4.522583     3.523874  85.02   0.02481588    1.267    0.211
        67 -15.1334     56.0123    233.5370   9.1532417128e+01   1.9969394761e+01     2.338641     1.558953 -19.36   0.01199251    3.556    0.719
        68  -8.8979    184.6551     77.2831   3.3685428510e+01   2.7924988068e+01     0.152327    0.1101091 -70.73 0.0003673593    1.641    0.391
        69 -11.6114     38.9194     70.9177   7.4535356513e+01   5.9812990321e+01    0.3698286    0.2205879  51.31  0.001732724    2.077    0.518
        70  -9.0473     45.3026     69.3233   7.1306309307e+01   5.9406327834e+01    0.1446391   0.09968349 -29.99 0.0003954949    1.635    0.388
        71 -12.3444    184.5388     61.4506   2.9285053193e+01   3.0464129150e+01    0.5346107     0.463608  -9.66 0.0009187216    1.337    0.252
        72  -9.6115    115.5388    248.7901   8.1027668526e+01   9.6300019591e+00    0.2111665     0.143099  61.01  0.001358332    1.633    0.388
        73 -12.5730    207.1074     43.9073   2.1500279642e+01   2.7539818072e+01    0.5532551    0.4586601 -40.56  0.001183655    1.128    0.114
        74  -8.8669     28.0509     49.9922   7.3418518787e+01   6.5841836011e+01     0.153802    0.1410983 -26.62 0.0004484111    1.076    0.071
        75  -9.2291     33.2966     47.6278   6.9907199532e+01   6.5786868491e+01    0.1297914    0.1032053  82.54  0.000417897    1.738    0.424
        76 -11.0268     76.6201    182.9362   8.2289709347e+01   2.7430841925e+01    0.5561585    0.2894959  71.26  0.002327813    2.657    0.624
        77 -10.0936     68.9242    192.5735   8.5229269260e+01   2.6416258706e+01    0.3874257    0.1918778  66.50  0.001228222    2.461    0.594
        78 -11.2308    124.7964    244.0231   7.8744766819e+01   9.0752238117e+00    0.2940137    0.1581764 -55.27  0.001709272    2.384    0.581
        79  -9.6629     60.2263     21.0878   4.4823031336e+01   6.6488074427e+01    0.2017212    0.1655807   7.43 0.0004660333    1.213    0.175
        80 -10.7694    125.3522    239.1985   7.8111041115e+01   9.7375818686e+00    0.1828851    0.1623621 -23.05 0.0009292841    1.416    0.294
        81 -10.9956    161.6367    187.3288   6.3392544139e+01   1.2681920173e+01    0.4143499    0.2254079 -56.30  0.001805739    2.524    0.604
        82 -10.9850    108.2975    239.8677   8.1557159379e+01   1.2025449348e+01    0.2644382    0.1836437 -51.71  0.001717397    1.831    0.454
        83 -10.4983     89.7671    235.0226   8.4814742908e+01   1.5374875274e+01    0.2904369    0.2031342  72.71  0.001085965    1.561    0.360
