#   1 NUMBER                 Running object number                                     
#   2 MAG_AUTO               Kron-like elliptical aperture magnitude                    [mag]
#   3 X_IMAGE                Object position along x                                    [pixel]
#   4 Y_IMAGE                Object position along y                                    [pixel]
#   5 X_WORLD                Barycenter position along world x axis                     [deg]
#   6 Y_WORLD                Barycenter position along world y axis                     [deg]
#   7 A_WORLD                Profile RMS along major axis (world units)                 [deg]
#   8 B_WORLD                Profile RMS along minor axis (world units)                 [deg]
#   9 THETA_WORLD            Position angle (CCW/world-x)                               [deg]
#  10 FWHM_WORLD             FWHM assuming a gaussian core                              [deg]
#  11 ELONGATION             A_IMAGE/B_IMAGE                                           
#  12 ELLIPTICITY            1 - B_IMAGE/A_IMAGE                                       
         1 -11.0452    225.8774     41.7366   6.5986914011e+00   2.4115675551e+01    0.3255502    0.1203339 -42.37  0.001437488    2.187    0.543
         2 -10.9989     45.1833     12.1349   3.5087278606e+01   7.0081693046e+01    0.2644477    0.2080481  19.67 0.0008009355    1.141    0.124
         3 -11.7195     49.7728     14.2978   3.4050694092e+01   6.8967404997e+01    0.4006767    0.3229051 -13.52  0.001000396    1.205    0.170
         4 -11.7652     55.9469     19.8214   3.4148740273e+01   6.7055735880e+01    0.4603083    0.2861117  48.05  0.001216734    1.626    0.385
         5 -10.8359    236.6474      7.2332   3.5806870955e+02   2.5843995073e+01    0.3045138    0.1723479 -86.88  0.001789076    1.714    0.417
         6 -11.7969    243.1444     13.5402   3.5903171882e+02   2.3882956579e+01    0.9149177    0.1428422 -45.37  0.003449114    3.662    0.727
         7 -10.3111     23.5495     16.5048   5.0112780438e+01   7.2640163243e+01    0.4234936    0.2401025 -60.13  0.001974624    2.922    0.658
         8 -11.3077    113.0293     14.0000   1.3704193621e+01   5.4802820609e+01    0.4770024    0.2036924  64.75  0.001960223    2.108    0.526
         9 -10.9192    183.3033      3.1735   7.7516266842e-01   3.8114094043e+01    0.3313639    0.2747471 -61.74  0.001347015    1.093    0.085
        10 -10.2315    178.9299      1.4425   6.7286127690e-01   3.9330270340e+01     0.196302    0.1419059  67.47 0.0003022032    1.345    0.256
        11 -10.8970    183.0143     14.7149   3.9342114084e+00   3.7035160365e+01    0.5267529    0.2948936 -33.16  0.001676429    1.759    0.431
        12 -12.9560    174.1286      5.5562   2.2479507155e+00   4.0120379774e+01    0.8499554     0.446335 -84.47  0.004014701    1.960    0.490
        13 -10.5674     27.4743     11.0585   4.4527504656e+01   7.3021068184e+01    0.2587249    0.2240446 -25.68     0.001205    1.227    0.185
        14 -10.0451     35.0720     13.6857   4.1441893816e+01   7.1518289162e+01     0.231917    0.1684819 -19.96 0.0006407469    1.305    0.234
        15 -10.2969     32.1970     10.1505   4.1075183738e+01   7.2478698663e+01    0.2672327    0.1874892 -20.24 0.0007192036    1.356    0.262
        16 -10.7892    162.2962     11.6721   5.2743088367e+00   4.2470711662e+01    0.2457375    0.1873153 -71.31 0.0009878261    1.247    0.198
        17  -9.9147     79.2625     11.8914   2.1324780682e+01   6.3169203263e+01    0.2288179     0.174919  66.68 0.0007981773    1.385    0.278
        18 -11.3164     69.1107     10.0239   2.3754016347e+01   6.5623907566e+01    0.3680387    0.2227597 -11.47  0.001013455    1.920    0.479
        19 -11.3126    127.1940     14.3195   1.1149218944e+01   5.1170196485e+01    0.5286235    0.1927102  59.11  0.002075027    2.292    0.564
        20 -11.0286    104.3129     10.8712   1.4281355915e+01   5.7295466758e+01    0.3743909    0.1912495  70.19  0.001651356    1.951    0.487
        21  -9.9726    115.0240      8.6853   1.1212619296e+01   5.4818746403e+01    0.2028364    0.1572647  65.76  0.000698766    1.148    0.129
        22 -10.9570     98.5156      8.4950   1.4574782726e+01   5.8953971292e+01    0.2328073    0.2220507 -73.63 0.0009800199    1.160    0.138
        23 -11.1263     96.5316      4.9765   1.3483800178e+01   5.9762682704e+01     0.276382     0.205634 -27.56  0.001024722    1.487    0.328
        24 -11.0656     74.8669      7.6778   2.0616954032e+01   6.4604698109e+01    0.3231461    0.2428052  -4.16  0.001840905    1.443    0.307
        25 -11.3465     16.2443      7.3668   5.0001272538e+01   7.5015379129e+01    0.4288954    0.3143064  -7.34  0.001614743    1.215    0.177
        26  -9.9615      3.3211      8.1365   6.0477068435e+01   7.6099932174e+01    0.2114716    0.1598184 -16.23 0.0007672834    1.112    0.101
        27  -9.7243      4.4647      3.9754   5.7238471267e+01   7.6743231416e+01    0.2153895    0.1221869 -39.80 0.0009635193    1.504    0.335
        28 -11.7083    124.1165      6.7925   8.8920872754e+00   5.2679082178e+01    0.4034673    0.2635934 -86.93   0.00134611    1.659    0.397
        29 -10.4827     89.0226      1.4730   1.3647879841e+01   6.1883249691e+01    0.2917476    0.2444869  52.56  0.000359152    1.038    0.036
        30 -11.2565     85.6816      7.3190   1.7258084315e+01   6.2151730077e+01    0.3059441    0.2582312 -75.15 0.0006631249    1.440    0.306
        31 -11.5085     88.6505      5.7252   1.5726062027e+01   6.1598402174e+01    0.2791588    0.2456878  41.12 0.0003874551    1.048    0.045
        32  -9.2835     40.2882      8.3171   3.5393381980e+01   7.1438896401e+01     0.129539   0.08702568   8.35 0.0002640296    1.592    0.372
        33 -11.3851    130.7981      4.7846   7.1202748292e+00   5.1147891173e+01    0.4217655    0.2771636   5.28  0.001517578    2.041    0.510
        34  -9.9008     23.9214      5.5768   4.3511402796e+01   7.4333915690e+01    0.2459823    0.1749945  52.37  0.001245061    2.172    0.540
        35 -10.1653    250.0004     14.4358   3.5881787796e+02   2.2454100338e+01    0.3110846    0.1996394   5.30  0.001586409    3.332    0.700
        36  -9.9418      8.2590      5.1917   5.4835382636e+01   7.6200472567e+01    0.1982166    0.1362671  -1.56  0.000616495    1.342    0.255
        37 -10.0136    250.3854      4.1986   3.5670727062e+02   2.3450213307e+01    0.1738244   0.07300731 -42.90 0.0009538785    1.764    0.433
        38 -11.2363    159.4105      3.0817   2.9902109462e+00   4.4009857305e+01    0.2798451    0.1799394  85.87  0.001482031    1.424    0.298
        39 -11.7768    114.9056      1.9075   8.5659214471e+00   5.5442256840e+01    0.6156409    0.1967427  68.22  0.001893682    2.690    0.628
        40 -10.5886     78.4950      6.9776   1.9144507352e+01   6.3852993363e+01    0.3150884    0.2093381  19.70  0.001370904    1.686    0.407
        41  -9.1438    230.1588      1.5916   3.5721205026e+02   2.7742418980e+01    0.1542037   0.09728108  68.50 0.0009382258    1.703    0.413
        42  -9.6881     79.0590      1.4363   1.6216384200e+01   6.4236412135e+01    0.2014152     0.115964  60.27 0.0005613471    1.553    0.356
        43 -12.5794    245.8143    101.8835   1.7831416039e+01   1.1913351794e+01    0.6394084    0.1697704 -35.05    0.0023702    3.122    0.680
        44 -10.6118    249.9927     99.4825   1.6815742037e+01   1.1542494016e+01    0.2328074    0.1790654 -13.96 0.0006592908    1.404    0.288
        45  -9.4816    231.7217    103.3216   1.9974748924e+01   1.4210779558e+01    0.1301489    0.0911324 -56.51 0.0004559765    1.582    0.368
        46  -8.6505    108.4599    100.5266   4.4983158210e+01   4.1024321277e+01    0.1558101    0.1495021  -4.28 0.0008071394    1.090    0.082
        47 -11.8083    235.4464     94.9033   1.7625068765e+01   1.4793189072e+01    0.4044672    0.2562621 -72.56  0.001966292    2.452    0.592
        48 -10.4471      4.1912     96.0742   8.2189804576e+01   5.6127325993e+01    0.2466103    0.1776473 -56.60 0.0007003375    1.247    0.198
        49  -8.6871    143.3037     96.3213   3.4388037648e+01   3.4261203909e+01    0.1554497    0.1234515   5.34 0.0007029377    1.633    0.388
        50  -9.7931    103.0934     95.5648   4.5242318584e+01   4.3246051223e+01    0.2483448    0.2003011 -57.85   0.00119815    1.295    0.228
        51 -10.4179     64.5529     96.0939   5.8612494998e+01   5.0056389411e+01    0.2800458     0.218966  33.01 0.0008155854    1.323    0.244
        52 -10.6583    249.1727     94.7055   1.5903904669e+01   1.2366576280e+01    0.1866277    0.1504697 -68.67   0.00100077    1.443    0.307
        53 -10.2661    132.6810     92.6091   3.5989343712e+01   3.7435663871e+01    0.2788418    0.2585903 -83.05 0.0006207316    1.148    0.129
        54 -10.0774     37.0471     90.0128   6.7969741869e+01   5.5117479108e+01     0.199369    0.1722001 -59.50 0.0003404199    1.062    0.059
        55 -10.5651     15.2308     93.3771   7.7468307802e+01   5.6151474134e+01    0.2339677    0.1655493  33.88  0.001301706    1.551    0.355
        56 -11.6474    248.1266     89.0918   1.4831271386e+01   1.3348358279e+01    0.4182253    0.1764037 -24.08  0.001664735    3.131    0.681
        57  -9.9324      2.0508     88.4755   8.2127966264e+01   5.8137752433e+01    0.1987166    0.1519898 -72.96 0.0005411562    1.114    0.102
        58 -10.7729     11.8366     85.8121   7.7702387430e+01   5.8276521135e+01    0.2251704    0.1962623 -84.23 0.0002333052    1.119    0.106
        59 -10.7648      6.3404     85.2944   7.9936016694e+01   5.8719739447e+01    0.2102866    0.1889101 -60.06 0.0004098055    1.060    0.056
        60 -11.4787    238.7104     82.1352   1.4407535770e+01   1.6053353826e+01    0.2513942    0.1985884 -57.10  0.001561648    1.237    0.192
        61 -11.6458      4.0357     75.5217   7.9492760862e+01   6.1254923823e+01    0.4128633     0.295248 -79.62  0.001566561    1.298    0.229
        62 -11.1766     54.5594     78.8943   5.7978561028e+01   5.5683186236e+01    0.2765839    0.2477832 -70.50 0.0003592999    1.181    0.153
        63  -9.0132    106.2090     77.0261   3.8700536486e+01   4.6581896321e+01    0.2020545    0.1233834 -42.43 0.0006698514    1.657    0.396
        64  -9.8114    201.4662     74.5057   1.7448969637e+01   2.4786132491e+01    0.1388127     0.126377 -50.59 -1.64274e-05    1.007    0.007
        65  -8.8679     90.2520     72.2614   4.2310084702e+01   5.0951576802e+01    0.1414128    0.1163134  -2.62 -0.000275831    1.434    0.303
        66 -12.0264     64.0142     69.5754   5.1263525179e+01   5.6383143598e+01    0.2554373    0.2372289 -24.57 0.0002780285    1.036    0.035
        67  -9.5895     34.0000     69.0213   6.4269336164e+01   6.0571850369e+01    0.2284098   0.07242836 -60.62 0.0007986225    2.916    0.657
        68 -10.5851      7.6339     68.7921   7.6695702314e+01   6.2715314435e+01    0.2129812    0.2011582  60.44 0.0004927347    1.216    0.178
        69  -8.7664     83.2916     68.2445   4.3405659461e+01   5.3183676144e+01    0.1426907    0.1145205   4.68 0.0006840749    1.472    0.321
        70 -10.0813    204.2058     65.6425   1.4840893692e+01   2.5522288548e+01    0.2424473    0.1635033 -48.49 0.0007036193    1.364    0.267
        71  -9.2623    192.1543     66.0731   1.6648435824e+01   2.8173838406e+01    0.1904713    0.1486307 -61.85 0.0003805664    1.279    0.218
        72  -9.2120    151.8448     66.4056   2.3778513276e+01   3.7763464529e+01    0.2137143    0.1341087  46.36 0.0009377223    1.657    0.396
        73  -9.5263     70.0275     66.1674   4.7711645350e+01   5.6101871550e+01    0.2245571    0.1875349  -6.00 0.0006203665    1.312    0.238
        74 -11.0135    249.0441     44.8488   5.2659617485e+00   1.9107421661e+01    0.3564257    0.2283281 -43.63  0.001885875    1.249    0.199
        75 -11.8342    248.9620     54.6553   7.3670271782e+00   1.7880595545e+01    0.7859074    0.2149187 -40.87  0.003269046    2.664    0.625
        76  -9.4148    174.9880     64.6846   1.8976806228e+01   3.2418015139e+01    0.2044231    0.1793656  65.97 0.0007964642    1.153    0.133
        77 -10.7928      4.4929     63.7071   7.7273533343e+01   6.4099467831e+01    0.2666612    0.1908696 -60.84 0.0005825004    1.173    0.147
        78 -11.5380      3.3119     58.8381   7.6935482187e+01   6.5313076061e+01    0.4414962    0.2430306 -51.24  0.001783484    1.491    0.329
        79  -9.8524     99.4202     61.7585   3.5684657725e+01   5.1089717868e+01     0.368423    0.2478237 -67.26  0.001546157    2.174    0.540
        80 -11.0563     43.5192     62.1083   5.7800993343e+01   6.1059206444e+01    0.3088966    0.2342094 -39.81 0.0006428893    1.231    0.188
        81 -11.2409    231.0592     60.4985   1.0400392756e+01   2.0578665392e+01    0.3427163    0.2495707  75.19  0.002040205    1.528    0.346
        82 -10.8819    228.4811     57.4882   9.9825818841e+00   2.1510383148e+01    0.4823537    0.1792526 -39.87  0.002101709    2.182    0.542
        83  -9.1356    114.3761     60.8189   3.0925185825e+01   4.7834971054e+01    0.1982761    0.1449803 -24.13 0.0003539913    1.556    0.357
        84 -10.1608     66.8217     59.9275   4.6819881501e+01   5.7980917455e+01    0.3251892    0.2411334 -61.52  0.001608393    1.605    0.377
        85 -10.7542     13.4070     61.0432   7.2266994191e+01   6.4228303380e+01    0.3347288    0.1889051   6.01   0.00169526    2.030    0.507
        86  -9.3292     86.9845     60.5003   3.9375001382e+01   5.3998909064e+01    0.2139054    0.1258292  22.80  0.000734087    2.495    0.599
        87  -9.3370     56.9728     60.0105   5.1015758346e+01   5.9599970102e+01     0.214404    0.1614709 -12.49 0.0003589985    1.521    0.343
        88 -11.5699     31.7989     56.5514   6.1723218789e+01   6.3689484975e+01    0.8167965    0.4853803   8.70  0.003953812    1.992    0.498
        89 -11.2290     22.7423     58.3704   6.6848120866e+01   6.4146119334e+01    0.3019892    0.2740214  40.74 0.0009045937    1.277    0.217
        90 -10.5447     25.2867     55.6575   6.4770607801e+01   6.4541174238e+01    0.2406317    0.2136527  76.47 0.0008555813    1.388    0.280
        91  -9.2237     93.9548     56.9793   3.5726920871e+01   5.3184456797e+01    0.1697019     0.163408  23.84 0.0009363462    1.003    0.003
        92 -10.2906     16.5089     57.5169   6.9825282609e+01   6.4840570775e+01    0.2201218    0.1187616  -4.05  0.001031353    2.284    0.562
        93  -9.3765     78.0350     55.5070   4.0783165554e+01   5.6775641922e+01    0.2273561    0.1409244  43.00 0.0003879015    1.596    0.373
        94  -8.9402    149.2960     54.2854   2.0566796600e+01   4.0353739184e+01    0.1446155    0.1137883  27.66 0.0002010968    1.546    0.353
        95  -9.8359     69.5325     51.5103   4.2569458681e+01   5.9175093713e+01    0.2836015    0.1380005  42.04  0.001103576    2.044    0.511
        96 -10.4131    233.1954     49.1060   7.5960893969e+00   2.1665530224e+01    0.3127516    0.1351803 -39.77  0.001495915    1.878    0.467
        97  -9.9257     80.1055     49.3831   3.7655320220e+01   5.7506006593e+01    0.2736595    0.2085827 -45.04 0.0008198441    1.383    0.277
        98  -9.0492     23.4771     50.4884   6.4155597958e+01   6.5872039302e+01    0.1306328    0.1160311 -36.89 5.802769e-06    1.030    0.030
        99 -10.2220     14.5945     49.6290   6.8736592531e+01   6.6789628145e+01    0.2753249    0.1756314  74.15  0.001333386    2.498    0.600
       100  -8.8253    145.5098     49.5271   1.9804602521e+01   4.2029080822e+01    0.1475388     0.138455 -88.73 0.0001095649    1.031    0.030
       101 -11.5799     94.0855     48.4176   3.2463896260e+01   5.4678238601e+01    0.3089456    0.2222678 -31.75  0.001513216    1.454    0.312
       102 -11.0140     52.2552     46.3002   4.8027038917e+01   6.3162719344e+01    0.4534067    0.2711725  28.16  0.001515268    1.741    0.426
       103 -10.6065     38.7817     43.6465   5.3617277839e+01   6.5637588516e+01    0.3149362    0.2695931  33.75  0.001674921    1.283    0.221
       104  -9.4853      7.3944     44.7732   7.1460952808e+01   6.8349200066e+01    0.1906625   0.09090616 -53.14 0.0009510671    1.679    0.404
       105 -10.6155    119.0035     42.6883   2.3287314914e+01   4.9691450670e+01    0.3503591    0.2146675 -33.00 0.0004812821    1.715    0.417
       106 -10.0034     32.8287     43.8606   5.6841646078e+01   6.6330729822e+01    0.2488058    0.1856443  29.10 0.0007573591    1.411    0.291
       107  -9.6693     29.4426     43.4473   5.8524241164e+01   6.6800668420e+01    0.1955713    0.1767432 -26.75 4.001517e-05    1.053    0.051
       108  -9.7163      1.7580    220.0004   9.0706972845e+01   2.7167356364e+01    0.1418861   0.08113024  89.69 0.0008846396    1.609    0.378
       109  -9.6979    185.9042     41.3280   1.0890340625e+01   3.3173127034e+01    0.1860202    0.1706663 -88.36 0.0004094882    1.065    0.061
       110 -10.6136    158.8258     39.4058   1.4238681574e+01   4.0105989296e+01    0.2511203    0.2342202 -59.56 0.0002373807    1.070    0.066
       111  -9.1601    151.8614     39.5953   1.5460519691e+01   4.1841504267e+01    0.1898482    0.1328112  80.17 0.0005223211    1.486    0.327
       112  -9.6675     96.0429     38.0696   2.7763046296e+01   5.5900042571e+01    0.2113201    0.1938199  37.05 0.0003479804    1.030    0.029
       113  -9.4820     27.7026     37.4387   5.7204321013e+01   6.8233500913e+01    0.2241299    0.1172782  31.25  0.000915455    1.985    0.496
       114  -9.6445     12.6366     35.5549   6.5489707450e+01   7.0016962254e+01    0.2764412    0.1171102 -65.37  0.001082409    2.611    0.617
       115 -10.2295    119.0829     35.1196   2.0490398939e+01   5.0753292293e+01    0.2240658    0.2099418 -15.58 0.0004762797    1.155    0.134
       116  -8.9401     82.2092     35.9471   3.1374459004e+01   5.9328785579e+01    0.1772077    0.1132068 -34.69 0.0003725403    1.625    0.385
       117 -10.6120     47.5014     34.2341   4.5192686162e+01   6.6187686573e+01    0.4506962     0.255136 -22.07  0.002010022    2.255    0.557
       118  -9.6981     51.5161     33.4629   4.2881573711e+01   6.5672612487e+01    0.2785305    0.1808927  -3.35 0.0008744604    2.055    0.513
       119 -10.8835     40.0181     35.8460   4.9749932792e+01   6.7004987478e+01    0.4957075    0.2205395  36.34  0.002192822    2.284    0.562
       120  -9.2338    174.2198     34.8324   1.0608925133e+01   3.6857603234e+01    0.1793916    0.1603005  46.71 0.0007823464    1.266    0.210
       121  -9.3551     24.8071     34.1713   5.7577006378e+01   6.9204999527e+01    0.2155202    0.1340515 -22.49 0.0004807116    1.684    0.406
       122  -9.3854     27.4333     30.8020   5.4597978971e+01   6.9577801841e+01    0.2321504    0.1555179  -0.04  0.001055271    1.614    0.380
       123  -8.8057     91.5502     43.5329   3.1367567088e+01   5.6061876732e+01    0.1432163    0.1376749  35.40 0.0001043608    1.034    0.033
       124  -9.4112    168.9631     33.2794   1.0875383859e+01   3.8357576167e+01    0.1945672    0.1683549  79.31 0.0003980023    1.094    0.086
       125 -10.1449    139.1457     32.9270   1.5548475032e+01   4.5961450845e+01    0.2296691    0.1868583 -74.66 0.0006435564    1.293    0.226
       126 -10.9849      4.6810     31.7156   6.9247066423e+01   7.1355818313e+01    0.3961598    0.2030808  36.04  0.001541962    2.393    0.582
       127  -9.6132    153.3181     31.6667   1.2705748162e+01   4.2504434799e+01    0.2416503    0.1856135  86.47 0.0007260888    1.291    0.225
       128 -11.5057    153.2190     27.9282   1.1535294077e+01   4.2987975362e+01    0.4436249    0.3329735  77.32 0.0003964608    1.264    0.209
       129 -10.0711     17.6906     31.4211   6.0804618138e+01   7.0457042936e+01    0.2019533    0.1712218 -38.00 0.0003813157    1.098    0.089
       130  -9.1549    233.5313     31.4891   3.6015908667e+00   2.3788400576e+01     0.125606   0.09987029 -57.19 4.921445e-05    1.029    0.028
       131 -10.3598     92.5139     31.0805   2.5944758321e+01   5.7736540790e+01    0.2522722     0.195952  53.20 0.0003567353    1.219    0.180
       132  -9.7117     59.3699     29.5580   3.7446776498e+01   6.4942209807e+01     0.245447    0.1620409 -30.20 0.0007995155    1.536    0.349
       133 -10.6404    161.3155     27.1412   1.0103051672e+01   4.1027481329e+01    0.4352393    0.2196047  78.66  0.001793851    2.117    0.528
       134  -9.9035    104.0340     28.1478   2.1487892108e+01   5.5395087867e+01    0.2118932    0.1894812  50.36 0.0003317746    1.034    0.033
       135  -8.8410     42.2720     28.3370   4.5123491863e+01   6.8041255236e+01    0.1350197   0.09341422 -10.10 0.0004313739    1.602    0.376
       136 -10.9177    119.5716     26.3604   1.7106897641e+01   5.1764348153e+01    0.4644392    0.2510432  58.97  0.001202785    1.670    0.401
       137 -10.7208     47.2879     26.4795   4.1639671636e+01   6.7560517760e+01    0.3308981    0.2186594  -1.97   0.00132735    1.874    0.467
       138 -10.4060     88.0779     25.1399   2.4734056666e+01   5.9565902935e+01    0.2516315    0.2080965 -47.83  0.001396754    1.382    0.276
       139 -10.7007     83.1859     25.8524   2.6607317095e+01   6.0581361948e+01    0.2022988    0.1922268 -79.97 0.0008738464    1.232    0.188
       140 -10.3011    111.5587     24.8349   1.8311357787e+01   5.3959009103e+01     0.226249    0.1856321  83.62 0.0002658824    1.299    0.230
       141 -11.3070     98.2511     22.7057   2.0758654390e+01   5.7478091559e+01    0.3266785     0.279369  76.24  0.001084167    1.245    0.197
       142  -9.9181    239.3077     23.8354   1.4837546029e+00   2.3509676226e+01    0.2254989     0.144214 -52.99   0.00122633    1.270    0.213
       143  -9.7820    128.9421     24.0290   1.4354394661e+01   4.9662047008e+01    0.2077055    0.1945961  66.86 0.0003550613    1.032    0.031
       144 -11.1652     38.5073     22.7592   4.4393594650e+01   6.9558428861e+01    0.2783163    0.2141399  35.69  0.000314336    1.358    0.264
       145 -10.4655    141.8899     22.4748   1.1538958035e+01   4.6522898208e+01    0.3238678    0.1362941  75.12   0.00120389    2.622    0.619
       146  -9.1629     72.8390     22.1971   2.8491711506e+01   6.3334357516e+01    0.1839114     0.144713  21.92 0.0003131745    1.264    0.209
       147 -10.2120    243.4805    219.5096   4.0546331090e+01  -4.1176933511e+00    0.1127475   0.08392344  -1.52 8.197837e-05    1.020    0.020
       148  -9.9329      6.4879    208.5275   8.9280951749e+01   2.9100433497e+01     0.117012   0.09119257  63.49 0.0001106852    1.016    0.016
       149 -10.6751      5.7899    202.6025   8.9189478398e+01   3.0408651783e+01    0.1724941   0.08233363  41.42 0.0009577423    1.700    0.412
       150 -11.3695     50.1163     19.3565   3.6614978659e+01   6.8188878425e+01    0.4452415     0.215603  37.53  0.001685065    1.980    0.495
       151  -9.4005    209.1897     20.7714   3.1001929654e+00   3.0256494219e+01    0.2368882   0.09560917 -61.34 0.0009550173    2.816    0.645
       152 -10.4184     84.6327     20.1478   2.3553080938e+01   6.0989674744e+01    0.2350266    0.2050119  89.64 0.0003565259    1.384    0.277
       153 -10.5079     66.5779     20.7686   3.0166772409e+01   6.4834656697e+01    0.2308204    0.1706474  43.46 0.0002637636    1.258    0.205
       154  -8.6799    159.2723     20.3455   8.2971934393e+00   4.2322908322e+01    0.1347494    0.1020547  34.03 0.0006996414    1.620    0.383
       155 -10.6771    109.6182     19.4029   1.6596829065e+01   5.5077553551e+01    0.2478773    0.1749059 -19.40 0.0007559925    1.597    0.374
       156 -10.9428     14.5242     18.0226   5.7007496168e+01   7.3344653178e+01    0.3018631    0.2172951  16.40 0.0006874775    1.379    0.275
       157 -10.5275      6.5761     19.3672   6.3297593422e+01   7.3752010948e+01     0.489267     0.154815  19.39  0.002095074    3.235    0.691
       158 -10.4447    244.6651    198.5168   3.6850629030e+01  -1.6474079517e+00    0.2025214    0.0909957 -32.39   0.00108801    1.974    0.494
       159 -10.2971     21.3391    199.3320   8.5485802470e+01   2.9709526037e+01    0.1141346     0.089708 -41.14 0.0007051775    1.744    0.426
       160 -10.7353      6.8009    191.4085   8.8461738525e+01   3.2751442211e+01    0.1489296     0.113505  12.76  0.000744124    1.679    0.405
       161 -10.1838     19.8803     15.9315   5.2251603138e+01   7.3165995386e+01    0.2313281    0.1605514  10.16 0.0004070821    1.392    0.282
       162  -9.4385     70.5389     18.4853   2.7528672989e+01   6.4309600269e+01    0.1361391    0.1206671  26.30 0.0003015486    1.012    0.011
       163  -9.8385    115.0215     17.5134   1.4675993676e+01   5.3931098050e+01    0.2218013    0.1283509  65.66 0.0007231864    1.593    0.372
       164 -11.1100    238.3649    187.2499   3.5875495770e+01   6.6630647854e-01    0.2213529    0.1311207  22.12  0.001286814    1.702    0.412
       165 -10.6629     85.4399     15.8051   2.1306236672e+01   6.1317320167e+01    0.3691498    0.2088584  55.83  0.001685891    1.602    0.376
       166 -10.8825     27.3333    184.5100   8.3078402267e+01   3.2442189424e+01    0.2207275    0.1076517 -78.15  0.001084702    1.966    0.491
       167 -11.3034    244.2098    180.3524   3.3699662784e+01   8.2286169881e-01    0.3284284    0.1796545 -44.80  0.001589378    2.245    0.555
       168  -9.3154      1.2293    180.9869   8.9305644409e+01   3.5526921810e+01    0.1561326   0.08589122 -86.71 0.0005652295    1.604    0.377
       169  -9.3723     20.7981    174.8467   8.4053396739e+01   3.5309500601e+01    0.1824916    0.1230252  63.01 0.0005866592    1.307    0.235
       170 -11.0441    224.2746    173.0046   3.5577438755e+01   4.7056031220e+00    0.2871393     0.181672 -31.36  0.001120362    1.425    0.298
       171  -9.9023     21.9235    169.5492   8.3372600823e+01   3.6460816611e+01     0.184257    0.1188516  30.88 0.0007431126    1.570    0.363
       172  -9.8687      6.6307    169.7029   8.7387783997e+01   3.7714884147e+01    0.1197565   0.08746544 -44.09 0.0007029916    1.732    0.423
       173 -10.6781    120.5737     12.9277   1.1818404762e+01   5.3000535111e+01    0.3262112    0.1551652  52.40  0.001096974    1.896    0.472
       174 -11.4317      5.8728    160.9302   8.7077424922e+01   3.9852205218e+01    0.3446749    0.1955413 -47.44  0.001795659    2.148    0.534
       175  -9.7633     16.3461    157.3024   8.3963121336e+01   3.9906134660e+01    0.1269067   0.09117889 -43.44 0.0004403687    1.687    0.407
       176 -10.6827     10.0608    148.8606   8.5111521076e+01   4.2473389459e+01    0.3541163    0.1654362 -41.73  0.001212865    2.902    0.655
       177  -8.8805    200.4707     11.4453   1.5129476521e+00   3.3249194538e+01    0.1284654    0.1070288 -70.12 0.0001155729    1.008    0.008
       178 -11.3761    236.2077    146.9418   2.8540315742e+01   6.7879499215e+00    0.3821028    0.1692441 -48.71  0.001588542    3.040    0.671
       179  -8.9083     40.0083    147.5191   7.6124732794e+01   4.0084170795e+01    0.1894894   0.09159749  52.50 0.0004262551    2.149    0.535
       180 -10.5571    150.5766     13.2898   7.2330389583e+00   4.5280740926e+01     0.256891    0.1423651  51.87   0.00120649    1.809    0.447
       181 -10.0218     25.4039    146.4866   8.0402115177e+01   4.1797319847e+01    0.2385775    0.1807568  31.09 0.0009682562    1.396    0.284
       182 -11.7935      7.1254    142.0730   8.5468238321e+01   4.4362432179e+01    0.4936637    0.1589558 -64.27  0.001660913    2.622    0.619
       183 -10.6474      4.3056    138.4352   8.6043333518e+01   4.5454532739e+01    0.2771624    0.1341292  12.55  0.001200522    2.572    0.611
       184  -9.2056     74.9967    144.0241   6.5004585623e+01   3.6450586751e+01    0.1651524    0.1565986  79.74 0.0009231622    1.011    0.011
       185 -12.6097    245.5586    138.8695   2.5532070245e+01   6.5261775126e+00    0.5572812    0.3054132 -10.61  0.002524695    2.736    0.634
       186  -9.9945     28.7417    138.3442   7.8522857399e+01   4.3547684514e+01    0.2271525    0.1656591 -77.26 0.0002685822    1.248    0.199
       187 -10.8563     11.0663    133.5548   8.3582449034e+01   4.6216016610e+01    0.2535273    0.1589551  80.39 0.0009372937    1.505    0.335
       188 -11.9512    236.0540    131.1402   2.5329346669e+01   9.2021907926e+00    0.4294953    0.2108711 -23.52  0.001927108    2.305    0.566
       189 -10.6331     17.5573    132.2919   8.1413859268e+01   4.6050042890e+01    0.2607477    0.1839214  59.71 0.0004476196    1.391    0.281
       190  -9.0900     58.1432    129.8529   6.7865216395e+01   4.2416322325e+01    0.1910941    0.1634165 -36.74 0.0004264864    1.296    0.229
       191 -11.4643      5.8404    123.1625   8.4345630528e+01   4.9184797238e+01    0.4188775    0.1323922 -70.22  0.001687456    2.519    0.603
       192 -11.9793    245.2970    119.8936   2.1686563220e+01   9.3590392562e+00    0.2367521    0.2038116 -46.97 0.0009517674    1.229    0.187
       193  -8.9424    103.4413    119.6221   5.1376770075e+01   3.7593016082e+01     0.150816    0.1467654  29.52 2.483908e-05    1.043    0.042
       194 -10.1695    223.6030    117.2120   2.4207566182e+01   1.3535857173e+01    0.1946162    0.1148545 -27.07 0.0004915154    1.659    0.397
       195 -10.0145     14.0310    117.1966   8.0995610921e+01   5.0160814400e+01    0.2062421    0.1640623 -49.93  0.001217506    1.283    0.220
       196 -10.5417      3.0977    117.8858   8.4794172950e+01   5.0678405223e+01    0.2008802    0.1566913  69.61 0.0006670295    1.232    0.188
       197  -9.9579      9.7173    113.9996   8.2148542682e+01   5.1265594574e+01    0.1855547    0.1494568 -75.30 0.0002187166    1.078    0.072
       198  -8.8372     96.3504    111.8102   5.1656380785e+01   4.0793743483e+01    0.2094356    0.1384228 -42.07 0.0004280671    1.581    0.368
       199 -10.2370     18.6828    108.0630   7.8225485022e+01   5.2160567416e+01    0.2236357    0.1945699  -5.85 0.0008427281    1.338    0.253
       200 -11.2778      1.9163    104.4336   8.3949720522e+01   5.4136209188e+01    0.4282678    0.1675529 -71.25  0.001493492    2.065    0.516
       201 -10.0124     13.0626    106.1307   8.0046455140e+01   5.3053285124e+01    0.1992942     0.155531 -54.12            0    1.219    0.180
