#   1 NUMBER                 Running object number                                     
#   2 MAG_AUTO               Kron-like elliptical aperture magnitude                    [mag]
#   3 X_IMAGE                Object position along x                                    [pixel]
#   4 Y_IMAGE                Object position along y                                    [pixel]
#   5 X_WORLD                Barycenter position along world x axis                     [deg]
#   6 Y_WORLD                Barycenter position along world y axis                     [deg]
#   7 A_WORLD                Profile RMS along major axis (world units)                 [deg]
#   8 B_WORLD                Profile RMS along minor axis (world units)                 [deg]
#   9 THETA_WORLD            Position angle (CCW/world-x)                               [deg]
#  10 FWHM_WORLD             FWHM assuming a gaussian core                              [deg]
#  11 ELONGATION             A_IMAGE/B_IMAGE                                           
#  12 ELLIPTICITY            1 - B_IMAGE/A_IMAGE                                       
         1 -14.8696    165.1478     37.2323   2.9014463805e+02   6.3560100072e+00   0.06718389   0.03925837 -46.07  0.004223037    1.735    0.424
         2 -14.1332    179.0520      5.3704   2.8978631230e+02   6.6382624327e+00   0.04557107   0.03596852  27.46  0.004224777    1.271    0.213
         3 -11.3665     13.4476    245.0060   2.9317887244e+02   4.8729083382e+00   0.02947691  0.005865421 -53.92  0.001846771    4.035    0.752
         4 -19.8140     70.7395    169.7668   2.9205494781e+02   5.3974865304e+00    0.9535415    0.3687226 -64.53   0.07417277    2.746    0.636
         5 -12.7264     28.4835    183.9600   2.9263069442e+02   5.4865340033e+00   0.01708749     0.012897  26.91 0.0008902161    1.332    0.249
         6 -13.9604    210.8057    179.2635   2.9049606592e+02   4.4478616535e+00   0.04705648   0.02352617 -37.34   0.00339089    2.474    0.596
         7 -12.9511    206.5136    181.5214   2.9055951167e+02   4.4476872818e+00    0.0196577    0.0144125 -18.21  0.002074555    1.631    0.387
         8 -11.1444    108.2802    182.4311   2.9169911695e+02   5.0268544319e+00   0.01323466   0.01017866  68.91  0.000546538    1.532    0.347
         9 -13.1765    198.0037    175.7417   2.9062199185e+02   4.5653471602e+00   0.02297447   0.01800691 -85.44  0.001256226    1.452    0.311
        10 -11.5178     16.5993    217.5752   2.9297436106e+02   5.1701615344e+00   0.01292316   0.01079336  13.41  0.001495898    1.253    0.202
        11 -12.3312    208.5096    227.9559   2.9082297813e+02   3.9013895637e+00   0.01040157  0.006473751 -61.17 0.0008277878    1.594    0.373
        12 -11.9549    178.5053    173.4886   2.9083307712e+02   4.7084480603e+00   0.01213457  0.006493278 -61.36  0.001121556    1.853    0.460
        13 -11.1371    140.4944    249.0156   2.9173703283e+02   4.0670761867e+00   0.01384706  0.009141507 -57.81  0.000598575    1.481    0.325
        14 -10.6880    185.6447    174.7103   2.9075822526e+02   4.6514923968e+00  0.006995588  0.004983976 -22.63 0.0006114202    1.679    0.404
        15 -11.7947    139.9894    173.9832   2.9128079675e+02   4.9340016239e+00   0.01545396  0.009280352  70.20 0.0009713345    2.543    0.607
        16 -13.5190    101.8281    170.0082   2.9169713574e+02   5.2085738582e+00   0.03436964   0.01971199 -50.71  0.002970337    1.702    0.413
        17 -11.4032    112.0691    210.5700   2.9182859274e+02   4.6801001067e+00   0.01289218   0.00993597 -17.59  0.001381584    1.497    0.332
        18 -11.2683    113.0784    169.0418   2.9156118898e+02   5.1522820326e+00   0.01430739  0.009043283  37.91 0.0004927424    1.574    0.365
        19 -13.2541    164.3656    205.8273   2.9119571190e+02   4.4211189372e+00   0.02795594   0.01497465 -55.37 0.0006648134    1.793    0.442
        20 -11.5336    224.9977    165.9388   2.9025008704e+02   4.5157986832e+00    0.0110043   0.00782058  64.45  0.000801176    1.713    0.416
        21 -10.2670    123.2563    166.3846   2.9142722248e+02   5.1218582139e+00   0.00965404  0.005807564  39.04 0.0006728115    1.660    0.398
        22 -12.8466    203.7153    167.8967   2.9050765430e+02   4.6212786720e+00   0.02856164   0.02302778  47.41  0.002417373    1.288    0.224
        23 -11.2915    123.7208    158.8137   2.9137517181e+02   5.2062406283e+00   0.01419299  0.009745613  74.96  0.001053009    1.930    0.482
        24 -11.4542     23.1692    156.1025   2.9252092558e+02   5.8391727286e+00   0.01173175   0.01054928  -6.26 0.0004512184    1.169    0.144
        25 -10.2039     14.1660    210.5678   2.9295949927e+02   5.2654136764e+00  0.007033257  0.003958159 -42.38  0.000634674    1.896    0.473
        26 -12.9064    134.4854    148.5024   2.9118719018e+02   5.2603709759e+00   0.02743216   0.01340836 -75.86  0.002174016    2.859    0.650
        27 -13.3876    133.6145    143.0296   2.9116347762e+02   5.3285962645e+00   0.03415301   0.01399645 -72.89  0.002382965    3.630    0.724
        28 -10.8429    174.8228    148.8475   2.9072344134e+02   5.0141581917e+00  0.009444301  0.007803824  63.80 0.0005957826    1.342    0.255
        29 -10.4258    136.8024    197.6773   2.9146363703e+02   4.6803144678e+00   0.01568957  0.009120017  69.56  0.001305472    2.750    0.636
        30 -12.8184    143.7139    145.3900   2.9106136562e+02   5.2408084335e+00   0.02217572   0.01294637  74.22  0.001828498    2.861    0.650
        31 -13.5952    116.7056    138.4097   2.9133037163e+02   5.4832204599e+00   0.02631257   0.01633368 -48.54  0.002651076    1.596    0.373
        32 -12.9470    169.9740    195.3060   2.9106613040e+02   4.5085668648e+00   0.02148699    0.0117717 -65.03  0.001282999    1.889    0.471
        33 -14.0006    119.9627    129.2706   2.9123632114e+02   5.5688888116e+00   0.02483096   0.02241369   2.94  0.001612439    1.153    0.132
        34 -13.9070    125.1438    125.9363   2.9115584941e+02   5.5761831702e+00   0.03103107   0.01696027 -71.23   0.00281206    2.106    0.525
        35 -13.6392    135.5383    122.9746   2.9101742102e+02   5.5478846078e+00   0.03351614   0.01295327 -65.85  0.002552608    2.877    0.652
        36 -13.3684    176.1992    195.2093   2.9099369907e+02   4.4723013887e+00   0.02399546   0.01514817  60.50  0.002287311    2.023    0.506
        37 -13.6881    179.4053    192.1994   2.9093814097e+02   4.4876912940e+00   0.03236777   0.01824676  63.91  0.002203843    2.706    0.630
        38 -13.7219    113.7871    118.0385   2.9123837022e+02   5.7352196841e+00   0.02284161   0.01809653   2.76  0.001832048    1.406    0.289
        39 -10.8132    172.8601    118.1617   2.9055647978e+02   5.3790390460e+00  0.009909804  0.008647203  59.99 0.0004227466    1.225    0.184
        40 -11.2285     20.7773    219.3599   2.9293703882e+02   5.1246745738e+00  0.009786804  0.007686608  25.86 0.0003686104    1.283    0.221
        41 -10.9866    205.5418    110.2054   2.9012991526e+02   5.2739391172e+00   0.01221772  0.009355695  25.38 0.0006840738    1.320    0.242
        42 -11.4768     40.9833    194.4578   2.9255071005e+02   5.2909506684e+00   0.02202629   0.01192814  18.05  0.001298278    2.120    0.528
        43  -9.9176    158.2939    106.6912   2.9065383074e+02   5.5985670564e+00  0.006764025   0.00503695  64.67 0.0002616792    1.587    0.370
        44 -11.6484    157.9175    192.8716   2.9119026820e+02   4.6089635636e+00   0.01260628  0.009778243 -81.03  0.000416037    1.439    0.305
        45 -10.7474    155.0184    104.8790   2.9068047405e+02   5.6391018302e+00  0.009525994  0.009444766 -28.72 0.0003414523    1.003    0.003
        46 -10.3937     32.3356    188.4431   2.9261370825e+02   5.4118875630e+00    0.0107715  0.007843679  -9.05 9.475679e-05    1.672    0.402
        47 -10.4753     13.5161     59.9351   2.9204031289e+02   7.0039734183e+00  0.009763288  0.006509432 -62.92 0.0004061075    1.505    0.335
        48 -13.9063    153.5106     52.7073   2.9037505692e+02   6.2481627483e+00   0.02598535   0.02248354  42.65  0.001049806    1.174    0.148
        49 -10.3109    125.9562    247.8987   2.9189789461e+02   4.1670460398e+00  0.008508192  0.007264342  84.93 0.0004493491    1.300    0.231
        50 -12.7757    168.6294     29.8707   2.9005875673e+02   6.4196383751e+00   0.02095836   0.01409951 -43.48   0.00102502    1.524    0.344
        51 -10.6285    143.4495     33.5002   2.9037243269e+02   6.5294288100e+00   0.01212474  0.005374036  39.59  0.001021198    2.243    0.554
