#   1 NUMBER                 Running object number                                     
#   2 MAG_AUTO               Kron-like elliptical aperture magnitude                    [mag]
#   3 X_IMAGE                Object position along x                                    [pixel]
#   4 Y_IMAGE                Object position along y                                    [pixel]
#   5 X_WORLD                Barycenter position along world x axis                     [deg]
#   6 Y_WORLD                Barycenter position along world y axis                     [deg]
#   7 A_WORLD                Profile RMS along major axis (world units)                 [deg]
#   8 B_WORLD                Profile RMS along minor axis (world units)                 [deg]
#   9 THETA_WORLD            Position angle (CCW/world-x)                               [deg]
#  10 FWHM_WORLD             FWHM assuming a gaussian core                              [deg]
#  11 ELONGATION             A_IMAGE/B_IMAGE                                           
#  12 ELLIPTICITY            1 - B_IMAGE/A_IMAGE                                       
         1 -13.8090    166.8830      5.6395   2.3534986568e+01   4.1876266254e+01     1.839352    0.8014491  81.07   0.00762491    2.308    0.567
         2 -13.1433    184.3248     13.4152   2.4411014607e+01   3.6760149158e+01     1.304925    0.8467843  31.92  0.006440978    2.080    0.519
         3 -13.4158    185.0892      4.7272   2.1769224870e+01   3.7394813739e+01     1.465163    0.6859505 -65.78  0.006403308    2.257    0.557
         4 -10.4570    111.8517     14.8520   3.4717452152e+01   5.5661656100e+01    0.3556663    0.2234514  15.81  0.001324362    2.183    0.542
         5 -11.5246    152.0735     14.3099   2.8049380514e+01   4.4908436290e+01    0.2868377    0.1980009 -37.73   0.00117425    1.402    0.286
         6 -10.9810     49.6632     14.4684   5.5987206794e+01   7.0765614862e+01     0.320414    0.2559969  42.58  0.000670868    1.241    0.194
         7 -10.3682     45.0428     12.4999   5.7347303683e+01   7.1975578926e+01    0.2305184    0.1846224 -11.29 0.0009151476    1.280    0.219
         8 -10.6845     34.7756     13.7950   6.4857550884e+01   7.3548616448e+01    0.2615142    0.2324855  28.14 0.0008517198    1.154    0.133
         9 -11.1596     31.7582     11.3653   6.5425398706e+01   7.4465856173e+01    0.3363097     0.203714 -29.69  0.001111721    1.726    0.420
        10 -10.1741     27.4107     11.7507   6.9019249042e+01   7.5038366703e+01    0.2436426    0.1233049 -49.34   0.00112564    1.992    0.498
        11 -11.8828     56.4966      9.3915   4.9168376504e+01   7.0108487284e+01    0.4422071    0.3393153  39.20  0.001139148    1.235    0.190
        12 -10.8967    114.1833      9.3790   3.1811718651e+01   5.5611571684e+01    0.2506892    0.2393306  75.07 0.0002734259    1.022    0.021
        13  -9.4839    219.3421      9.2830   2.0768722411e+01   2.9101272143e+01    0.1155984   0.09186152  36.65 0.0001675644    1.635    0.388
        14 -10.2077    119.9765      9.0175   3.0629305359e+01   5.4078556356e+01    0.2221778    0.2064387 -81.86 0.0004241092    1.050    0.048
        15 -11.2315     98.8486      8.5611   3.4573211589e+01   5.9804433537e+01      0.29881    0.1680181 -43.90  0.001297492    1.918    0.479
        16 -10.0992     74.7418      9.5925   4.1902247840e+01   6.5857763002e+01    0.2860423     0.121625  55.10  0.001136221    2.115    0.527
        17  -9.8507     69.4762      9.4899   4.3733712121e+01   6.7138342479e+01    0.1429293    0.1295367  31.31 0.0001966401    1.043    0.041
        18 -10.5096      3.6561      8.8001   8.9439670507e+01   7.8034092151e+01    0.2169443    0.1878365  17.96 0.0008287646    1.279    0.218
        19  -9.6348    213.7138      8.5473   2.0916271003e+01   3.0393850616e+01    0.1594092    0.1075564 -73.70 0.0003725417    1.441    0.306
        20 -10.2344    125.0108      7.6145   2.9220744761e+01   5.2847137058e+01    0.2856702    0.1704848 -87.57  0.001063162    1.839    0.456
        21 -11.8965     86.7452      7.2767   3.6918166252e+01   6.3103025278e+01    0.5067666    0.2342309  49.02 0.0008988001    2.008    0.502
        22 -11.8424    203.5799      4.4480   2.0449092526e+01   3.3045568750e+01    0.3975394    0.2312119  38.61  0.001953985    2.414    0.586
        23 -10.3437     16.8011      5.5862   7.4102218969e+01   7.7583135472e+01    0.1728889    0.1143696  36.07 0.0009491978    1.655    0.396
        24  -9.9893    134.9005      4.3058   2.6490952679e+01   5.0466268963e+01    0.2003406     0.170596  77.14 0.0003498212    1.097    0.089
        25 -10.0779     22.5410      5.4648   6.8706401595e+01   7.6884813562e+01    0.1298713    0.1138827 -12.33 2.405196e-05    1.005    0.005
        26 -11.1894     38.5679      2.8549   5.4412833118e+01   7.4682579668e+01    0.3338443    0.2218751  44.67 0.0005994809    1.482    0.325
        27 -11.2484    113.9198      1.9497   2.8516885991e+01   5.6371225682e+01    0.4196109    0.1899385  68.99 0.0006909413    1.986    0.496
        28 -10.2409    230.3212      1.4213   1.8260112480e+01   2.7511003627e+01    0.1853775    0.1082837  75.85 0.0003975248    1.859    0.462
        29 -10.6097      2.9506    111.4825   1.0673925569e+02   5.2202296560e+01    0.2270727    0.1653852  88.93 0.0002931317    1.208    0.172
        30 -10.4142     49.6342    249.9973   1.0166724264e+02   1.8825243531e+01    0.1426091    0.1102524  51.98   0.00056017    1.163    0.140
        31 -14.0361     19.5531    215.1943   1.0653561323e+02   2.7645693159e+01     2.008334    0.4084173  44.38  0.009015555    2.752    0.637
        32 -14.0049     31.5934    238.6006   1.0482149810e+02   2.2413723380e+01    0.9764705     0.827701  54.46  0.007977893    1.196    0.164
        33 -13.1574     18.3822    228.8638   1.0722368943e+02   2.5276404593e+01    0.9531705    0.3103837  58.31   0.00490246    2.537    0.606
        34 -13.9623      6.8192    245.3154   1.0994188023e+02   2.3472033473e+01     1.212822    0.7527059  45.32  0.009235251    1.093    0.085
        35 -13.2475      3.4369    233.2852   1.1039272600e+02   2.5754410123e+01    0.6251689     0.432347 -71.43  0.004699016    1.849    0.459
        36 -13.0682      4.0226    222.3301   1.1007012255e+02   2.7632461040e+01    0.7081769    0.4713957  35.25  0.005134747    1.239    0.193
        37  -9.1872     79.3453    111.2874   7.8744436138e+01   4.3954989613e+01    0.1498777    0.1179432 -14.08 0.0007022008    1.651    0.394
        38  -9.9519     58.3738    105.1701   8.4954139706e+01   4.8671130328e+01    0.1989425    0.1727004 -76.79 0.0004450756    1.132    0.117
        39 -10.0019      4.7230     96.2454   1.0508328760e+02   5.6035692449e+01    0.2844338    0.1451552 -44.52  0.001325362    2.150    0.535
        40  -9.5746     63.5482     96.5264   8.1171610333e+01   5.0127623914e+01    0.1461461    0.1425563 -71.41 0.0008078134    1.038    0.036
        41 -11.7313    131.5746     93.0576   5.8276731081e+01   3.7746117260e+01    0.4360442    0.2326728  48.01  0.001104395    1.867    0.464
        42 -10.3208    108.3642     90.0808   6.3928394880e+01   4.3419717342e+01    0.3211395    0.2033825  61.16  0.001268008    1.944    0.485
        43 -11.0968     25.9639     82.0198   9.4144089419e+01   5.8372390123e+01    0.2144076    0.1991602 -75.63 0.0004663504    1.015    0.015
        44 -10.2059     54.7321     79.3471   8.0591330750e+01   5.5772266161e+01     0.250432    0.2233514 -74.07 0.0004987266    1.114    0.102
        45 -11.1866     53.0866     76.2957   8.0506995054e+01   5.6776558024e+01    0.2996318    0.2510208  11.73 0.0003684848    1.334    0.250
        46 -11.2284    174.1221     78.8166   4.5021645182e+01   3.0631574785e+01    0.2259564    0.1930265 -60.10 0.0006839478    1.257    0.205
        47  -9.6213    216.0238     78.5047   3.8578816391e+01   2.1754084842e+01    0.1652786    0.1307299  54.50 0.0003708683    1.433    0.302
        48  -9.9705     78.0020     78.2800   7.0779706205e+01   5.2186264044e+01    0.2097504    0.1927857  41.18 0.0001859564    1.092    0.084
        49 -10.3011    201.3345     75.0778   3.9697966648e+01   2.5224942374e+01    0.1987866    0.1498614 -33.08 0.0003827518    1.192    0.161
        50 -10.8440    164.5982     72.7721   4.5042280611e+01   3.3798312848e+01    0.2822055    0.1412241 -30.34 0.0009893614    2.035    0.509
        51  -9.9054     63.9427     69.8164   7.3864251014e+01   5.6687786972e+01    0.2080174     0.191603  -1.09  0.001116769    1.173    0.148
        52  -9.8799      7.7160     69.0293   1.0107555964e+02   6.2999569082e+01    0.1856155    0.1547037 -77.12 0.0003703701    1.067    0.063
        53 -11.4430    151.5634     66.5249   4.5706796573e+01   3.7937566362e+01    0.3467348     0.243815 -53.23  0.001109147    1.521    0.342
        54 -10.0451    192.0906     66.0606   3.8626150315e+01   2.8500445294e+01    0.1936093    0.1790832 -37.78  0.001151043    1.007    0.007
        55  -8.9334     75.2779     65.2722   6.7635377523e+01   5.5706115670e+01     0.145343    0.1190002  -8.51 0.0003104543    1.491    0.329
        56 -11.0774     67.0305     64.9878   7.0962330681e+01   5.7295745270e+01    0.2307212    0.2105477 -54.32 0.0003217102    1.086    0.079
        57  -9.9550      4.1416     64.4213   1.0236874471e+02   6.4354541524e+01    0.2254396    0.1542396 -62.59  0.000476773    1.289    0.224
        58 -10.8560     99.4292     62.4143   5.7831384252e+01   5.1225316813e+01    0.3582122     0.280073 -82.67  0.001139456    1.656    0.396
        59  -9.5137     43.7881     62.6633   8.1045883511e+01   6.1457469787e+01    0.2013595    0.1686641 -44.51 0.0008143782    1.162    0.139
        60  -9.8806     86.4790     61.4461   6.1961169959e+01   5.4276238259e+01    0.1507898    0.1490089  26.75 8.077349e-05    1.013    0.013
        61 -10.0833    205.0173     60.7441   3.5478823327e+01   2.6394124316e+01    0.1603487    0.1174772  65.95 0.0003925666    1.521    0.343
        62  -9.8273     56.8132     60.1863   7.3910515396e+01   6.0154516325e+01     0.195963    0.1652114 -26.24 0.0002922446    1.272    0.214
        63 -10.8754      3.8168     59.6601   1.0195143749e+02   6.5599508443e+01    0.3535115    0.2571315   2.27  0.002016783    1.560    0.359
        64  -9.6758     22.1389     58.2083   9.1401220281e+01   6.4886569439e+01     0.180622    0.1524176  67.14 0.0003608115    1.287    0.223
        65 -10.6569     78.1969     56.0439   6.3098246849e+01   5.7149602831e+01    0.2553244    0.2181065  40.33 0.0005597015    1.171    0.146
        66 -10.2183     39.4092     44.2602   7.7182334709e+01   6.6471132922e+01    0.2742132    0.2094187 -20.26  0.000882839    1.454    0.312
        67  -9.4328      7.3830     44.8234   9.7393950366e+01   6.9241272081e+01    0.1953563    0.0981089 -59.73 0.0004469939    1.666    0.400
        68 -11.0128    127.0053     43.9386   4.3311910247e+01   4.7754193993e+01    0.2285203    0.2206814  84.19 0.0003778002    1.013    0.013
        69  -9.5571     71.4592     42.5472   6.0306506942e+01   6.1301929310e+01    0.1477285    0.1414452   5.07 -3.336354e-05    1.040    0.038
        70  -9.5690    189.9827     39.7339   3.1539536523e+01   3.2470196587e+01    0.1867473    0.1732153 -72.48 0.0004593626    1.072    0.067
        71 -10.1703    159.2319     39.9960   3.5796719338e+01   3.9999326829e+01    0.2018994    0.1879763 -48.17 0.0004413748    1.043    0.041
        72 -10.3295     95.9923     38.9347   4.9634201202e+01   5.6395078263e+01    0.2310399    0.2180834  21.71 0.0006933766    1.091    0.083
        73 -10.0683     40.6062     36.6332   7.3330013695e+01   6.8032654073e+01    0.2610967    0.1700474  34.70 0.0008298262    1.578    0.366
        74  -9.6525     51.5198     32.9495   6.5379879818e+01   6.7050856560e+01    0.2033297    0.1368953 -44.33 0.0003042068    1.463    0.317
        75  -9.2620    154.0303     32.2431   3.4011028819e+01   4.2345186703e+01     0.183298    0.1202198  67.67            0    1.507    0.336
        76 -10.3131     17.6322     31.8072   8.6678524796e+01   7.1781924426e+01    0.2033633    0.1782761   0.50 0.0003097683    1.184    0.155
        77  -9.4620      3.5473     31.5332   9.7175425310e+01   7.2708909089e+01     0.130225    0.1109687 -53.30  0.000180596    1.019    0.019
        78 -10.2127    153.0074     27.7454   3.2619484219e+01   4.3165915690e+01    0.2023903    0.1785616  83.47 0.0003833529    1.103    0.094
        79  -9.1854    160.5257     27.4725   3.1463504458e+01   4.1243812494e+01    0.1446385    0.1319333 -66.22 0.0008092678    1.032    0.031
        80 -10.8293    119.9387     26.3491   3.7962227225e+01   5.2114484751e+01    0.2639508    0.2245661 -11.44 0.0004420415    1.302    0.232
        81  -9.3304     46.9283     27.0211   6.4904383307e+01   6.9028250519e+01    0.1638403     0.153856  -6.78 0.0003284309    1.005    0.005
        82  -9.4205    133.6879     26.3416   3.5260164951e+01   4.8451055273e+01     0.159757    0.1055986 -61.92 0.0007046284    1.700    0.412
        83 -10.1314     94.6524     26.2891   4.4315887087e+01   5.8701885698e+01    0.3236354    0.2180458  80.18  0.001000371    1.854    0.461
        84 -10.7243     98.6426     23.3903   4.1810052991e+01   5.8090264158e+01    0.3126902    0.2557898 -28.17   0.00111376    1.275    0.216
        85 -10.4130     61.3519     25.0420   5.6255476138e+01   6.6639111501e+01    0.3670275    0.2161083 -13.90   0.00109225    2.687    0.628
        86 -10.1810     72.9228     22.9503   5.0095773172e+01   6.4450531679e+01    0.2182401    0.2092111  25.98  0.000500421    1.008    0.008
        87 -10.1355     38.0173     22.7332   6.8040762532e+01   7.1336082874e+01    0.1880653    0.1714271  15.44 0.0003646525    1.088    0.081
        88  -9.7654    141.8245     22.7984   3.2553524788e+01   4.6706443791e+01    0.2023662    0.1582943 -63.42 0.0003286515    1.300    0.231
        89 -10.0396     85.0123     20.1903   4.4298351799e+01   6.1968011452e+01    0.2401502    0.1680022 -81.86 0.0006967332    2.024    0.506
        90 -10.3949    226.9725     18.9990   2.2722408833e+01   2.6548507247e+01    0.1780035    0.1430738  22.12 0.0004410484    1.639    0.390
        91 -10.1026      4.7820     19.6020   9.2709740874e+01   7.5511548262e+01    0.1659358     0.113662  25.70 0.0006754347    1.611    0.379
        92  -9.4943     70.3044     18.3309   4.8597909412e+01   6.5747738681e+01    0.1497379    0.1072291  19.08 0.0003399774    1.656    0.396
        93 -11.3641     21.3382     17.1099   7.7188406398e+01   7.4729694929e+01    0.3897763     0.191721  29.04  0.001833387    2.079    0.519
        94  -9.3151     55.5599    242.4871   1.0008996922e+02   1.9412296873e+01    0.1112148   0.08090523  41.12 6.770466e-05    1.007    0.007
        95 -10.1796     45.3560    241.7113   1.0213883918e+02   2.0572648815e+01    0.2482375   0.08878323  32.64  0.001103687    1.941    0.485
        96  -9.4510     67.2632    240.3669   9.7555291755e+01   1.8512676432e+01   0.09756823   0.08026626  -9.25 0.0006984008    1.648    0.393
        97  -9.4017     83.5634    238.4896   9.4044103307e+01   1.6993473216e+01    0.1134387   0.08630721  34.19 3.264234e-05    1.043    0.042
        98  -9.8405     85.6441     16.1414   4.1989329477e+01   6.2348046771e+01    0.1950214    0.1374251  -8.74 0.0004190714    1.658    0.397
        99 -13.5151     26.4111    228.0746   1.0550889709e+02   2.4697700932e+01     1.238939    0.3295823 -79.29  0.005607546    4.247    0.765
       100 -11.1979     35.9098    218.9971   1.0307396788e+02   2.5429430605e+01    0.2352698    0.1639429  28.23  0.001237356    1.315    0.240
       101 -12.1123     46.1971    213.4315   1.0047035137e+02   2.5423911259e+01    0.5174963    0.3183464  57.02  0.003241389    1.427    0.299
       102  -9.7410    128.2386     14.4290   3.1506079240e+01   5.1288544951e+01    0.2032976    0.1344524  87.87 0.0006257584    1.596    0.373
       103  -9.6973      1.7580    211.4256   1.1034368384e+02   2.9815406508e+01    0.1390798   0.09577648  16.45 0.0009422103    1.640    0.390
       104 -11.4268      8.3062    205.1326   1.0874554604e+02   3.0504365693e+01    0.2893164    0.1623008 -89.50  0.001805585    1.806    0.446
       105 -11.6433      4.8559    204.8185   1.0951716969e+02   3.0837531710e+01    0.3435781    0.2218701  -7.86  0.001912621    2.443    0.591
       106  -9.8195     94.2933     11.3522   3.7076403167e+01   6.0703710001e+01    0.1538154     0.103708  30.09 0.0005910373    1.680    0.405
       107 -11.4699     34.3915    212.2323   1.0308981948e+02   2.6832492716e+01    0.3399896    0.0750258  50.24  0.001348586    3.438    0.709
       108 -13.0921     16.4080    239.1028   1.0791447351e+02   2.3693348167e+01    0.6288884    0.4400829  36.74  0.002739575    1.158    0.137
       109 -10.8173      2.2778    199.0627   1.0997479862e+02   3.2161743956e+01    0.2180443    0.1615204 -22.42  0.001436347    2.044    0.511
       110 -12.2049     22.8367    197.5405   1.0510589499e+02   3.0774355004e+01    0.2998216    0.2144247  82.57  0.001068501    1.377    0.274
       111 -11.5490     29.8560    207.8613   1.0391974008e+02   2.8098294343e+01    0.3143171     0.143325 -58.15  0.001645961    2.779    0.640
       112 -10.1512     27.3430    194.3040   1.0387251257e+02   3.1019895066e+01    0.1084269   0.08967869 -25.60 0.0003772128    1.684    0.406
       113 -11.6880     32.1546    190.3108   1.0248139504e+02   3.1387176966e+01    0.3566768     0.148074  72.07   0.00161729    2.721    0.633
       114 -11.4522     24.8274    189.4457   1.0425469019e+02   3.2250743193e+01    0.2242398    0.1409864 -59.26  0.001088704    1.920    0.479
       115 -10.9039      8.1761    188.3471   1.0830331683e+02   3.3880704414e+01    0.2797385    0.1811751 -35.43   0.00162445    2.363    0.577
       116 -10.1802     11.3239    180.9511   1.0727869136e+02   3.5189829805e+01    0.1631372    0.1312484  64.54 0.0003506616    1.070    0.065
       117  -9.9304     28.3553    177.2637   1.0271116935e+02   3.4522873453e+01    0.1127211   0.09349526 -22.06 0.0004296406    1.624    0.384
       118  -8.6636      8.0138    151.0000   1.0700534881e+02   4.2167839106e+01    0.1960128   0.06713245  19.45 4.839366e-05    2.976    0.664
       119 -10.1870    145.3326    135.3412   6.5295475145e+01   2.6555991337e+01    0.1504258    0.1095077   0.40 0.0007051275    1.751    0.429
       120 -10.1638     46.7690    131.4823   9.3230690769e+01   4.3431079515e+01    0.2384604    0.1871321 -79.94  0.000325305    1.252    0.201
       121 -11.1369    155.2437    130.0094   6.1849794850e+01   2.5670813717e+01    0.1925246    0.1189782 -39.98 0.0008967806    1.643    0.392
       122  -9.0763     91.6358    116.7065   7.5900076676e+01   4.0560006020e+01    0.1526133     0.118741  -8.13 0.0007029252    1.710    0.415
       123 -10.4664    153.1531    114.6606   5.8734708616e+01   2.8938361571e+01      0.22947    0.1991367 -52.59 0.0005415789    1.257    0.205
