#   1 NUMBER                 Running object number                                     
#   2 MAG_AUTO               Kron-like elliptical aperture magnitude                    [mag]
#   3 X_IMAGE                Object position along x                                    [pixel]
#   4 Y_IMAGE                Object position along y                                    [pixel]
#   5 X_WORLD                Barycenter position along world x axis                     [deg]
#   6 Y_WORLD                Barycenter position along world y axis                     [deg]
#   7 A_WORLD                Profile RMS along major axis (world units)                 [deg]
#   8 B_WORLD                Profile RMS along minor axis (world units)                 [deg]
#   9 THETA_WORLD            Position angle (CCW/world-x)                               [deg]
#  10 FWHM_WORLD             FWHM assuming a gaussian core                              [deg]
#  11 ELONGATION             A_IMAGE/B_IMAGE                                           
#  12 ELLIPTICITY            1 - B_IMAGE/A_IMAGE                                       
         1 -13.3831    197.9748     41.5251   4.3584830250e+01   3.0652123235e+01     1.208759     1.154688 -74.82  0.004064684    1.081    0.075
         2 -13.8031    207.5584     31.8666   4.0019710362e+01   2.9664254176e+01      1.38618    0.9583358 -13.81  0.001439913    1.953    0.488
         3 -12.3405    234.9941      6.7015   3.1878320487e+01   2.6517447820e+01    0.6427003    0.4853066 -21.12  0.004206657    1.711    0.415
         4 -12.3819    229.0399      5.3868   3.2038546590e+01   2.7903990165e+01    0.5814976    0.4435236 -30.21  0.003868572    1.507    0.336
         5 -10.0399     61.1819      7.9064   6.1544344592e+01   6.5352703815e+01    0.1732379    0.1574813  14.86 0.0004940699    1.242    0.195
         6 -10.5262     42.2748      6.5603   6.8383960541e+01   6.8618235894e+01    0.2170153    0.1061408  43.18  0.001145262    2.093    0.522
         7 -10.4425     25.4653      3.2041   7.4580368900e+01   7.1332125940e+01      0.24888    0.1358142  -9.72  0.001408542    1.853    0.460
         8  -9.3554     52.6803    219.2645   1.1529116149e+02   2.1655763269e+01    0.1903334    0.1643094  68.75 0.0003428105    1.063    0.060
         9 -10.6652    140.3457    249.7144   1.0067192528e+02   3.5198446927e+00    0.3547022    0.2349766  56.17  0.001838079    1.729    0.422
        10 -11.1236    140.2500    244.7685   1.0004765526e+02   4.3518486377e+00    0.4347847    0.2143738 -55.76  0.002149119    2.558    0.609
        11 -11.5381    125.7637    244.0044   1.0288399875e+02   6.6689605165e+00    0.6735965    0.4161107 -70.10  0.003615858    2.254    0.556
        12 -13.2248     56.8272    185.7600   1.1090871503e+02   2.8582316184e+01     1.261179    0.9755893  31.68  0.007396829    1.430    0.301
        13  -9.4347     89.9124    212.5747   1.0657499523e+02   1.8090820476e+01    0.2324906    0.1810682 -83.45 0.0005054412    1.350    0.259
        14 -10.3783    188.0671    209.7025   8.4706215317e+01   2.7287351291e+00    0.2914411    0.2029053 -56.77   0.00149319    2.021    0.505
        15  -9.6583    174.4876    211.4935   8.7840165878e+01   4.6584138769e+00    0.1364682    0.1203501  14.94 0.0008105228    1.007    0.007
        16 -10.9822    111.7596    204.5968   1.0056920615e+02   1.6440622533e+01    0.4579301    0.2850976 -80.44  0.001092286    2.290    0.563
        17 -11.8576    107.4688    203.6484   1.0141233588e+02   1.7322938125e+01    0.5328581    0.4050069  56.13  0.001831791    1.303    0.233
        18  -8.1598    224.2545    206.6550   7.7056858464e+01  -2.4882972552e+00     0.112417    0.1018767 -49.48 0.0002303162    1.586    0.370
        19 -11.0049    193.9937    196.7496   8.1095602426e+01   3.9951995864e+00     1.280663    0.6697934 -61.74  0.003859827    5.886    0.830
        20  -9.3588     32.0588    204.0887   1.1829594720e+02   2.7259224597e+01    0.2986172    0.1583225 -78.19   0.00135468    1.715    0.417
        21 -15.9074      5.9571    209.3191   1.2395240086e+02   2.8657412225e+01     5.758356    0.5762633 -67.88   0.01962847    5.313    0.812
        22 -11.0530     61.8009    199.3426   1.1131614100e+02   2.4844333624e+01    0.3713576    0.2263414 -59.85 0.0008715076    1.645    0.392
        23  -9.5790     66.2288    194.3917   1.0972821478e+02   2.5389133951e+01    0.2747287     0.222878  42.46 0.0007640159    1.238    0.192
        24 -10.0904    204.1853    199.8177   7.9628158562e+01   1.7700439983e+00     0.195398    0.1453122   0.73  0.001073582    1.337    0.252
        25 -10.6705    112.5959    196.6206   9.9168361266e+01   1.8014516283e+01    0.4313945    0.2795436   7.03  0.001843565    2.556    0.609
        26 -10.0854    120.6151    194.9437   9.7024566038e+01   1.7053929830e+01    0.2603225    0.1774368 -73.47 0.0009598472    1.850    0.460
        27  -8.7240    105.3152    194.3193   1.0052557218e+02   1.9691683174e+01    0.1373289     0.109587 -16.18 0.0007039327    1.654    0.395
        28 -12.8079     28.1555    215.4817   1.1997901325e+02   2.5220518508e+01    0.8556998    0.3996777  87.24  0.002200233    2.212    0.548
        29  -9.1823     23.9185    194.1690   1.1922509829e+02   3.0286772659e+01    0.3905048    0.1869936  24.52  0.001951703    2.618    0.618
        30  -9.7632    149.3126    187.5581   8.9060496930e+01   1.3624622146e+01    0.3073354    0.2175026 -56.54  0.001505868    1.600    0.375
        31  -8.8797     72.0955    188.0720   1.0755441389e+02   2.6054041618e+01    0.2102545    0.1438863  71.08 0.0005070089    1.577    0.366
        32 -11.3157     48.5456    217.8959   1.1602453236e+02   2.2438879559e+01    0.5886788    0.4766024  15.28  0.003781671    1.690    0.408
        33  -8.6971     80.5909    184.2259   1.0497642764e+02   2.5755219616e+01    0.2249105    0.1479227  71.83   0.00102101    1.796    0.443
        34 -15.4370     48.4833    200.6798   1.1443771548e+02   2.6180908228e+01     12.08522     4.735131  70.72   0.02705355    5.611    0.822
        35  -8.6407     90.6958    181.9480   1.0216024285e+02   2.4786839443e+01    0.1924464    0.1712413 -77.96 0.0004032021    1.103    0.093
        36 -10.4615     99.4494    180.7520   9.9810090943e+01   2.3698338399e+01    0.2614451    0.2445497  46.26 0.0006317156    1.067    0.062
        37  -8.9046     93.4983    179.5141   1.0108680190e+02   2.4922879378e+01    0.1418848    0.1318263  75.24 0.0001219515    1.034    0.033
        38  -9.5920     46.5873    177.4624   1.1239531440e+02   3.1756409181e+01    0.3139981    0.1988887 -73.05   0.00100462    1.432    0.302
        39  -9.7168    188.2520    176.6082   7.8294174592e+01   8.7008333318e+00    0.3332571    0.3088105 -53.42  0.001786036    1.283    0.221
        40  -9.3841     39.3583    176.9545   1.1408276925e+02   3.2678015673e+01     0.228954    0.1526019  56.17 0.0007005531    1.476    0.322
        41  -8.4575    148.5341    175.5070   8.6929514527e+01   1.6300579446e+01    0.2191342    0.1464956 -60.56 0.0005698853    1.802    0.445
        42  -9.6788    146.5082    171.9572   8.6700517642e+01   1.7440930449e+01    0.2723791    0.2330837  82.86 0.0009207078    1.464    0.317
        43 -12.6869     51.9161    107.5953   9.9665450583e+01   4.8329582994e+01     2.368248    0.7042949 -66.49  0.006013356    5.867    0.830
        44 -13.0539     71.7064    154.1498   1.0261927098e+02   3.4266637823e+01    0.6168481    0.5138502 -55.29  0.001131032    1.157    0.136
        45 -14.5419     68.5381    144.1301   1.0176646164e+02   3.7188464683e+01     4.633575     2.251762  60.86  0.003456649    3.539    0.717
        46 -11.4423     74.8362    167.8853   1.0400087130e+02   3.0464627708e+01    0.3432476    0.2876132 -41.56 0.0009828358    1.320    0.242
        47 -11.6006     70.8146    172.2004   1.0568009559e+02   2.9980497831e+01    0.4668703    0.3311375 -28.98  0.001307606    1.930    0.482
        48  -9.3200     46.7008    172.0808   1.1173157972e+02   3.3028735723e+01     0.266106    0.2133951 -21.16   0.00104531    1.700    0.412
        49  -8.5200    194.4666    171.5310   7.5944104097e+01   8.5248197563e+00     0.145548    0.1305779  -6.30 0.0001204313    1.012    0.012
        50  -9.6618    240.4776    169.4643   6.6821822799e+01   9.3424247867e-01     0.134286     0.112528 -17.27 8.907036e-06    1.022    0.022
        51  -8.9049    185.3887    169.2670   7.7367167750e+01   1.0644597665e+01    0.2022381    0.1358018 -48.71 0.0009317461    1.610    0.379
        52  -9.2714     37.0198    167.8392   1.1363954511e+02   3.5102035231e+01    0.2288123    0.1677917  58.98 0.0006664468    1.357    0.263
        53  -9.4226     32.7203    165.1152   1.1440406922e+02   3.6194727849e+01    0.2694888    0.1818591  31.91   0.00106375    1.658    0.397
        54  -9.0533    135.5223    165.5324   8.8058188885e+01   2.0912291570e+01    0.3881364    0.1987471  51.32  0.001478715    2.301    0.565
        55  -8.7800    132.9510    162.4944   8.8074167532e+01   2.2078050194e+01    0.2806523    0.2128522  77.84 0.0009556374    1.811    0.448
        56  -9.9748    155.8152    216.6378   9.2670265828e+01   6.8260277466e+00    0.2741984    0.1703427 -75.30  0.001102922    3.470    0.712
        57  -8.5577     53.0184    157.4682   1.0818244405e+02   3.5853420151e+01    0.1900758    0.1360267  31.24  0.001015873    1.548    0.354
        58 -11.6255     90.1927    152.2165   9.7221757749e+01   3.1991985235e+01    0.7642678    0.4988318 -27.57  0.003306473    2.112    0.527
        59 -10.7045    133.7585    144.8696   8.4065264424e+01   2.5944452593e+01     1.122269    0.3014499 -53.71  0.002739539    5.145    0.806
        60  -8.8788    174.8545    149.1074   7.5219632454e+01   1.6745947579e+01    0.2270629    0.2089522 -77.65 0.0005340014    1.300    0.231
        61  -9.4958     39.7628    146.8956   1.1027521031e+02   3.9939887875e+01    0.2500623    0.1894457  46.02  0.001236308    1.420    0.296
        62  -8.9394    111.4574    149.7003   9.0965810552e+01   2.9007393744e+01    0.3699525    0.2143073  66.63  0.001289091    3.068    0.674
        63 -10.2216    103.3268    138.3756   9.0762409180e+01   3.3168594020e+01    0.5828936    0.3346334 -26.88  0.002123617    2.728    0.633
        64 -10.0978    105.9793    130.8307   8.8314105939e+01   3.4508564439e+01    0.3882768    0.3211697 -61.03  0.001245716    1.235    0.190
        65 -11.6889     90.8200    138.0843   9.4232238382e+01   3.5355734390e+01    0.2925953    0.2605036 -39.38 0.0003430287    1.127    0.113
        66 -11.5130     44.1660    129.4470   1.0632587259e+02   4.3814800445e+01    0.6045473    0.2793973 -71.33   0.00207145    2.198    0.545
        67 -10.3457     33.2144    130.9176   1.0981631997e+02   4.4544094370e+01    0.2812409    0.2455033 -56.28  0.001235037    1.101    0.092
        68  -9.6246    135.7225    129.4807   7.9921731443e+01   2.9051439318e+01    0.2904283    0.1364682 -45.97 0.0009834883    2.083    0.520
        69  -9.6519    112.2455    129.3278   8.6200710916e+01   3.3711113110e+01    0.3118995    0.2404766 -11.08  0.001209792    1.635    0.388
        70  -9.0523    160.6651    127.3238   7.3247009973e+01   2.4268342340e+01    0.1583061    0.1265035 -85.10 0.0007050887    1.712    0.416
        71 -10.2908     99.3902    125.2419   8.8894062753e+01   3.7022075278e+01     0.319062    0.2578029 -19.61 0.0007813603    1.412    0.292
        72  -8.5437     93.6390    126.0134   9.0756814940e+01   3.7829079245e+01    0.2105659    0.1857363 -55.41 0.0004818313    1.093    0.085
        73 -11.2604     39.1747    124.0242   1.0691889412e+02   4.5675882902e+01    0.3519112    0.2562091 -43.07   0.00104435    1.353    0.261
        74 -10.6617    118.6651    123.1114   8.2900498035e+01   3.3932845417e+01    0.5421819    0.3515762  -0.81  0.001974053    2.781    0.640
        75  -9.3415    135.0000    120.4103   7.7826878237e+01   3.1231833629e+01    0.3557151   0.08811934 -45.30 0.0009360153    3.945    0.747
        76  -9.1626    108.1458    118.3971   8.4683540728e+01   3.7047562160e+01    0.2392743    0.2010401 -33.95 0.0003690343    1.183    0.155
        77 -11.0841     40.3306    114.0575   1.0476987188e+02   4.8016616450e+01    0.3512322    0.2361828  72.42  0.001730258    1.996    0.499
        78 -11.3427     43.3687    109.1040   1.0281174964e+02   4.8913555978e+01    0.3712797    0.3363913 -60.27  0.001158416    1.062    0.059
        79  -9.8535    231.3196    113.6733   5.6213407576e+01   1.2057139310e+01    0.2619653    0.2372981 -42.13 0.0007391124    1.061    0.057
        80 -10.4792    115.9009    109.5156   8.0150278724e+01   3.7578505053e+01    0.4831816    0.3411766  33.15  0.001882104    1.497    0.332
        81 -10.7394     19.1173    110.9782   1.1104784859e+02   5.0609846572e+01    0.2023914    0.1925546 -13.12 0.0007430526    1.239    0.193
        82  -9.2539    205.5072    110.2023   5.9718212435e+01   1.7937571021e+01    0.2494508    0.2069793  50.01 0.0006352304    1.304    0.233
        83  -8.3382     65.9896    104.6628   9.4320860125e+01   4.7236602144e+01    0.2334827   0.09573565  50.96 0.0007051681    4.384    0.772
        84 -10.7510     32.7524     99.8855   1.0452071943e+02   5.2173839566e+01     0.366248    0.2733451  54.67  0.002057398    1.676    0.403
        85  -8.2692     66.3567     99.7645   9.2984308378e+01   4.8341926533e+01    0.1359443    0.1099449  63.59 0.0002353882    1.579    0.367
        86  -8.8147    128.9831     96.2793   7.2852242524e+01   3.7715296324e+01    0.2201232    0.1976355  37.47 0.0006714758    1.127    0.112
        87 -12.4198     83.0272    159.7711   1.0052104331e+02   3.1249249542e+01     1.278091    0.7125819  66.98  0.001065976    2.816    0.645
        88 -10.5233     51.3498     89.6801   9.5623331580e+01   5.2629139809e+01    0.6714843    0.2297866  25.10  0.002393326    3.563    0.719
        89  -8.7309    156.9409     88.9988   6.3889032488e+01   3.2846431561e+01    0.2498241    0.1887624 -75.43  0.001119522    1.769    0.435
        90  -8.6006    234.3039     86.3060   4.9517350222e+01   1.6008896123e+01    0.1285838    0.1052316   3.35 0.0002960788    1.601    0.375
        91  -9.4832     75.1846     84.9726   8.5931174029e+01   5.0378021917e+01    0.2223895    0.2018335  18.33 0.0004043889    1.147    0.128
        92  -9.1794    158.0044     82.5102   6.1806728989e+01   3.3797333646e+01    0.2274181    0.1496427  52.27 0.0004634103    1.533    0.348
        93  -9.6545     58.8614     67.6190   8.6477401292e+01   5.6458399972e+01    0.2329265    0.2131769 -49.61 0.0005994443    1.254    0.202
        94 -12.9712    187.0292     49.8501   4.7300314185e+01   3.2104597643e+01      1.07421     0.793583  42.50 0.0008307876    1.522    0.343
        95 -11.1630    163.6285    215.9145   9.0885869957e+01   5.6675854594e+00    0.3304257    0.2244657 -19.37  0.001685936    1.803    0.445
        96 -17.3450     12.2752    244.8439   1.2470467939e+02   2.0986736850e+01      10.4663     5.239505 -81.66   0.01875116    1.808    0.447
        97 -10.3040     31.4969     35.8883   8.6674033729e+01   6.5812775691e+01    0.2114618    0.1989699  36.23   0.00145879    1.546    0.353
        98  -8.6192     71.7572     53.5960   7.6829502888e+01   5.7150373485e+01    0.1906756    0.1276855  46.58 0.0009549429    1.748    0.428
        99  -9.6919    198.0017     23.5351   3.9052641218e+01   3.2851366052e+01     0.225536    0.1849611  -4.51 0.0008112457    1.604    0.377
       100  -9.0610    189.5020     14.9981   3.7855853515e+01   3.5767750583e+01    0.2013082    0.1582923  78.36 0.0005873974    1.145    0.126
       101  -8.3943    168.5721    234.5258   9.2831047644e+01   1.6853342787e+00    0.1276093    0.1097764  25.14 8.552119e-05    1.052    0.049
       102  -9.8469    161.7843    226.5927   9.2996923033e+01   4.0864278707e+00    0.2052606    0.1631467  67.34  0.001157783    1.749    0.428
       103 -10.5265    184.1729    213.0236   8.6095030627e+01   2.7968006747e+00     0.255053    0.1632401 -40.09  0.001334398    1.652    0.395
       104 -10.5908     42.3327    208.2390   1.1647568603e+02   2.5226761380e+01    0.8305325    0.3906205  80.76  0.003736765    2.643    0.622
