#   1 NUMBER                 Running object number                                     
#   2 MAG_AUTO               Kron-like elliptical aperture magnitude                    [mag]
#   3 X_IMAGE                Object position along x                                    [pixel]
#   4 Y_IMAGE                Object position along y                                    [pixel]
#   5 X_WORLD                Barycenter position along world x axis                     [deg]
#   6 Y_WORLD                Barycenter position along world y axis                     [deg]
#   7 A_WORLD                Profile RMS along major axis (world units)                 [deg]
#   8 B_WORLD                Profile RMS along minor axis (world units)                 [deg]
#   9 THETA_WORLD            Position angle (CCW/world-x)                               [deg]
#  10 FWHM_WORLD             FWHM assuming a gaussian core                              [deg]
#  11 ELONGATION             A_IMAGE/B_IMAGE                                           
#  12 ELLIPTICITY            1 - B_IMAGE/A_IMAGE                                       
         1  -9.1268     80.1466     12.3500   6.6359380459e+01   6.2342324739e+01    0.2425428    0.1755725 -27.86  0.001018287    1.431    0.301
         2  -8.6403    135.6065     11.1975   5.2106719160e+01   4.9897254197e+01    0.2339208    0.1778223  -1.81  0.001083211    1.471    0.320
         3  -8.5910     17.0001      2.6989   8.8710358385e+01   7.2899840532e+01    0.1576062    0.1169949 -14.69 0.0004128903    1.025    0.025
         4  -8.7731    108.6493    246.4440   1.1412076394e+02   1.0493933211e+01    0.2442318    0.1568203 -77.62  0.001365993    1.901    0.474
         5 -11.0010    205.2037    249.0490   9.6970602942e+01  -5.0477859542e+00     1.843891      0.36566  43.33  0.006294059    4.519    0.779
         6 -10.8795    224.1078    219.8504   8.8982250201e+01  -4.3795068105e+00    0.4220755    0.2885584  10.32  0.001691134    1.420    0.296
         7 -11.7425    161.4597    248.6460   1.0476601819e+02   1.8917489431e+00     1.613724    0.3478707  40.05  0.005748807    3.759    0.734
         8 -11.1630    144.1211    237.5786   1.0657204774e+02   6.3282068106e+00    0.5495322    0.4170051  27.27  0.003505223    1.392    0.282
         9 -10.0568    139.1059    248.7559   1.0884535100e+02   5.4291153995e+00    0.2765789    0.2168375 -15.13  0.001792186    1.965    0.491
        10  -9.8650    134.2705    248.5500   1.0970066389e+02   6.2204393174e+00    0.4039897    0.1655333  52.77  0.001901662    2.384    0.581
        11  -7.8418    109.7240    241.3394   1.1340869388e+02   1.1166567833e+01    0.1597129    0.1092952 -74.33   0.00038291    1.719    0.418
        12  -9.6308    105.1642    248.6897   1.1496540839e+02   1.0651911313e+01    0.3002988    0.2234722 -54.04  0.002064484    1.772    0.436
        13  -8.3521     37.0338    244.0000   1.2635945516e+02   2.0503472352e+01     0.163064   0.04899798  38.93 0.0007981973    2.913    0.657
        14 -10.3773    216.4847    240.3299   9.3675457163e+01  -5.7351354183e+00    0.4467186    0.2835494  37.36  0.001719067    1.329    0.248
        15  -8.5273    224.3344    240.0984   9.2262838880e+01  -6.9005033790e+00    0.2633785    0.1535239  20.64  0.001545265    1.588    0.370
        16 -11.2491    154.8453    224.4569   1.0276566796e+02   6.6192031982e+00    0.6618559    0.4867371   1.61  0.003703105    1.981    0.495
        17 -10.4011    160.2461    232.6557   1.0287558492e+02   4.4225409184e+00    0.4736927    0.3810774 -43.40  0.002194269    1.528    0.345
        18  -9.4978    154.9940    229.6768   1.0346639633e+02   5.7633295165e+00    0.2850876    0.2133654  36.49  0.001144007    1.152    0.132
        19  -8.4445     90.4587    237.4362   1.1655814450e+02   1.4694553575e+01    0.1197181   0.09020486  60.24 0.0001751137    1.032    0.031
        20  -9.4861    209.1581    235.8434   9.4283825134e+01  -4.0432118045e+00    0.4344325    0.1555494  33.21  0.001512275    2.608    0.617
        21  -8.1959    126.9593    235.2821   1.0952745124e+02   9.4735433139e+00    0.1632787     0.127505  48.18 0.0003127783    1.040    0.039
        22 -10.0518    147.6013    230.2093   1.0495646541e+02   6.9174328888e+00    0.5785436    0.3739248 -87.51  0.002873881    2.800    0.643
        23 -10.1436    157.6583    240.0887   1.0436192014e+02   3.7350950604e+00    0.3985021    0.2523206  68.32  0.002098041    2.381    0.580
        24  -8.9839    138.0702    232.3594   1.0706020481e+02   8.1490796874e+00    0.1831765    0.1735323 -25.43 0.0007123695    1.343    0.256
        25  -8.6274    115.0936    231.3899   1.1132889540e+02   1.2013947349e+01    0.2984873    0.1668461  35.14  0.001093741    1.791    0.442
        26 -12.9314    178.9590    239.4984   1.0033284623e+02   3.3671518176e-01     1.518257     1.455571  -3.31   0.01126072    1.263    0.208
        27  -9.8391    139.6432    227.2022   1.0609354681e+02   8.7356771855e+00    0.5031478    0.2530378  42.50  0.002571804    1.636    0.389
        28  -8.1585    112.4026    226.7867   1.1132013405e+02   1.3240306424e+01     0.150808    0.1148875 -48.89 0.0004747302    1.682    0.405
        29  -9.6911    150.8284    218.5124   1.0270249117e+02   8.2869336388e+00    0.4819473    0.3263773  17.45  0.002515472    1.994    0.498
        30  -9.2845    164.2130    216.8995   9.9817951908e+01   6.2241762686e+00    0.3890699    0.2469783 -47.90  0.002130229    1.875    0.467
        31  -8.8276    105.4455    218.7637   1.1175275305e+02   1.5787766981e+01    0.1602512    0.1154269 -49.48 0.0009485629    1.755    0.430
        32 -12.2510    192.1062    232.6025   9.6892337563e+01  -8.6800674586e-01     1.347377    0.7628781  21.74  0.006951367    2.011    0.503
        33  -7.7328     14.3534    220.3051   1.2887449031e+02   2.7256794872e+01   0.09087026   0.07734717 -62.41 0.0007041178    1.711    0.416
        34  -8.9518    163.8784    210.1188   9.8828165801e+01   7.4031055371e+00    0.2179474    0.1875665  35.81 0.0002726969    1.029    0.028
        35  -8.0305    102.8036    211.4019   1.1141155744e+02   1.7592255538e+01    0.1787036    0.1123061  34.69 0.0009554726    1.683    0.406
        36 -13.1353    187.2851    211.3256   9.4407347091e+01   3.0468576142e+00     1.429296     1.141263 -21.89  0.008713723    1.397    0.284
        37  -7.6783      9.5200    208.3967   1.2909553226e+02   3.0012748295e+01    0.1088011   0.07677346  74.00 9.109773e-05    1.023    0.023
        38  -7.6222     41.6313    206.8012   1.2307769390e+02   2.6946063272e+01    0.1527158   0.08959288  88.75 0.0004012835    1.510    0.338
        39 -11.0220    167.8732    204.2395   9.7069988533e+01   7.6772779236e+00      0.51871      0.39907  28.08  0.001017426    1.252    0.201
        40  -8.7969    229.1568    202.2644   8.4940860724e+01  -2.8553216786e+00    0.2700053    0.1625294 -43.21  0.001418936    2.072    0.517
        41 -10.6200    204.2538    199.3178   8.9025291774e+01   1.8790106515e+00    0.4643091    0.3803919  48.96  0.002766737    1.364    0.267
        42  -9.5052    157.6596    204.1025   9.9125231078e+01   9.5541672442e+00    0.2374121      0.19307  39.71 0.0002107727    1.078    0.072
        43 -10.4075    161.7361    202.6216   9.8050422681e+01   9.0731347411e+00    0.5062485    0.2498302 -42.44  0.002309065    2.347    0.574
        44  -7.8071     80.8518    196.8029   1.1422383025e+02   2.3858528772e+01     0.174253    0.1252996  69.54 0.0005068065    1.258    0.205
        45  -7.8305    227.0954    196.4918   8.4233678444e+01  -1.6997416838e+00    0.1841341    0.1153704  37.08 0.0004382792    1.469    0.319
        46  -9.7266    249.2167    193.9273   7.9847461050e+01  -5.0023209989e+00     0.226086    0.1853453 -10.23 0.0002994956    1.129    0.114
        47  -9.9644    128.5280    203.9701   1.0513186223e+02   1.4754172313e+01    0.3438924    0.1895759  37.55 -9.786151e-05    1.722    0.419
        48  -9.9310    162.2047    191.6879   9.6096704907e+01   1.0938185045e+01    0.3879426     0.305134 -51.25  0.002134116    1.439    0.305
        49 -10.1851    172.1249    187.1452   9.3207817199e+01   9.8777343015e+00    0.4036061    0.2872462  62.31  0.002015238    1.725    0.420
        50  -8.6336    219.4949    190.8461   8.4553254312e+01   4.4707856708e-01    0.2381639    0.1720643  -7.42 0.0007589723    1.443    0.307
        51 -10.0012    207.6389    185.8255   8.5824788418e+01   3.3742521138e+00    0.4051539    0.3373769  82.06  0.002209852    1.884    0.469
        52 -12.2482    212.3092    217.6132   9.0742001007e+01  -2.1586920733e+00     2.175715     1.236754  41.27   0.01179893    1.582    0.368
        53 -10.9156    185.9969    172.9456   8.7581356385e+01   9.7284130079e+00    0.5562105    0.2986965 -60.62  0.001998572    3.498    0.714
        54 -10.8821    177.9303    182.2414   9.1081241394e+01   9.6403801562e+00    0.5023848    0.3944062  69.50  0.001433751    1.651    0.394
        55 -10.3463    194.8008    171.9848   8.5588408787e+01   8.1527167893e+00    0.3913537    0.2174371 -49.12 0.0009367708    2.152    0.535
        56 -11.5068    184.6510    182.2157   8.9691048278e+01   8.3424165100e+00    0.5188748    0.4445931   7.07  0.002178733    1.197    0.164
        57 -11.1404    192.0921    180.6151   8.7868056122e+01   7.1822864153e+00    0.5727118    0.3548708  41.22  0.002798053    1.498    0.333
        58 -10.7589    191.0726    172.3111   8.6411290225e+01   8.8335555301e+00    0.4049337     0.248392 -42.67   0.00190983    1.739    0.425
        59  -8.2568    245.3381    181.6980   7.8116855881e+01  -2.6950571805e+00    0.1139581    0.1066356 -74.66 0.0005193233    1.667    0.400
        60 -10.6340    176.5072    171.9997   8.9373816913e+01   1.1796892340e+01    0.4169632    0.1819648 -43.06  0.001635254    2.436    0.590
        61  -9.2087    180.4912    173.4830   8.8833484062e+01   1.0726731018e+01    0.1442569    0.1327915  25.55   -2.507e-05    1.006    0.006
        62  -7.5728     87.4952    170.5462   1.0932636157e+02   2.8547952842e+01    0.1381399    0.1189713  76.91 0.0002345143    1.038    0.036
        63  -9.9829      5.7751    167.0592   1.2733165160e+02   3.8885786292e+01    0.3522193    0.2534613  80.53  0.001216092    1.076    0.071
        64 -10.8999     10.9788    159.2418   1.2563922234e+02   4.0175731715e+01    0.6364862    0.4307779  15.16  0.003814357    2.224    0.550
        65 -10.9279     26.1477    160.8734   1.2239508876e+02   3.8457443695e+01    0.5641442    0.1836634 -60.58  0.002225389    2.672    0.626
        66 -11.4171     22.2830    158.5980   1.2305951916e+02   3.9334044964e+01    0.7290776    0.5364272  -1.70  0.004478582    2.287    0.563
        67  -7.6944    207.5313    166.5853   8.1936982660e+01   6.5721118341e+00    0.1426421    0.1276282  12.58 0.0002124888    1.024    0.023
        68 -10.8110    183.2162    161.9092   8.5870606391e+01   1.2322056026e+01    0.2971971    0.2491859  22.09 0.0009618612    1.201    0.167
        69  -8.3479     47.5289    163.3462   1.1774260351e+02   3.5624230504e+01    0.1716217    0.1528864 -29.13 0.0006539696    1.578    0.366
        70  -9.7158    196.9855    161.4736   8.2938695409e+01   9.5780939803e+00    0.2369689    0.1963485 -30.75  0.001267811    1.221    0.181
        71  -7.6431    108.0057    160.9865   1.0289708013e+02   2.7320360202e+01    0.1708588    0.1550652 -81.48  0.000440265    1.068    0.064
        72  -9.1850     34.8437    161.3647   1.2046080935e+02   3.7475732973e+01     0.147816    0.1199068  19.26 0.0009449453    1.711    0.415
        73  -7.9896     47.3232    159.3865   1.1733079850e+02   3.6556890059e+01    0.1741443    0.1330429 -49.30 0.0005517366    1.553    0.356
        74 -10.0386    163.7242    165.0001   9.0716342863e+01   1.5727057704e+01     0.449601    0.1655213  46.06  0.001570443    2.614    0.617
        75 -10.6821     22.6490    147.4027   1.2189628791e+02   4.1850156746e+01    0.7706429    0.3747103  71.14  0.003147512    2.293    0.564
        76  -9.6917     89.5269    106.4407   9.6505922176e+01   4.3261586714e+01     2.304861    0.6601343 -59.35  0.005708625    5.531    0.819
        77 -12.1326     75.0656    106.7654   1.0092238415e+02   4.5471269511e+01     4.075356     1.127354  42.96   0.01303564    3.997    0.750
        78 -13.3357     62.6167    125.1566   1.0833116210e+02   4.2796631632e+01     2.964927     2.609377 -42.27   0.01781845    1.256    0.204
        79 -12.1517     78.6981    121.1306   1.0298808557e+02   4.1506211842e+01     1.725622    0.9706222 -55.37  0.007931397    1.619    0.382
        80 -11.8279     46.7263    120.4066   1.1201266456e+02   4.5842707361e+01    0.9902877    0.7563991  72.85   0.00578315    1.396    0.284
        81 -11.6480     52.7246    110.6305   1.0850266769e+02   4.7504167228e+01     1.089427    0.8943974  27.60  0.006184112    1.439    0.305
        82  -8.1736      5.0990    153.3237   1.2648021338e+02   4.1954796962e+01    0.1955208    0.1387286  89.69   0.00114285    1.067    0.063
        83  -7.8238    130.6502    150.2808   9.5347739136e+01   2.5500842288e+01    0.1541916    0.1145381  74.72  0.000701336    1.647    0.393
        84  -7.6501     90.4093    150.4834   1.0541060483e+02   3.2696999149e+01    0.1390708    0.1291821 -71.01 0.0001023612    1.099    0.090
        85  -7.3796      8.3119    149.6383   1.2546103204e+02   4.2532576510e+01    0.1265248   0.06839193  71.54 0.0001383284    1.750    0.429
        86  -7.3821     87.2995    146.2785   1.0546671189e+02   3.4180039912e+01    0.1318712     0.110726 -26.89 0.0001900075    1.540    0.351
        87 -10.4496     68.2751    144.2346   1.1003817304e+02   3.7471331912e+01    0.4518362    0.3091996  54.50  0.002406012    1.495    0.331
        88  -9.3139     11.3632    139.4941   1.2384299400e+02   4.4597578229e+01     0.417972    0.1804643 -70.63  0.002186591    1.787    0.440
        89 -10.2417     16.8868    136.2920   1.2216229643e+02   4.4900900875e+01    0.4064198    0.3240536 -54.91  0.001829086    1.365    0.267
        90  -8.5477     90.3823    142.8542   1.0405030340e+02   3.4495041386e+01    0.2139427    0.1212073 -48.75 0.0009487149    1.811    0.448
        91  -8.9155      4.0080    125.9248   1.2437247996e+02   4.8221177441e+01    0.2018063    0.1307047 -72.50            0    1.195    0.163
        92 -11.0119      6.3254    133.8722   1.2454772601e+02   4.6249627386e+01     0.740532     0.414693 -50.42  0.003042173    1.914    0.478
        93 -10.9471     13.2047    127.5946   1.2217312758e+02   4.7198126947e+01    0.6879033     0.511506  60.05  0.003939006    1.406    0.289
        94  -8.2810     89.6559    138.7196   1.0346657779e+02   3.5591289545e+01    0.1382913    0.1134117 -19.74 0.0007010642    1.634    0.388
        95  -7.5959    107.4043    131.4664   9.7271404955e+01   3.4238648093e+01    0.1480098    0.1393167 -72.99 0.0001109579    1.017    0.017
        96  -8.5084    113.4772    126.5114   9.4546022144e+01   3.4253765204e+01    0.1505431    0.1447928 -75.11 0.0008101385    1.004    0.004
        97 -10.1942    111.9594    123.0001   9.4138205533e+01   3.5357324284e+01    0.4692703    0.2148105  55.61  0.001587411    2.997    0.666
        98 -11.0542    117.5283    120.7665   9.2108423325e+01   3.4789349097e+01     0.516794     0.299931 -43.63  0.002168988    1.741    0.426
        99 -11.2083     35.0348    147.8702   1.1894448964e+02   4.0561958193e+01    0.7527608    0.4859852 -21.39  0.002021833    2.871    0.652
       100  -8.8436     16.1066    117.1617   1.2017765150e+02   4.9409746015e+01    0.2419763    0.1794197  27.92  0.001573285    1.684    0.406
       101 -11.6936     29.3195    140.9153   1.1955621897e+02   4.2742339630e+01    0.9630564    0.6085869  73.49  0.002972166    1.583    0.368
       102 -12.6066     33.5166    122.7861   1.1610373010e+02   4.6622087452e+01     2.110229     1.373088 -75.39   0.01207049    1.306    0.234
       103  -8.1003    209.1979    112.1869   6.8933952621e+01   1.5882260777e+01    0.2167481    0.1983583  -6.39 0.0003725912    1.108    0.098
       104  -8.8888    105.9886    105.7542   9.1532873318e+01   4.0469477028e+01    0.2936626    0.1941645 -62.27  0.001292711    1.675    0.403
       105 -10.2533     42.3530    141.1509   1.1627854925e+02   4.1372857590e+01    0.5210516    0.3054997  69.43 0.0008772747    1.900    0.474
       106  -7.6415    184.3705     78.2821   6.4488590998e+01   2.7951546893e+01    0.1621257    0.1194538  24.99 0.0007014719    1.698    0.411
       107  -8.7603    113.0571     71.4357   7.9356483047e+01   4.6384570429e+01     0.262066    0.2105633 -45.68 0.0004048418    1.256    0.204
       108  -8.2370    209.4748     64.0289   5.6164090004e+01   2.3983541225e+01    0.2330691    0.1415405 -34.07  0.001032246    1.592    0.372
       109  -8.1945     94.8762     52.6403   7.8341230636e+01   5.3602484553e+01    0.1934883    0.1798834  21.61 0.0004557932    1.092    0.085
       110  -7.6262     79.6885     23.3182   7.1490501489e+01   6.1083745605e+01    0.1219175    0.1067117 -62.04 0.0006705199    1.643    0.391
       111  -9.0369     84.9212     21.5634   6.8986194800e+01   6.0304556526e+01     0.235031    0.1836477 -28.18 0.0004238453    1.313    0.238
       112  -7.7409     30.0223     22.0676   9.1354232125e+01   6.8605704484e+01     0.145998    0.1099591 -25.84 0.0003418432    1.049    0.046
       113  -9.5579     75.1470     18.0066   7.0650137210e+01   6.2619039902e+01    0.2472979    0.2253324 -26.17 0.0005595216    1.292    0.226
       114  -7.8317    168.1457     13.1487   4.7450251448e+01   4.1351997331e+01    0.1885108    0.1549674 -65.89 0.0003691185    1.273    0.215
       115  -8.9949    228.6634    244.2285   9.2157402014e+01  -8.0154814415e+00    0.2167353     0.201052  33.27  0.001644038    1.520    0.342
       116  -9.1231    119.9589    243.9598   1.1180691715e+02   9.1676396111e+00     0.174595    0.1382215  50.74 0.0003254089    1.034    0.033
       117  -7.8166    104.2954     11.6949   5.9138781815e+01   5.7326621445e+01    0.1256272    0.1052629 -63.39 0.0002225049    1.582    0.368
