#   1 NUMBER                 Running object number                                     
#   2 MAG_AUTO               Kron-like elliptical aperture magnitude                    [mag]
#   3 X_IMAGE                Object position along x                                    [pixel]
#   4 Y_IMAGE                Object position along y                                    [pixel]
#   5 X_WORLD                Barycenter position along world x axis                     [deg]
#   6 Y_WORLD                Barycenter position along world y axis                     [deg]
#   7 A_WORLD                Profile RMS along major axis (world units)                 [deg]
#   8 B_WORLD                Profile RMS along minor axis (world units)                 [deg]
#   9 THETA_WORLD            Position angle (CCW/world-x)                               [deg]
#  10 FWHM_WORLD             FWHM assuming a gaussian core                              [deg]
#  11 ELONGATION             A_IMAGE/B_IMAGE                                           
#  12 ELLIPTICITY            1 - B_IMAGE/A_IMAGE                                       
         1 -15.0609      8.4168    139.5344   1.4252493411e+02   4.5074072538e+01     8.151153      2.22109 -78.38   0.02740673    4.562    0.781
         2 -11.2969      2.7147     46.2588   1.2778503452e+02   6.4978021412e+01    0.3334306    0.1488642 -61.05  0.001834143    2.152    0.535
         3 -13.3824    213.5790      8.9800   6.1634402283e+01   3.0972958146e+01    0.9725869    0.8086687  63.35  0.002822563    1.264    0.209
         4 -13.4221    198.0820     27.5681   6.7904572435e+01   3.2563017827e+01     1.514103     1.305342  29.44  0.007382566    1.459    0.314
         5 -12.0133      4.2789      3.8598   1.1239430228e+02   7.1582533556e+01     0.426567     0.302027 -35.02  0.003349069    1.412    0.292
         6 -10.5476     18.7076    242.1876   1.4903373529e+02   2.2441198647e+01    0.1807067      0.10668  62.44 0.0005153558    1.304    0.233
         7 -11.8038    246.1598    248.8432   1.0885877095e+02  -1.3480584864e+01    0.5699262    0.2834077  33.73  0.003199247    1.727    0.421
         8 -11.8102     99.4699    247.2257   1.3565649593e+02   1.0714306096e+01    0.4322099    0.3646894  -9.30  0.001851057    2.142    0.533
         9 -10.3747     46.3912    248.8960   1.4501458899e+02   1.7925111367e+01    0.3238507    0.1420197  77.39  0.001633929    2.541    0.607
        10 -12.2116     29.7166    248.9612   1.4771206037e+02   1.9940553593e+01    0.6741115    0.2583135  46.94  0.003854713    2.136    0.532
        11 -12.1039     35.2287    244.4850   1.4652980433e+02   2.0119495820e+01    0.4499111    0.3426974  43.49  0.003306148    1.611    0.379
        12 -11.2466      8.2559    250.1495   1.5108537857e+02   2.2094842277e+01    0.4891527    0.1824196  39.52  0.002823379    2.744    0.636
        13 -11.0438      2.8264    249.8623   1.5187734709e+02   2.2705049515e+01    0.3265573    0.2073481 -64.51  0.002410074    1.972    0.493
        14 -10.4190      2.4997    246.4632   1.5175740366e+02   2.3353001972e+01    0.1852778    0.1575734  59.13 0.0009027177    1.551    0.355
        15 -11.8729    140.8095    249.9336   1.2835594537e+02   3.5062287565e+00    0.5876136    0.1902563  42.12  0.002425253    2.586    0.613
        16 -14.1667    100.4588    229.1588   1.3344745320e+02   1.3951103560e+01     4.639719    0.3081496  46.53    0.0100603    9.450    0.894
        17 -10.2083     12.6906    233.0627   1.4944340317e+02   2.4811652684e+01    0.1527555    0.1036654  85.42 0.0004139671    1.093    0.085
        18 -11.7799    123.1927    249.8730   1.3161339258e+02   6.4470394975e+00    0.5114949    0.1843475  42.05  0.002251987    2.368    0.578
        19  -9.0639     55.2772    230.1486   1.4197964327e+02   2.0365080167e+01    0.2377404    0.1083823  61.77  0.001213238    2.062    0.515
        20 -13.7565     36.9470    226.3104   1.4490734768e+02   2.3427579692e+01    0.7360477    0.5242017  69.43  0.002412628    1.109    0.098
        21  -9.5935    173.6222    222.9137   1.1807516463e+02   2.3313803016e+00    0.2884458    0.1777255  46.63  0.001474867    1.470    0.320
        22  -8.6379    152.5159    213.0753   1.2073397333e+02   8.0109220273e+00    0.1798858    0.1374212 -53.95 0.0003132831    1.446    0.308
        23 -12.2472      9.9978    207.0511   1.4821535039e+02   3.0250746968e+01    0.5941905    0.3920683  33.72  0.002991567    1.984    0.496
        24 -10.6608     57.4754    206.9127   1.3933901059e+02   2.4862721155e+01    0.6320723    0.2186846  58.40  0.002410452    3.554    0.719
        25 -11.5746     59.1080    199.2340   1.3818686526e+02   2.6305869212e+01    0.3010328    0.2208647 -75.49 0.0005176297    1.225    0.184
        26 -11.5293     12.1054    195.3877   1.4698192231e+02   3.2479749812e+01    0.2413196    0.1696199  78.11   0.00038286    1.129    0.114
        27 -11.7863     65.6454    190.6948   1.3583177420e+02   2.7309520381e+01    0.2701011    0.2264769 -70.39   0.00051394    1.216    0.177
        28  -9.2449    193.4633    195.9498   1.0927867084e+02   3.4086284668e+00    0.1954751    0.1247181 -67.41 0.0008093272    2.654    0.623
        29 -10.6565     76.1606    177.7163   1.3179997034e+02   2.8762876430e+01    0.2490835    0.2130324 -89.71 0.0003680502    1.007    0.007
        30 -13.0372     62.7464    175.7329   1.3453979825e+02   3.1102553010e+01    0.5120658    0.2773707 -46.87  0.001606478    2.260    0.557
        31 -12.8252     46.8172    215.4364   1.4220823627e+02   2.4436478588e+01     1.028989    0.9178708  70.48  0.006726075    1.298    0.230
        32  -9.4006     96.5425    173.6091   1.2649435676e+02   2.6526788696e+01    0.2380885    0.2043834  88.10 0.0004524791    1.078    0.072
        33 -11.6875     83.8140    168.7731   1.2868032078e+02   2.9687804362e+01    0.6257824    0.5595522   0.84  0.003639011    1.538    0.350
        34  -9.2335     94.2059    167.9727   1.2609984723e+02   2.8221156076e+01    0.2819616    0.1931279  52.59 0.0006242964    1.462    0.316
        35 -12.7326     31.8118    233.1044   1.4629761489e+02   2.2694485530e+01    0.2922177    0.2331815 -73.66 0.0007749571    1.450    0.310
        36  -9.9518     96.8186    152.7150   1.2273169511e+02   3.1373449096e+01    0.3133883    0.2943432  -3.57 0.0008041749    1.311    0.237
        37  -9.0652     99.9024    148.3574   1.2111732331e+02   3.1878225852e+01      0.19309    0.1821156  52.87 0.0004183458    1.134    0.118
        38 -11.8735     85.2482    151.7043   1.2542791721e+02   3.3488876770e+01    0.3057612    0.2419255 -49.01 0.0004659976    1.301    0.231
        39 -12.0956     67.4109    143.5841   1.2848991508e+02   3.8020890885e+01     0.675772    0.4383898  68.55  0.002650677    1.882    0.469
        40  -9.7771    109.0283    137.4172   1.1651816403e+02   3.2830638925e+01    0.4458322     0.292606 -20.62  0.001597133    2.594    0.614
        41 -10.3783     95.9840    134.7413   1.1933612421e+02   3.5759080153e+01    0.2487023    0.2176973 -37.64  0.000390523    1.228    0.186
        42 -11.0726     28.7305    130.2429   1.3629170722e+02   4.5519116599e+01    0.3361931    0.1762573  48.93  0.001348294    2.259    0.557
        43 -12.0674     21.2585    126.2448   1.3764056452e+02   4.7077674048e+01    0.4554989    0.2793573  57.90  0.001109146    1.965    0.491
        44  -8.9916     77.2849    130.1552   1.2336223857e+02   3.9800109663e+01    0.2753387    0.1690248  64.34  0.001218959    2.223    0.550
        45  -9.6671     84.1176    126.5120   1.2075116758e+02   3.9620079283e+01    0.3145473    0.2158356  68.69   0.00125124    1.904    0.475
        46  -8.8355    106.2727    123.9997   1.1420235427e+02   3.6450787237e+01    0.1974912    0.1768135 -56.63 0.0003233671    1.057    0.054
        47  -9.8566    168.0692    113.2174   9.6163539177e+01   2.5674438181e+01    0.3116034    0.2613212  82.10   0.00072123    1.357    0.263
        48  -9.9878     42.3280     96.9801   1.2641872299e+02   5.1738800900e+01    0.4408952     0.211489  51.09  0.001900713    3.266    0.694
        49  -9.7860    242.3389     93.3201   7.7592778946e+01   1.2184419576e+01    0.1381471    0.1123925  10.81 0.0001861627    1.713    0.416
        50  -9.6886    158.0463     76.7268   8.8433367593e+01   3.5122647412e+01    0.2198994    0.1965589  55.62  0.000604417    1.099    0.090
        51  -9.2129     47.8871     70.1664   1.1792650251e+02   5.6739159013e+01    0.2666628    0.1433182  48.14   0.00119665    2.815    0.645
        52 -11.8123      7.3274     52.7336   1.2773799510e+02   6.3524876309e+01    0.3001678    0.2347229 -41.76 0.0005540982    1.062    0.058
        53 -10.5702    161.2944    249.5781   1.2448046746e+02   9.1353208815e-02    0.2528422    0.1009533  45.39  0.001028976    2.088    0.521
        54 -10.1147     81.8202    249.1271   1.3899875492e+02   1.3037690143e+01    0.1934678    0.1303517  69.06 0.0009016553    1.246    0.197
        55  -8.9973     66.9850    250.4847   1.4168871147e+02   1.4903981247e+01    0.1684049    0.0942663  47.76 0.0004845895    1.535    0.348
        56 -11.7740      2.9973     23.3474   1.2062043152e+02   6.8850912586e+01    0.3680827    0.1616581 -39.58  0.002263892    1.656    0.396
