#   1 NUMBER                 Running object number                                     
#   2 MAG_AUTO               Kron-like elliptical aperture magnitude                    [mag]
#   3 X_IMAGE                Object position along x                                    [pixel]
#   4 Y_IMAGE                Object position along y                                    [pixel]
#   5 X_WORLD                Barycenter position along world x axis                     [deg]
#   6 Y_WORLD                Barycenter position along world y axis                     [deg]
#   7 A_WORLD                Profile RMS along major axis (world units)                 [deg]
#   8 B_WORLD                Profile RMS along minor axis (world units)                 [deg]
#   9 THETA_WORLD            Position angle (CCW/world-x)                               [deg]
#  10 FWHM_WORLD             FWHM assuming a gaussian core                              [deg]
#  11 ELONGATION             A_IMAGE/B_IMAGE                                           
#  12 ELLIPTICITY            1 - B_IMAGE/A_IMAGE                                       
         1 -12.5281      1.6851     25.8160   7.7257364895e+01   6.9032281779e+01    0.5216496    0.2075303 -63.25  0.002396592    2.978    0.664
         2 -15.0430    246.0530     11.3532   1.0327385324e+01   2.1435219236e+01     1.897946    0.8918474 -38.23  0.009400852    1.932    0.482
         3 -12.8768     15.7225      6.9651   6.2987550165e+01   7.1155774577e+01    0.4209105    0.2321263 -22.10  0.002589175    1.566    0.361
         4 -13.7624      6.2809     10.8422   6.9516478550e+01   7.1298497228e+01    0.8411291    0.3996878 -38.85  0.005187492    1.567    0.362
         5 -12.6864     10.5637      2.0757   6.3378398200e+01   7.2305526969e+01    0.7850264    0.1824314  24.69  0.003231844    4.909    0.796
         6 -12.6248     19.7261     14.2089   6.4215708916e+01   6.9706170160e+01    0.4026549    0.1443076 -34.27  0.001952649    2.435    0.589
         7 -12.7111     25.5561      3.9374   5.6649365857e+01   7.0619227365e+01    0.4445215    0.2146274 -20.83  0.002423288    2.055    0.513
         8 -12.3336     13.2321     12.7229   6.6779239957e+01   7.0486920455e+01    0.3143222    0.1390192 -36.93  0.001469332    1.756    0.431
         9 -14.0581     12.0981     23.3768   7.1516389767e+01   6.8814905974e+01    0.6982244    0.2488103 -38.90  0.003547294    2.192    0.544
        10 -10.9340     41.2665      2.8571   4.8868650079e+01   6.8838848568e+01    0.2364699    0.1256975  13.44  0.001247551    2.138    0.532
        11 -11.8871      2.1900    221.0502   1.0201354615e+02   2.8292747426e+01    0.3647149    0.1433947  89.94  0.001727896    2.158    0.537
        12 -12.9860    247.9462    215.1754   5.4969500244e+01  -8.6908383244e+00    0.5771815    0.2596863 -22.25  0.002747354    2.544    0.607
        13 -12.8923    241.7091    237.7835   5.9950860653e+01  -1.0396373823e+01    0.6990293    0.3454804   5.77  0.003074546    3.372    0.703
        14 -12.7452    242.4368    246.9230   6.1305720891e+01  -1.1501378227e+01    0.6191245     0.362748   0.25  0.003694808    1.887    0.470
        15 -11.2692    249.3389    250.1039   6.0640091015e+01  -1.2819697482e+01    0.3453458    0.1496289  34.11   0.00192624    1.821    0.451
        16 -11.4934    248.6917    245.8345   6.0067334675e+01  -1.2287379715e+01    0.2740415      0.20514  -3.76  0.001130687    1.247    0.198
        17 -12.2173    247.0487    239.5800   5.9328736198e+01  -1.1383145807e+01    0.4417139    0.2539567  10.34  0.002575343    1.783    0.439
        18 -11.8981    249.5571    233.1823   5.7832916609e+01  -1.1045656146e+01    0.3679956    0.1955142 -22.32  0.002122058    1.965    0.491
        19 -11.9985    225.6134    248.4551   6.4456497311e+01  -9.1621329236e+00    0.3052884    0.1933255  19.76  0.001922834    1.386    0.279
        20 -11.2191     87.4535    250.5111   8.9573952591e+01   1.2648404945e+01    0.2435259   0.08978028  42.76  0.001212833    2.172    0.540
        21 -11.5794     74.6547    250.0413   9.1737437458e+01   1.4547604133e+01    0.4681921    0.0902061  45.71  0.001887232    3.446    0.710
        22 -12.0532     65.3935    249.0699   9.3233024742e+01   1.5977419336e+01    0.4065725    0.1719005  53.03  0.002303601    1.794    0.442
        23 -11.4295     50.6809    250.1420   9.5750724804e+01   1.7710906335e+01    0.4151368    0.1161121  45.27   0.00206943    2.566    0.610
        24 -11.5503     45.2501    245.3297   9.6328160960e+01   1.9213267278e+01    0.3799925    0.1717374  60.99  0.002069385    1.768    0.434
        25 -11.9264     36.5260    248.5666   9.7940072469e+01   1.9707927623e+01    0.4252604    0.1740966  60.38   0.00250885    1.916    0.478
        26 -11.8493     20.2195    249.0985   1.0052271635e+02   2.1467768455e+01    0.3271899    0.1540523  56.77  0.001711826    1.521    0.343
        27 -11.8688     12.0127    249.0857   1.0177040511e+02   2.2344991480e+01    0.3644731    0.1382998  53.38  0.001970282    1.852    0.460
        28 -11.3549      3.9153    250.2310   1.0302413491e+02   2.2979567907e+01    0.2489517    0.1225702  39.84  0.001724069    2.081    0.519
        29 -12.4590      3.3171    243.5317   1.0283838641e+02   2.4175975621e+01    0.4266707    0.1870165  72.66  0.002135585    1.756    0.430
        30 -12.6264    225.8738    241.0859   6.3256564593e+01  -8.3583806041e+00    0.3467553    0.2026868  -0.33  0.001883235    2.196    0.545
        31 -12.3094    107.8027    241.2664   8.5057362953e+01   1.1110682409e+01    0.3783049    0.1502706  56.47  0.001695057    2.573    0.611
        32 -12.4998     72.6954    240.7976   9.1324665338e+01   1.6403400815e+01    0.3749258    0.1754939  61.08  0.002049657    1.914    0.477
        33 -10.8915     38.5451    241.0613   9.7161254926e+01   2.0771627213e+01    0.2575145    0.1254401  71.12  0.001372323    1.781    0.439
        34 -10.6379    128.9904    240.3282   8.1031861101e+01   7.8526113550e+00    0.2156233    0.0687714  54.78 0.0007051845    4.378    0.772
        35 -11.4476     45.0700    237.5976   9.5848127228e+01   2.0596644495e+01    0.3059401    0.1350062  64.34  0.001718482    1.988    0.497
        36 -11.5427     82.1716    237.0775   8.9313183359e+01   1.5709800233e+01    0.2838679    0.1413805  62.62  0.001529387    1.898    0.473
        37 -11.9895     94.9157    236.1843   8.6904896646e+01   1.3972438451e+01    0.3186372    0.1378415  58.00  0.001529282    2.251    0.556
        38 -13.2594    231.3232    234.1546   6.1168971063e+01  -8.3913956745e+00    0.5318605    0.2588128  19.28  0.002500503    2.545    0.607
        39 -11.9574      4.7124    228.4937   1.0195885913e+02   2.6689798412e+01    0.3917412    0.1665592  69.17  0.001921426    1.872    0.466
        40 -12.4155     60.9380    232.2613   9.2704338527e+01   1.9530249718e+01    0.3662301    0.1621744  76.06  0.001728109    2.882    0.653
        41 -11.4178     39.7735    231.5005   9.6338317585e+01   2.2341865290e+01    0.2995146    0.1592002  83.72  0.001857047    1.709    0.415
        42 -11.0270     48.6300    230.8394   9.4762502080e+01   2.1379376338e+01    0.3114673    0.1362996  74.61   0.00156588    2.549    0.608
        43 -12.1467     26.0204    228.8952   9.8500786685e+01   2.4402152920e+01    0.4874254    0.2198724  87.92  0.002844955    2.053    0.513
        44 -10.7720     32.3466    229.3735   9.7464306361e+01   2.3601760187e+01    0.2331483    0.1022953  66.83   0.00120129    2.008    0.502
        45 -11.5285     13.9868    232.2106   1.0065749095e+02   2.5087128870e+01    0.3472611    0.1681583  64.07  0.002290455    1.560    0.359
        46 -11.3076     11.1192    226.1061   1.0080974796e+02   2.6489644976e+01    0.3323775    0.1435636  66.97  0.001465312    1.870    0.465
        47 -11.4633     18.6533    222.2858   9.9352733022e+01   2.6421464885e+01    0.3094612    0.1454921  80.28  0.001709329    1.853    0.460
        48 -10.6972     44.1401    221.2588   9.4850000538e+01   2.3725303774e+01    0.2329406    0.1110352  74.73  0.001251361    2.102    0.524
        49 -12.1134    238.3439    218.2203   5.7198591613e+01  -7.5547176607e+00    0.3463845     0.190497 -10.81  0.001738624    2.276    0.561
        50 -11.6515     35.1847    217.5853   9.6185126921e+01   2.5490774258e+01    0.3445543    0.1543385 -83.96  0.001902092    2.114    0.527
        51 -12.0156     12.3339    217.2183   1.0013495881e+02   2.8022345586e+01     0.390644    0.1994935  64.21  0.002202851    1.527    0.345
        52 -10.4367     24.3283    217.8092   9.8112153320e+01   2.6661605890e+01    0.1812357    0.1021366  77.01  0.001038961    1.438    0.304
        53 -11.9651      2.4020    212.8050   1.0157496669e+02   2.9815930087e+01    0.3455396    0.1541456 -89.15  0.001751036    1.818    0.450
        54 -10.9776      1.4965    206.5062   1.0140586597e+02   3.1103157919e+01    0.2130764   0.08111856 -80.76  0.001147596    2.134    0.531
        55 -10.2013     45.6423    213.3200   9.3963479600e+01   2.5073764515e+01    0.1282319   0.06568239  66.58 0.0005501174    1.761    0.432
        56 -11.0932     28.5579    212.2271   9.6999370752e+01   2.7275169519e+01    0.2363757    0.1173293  77.60  0.001259054    1.828    0.453
        57 -11.3691     20.9658    211.8402   9.8325096594e+01   2.8166982390e+01    0.2762358    0.1359186  81.91  0.001642134    1.780    0.438
        58 -12.9440     12.5442    205.0715   9.9398130716e+01   3.0340886346e+01    0.4433905    0.2301394  69.67  0.002568364    1.574    0.364
        59 -13.2550    246.9845    226.4790   5.7130065971e+01  -9.8971170416e+00     0.654027    0.3755836  -6.16  0.003621598    1.974    0.493
        60 -13.4344    234.2686    244.1644   6.2274700509e+01  -9.9933456740e+00    0.6755204    0.3521015 -15.51  0.003656332    2.411    0.585
        61 -12.5081      3.6271    197.3161   1.0053180682e+02   3.2707749584e+01     0.397431    0.1857989  77.00  0.001980888    1.810    0.448
        62 -12.4014      3.9370    188.6463   9.9963367986e+01   3.4418854855e+01    0.4611646    0.1920342  68.76  0.002508492    2.218    0.549
        63 -12.1520     17.1449    196.0125   9.7982630888e+01   3.1692888714e+01    0.3052381    0.1108472  38.94  0.001619145    2.586    0.613
        64 -11.6454     11.3836    191.2635   9.8741665723e+01   3.3211906148e+01    0.2021608    0.1095198  88.58   0.00102357    1.492    0.330
        65 -11.3354     17.1324    190.4409   9.7599742015e+01   3.2829764588e+01    0.2410974    0.1137977  82.90  0.001325798    1.949    0.487
        66 -11.9987     11.9599    183.9395   9.8136297908e+01   3.4662900214e+01    0.2837981    0.1302343 -87.64    0.0015842    1.862    0.463
        67 -11.4902      5.2133    183.2096   9.9381832998e+01   3.5418033813e+01    0.2207036    0.1111202 -87.10  0.001339233    1.586    0.369
        68 -11.8994      2.0075    178.6320   9.9700476082e+01   3.6635592607e+01    0.3992476    0.1724963  89.65  0.002208176    1.970    0.492
        69 -10.8906     16.8188    181.0106   9.6972293720e+01   3.4819266171e+01    0.1981937   0.09566007  76.70  0.001072581    1.970    0.492
        70 -12.0467      9.0789    177.8824   9.8273062888e+01   3.6185274023e+01    0.2274955    0.1510281  81.53  0.001564588    1.170    0.145
        71 -12.5705      6.2610    172.5399   9.8453609834e+01   3.7551656029e+01     0.385909    0.1337577 -82.39  0.001849908    2.502    0.600
        72 -11.1218      1.4914    170.5039   9.9264016592e+01   3.8373181179e+01    0.2347214   0.08486442 -77.26  0.001209195    2.161    0.537
        73 -11.8756      1.7570    165.4680   9.8860302190e+01   3.9415874463e+01    0.2937102    0.1266697 -85.89  0.001598717    1.921    0.480
        74 -12.5676     10.6998    167.3708   9.7163965712e+01   3.8272010247e+01     0.261434    0.1383727  71.07  0.001526653    1.750    0.428
        75 -13.5140      9.4782    156.9631   9.6579181481e+01   4.0625382974e+01    0.4734545    0.1986288 -70.74  0.002551337    1.871    0.465
        76 -12.4972      3.4058    154.1403   9.7661606561e+01   4.1718648023e+01    0.3071789    0.1508239 -73.56  0.001808579    1.581    0.367
        77 -11.6153      2.3156    143.4806   9.7019579758e+01   4.4123081148e+01    0.2247886    0.1104657 -86.50  0.001262469    1.709    0.415
        78 -12.0752      4.2262    136.8844   9.5985888541e+01   4.5440297855e+01    0.2683029    0.1106857 -78.76  0.001374724    1.967    0.492
        79 -11.6890      2.4998    127.4857   9.5493211909e+01   4.7640990451e+01    0.2508123   0.08983113 -74.67  0.001210706    2.167    0.539
        80 -11.3127    248.4921    118.9976   3.4934114439e+01   5.3029421707e+00     0.206564    0.1054378 -52.42 0.0008105274    2.570    0.611
        81 -11.7078    248.6195     97.7916   2.9999641657e+01   8.6823964594e+00    0.2117393    0.1159852 -43.01 0.0009538706    1.694    0.410
        82 -12.5404    248.5805     74.8478   2.4622005275e+01   1.2279110217e+01    0.4422499    0.1516906 -44.31   0.00161606    2.703    0.630
        83 -12.1427    248.9810     65.4858   2.2377157326e+01   1.3599199572e+01    0.2882919    0.1669567 -48.60  0.001210868    1.613    0.380
        84 -11.9650    249.1533     52.1683   1.9258184742e+01   1.5490081083e+01    0.2731541    0.1686852 -54.41  0.001137298    1.546    0.353
        85 -12.5396      3.4522     50.2449   8.3240672886e+01   6.4292830525e+01    0.4560039    0.2006087 -54.87  0.002587434    1.626    0.385
        86 -12.1403    245.3054     48.0447   1.8735711364e+01   1.6940440298e+01    0.2008459    0.1637644 -49.66  0.001006751    1.111    0.100
        87 -10.7867     16.0000     49.0045   7.7912475192e+01   6.3794970357e+01    0.1996776   0.05419216 -58.00 0.0008088349    2.987    0.665
        88 -12.4531      2.2271     40.5123   8.1307602734e+01   6.6266722870e+01    0.3861023    0.1507703 -58.88  0.001842291    1.990    0.497
        89 -12.6579    211.6505    247.2139   6.6734071929e+01  -6.8478239176e+00    0.4930078    0.2567076  18.78  0.002455361    2.402    0.584
        90 -12.2347     18.6504     30.9467   7.1203296754e+01   6.7000870808e+01    0.3271131     0.129623 -34.68  0.001610019    2.279    0.561
        91 -10.0862     25.9992    249.5148   9.9650706384e+01   2.0758096347e+01    0.1523683   0.07538822  48.96  0.001021003    1.582    0.368
        92 -12.5071     98.0191    245.0280   8.7208307967e+01   1.1990390948e+01    0.3915479    0.1891705  60.17  0.002066214    1.983    0.496
        93 -12.6344     85.0289    244.6090   8.9480180766e+01   1.3989943268e+01    0.3623322    0.1808173  57.76  0.002057055    1.678    0.404
        94 -11.0435    144.0156    246.0000   7.8925040142e+01   4.4800517963e+00    0.2131589   0.05572228  42.32 0.0008078802    2.980    0.664
        95 -11.8047     26.1215     16.5452   6.2171062626e+01   6.8740875912e+01    0.2509994    0.1158034 -29.29  0.001329239    1.970    0.492
        96 -12.2288     57.1654    242.4798   9.4140222545e+01   1.8201053035e+01    0.4761166     0.200026  61.09  0.002571474    2.097    0.523
        97 -12.0170     29.7308    241.0142   9.8596084331e+01   2.1806690286e+01    0.4001359    0.1973356  73.81  0.002169727    1.707    0.414
        98 -12.3720     15.8822    240.6501   1.0077979323e+02   2.3390586830e+01    0.5761533    0.1830518  52.82  0.002905053    2.234    0.552
        99 -11.8166      6.3712    236.2175   1.0205360490e+02   2.5146122720e+01    0.3213586    0.1605849  79.55  0.001564198    1.548    0.354
