#   1 NUMBER                 Running object number                                     
#   2 MAG_AUTO               Kron-like elliptical aperture magnitude                    [mag]
#   3 X_IMAGE                Object position along x                                    [pixel]
#   4 Y_IMAGE                Object position along y                                    [pixel]
#   5 X_WORLD                Barycenter position along world x axis                     [deg]
#   6 Y_WORLD                Barycenter position along world y axis                     [deg]
#   7 A_WORLD                Profile RMS along major axis (world units)                 [deg]
#   8 B_WORLD                Profile RMS along minor axis (world units)                 [deg]
#   9 THETA_WORLD            Position angle (CCW/world-x)                               [deg]
#  10 FWHM_WORLD             FWHM assuming a gaussian core                              [deg]
#  11 ELONGATION             A_IMAGE/B_IMAGE                                           
#  12 ELLIPTICITY            1 - B_IMAGE/A_IMAGE                                       
         1 -11.9986    202.2783     39.2698   4.5341115670e+01   3.0098860908e+01       1.2124    0.7654378  17.02  0.005117493    2.927    0.658
         2 -11.8415    210.4427     33.4952   4.2859662918e+01   2.8899621967e+01    0.8920258    0.7340136 -66.19  0.004178377    1.117    0.105
         3 -10.9870    217.3476     26.9037   4.0473409654e+01   2.8100785182e+01    0.5678853    0.3720886  37.17  0.001644097    2.161    0.537
         4 -10.2061      1.9286     12.9406   9.6765903994e+01   7.2601412076e+01    0.6311271   0.08724739 -49.97   0.00230828    4.506    0.778
         5 -11.7316    228.2475     15.8843   3.6850999901e+01   2.6907201821e+01    0.6938615    0.5634558 -63.71  0.002743356    1.059    0.055
         6  -8.5144     57.2709    238.9677   1.1864466482e+02   1.7771533773e+01    0.1617108    0.1252582  75.44  0.000573434    1.108    0.097
         7 -11.0249     59.2905    249.1528   1.1903750252e+02   1.5643003389e+01    0.8988587    0.3498313  31.93  0.004244472    2.954    0.661
         8 -11.4510     95.8159    246.1943   1.1196363437e+02   1.1288283183e+01    0.8171476    0.4811278  18.70  0.003969708    2.907    0.656
         9 -11.2742     82.8721    242.7407   1.1411505192e+02   1.3716586653e+01    0.6390061    0.4873939 -19.22   0.00380643    2.386    0.581
        10 -10.6524     84.7004    249.0111   1.1433800902e+02   1.2341351733e+01    0.6085272    0.2720152  32.14  0.002462124    2.409    0.585
        11  -9.4133     75.0136    250.4170   1.1626232184e+02   1.3396024904e+01     0.476012    0.1416017  37.53  0.002092441    2.854    0.650
        12 -10.2000     70.3704    247.3329   1.1686795367e+02   1.4557270915e+01     0.481553     0.220067  36.85  0.002580518    1.997    0.499
        13 -11.3396     31.2241    247.7435   1.2390658681e+02   1.9192236397e+01     1.106678      0.44904  38.32  0.006149876    2.174    0.540
        14 -12.1010     19.4651    220.8065   1.2445863507e+02   2.5587658556e+01      1.15406    0.4555444  70.76  0.005667639    2.572    0.611
        15 -13.7914      3.1420    131.8582   1.2136095961e+02   4.6813188806e+01     7.664598     1.066108 -76.61   0.01820262    8.227    0.878
        16 -11.3843     31.9150    207.8995   1.2120178855e+02   2.6956743903e+01    0.4631284     0.330506 -51.31  0.001381569    1.830    0.453
        17 -13.5636     39.0851    195.0925   1.1867652489e+02   2.8946833348e+01     3.933937     1.459792  70.14   0.01339374    4.640    0.784
        18 -10.1939     88.0592    226.9632   1.1153415859e+02   1.5962334471e+01    0.3122835    0.2222725  63.68 0.0009945545    1.291    0.225
        19  -8.5153    138.6572    230.3261   1.0157638886e+02   7.5930220396e+00    0.1322234   0.09122464  63.28 0.0007050992    1.738    0.425
        20  -8.8919     33.3106    227.3057   1.2228910728e+02   2.2838244961e+01    0.2292384    0.1101191 -72.62  0.001172334    1.968    0.492
        21 -10.4767     83.6919    226.8531   1.1240921909e+02   1.6602638011e+01    0.6047851    0.3090256 -76.17     0.002871    2.311    0.567
        22 -10.5172    120.8507    224.8084   1.0451601141e+02   1.1428089798e+01    0.3165994     0.196944  35.97  0.001702705    1.467    0.318
        23  -9.5805    164.3224    224.3394   9.5458262472e+01   4.4492924889e+00    0.1928133    0.1549327  24.20 0.0007207743    1.136    0.120
        24 -10.6739     30.3000    220.1081   1.2237877404e+02   2.4603970828e+01    0.5075189    0.2369438 -85.96  0.002760618    2.026    0.507
        25 -13.3039      5.3644    240.6652   1.2793486643e+02   2.3140165581e+01      1.90073     1.074357 -83.83   0.01333628    1.544    0.352
        26  -7.5333     93.7202    220.3101   1.0963393931e+02   1.6450318689e+01     0.129532   0.08577363  67.19  0.000278762    1.562    0.360
        27 -10.5148     40.9664    235.7796   1.2143674026e+02   2.0329784930e+01    0.2528902     0.195033  75.39 0.0004808483    1.072    0.067
        28  -8.6840     48.3120    225.0356   1.1927280234e+02   2.1570319078e+01    0.1633655    0.1268792  77.09 0.0004971738    1.074    0.069
        29  -8.2542     36.2594    223.6159   1.2148363881e+02   2.3245583017e+01    0.1715119    0.1209989  62.74  0.001156992    1.135    0.119
        30  -9.8970     23.7751    213.6434   1.2320148054e+02   2.6607805974e+01    0.3593344    0.2518187  -0.18  0.002084495    2.851    0.649
        31 -10.0449     22.6036    209.0351   1.2312604435e+02   2.7683194120e+01    0.2614262    0.1841291 -89.78 0.0006718852    1.182    0.154
        32 -10.4849     23.7799    202.9727   1.2247888514e+02   2.8845791479e+01    0.3777871    0.2508999  29.49  0.001720788    1.821    0.451
        33 -10.8969     20.7298    194.2387   1.2247779271e+02   3.1031008336e+01     0.422275    0.2220011  71.13  0.002345539    1.756    0.431
        34 -10.1560     59.9457    180.1147   1.1242559700e+02   2.9875536380e+01     0.403302     0.272793 -38.28  0.002092713    2.042    0.510
        35 -10.1571     65.4862    174.4611   1.1039118946e+02   3.0481883719e+01    0.3332359    0.2594357 -39.47  0.001003727    1.607    0.378
        36  -9.1851     37.9797    230.8813   1.2165820633e+02   2.1616353457e+01    0.2034133    0.1362461  87.44 0.0004480132    1.310    0.237
        37  -8.9646     33.8108    237.9118   1.2287307898e+02   2.0731921010e+01    0.2223319    0.1208307  73.69  0.001362666    1.624    0.384
        38  -9.8107     75.3809    164.7173   1.0655692778e+02   3.1448629165e+01    0.2923885     0.251303 -50.98 0.0007202183    1.251    0.200
        39 -11.6552     62.4437    160.8234   1.0929504022e+02   3.4139474373e+01     0.505373    0.3005496 -45.18  0.001417789    1.938    0.484
        40 -10.7943     82.2474    158.6584   1.0382769073e+02   3.1910828125e+01    0.6439192    0.5102429 -41.49  0.001553854    1.418    0.295
        41 -12.6656      9.1455    207.5184   1.2562942409e+02   2.9287043949e+01    0.8346481    0.7722534 -69.53  0.004381461    1.460    0.315
        42  -8.9825     61.7270    235.3186   1.1751327976e+02   1.7903810250e+01    0.2310873    0.1696652  83.05 0.0008014425    1.250    0.200
        43 -10.1856     73.3833    154.4209   1.0546699539e+02   3.4225706442e+01    0.4252162    0.3171998  63.45  0.002243115    1.408    0.290
        44 -10.5946     70.4712    145.5105   1.0477496818e+02   3.6818301540e+01    0.4887609    0.4092439 -27.60  0.001744792    1.447    0.309
        45 -10.9386     67.5177    142.5162   1.0508045551e+02   3.7959481300e+01    0.4872941    0.4055098  59.04  0.001544269    1.249    0.199
        46  -9.0445     96.7972    143.5739   9.7183140221e+01   3.3274839206e+01    0.2855921    0.2071664 -56.64  0.001392634    1.322    0.243
        47 -10.5314     85.2898    142.1780   1.0007748905e+02   3.5470164017e+01    0.3250721    0.2724735 -48.10 0.0006167999    1.198    0.165
        48 -10.2517     59.1759    134.7306   1.0610070074e+02   4.0968008441e+01    0.4652376    0.2002258 -72.53  0.001733427    2.711    0.631
        49  -9.0842    107.4257    131.7558   9.1735246404e+01   3.4273255548e+01     0.452464    0.2633117  44.88  0.001917375    1.786    0.440
        50  -9.8363     17.5129    130.0306   1.1725516745e+02   4.6266962707e+01    0.2311623    0.1537108  53.92 0.0007572963    1.651    0.394
        51  -8.8309     32.6310    144.1863   1.1487715395e+02   4.1539581678e+01    0.2563446    0.1644392 -48.76  0.001145469    1.625    0.384
        52  -8.7194     96.4124    127.9874   9.3995811799e+01   3.7124777760e+01    0.3052275    0.2234491 -31.11  0.001088692    1.582    0.368
        53  -7.8987    106.1923    120.2095   8.9372645382e+01   3.7249663653e+01    0.1940159    0.1744409  82.52 0.0002854043    1.235    0.190
        54  -8.3303    205.0721    110.4935   6.3358091538e+01   1.7922504094e+01    0.2191589    0.1494538  50.01 0.0008699803    1.562    0.360
        55  -8.1687     32.7763    106.2456   1.0912846400e+02   5.0797913145e+01    0.2272237   0.07016362 -55.68 0.0008852978    2.433    0.589
        56  -8.4529    244.5305     94.4947   5.3196617683e+01   1.2343815619e+01    0.1379373    0.1199984 -39.95 4.032079e-05    1.015    0.015
        57 -11.8801    119.5607    230.8345   1.0554739792e+02   1.0516835093e+01    0.8629785    0.2840149  40.14  0.003541974    2.528    0.604
        58  -7.6807     61.6517     71.6864   9.0570487148e+01   5.5561070595e+01    0.1468554   0.09838819 -18.63 0.0002523929    1.720    0.419
        59  -9.8047     13.0117     60.5885   1.0679775822e+02   6.2766385259e+01    0.2767165    0.1502394 -60.21 0.0008883785    1.530    0.346
        60  -8.1670     42.6691     60.2247   9.4368088161e+01   6.0314821079e+01    0.2163948    0.1526318  36.09 0.0007567213    1.679    0.404
        61 -10.1964    126.2985    244.5595   1.0586338145e+02   7.0745447775e+00    0.2675593    0.1893919  60.50  0.001625764    1.468    0.319
        62  -9.8709    114.2110    241.8141   1.0792237053e+02   9.3713575986e+00    0.2215511    0.2050241 -68.14 0.0008739526    1.280    0.219
        63  -8.6648    136.0300     42.8752   5.7801294215e+01   4.5955201547e+01    0.2156181    0.2061988  54.37 0.0005305037    1.043    0.042
        64 -12.0268      2.4178    178.5356   1.2523119479e+02   3.6089698963e+01      2.56016    0.3215184 -78.04  0.006923073    7.331    0.864
        65  -9.9632    119.5202    241.1262   1.0679508510e+02   8.6909591875e+00    0.2507111    0.1828934 -49.19  0.001555238    1.667    0.400
        66  -8.8052     52.9716    240.6752   1.1957118709e+02   1.7980051308e+01    0.1788505     0.137127 -76.60 0.0006138052    1.386    0.279
