#   1 NUMBER                 Running object number                                     
#   2 MAG_AUTO               Kron-like elliptical aperture magnitude                    [mag]
#   3 X_IMAGE                Object position along x                                    [pixel]
#   4 Y_IMAGE                Object position along y                                    [pixel]
#   5 X_WORLD                Barycenter position along world x axis                     [deg]
#   6 Y_WORLD                Barycenter position along world y axis                     [deg]
#   7 A_WORLD                Profile RMS along major axis (world units)                 [deg]
#   8 B_WORLD                Profile RMS along minor axis (world units)                 [deg]
#   9 THETA_WORLD            Position angle (CCW/world-x)                               [deg]
#  10 FWHM_WORLD             FWHM assuming a gaussian core                              [deg]
#  11 ELONGATION             A_IMAGE/B_IMAGE                                           
#  12 ELLIPTICITY            1 - B_IMAGE/A_IMAGE                                       
         1 -10.5103    165.5213      3.8412   4.7729778620e+01   4.2661570661e+01     0.536622    0.1905376  47.06  0.001852116    2.975    0.664
         2  -9.9046    118.7687    244.9112   1.1248468485e+02   1.3502965435e+01    0.2749575    0.1100094  37.19   0.00110639    1.831    0.454
         3  -9.7886    185.7766    249.1334   1.0176187826e+02   4.4731678264e+00    0.2297228    0.1299051   7.01  0.001444232    2.366    0.577
         4 -16.8778     56.6235    237.6238   1.2273242419e+02   2.1779154927e+01     2.725197     2.030097  25.33  0.007880502    1.616    0.381
         5 -13.0993    124.4028    224.4315   1.0955639556e+02   1.5492696148e+01    0.6623617    0.5524303  48.04  0.002954572    1.137    0.120
         6  -9.1813     18.4959    226.5073   1.2886547550e+02   2.7243794985e+01    0.1720338    0.1437323  75.36  0.001558548    1.292    0.226
         7 -10.7586    146.5270    223.7637   1.0548636099e+02   1.2573538665e+01    0.4196385    0.1634323  46.43  0.002131275    2.378    0.579
         8 -11.2066    148.0099    219.9857   1.0477938813e+02   1.2860915763e+01    0.3552144    0.1727991  35.41    0.0020658    1.628    0.386
         9 -12.0979    123.1620    218.2073   1.0913575850e+02   1.6537255357e+01    0.3854451    0.2871619  -7.52  0.001532861    2.000    0.500
        10 -10.8643    220.2975    220.6140   9.2556362634e+01   2.7670365604e+00    0.7168772    0.2206145  27.03  0.002733842    4.596    0.782
        11 -11.2764    214.2670    218.8598   9.3265296186e+01   3.7497120364e+00    0.3213042    0.2023927  44.65  0.002129172    1.817    0.450
        12 -10.1336     15.3345    229.8841   1.2951429987e+02   2.6994244094e+01    0.3105678    0.1731756  33.41  0.002323489    1.675    0.403
        13 -12.0009    191.7425    217.8629   9.6840596688e+01   6.9615813542e+00    0.4331161    0.3608087  19.99  0.003306106    1.153    0.133
        14 -10.6835    134.1619    218.3488   1.0711577944e+02   1.5008517519e+01    0.1632913    0.1489252 -13.90 0.0008381524    1.354    0.261
        15  -9.2822      8.5457    214.6485   1.3024821949e+02   3.0037717396e+01    0.2054233   0.07031003  82.43  0.001142465    2.838    0.648
        16 -12.2808    207.7412    212.8751   9.3457348641e+01   5.2668318440e+00    0.6543482    0.2662686  42.48  0.003468597    2.266    0.559
        17 -11.3112    153.6430    208.9892   1.0238702912e+02   1.3527186872e+01    0.3016633    0.2070169 -36.43  0.002001313    1.790    0.441
        18 -10.6870    159.8490    211.0683   1.0152123335e+02   1.2347955778e+01    0.2583174    0.1887558 -82.62  0.001536711    2.725    0.633
        19 -10.9257    199.3002    207.4350   9.4063929735e+01   7.0624372874e+00    0.2439239    0.1754448  36.42  0.001693496    1.285    0.222
        20 -10.4397    194.6812    206.3537   9.4691275736e+01   7.8550777570e+00    0.2115584    0.1227201  43.68  0.001277128    1.683    0.406
        21 -10.9145    125.7212    203.4047   1.0698496648e+02   1.8372698033e+01    0.2783092     0.144842  50.44  0.001530802    1.854    0.461
        22 -15.9176     38.4389    220.8446   1.2510106889e+02   2.6260708694e+01     2.469977      1.50021 -89.64   0.01833899    1.665    0.399
        23  -9.9440    232.7160    199.1341   8.7307190019e+01   3.2058505671e+00    0.1578408    0.1335018 -15.14  0.001095975    1.449    0.310
        24 -12.6860    134.5363    210.8094   1.0617730774e+02   1.6020340121e+01    0.6479537    0.3539362  46.84  0.003844265    1.611    0.379
        25 -11.2530    144.3747    241.0407   1.0773401123e+02   1.0707835657e+01    0.3658655    0.2953287   6.92 0.0008888602    1.433    0.302
        26 -10.0749    152.1682    197.2119   1.0108024680e+02   1.5394718080e+01    0.1639808    0.1292086  52.88  0.001087539    1.370    0.270
        27 -11.1581    200.2731    194.0186   9.1824991647e+01   8.4837011827e+00    0.3125786    0.2059871 -29.76  0.002002235    1.675    0.403
        28 -10.0646    150.1457    238.4593   1.0647809187e+02   1.0259464631e+01    0.3407936    0.2604879  65.96  0.002553785    1.818    0.450
        29 -10.9447    110.0877    246.5921   1.1411077603e+02   1.4361733051e+01     0.377707    0.2836064   3.44  0.002416131    1.978    0.495
        30 -11.5974     78.6384    184.2581   1.1449998503e+02   2.8065359067e+01    0.3257183    0.1768284  35.67  0.001327928    1.669    0.401
        31 -10.7294    114.2980    230.7996   1.1200433751e+02   1.5938501047e+01    0.2571794    0.1644494 -60.95  0.001264364    2.051    0.513
        32  -9.5418     17.7377    182.4393   1.2730186888e+02   3.4982130484e+01    0.1290726   0.09851153  25.14 0.0009452456    1.603    0.376
        33  -9.7362    109.2464    239.7435   1.1368916879e+02   1.5363788334e+01     0.253206    0.1544509  34.94  0.001048599    1.313    0.238
        34 -11.2401     83.1615    177.6238   1.1282127492e+02   2.8712015567e+01    0.2630134    0.1903906  50.39  0.001423305    1.182    0.154
        35 -11.5896     78.7018    173.9827   1.1341072094e+02   2.9992115378e+01    0.3528609    0.1772006  42.76  0.001884264    1.699    0.412
        36 -10.7376    131.8013    238.3859   1.0963487778e+02   1.2670264359e+01    0.4242684    0.1780109  49.93  0.002317047    2.401    0.583
        37  -9.3029      4.3316    170.5053   1.2962576137e+02   3.8389007544e+01    0.2087472    0.1079985  88.59  0.001320139    1.646    0.393
        38 -11.1279    137.3849    237.2451   1.0855204802e+02   1.2085688349e+01    0.3300289    0.1712008  25.66  0.001797291    2.016    0.504
        39 -10.2630    125.0612    166.6047   1.0211877143e+02   2.4587238482e+01    0.3063508    0.2469004 -17.78  0.001834103    1.575    0.365
        40 -11.1894     80.9009    144.0486   1.0912050505e+02   3.5776882247e+01    0.4015885    0.3019086 -84.74  0.001815969    1.380    0.275
        41 -12.1706     56.7669    128.2030   1.1328872352e+02   4.2443136811e+01    0.6438085    0.3918967 -45.28  0.003311728    1.981    0.495
        42 -11.7655    116.8909    120.8721   9.5692240186e+01   3.4903303737e+01    0.6436096    0.5743302 -57.86  0.003680208    1.147    0.128
        43 -11.7459    244.7780    102.2602   6.6107487604e+01   1.2358414445e+01    0.6490046    0.4491595  -4.05  0.003657363    1.369    0.270
        44  -9.7945      1.6752    110.6744   1.2736404195e+02   5.1437034991e+01     0.207033   0.08929117 -76.18  0.001002552    1.867    0.464
        45  -9.9349    160.0428     99.6900   8.0187266784e+01   3.0308876523e+01    0.2157897    0.1965709  32.31  0.001173104    1.088    0.081
        46  -9.9267     47.8802     98.6598   1.1144198154e+02   5.0430656780e+01    0.2799878    0.1232189 -53.93   0.00122846    2.106    0.525
        47 -10.2617     37.9202     98.0351   1.1462187001e+02   5.1635891379e+01    0.2817906    0.2042091  10.30  0.001586322    1.822    0.451
        48 -10.2493    124.6853    243.1126   1.1130961573e+02   1.2986059751e+01    0.3088565    0.2059439   8.64   0.00205226    2.241    0.554
        49 -10.2864     84.3080     81.6756   9.5551883407e+01   4.9317743733e+01     0.395091    0.2799218  10.81  0.001816825    2.042    0.510
        50 -10.5560      4.7507     65.4962   1.2209420126e+02   6.2044697408e+01    0.3668158    0.1935268  74.03  0.001867235    2.061    0.515
