#   1 NUMBER                 Running object number                                     
#   2 MAG_AUTO               Kron-like elliptical aperture magnitude                    [mag]
#   3 X_IMAGE                Object position along x                                    [pixel]
#   4 Y_IMAGE                Object position along y                                    [pixel]
#   5 X_WORLD                Barycenter position along world x axis                     [deg]
#   6 Y_WORLD                Barycenter position along world y axis                     [deg]
#   7 A_WORLD                Profile RMS along major axis (world units)                 [deg]
#   8 B_WORLD                Profile RMS along minor axis (world units)                 [deg]
#   9 THETA_WORLD            Position angle (CCW/world-x)                               [deg]
#  10 FWHM_WORLD             FWHM assuming a gaussian core                              [deg]
#  11 ELONGATION             A_IMAGE/B_IMAGE                                           
#  12 ELLIPTICITY            1 - B_IMAGE/A_IMAGE                                       
         1  -9.4938     61.4886     27.0589   7.8628969769e+01   6.3606161584e+01    0.5918202     0.271192 -17.82  0.002213023    3.476    0.712
         2 -11.7566     80.3555     23.3476   7.0001741618e+01   6.0853199350e+01    0.5617141    0.2612016  35.81  0.002487823    2.150    0.535
         3  -9.1913     26.7628     22.3885   9.2132655043e+01   6.8781009597e+01    0.7921008    0.2565346 -38.86  0.003525771    2.560    0.609
         4  -9.3071     32.0942      6.1412   8.1720260194e+01   7.0671203191e+01    0.3052455    0.1951475  14.72 0.0003047814    1.462    0.316
         5  -8.4439    144.5863     23.4320   5.3358699004e+01   4.6270841578e+01    0.2328632    0.2147341  32.27 0.0002088801    1.086    0.079
         6  -8.4205    101.5939     18.7562   6.1500465528e+01   5.7057022814e+01     0.403917    0.1952811  15.71  0.001375883    3.876    0.742
         7  -9.0067     46.0756     20.5799   8.2209554762e+01   6.6828392658e+01     0.382385    0.1616107 -39.38  0.001816415    2.222    0.550
         8  -9.7828     31.4255     11.0989   8.4582140205e+01   7.0056357634e+01    0.4575899    0.2644295   2.22  0.001409096    1.900    0.474
         9  -9.4323     63.5879     14.5407   7.2055775705e+01   6.4995214239e+01    0.4798037    0.2593009  13.65  0.002065276    2.400    0.583
        10  -9.6659     79.2145     12.8289   6.5664093396e+01   6.2358289907e+01    0.4211754    0.2394347  51.49   0.00124905    1.804    0.446
        11  -9.0271     74.4655     13.5167   6.7590380087e+01   6.3182693915e+01    0.2886827     0.212266   0.30  0.001051245    1.272    0.214
        12  -9.7995    133.6562     13.5510   5.1996499327e+01   5.0064795757e+01     0.367135    0.2311803  63.01 0.0001444518    1.466    0.318
        13  -8.3452     96.7064     12.3194   6.0136869000e+01   5.8821986183e+01    0.3066184    0.2052065  11.16  0.001256006    1.592    0.372
        14  -8.9931    125.2214     10.1698   5.2442026235e+01   5.2460749789e+01    0.2302793    0.1987068  40.56 0.0003970826    1.046    0.044
        15  -9.9457     19.8124      8.8943   8.9531676412e+01   7.1604739291e+01    0.5203161    0.2534876   7.18  0.002685822    2.565    0.610
        16 -10.2597     13.5444      4.4216   9.0777214908e+01   7.2847460803e+01    0.3096192    0.2199153 -10.60 0.0006437766    1.133    0.118
        17  -8.7845      2.9884      7.9304   9.8553990586e+01   7.3085874740e+01    0.4452908    0.1560519 -27.88   0.00207129    2.987    0.665
        18  -7.3958    142.6546      9.7389   4.8991601432e+01   4.8183881139e+01    0.1464202   0.09010451  41.41 0.0002090389    1.599    0.375
        19  -8.9533     71.6628      8.8690   6.6371667839e+01   6.4227596039e+01    0.2172315    0.1706715  39.58 0.0003662613    1.263    0.208
        20  -7.5099     65.5026      9.4828   6.8889983177e+01   6.5271078638e+01    0.1283893    0.1045603  10.23 -2.868371e-05    1.004    0.004
        21 -10.1845    119.1928      6.8562   5.2436170196e+01   5.4215671272e+01     0.249321    0.2177999  35.90 0.0002583766    1.045    0.043
        22  -9.5357     46.7758      6.2053   7.4836749770e+01   6.8687993136e+01    0.3561753     0.225822  22.22 0.0003520392    1.444    0.307
        23  -8.8392     41.1944      5.8172   7.7159671435e+01   6.9533386444e+01    0.3261276    0.1848598 -11.02  0.001611515    1.781    0.438
        24  -7.7409    155.9775      7.0748   4.5954801798e+01   4.5048467545e+01    0.2190803    0.1424831  39.22 0.0005418255    1.618    0.382
        25  -9.6572     76.6156      5.7968   6.3232991087e+01   6.3609282700e+01     0.413114    0.2598855 -16.33  0.002072741    1.575    0.365
        26  -8.8978     92.1507      5.3063   5.8340370326e+01   6.0488002019e+01    0.4002795    0.1829305  43.63  0.001864751    1.877    0.467
        27  -9.6586     84.8435      5.4107   6.0484736498e+01   6.2006281987e+01    0.2675978    0.2129776  -5.29  0.001647978    1.226    0.184
        28  -8.8584    132.6607      4.6669   4.8974738257e+01   5.1134064258e+01    0.4430338     0.137734  40.53  0.001444627    3.776    0.735
        29  -8.6567    125.3277      3.1296   4.9778713655e+01   5.3060461984e+01    0.3027467    0.1748367 -13.90  0.001487177    1.966    0.491
        30  -8.8129     57.6099      3.2406   6.8778751149e+01   6.7316515049e+01    0.2371639     0.191095   3.10 0.0006383426    1.063    0.059
        31  -8.4411    153.8252      3.3884   4.5081294569e+01   4.5925772701e+01    0.1962766    0.1064316  57.38 0.0004764008    1.585    0.369
        32  -8.9448    110.6452      2.1161   5.2410317187e+01   5.6635217752e+01    0.2502406    0.2389579 -87.92   0.00143058    1.247    0.198
        33  -7.7960    143.1778      2.1607   4.6302424131e+01   4.8723274841e+01    0.1751582    0.1501631 -77.52 0.0003273774    1.272    0.214
        34  -8.2106    104.6897      1.8963   5.3676643056e+01   5.8021267001e+01     0.259921    0.1472309  38.74 0.0008843339    1.586    0.369
        35  -7.5324      2.8827      1.3009   9.5497043119e+01   7.4149832088e+01     0.145394    0.0804108   0.03 0.0004789311    1.804    0.446
        36  -8.6472    248.2136    103.3790   5.8538812000e+01   9.0366131653e+00    0.1821047     0.136486  71.12 0.0004446625    1.687    0.407
        37  -8.4822    217.8033    250.3700   9.3314015837e+01  -7.5764454792e+00    0.1763611   0.08439457  29.43 0.0009517501    1.741    0.426
        38  -8.7127    209.9971    249.9866   9.4649729992e+01  -6.3807239230e+00    0.2241284    0.1015549  22.42  0.001030931    2.639    0.621
        39  -9.4101    171.5246    249.5143   1.0162349670e+02  -3.9998225694e-01    0.2608597    0.1686746  64.73  0.001397105    2.459    0.593
        40  -9.8058    146.9904    249.3390   1.0617684282e+02   3.4946969783e+00    0.3182554    0.2115833  34.02  0.001969554    1.305    0.234
        41 -10.4850     11.3138     94.5780   1.1768411373e+02   5.4787980885e+01    0.7178249    0.2605441 -37.45  0.002960239    3.500    0.714
        42  -6.9429    140.9832     99.0000   7.8582043333e+01   3.4505658094e+01    0.2589099   0.09074298  47.15  0.000634937    2.882    0.653
        43  -7.3597     64.4897    101.4644   1.0179642164e+02   4.8098690018e+01    0.1415401     0.125282 -50.90 0.0008093634    1.028    0.027
        44  -7.7394    129.9769     97.0000   8.0913079678e+01   3.7397817314e+01    0.2554075   0.09010581  45.70 0.0006012302    2.879    0.653
        45  -7.5325    151.1794     94.9851   7.4880194378e+01   3.2965163373e+01     0.277134    0.1929509  -6.33  0.001096114    2.116    0.528
        46  -7.9494     82.8381     94.1921   9.4099433313e+01   4.7109618336e+01    0.3213105    0.2006675 -17.28  0.001284335    2.556    0.609
        47  -8.5745     43.9586     92.0752   1.0644391883e+02   5.2736500568e+01    0.3916285    0.2174929 -26.21  0.001755747    2.496    0.599
        48  -8.1181    109.5767     90.7461   8.4872218978e+01   4.3041883223e+01    0.3688881    0.2096323  24.13  0.001363981    2.570    0.611
        49  -8.3935     96.5091     90.5097   8.8766178454e+01   4.5593298414e+01    0.3468402    0.2504933   3.01  0.001559066    1.901    0.474
        50  -8.2818     23.4766     89.4761   1.1283663831e+02   5.5157335340e+01    0.1273637    0.1033641 -62.19 0.0002125394    1.022    0.022
        51  -8.4181     66.2787     84.0973   9.6860378075e+01   5.1894760255e+01    0.2325101    0.2064893  33.31  0.000593074    1.255    0.203
        52 -10.1299     37.3554     80.9403   1.0623269953e+02   5.5965372599e+01    0.5923013     0.325876 -15.31  0.002662849    2.782    0.640
        53  -7.6383    127.0254     83.4516   7.7698934208e+01   4.0881603641e+01    0.2247804    0.1321814  24.59 0.0008077709    2.509    0.601
        54  -8.5579     88.4990     78.5102   8.7760258218e+01   4.9643157449e+01    0.4350175    0.2589702  17.95  0.001763005    2.435    0.589
        55  -9.0824     48.2127     77.6584   1.0151245969e+02   5.5599271931e+01    0.3932281    0.2181812 -18.54  0.001677655    2.762    0.638
        56  -9.8894      8.9737     76.7363   1.1552921083e+02   5.9008187809e+01    0.5646515    0.2192626 -36.06  0.002137322    2.831    0.647
        57  -7.7052    184.3050     78.0367   6.2740209223e+01   2.8039519550e+01     0.215519    0.1927574 -34.12 0.0005243713    1.113    0.102
        58  -7.4800    120.3341     76.2756   7.7315966969e+01   4.3799151156e+01    0.1561243    0.1193587  10.20 0.0005466303    1.603    0.376
        59  -7.8047    106.0152     76.4695   8.1582133384e+01   4.6770882920e+01    0.2222122    0.1931814   1.45  0.001140802    1.214    0.176
        60  -9.2897    110.1158     74.9136   7.9848134493e+01   4.6248562736e+01     0.283859      0.23341  33.78 0.0003211009    1.239    0.193
        61  -9.2047     29.0077     69.0000   1.0646026471e+02   5.9383092586e+01    0.4625289    0.2200243 -15.86   0.00187758    3.601    0.722
        62  -9.0364     23.7681     74.0977   1.0962383848e+02   5.8656332578e+01    0.4486254    0.1809933 -44.27  0.001695272    2.137    0.532
        63  -8.6607     23.7102     69.7027   1.0864850617e+02   5.9641938702e+01    0.2597042    0.2092464  60.70  0.001648456    1.634    0.388
        64  -8.3646     74.9781     74.0223   9.0935814588e+01   5.2837361691e+01    0.2140991     0.190842 -23.99 0.0003573044    1.049    0.047
        65  -8.0180    206.2861     70.3019   5.6700484554e+01   2.3888944423e+01    0.2716655    0.1881117 -18.41  0.001013283    1.708    0.415
        66  -8.1438     49.2389     71.5432   9.9482800943e+01   5.6841780014e+01    0.2371482    0.1250523  34.59  0.001139394    2.148    0.534
        67  -8.1690     80.3416     68.3157   8.7270710776e+01   5.3169789625e+01    0.4200829    0.1063365 -40.24  0.001186126    4.258    0.765
        68  -8.4400     83.6303     64.4026   8.4840058892e+01   5.3400663425e+01    0.3470537    0.2248883   1.94  0.001495339    2.262    0.558
        69  -7.5877    129.0002     69.4922   7.2739113632e+01   4.3150900742e+01    0.2210315    0.1265434  27.80 0.0008087509    2.412    0.585
        70  -7.1308     76.3023     69.3101   8.8994488614e+01   5.3622319912e+01     0.145334    0.1040766 -15.55 0.0002005843    1.606    0.377
        71  -8.1545    106.4910     67.2077   7.8403582899e+01   4.8510140749e+01    0.2876115     0.214683  -8.71  0.001286488    1.583    0.368
        72  -9.0873     18.2874     62.1386   1.0896194646e+02   6.1683126574e+01    0.4514947    0.1817796 -30.63  0.001942657    3.048    0.672
        73  -7.4671    148.3251     63.3548   6.5922793299e+01   3.9609306143e+01    0.1644879    0.1193546  16.72 0.0003011258    1.767    0.434
        74  -9.9972     62.5769     61.1373   9.1301578185e+01   5.7356341778e+01    0.6011148    0.3138688  19.61  0.000373054    2.548    0.608
        75  -8.9110     26.9170     60.3399   1.0505034570e+02   6.1436379241e+01    0.3168072    0.1807452 -33.19   0.00171803    1.678    0.404
        76  -7.6241    123.0133     60.8436   7.1468878924e+01   4.6091308693e+01    0.2641551    0.1657159  24.32   0.00107352    2.077    0.518
        77  -8.5712     11.1777     60.8802   1.1149324680e+02   6.2394063563e+01    0.1696777     0.142866 -61.73 0.0004544769    1.154    0.134
        78  -9.4015     37.4276     58.9283   1.0041629868e+02   6.0800245554e+01     0.339784    0.1858719 -23.88 0.0008068335    2.180    0.541
        79  -8.2580     96.9958     58.7472   7.8445531199e+01   5.2011791358e+01    0.2739536    0.1569486  -5.99 0.0009103276    3.607    0.723
        80  -8.0256    111.4641     58.4903   7.3920721665e+01   4.9073377942e+01    0.2729647    0.1300512  37.06  0.001025198    2.324    0.570
        81  -8.0139     49.2129     58.3692   9.5543479929e+01   5.9645054849e+01     0.173497    0.1200566  37.67 0.0009526926    1.709    0.415
        82  -9.9371     74.8963     50.4410   8.2971207850e+01   5.7541530712e+01     0.440392    0.2697864 -20.23  0.000404167    1.872    0.466
        83  -8.4144    118.3641     51.0865   6.9335020080e+01   4.8807250840e+01    0.2748374    0.2070296  53.55 0.0006362948    1.368    0.269
        84  -7.9698    106.3941     49.1601   7.2064120879e+01   5.1760660390e+01    0.3639087    0.2017114  23.91  0.001396395    2.574    0.612
        85  -8.7906     45.1750     49.0172   9.4058122562e+01   6.1990121655e+01    0.3215999     0.198471 -15.39  0.001293461    1.880    0.468
        86  -8.6372      2.5909     44.6806   1.1121354632e+02   6.6247062867e+01    0.3781811    0.2446965  68.60  0.002138734    2.681    0.627
        87  -8.6678      4.0000     39.5107   1.0920739953e+02   6.7228634512e+01    0.2998036    0.1092412 -60.09  0.001422169    2.164    0.538
        88  -8.8675      5.8097     34.2150   1.0681148843e+02   6.8182715405e+01    0.3508768    0.1510458 -26.06  0.001276432    2.435    0.589
        89  -9.1989      2.9879     31.7150   1.0740678943e+02   6.8812879532e+01    0.3624019    0.2217301 -81.19  0.001750296    2.626    0.619
        90  -8.9261     10.2339     47.3230   1.0854668012e+02   6.5312445005e+01    0.2700992    0.2185014 -19.09  0.000859306    1.264    0.209
        91  -8.8914     13.7713     45.6186   1.0652055990e+02   6.5449876932e+01    0.2204828    0.1997223 -43.45 0.0008152872    1.209    0.173
        92  -9.4057     56.8536     42.5852   8.6911438370e+01   6.1716632104e+01    0.7199056    0.3584713 -12.59  0.002354447    4.725    0.788
        93  -8.4099     92.1334     37.1589   7.1874971444e+01   5.6605080787e+01    0.3260109    0.1806876 -48.44   0.00106777    2.385    0.581
        94 -11.0118     83.1446     40.0446   7.6029021490e+01   5.7882237959e+01    0.3602547    0.2564154 -12.40            0    1.452    0.312
        95  -9.0031     87.8171     38.1247   7.3675729913e+01   5.7303789993e+01    0.2896753     0.239681  19.96 0.0006949636    1.133    0.118
        96  -7.3889    124.4680     39.4942   6.3533794384e+01   4.9165718180e+01    0.1484189    0.1343092  25.21 4.396764e-05    1.049    0.047
        97  -8.1839     74.0088     34.4689   7.7010173177e+01   6.0401117064e+01     0.295774    0.1839198   3.09 0.0008362104    2.073    0.518
        98  -9.3322     67.5745     37.7891   8.0787238092e+01   6.0940279731e+01    0.4714897    0.2249426 -44.09  0.002108194    2.196    0.545
        99  -8.6457     70.4666     35.5071   7.8754944081e+01   6.0839076754e+01    0.2757427    0.2307149  59.43   0.00158983    1.703    0.413
       100  -8.4541     35.6852     37.6740   9.4058309091e+01   6.5185885687e+01    0.2489138     0.145261 -42.97   0.00107607    1.442    0.306
       101  -8.8948     38.7721     35.4267   9.1818954152e+01   6.5264600467e+01    0.3681312    0.1815075  21.08  0.001831402    2.305    0.566
       102  -9.6237     19.9328     36.3346   1.0080265615e+02   6.6857812703e+01    0.4250475     0.379053  39.30  0.002179024    1.559    0.359
       103  -8.0075    106.2206     36.5942   6.7358152205e+01   5.3741572539e+01    0.2100427    0.1212995  39.56 0.0005611316    1.678    0.404
       104  -8.7500     56.1459     35.6192   8.4434930308e+01   6.3033493451e+01    0.3301987    0.1866598  10.69 0.0008166672    2.387    0.581
       105  -9.4719    197.2287    249.3961   9.6872598126e+01  -4.3810188857e+00     0.220796    0.1472583  33.92  0.001406353    1.180    0.152
       106  -8.8566     21.9841     32.0430   9.8306935226e+01   6.7502680613e+01     0.271957    0.1835091  16.14  0.001263069    1.620    0.383
       107  -8.3272     42.8124     27.7975   8.6885328542e+01   6.6109838939e+01    0.2517284    0.1538776  12.02 0.0006198117    1.781    0.438
       108  -9.8382     69.2937     25.8576   7.5073883104e+01   6.2502907861e+01    0.3319129    0.2720909  11.72  0.002039471    1.082    0.076
       109  -7.6105    109.4966     26.0139   6.2297433416e+01   5.4432916087e+01     0.196046    0.1087292 -49.65 0.0008102413    2.550    0.608
       110  -9.3267    193.4097    247.1953   9.7253516235e+01  -3.5115597157e+00     0.188505     0.162277 -89.03  0.001248675    1.971    0.493
       111  -9.7878    184.1376    249.3716   9.9269337508e+01  -2.3564827320e+00    0.3276652     0.122225  37.37  0.001471563    2.141    0.533
       112 -10.2344    114.2473    247.5126   1.1208084844e+02   8.8504221633e+00    0.2079873    0.1855604  62.39 0.0003448363    1.162    0.140
       113  -8.1170      3.0505     25.2811   1.0529367575e+02   7.0031192771e+01    0.1529404    0.1156817 -30.53 0.0002459095    1.093    0.085
       114 -10.1486    160.4933    243.6356   1.0291036857e+02   2.1936910737e+00    0.3096393    0.1706501  23.99  0.001546232    2.194    0.544
       115  -7.5438    129.2043     22.5642   5.6205047917e+01   5.0198554779e+01    0.2058265    0.1156527  47.46 0.0007163801    1.613    0.380
       116  -9.0370     92.3279     20.6958   6.4996640885e+01   5.8808860918e+01    0.3311716     0.213598  20.37  0.001455558    1.647    0.393
       117  -8.4299    140.2367     20.0382   5.3021269512e+01   4.7746359275e+01    0.2388569    0.1809471  55.36 0.0005118202    1.193    0.162
       118  -8.7586    193.0299    242.4921   9.6636324419e+01  -2.8340711415e+00    0.1715351    0.1484364   3.87 0.0005377636    1.196    0.164
       119  -8.7524     13.9924     17.9388   9.6780140849e+01   7.0643705864e+01    0.3652724    0.1792849   0.27  0.001831208    2.504    0.601
       120  -8.4483    167.3123    242.3206   1.0144108021e+02   1.2901826289e+00    0.1214794   0.08602937  13.61 0.0004272197    1.651    0.394
       121  -7.2923    239.2544    235.9935   8.7259975831e+01  -8.9977243064e+00    0.1346241   0.09091885 -21.61 0.0004386231    1.494    0.330
       122  -9.3827    188.0552    234.1969   9.6326779506e+01  -9.0040265171e-01    0.2497462    0.2097769 -40.38  0.001191573    1.486    0.327
       123  -7.5332    166.6424     17.7341   4.7725542578e+01   4.1248014082e+01    0.1479938   0.09556986  42.27 0.0004005847    1.634    0.388
       124  -8.2342    127.6437     16.8508   5.4431181903e+01   5.1205347592e+01     0.227174     0.167985  47.81 0.0003232783    1.210    0.173
       125  -7.0871    189.2940     16.3135   4.4205938829e+01   3.5581237179e+01    0.1371776    0.1002747  38.51 0.0007007782    1.596    0.374
       126  -8.1740    226.6229    224.0897   8.7504644198e+01  -5.6592090059e+00    0.1856914    0.1404024  29.73 0.0005661611    1.203    0.169
       127  -8.7319    225.0572    206.3174   8.4642911548e+01  -2.9973048618e+00    0.2556155    0.2045377  42.48 0.0008167902    1.442    0.306
       128  -8.3002     11.8246    206.9751   1.2789070166e+02   2.9508655974e+01     0.169024    0.1016513 -58.93  0.001078726    2.026    0.506
       129  -9.2495      7.6536     19.5578   1.0080322016e+02   7.0805798597e+01     0.332299    0.2243481   6.10  0.001652969    1.560    0.359
       130  -7.6167    136.7925    200.0972   1.0144762061e+02   1.3625459926e+01     0.164118    0.1113852 -56.54 0.0005708643    1.661    0.398
       131  -8.6544     87.9380     12.8578   6.2914792498e+01   6.0613694288e+01    0.2110183    0.1549332  25.27 0.0005594934    1.232    0.188
       132  -7.5293    244.0477    198.7948   7.9808043070e+01  -4.9938005436e+00    0.1618791   0.09136771  36.70 0.0005416167    1.696    0.410
       133  -8.7230    214.1934    196.1928   8.4798850364e+01   3.3300985438e-01    0.2115572    0.1759182   9.44 0.0002838588    1.054    0.052
       134 -10.3355    182.3438    187.3434   8.9488414754e+01   7.6011541557e+00    0.2531226    0.2326027  24.90 0.0002650908    1.042    0.040
       135  -8.6432    203.0881    171.2389   8.2015133732e+01   6.4797967288e+00    0.2214837    0.1897379 -18.16 0.0002577725    1.139    0.122
       136  -7.9955    189.4809    169.0527   8.4347535799e+01   9.5393101717e+00     0.211992     0.141986 -37.04 0.0004902305    1.535    0.348
       137  -8.5305     68.1335    167.3315   1.1236884424e+02   3.1770605882e+01     0.215203     0.177428  78.07  0.000223872    1.097    0.088
       138  -7.2364    131.3122    164.2694   9.6503236645e+01   2.2054196317e+01    0.1415585    0.1171811   1.82 0.0002461704    1.548    0.354
       139  -7.3965    133.6829    147.6445   9.2558151860e+01   2.5288762029e+01    0.1567381     0.121952  -9.31 0.0007045587    1.748    0.428
       140  -9.2172     67.4648    144.7870   1.0924214459e+02   3.7209735292e+01    0.4385967    0.2905416  74.58  0.002169018    1.741    0.426
       141  -7.7096     55.5111    134.5178   1.1082860128e+02   4.1223681804e+01    0.1365418    0.1183307 -79.45 -8.498554e-06    1.016    0.016
       142  -7.9755    132.8253    124.4216   8.7444599976e+01   3.0715115572e+01    0.2208602    0.1495128  30.35 0.0009383276    1.687    0.407
       143  -8.2998     10.3246    120.3333   1.2134898305e+02   4.8825818971e+01    0.1263723   0.07306801 -49.53 0.0007050924    1.710    0.415
       144  -7.5165     99.3736    119.3239   9.5373417283e+01   3.8409720244e+01    0.1570767    0.1179671 -15.09 0.0007030031    1.818    0.450
       145  -7.8173    119.9443    118.5631   8.9429781900e+01   3.4697376086e+01    0.2179667    0.1387083  16.22 0.0008070168    2.539    0.606
       146  -7.6316    205.7121    117.0525   6.9018734047e+01   1.5827303812e+01    0.2136291    0.1895564 -28.87 0.0004255114    1.077    0.071
       147  -7.2180    159.3387    117.2808   7.9011510166e+01   2.6439242424e+01    0.1612914    0.1255872  10.27 0.0004228736    1.623    0.384
       148  -9.2862      3.1164    109.2016   1.2209487923e+02   5.1863425363e+01    0.4174496    0.1531377 -36.31  0.001701556    4.071    0.754
       149  -8.2739    133.8130    107.1713   8.2723226658e+01   3.4351386229e+01    0.4698823     0.200152 -39.13  0.001591229    2.484    0.598
       150  -7.8730    124.5122    106.9960   8.5180561126e+01   3.6384891372e+01    0.3353651    0.1939213  26.32  0.001236102    2.419    0.587
       151  -9.6563     14.3421    105.4228   1.1831836651e+02   5.2062203575e+01       0.4067    0.1733174 -39.20  0.001848821    2.819    0.645
       152  -7.7247    109.4870    106.4583   8.9264102388e+01   3.9543537830e+01    0.1529781    0.1469032 -34.01 0.0002847562    1.031    0.030
