#   1 NUMBER                 Running object number                                     
#   2 MAG_AUTO               Kron-like elliptical aperture magnitude                    [mag]
#   3 X_IMAGE                Object position along x                                    [pixel]
#   4 Y_IMAGE                Object position along y                                    [pixel]
#   5 X_WORLD                Barycenter position along world x axis                     [deg]
#   6 Y_WORLD                Barycenter position along world y axis                     [deg]
#   7 A_WORLD                Profile RMS along major axis (world units)                 [deg]
#   8 B_WORLD                Profile RMS along minor axis (world units)                 [deg]
#   9 THETA_WORLD            Position angle (CCW/world-x)                               [deg]
#  10 FWHM_WORLD             FWHM assuming a gaussian core                              [deg]
#  11 ELONGATION             A_IMAGE/B_IMAGE                                           
#  12 ELLIPTICITY            1 - B_IMAGE/A_IMAGE                                       
         1 -15.5713     22.5648    132.8793   1.2067559518e+02   4.5021321183e+01     4.474163     3.419292  38.04   0.02725528    1.525    0.344
         2 -12.0170    197.0064     27.6064   4.8860112702e+01   3.2147781344e+01    0.8773673    0.7647576   2.49  0.001347659    1.304    0.233
         3 -12.1593    189.0833     37.6919   5.3007828724e+01   3.2928676473e+01     1.506091     0.967936 -27.33  0.006944033    1.533    0.348
         4  -9.3825      2.1418     13.5846   1.0389383537e+02   7.3457616725e+01    0.2029655    0.1050734 -49.03  0.001212801    1.411    0.291
         5 -10.8834      6.2749      7.5681   9.8556736307e+01   7.4296531446e+01     0.350637    0.2814114 -73.39  0.002391054    1.861    0.463
         6  -9.8155    212.0193      7.7738   4.1515273076e+01   3.0519516609e+01    0.2679569    0.2075932 -76.56 0.0008058966    1.240    0.194
         7  -7.1577    136.2952      8.6568   5.1152268943e+01   5.0159297909e+01    0.1478099    0.1034588 -56.64 0.0002759003    1.664    0.399
         8 -10.1559    219.1080      2.3683   3.9453276893e+01   2.9304889352e+01    0.6525478    0.2936939  81.03  0.002841266    2.283    0.562
         9  -9.6956     14.4921      1.9967   9.0353124094e+01   7.4544129915e+01    0.1698841    0.1550453 -17.39  0.001195159    1.357    0.263
        10 -12.4734     58.0359    224.8887   1.2097688317e+02   2.1923222360e+01    0.3475153    0.2428422  56.22  0.002086893    1.116    0.104
        11 -11.5515    247.7701    192.6180   8.1735392534e+01  -2.5997629676e+00    0.9089625     0.464103 -18.71  0.004822822    2.007    0.502
        12 -13.0542    244.4942    233.5759   8.9185487482e+01  -6.5534794709e+00     2.520039      1.03216 -26.06   0.01397817    2.631    0.620
        13 -17.1796     31.7877    245.8717   1.2661684708e+02   2.1387440831e+01     2.070379     1.546914  21.94   0.01552576    2.265    0.558
        14 -17.5164     17.5059    237.5555   1.2852972369e+02   2.4243728531e+01     1.901499     1.322491  42.79   0.01529725    1.515    0.340
        15 -11.1532     55.1310    217.3742   1.2096077780e+02   2.3622466711e+01    0.2245428    0.1049336 -80.41  0.001262443    2.203    0.546
        16 -10.4430     51.1974    215.2403   1.2152725967e+02   2.4486224955e+01    0.3028527    0.1226065  60.30  0.001569983    2.254    0.556
        17 -12.6415     73.2124    249.3789   1.2008008524e+02   1.5980576250e+01    0.4057707    0.2101305  28.65  0.002250216    2.814    0.645
        18 -11.0071     60.7363    209.0653   1.1927471982e+02   2.4468631437e+01    0.1519151    0.1175611  71.37 0.0002477894    1.037    0.036
        19 -10.3477     17.6826    201.3442   1.2682327438e+02   3.0755205529e+01    0.2574897   0.09537743  62.40  0.001360211    2.290    0.563
        20 -10.4367    234.3330    198.5653   8.5010006220e+01  -1.2379772343e+00    0.4682992    0.2401148  36.44  0.002551092    1.735    0.424
        21 -10.7456     29.0188    198.9575   1.2457020016e+02   3.0073704123e+01    0.1216722   0.08915407  73.80 0.0008724486    1.013    0.013
        22  -8.1638     90.2593    196.9089   1.1227693754e+02   2.2787456182e+01     0.151053    0.1338649  80.37 0.0001957099    1.120    0.107
        23  -8.0799     49.9136    197.2445   1.2040936897e+02   2.8075598896e+01      0.24836    0.1375813  15.08  0.001030651    4.817    0.792
        24 -10.5072     20.8396    196.8787   1.2599056301e+02   3.1314551837e+01    0.1222919   0.08612313  69.79 0.0002595109    1.056    0.053
        25 -10.4710     26.5826    194.7920   1.2477345526e+02   3.1147812898e+01    0.2193869    0.1085747  80.48  0.001267646    1.797    0.443
        26  -9.5212     24.5229    191.5473   1.2496727879e+02   3.2005042328e+01    0.1556257   0.08572198  84.11 0.0002488159    1.523    0.343
        27 -11.7473     77.1497    244.8383   1.1909811206e+02   1.6188440249e+01    0.1762093     0.122236  67.76 0.0003384001    1.212    0.175
        28  -7.7288    220.9781    192.6679   8.6215792126e+01   1.6514905284e+00    0.1718405    0.1361864  24.46 0.0004462081    1.096    0.088
        29 -10.4007     12.0680    191.3014   1.2734147563e+02   3.3256261066e+01    0.1493425   0.07668409  75.62 0.0008388924    1.567    0.362
        30  -8.5824    222.0588    187.9810   8.5169147825e+01   2.0947051969e+00    0.1871079    0.1552705  10.23            0    1.014    0.014
        31  -9.8936     10.1541    185.9620   1.2742505918e+02   3.4501057806e+01   0.09452489   0.06702126  72.68            0    1.045    0.043
        32  -9.4309     32.7533    182.9332   1.2273881128e+02   3.2913175276e+01   0.08590625   0.05402416  35.31            0    1.768    0.434
        33 -10.0059      9.8090    182.0805   1.2728274549e+02   3.5320792621e+01     0.137198   0.08257948 -80.36   0.00033322    1.410    0.291
        34  -9.9684    235.3636    216.1602   8.7863019443e+01  -3.4415738338e+00    0.2837733    0.1941604  43.75  0.000489223    1.647    0.393
        35  -9.3172    190.4273    179.7919   8.9392729156e+01   8.8155118250e+00    0.2210768    0.1990276  34.17 0.0004451456    1.111    0.100
        36  -9.3816     16.4118    179.1940   1.2580066057e+02   3.5314891884e+01    0.1295797   0.09426428  80.04 0.0003677278    1.027    0.026
        37 -14.9841    123.7224    225.8094   1.0907072630e+02   1.2677371054e+01     3.568969     3.285404 -78.69   0.02687116    1.283    0.221
        38  -7.6284     77.9421    178.0160   1.1267329878e+02   2.8372178891e+01    0.2264238    0.1884743 -41.36  0.001401206    1.626    0.385
        39  -9.0328     81.7845    172.8038   1.1117860027e+02   2.8926327090e+01    0.2425483    0.1981468 -44.34 0.0005312231    1.570    0.363
        40 -11.8992     74.4531    242.4906   1.1938425350e+02   1.6906903268e+01    0.1744639    0.1249714  68.49  0.001078811    1.163    0.140
        41 -12.3020     66.2550    249.7959   1.2125683822e+02   1.6782529341e+01    0.1678879    0.1435018 -81.67  0.001408552    1.456    0.313
        42  -9.5642    175.3800    172.3604   9.0927685401e+01   1.2817417987e+01    0.2904308    0.2582864 -46.37 0.0008452149    1.256    0.204
        43  99.0000      5.3901    199.4407   1.2897026016e+02   3.2270256228e+01    0.9937878    0.3433209 -65.87  0.005311899    2.909    0.656
        44  99.0000     30.3683    208.9293   1.2492624749e+02   2.8013820988e+01     1.281372    0.9383038  86.46  0.009630274    1.183    0.155
        45  -8.9543      7.1119    170.0841   1.2714990507e+02   3.8047666130e+01    0.1165987   0.08930992  76.81 0.0002932957    1.074    0.069
        46  -9.8799      1.2884    169.8271   1.2832886293e+02   3.8579283453e+01    0.1354069   0.07616525 -80.20  0.000863513    1.441    0.306
        47 -14.1296     11.5334    214.6111   1.2855450522e+02   2.8853845678e+01    0.9347911    0.6419139  45.47  0.007211161    1.446    0.309
        48  -8.4593     89.1024    163.7853   1.0828278328e+02   2.9782700465e+01    0.2252721    0.1904136  17.36 0.0007988985    1.580    0.367
        49  -9.1584     82.0994    244.1654   1.1820747880e+02   1.5652156675e+01    0.1645438   0.06016735 -66.16 0.0008657309    3.174    0.685
        50  -7.8203    126.9909    147.7347   9.6637405166e+01   2.6799448215e+01     0.187007    0.1732145  58.31  0.000292318    1.043    0.042
        51  -8.0616    106.9948    140.6437   1.0008569880e+02   3.1997297958e+01    0.2864962    0.1684409 -32.26   0.00114458    2.684    0.627
        52  -9.4498     97.7806    152.7765   1.0451886954e+02   3.0838504925e+01      0.37394    0.2879506 -51.10 0.0009959318    1.388    0.279
        53  -7.8120    104.8240    133.1798   9.9158770545e+01   3.4073055376e+01    0.2064419    0.1782077 -89.58 0.0003531282    1.162    0.140
        54  -7.5803    114.6402    131.7171   9.6361904170e+01   3.2625772313e+01    0.1439333     0.118121  -4.23 0.0007017805    1.674    0.403
        55  -7.4284    164.3262    158.2915   9.0440535924e+01   1.7456035984e+01    0.1424947     0.109195   9.06 0.0002415619    1.618    0.382
        56  -7.4249    120.4366    128.2432   9.4146651392e+01   3.2306348102e+01    0.1896982    0.1396845 -64.89 0.0003113134    1.436    0.303
        57  -8.4151    106.5116    154.2294   1.0268060544e+02   2.9062261276e+01    0.2301387    0.1785793  47.96 0.0002662715    1.249    0.200
        58 -12.2412     67.8929    144.0781   1.1051344903e+02   3.7314180173e+01     1.043815    0.5470317  62.67  0.003270039    2.268    0.559
        59  -7.1646    164.2611    124.6992   8.2964979336e+01   2.3952301055e+01    0.1453859    0.1195347 -76.27 0.0002321995    1.513    0.339
        60  -8.1798    168.5417    114.0459   7.9347872677e+01   2.5090476114e+01    0.2658912    0.2140556  70.32  0.000402463    1.473    0.321
        61  -7.4461    162.3121    112.2559   8.0243530230e+01   2.6849557048e+01    0.1509531    0.1201951  13.16 0.0002221015    1.525    0.344
        62  -9.3150    212.0010    109.3381   6.9680838412e+01   1.6145959440e+01    0.3122776    0.2116985 -36.41 0.0004318785    1.382    0.276
        63  -7.9241    117.4785    109.3443   9.0408594641e+01   3.7123200824e+01    0.2521532    0.1436229  43.46 0.0007438136    1.828    0.453
        64  -8.4770    113.0875    107.9639   9.1231434816e+01   3.8301067856e+01    0.2262686    0.2148032 -70.70 0.0004990712    1.022    0.022
        65  -8.5027    196.9420    106.8685   7.1754851890e+01   1.9942818984e+01    0.2966185     0.234413  39.86 0.0007681956    1.316    0.240
        66  -7.8827    133.4062    105.4221   8.5261316954e+01   3.4678085180e+01    0.4190134    0.2404323  76.18 0.0008860456    4.408    0.773
        67  -8.1135    180.9712    104.7711   7.4299230400e+01   2.3999919269e+01    0.2251307    0.1991897   7.81 0.0004646358    1.209    0.173
        68  -8.6114    119.3627    101.6941   8.7899172166e+01   3.8447525222e+01    0.4825838    0.2373599 -40.50  0.001123767    2.085    0.520
        69  -8.0970    123.0560     96.2808   8.5418547061e+01   3.8864399882e+01    0.2075997    0.2005474  75.79  0.000394232    1.075    0.070
        70  -8.4961    109.5800     83.9063   8.5507104418e+01   4.4348039331e+01    0.2464503    0.2167218  54.63 0.0003008887    1.221    0.181
        71  -7.5377    157.4624     82.5229   7.2921755290e+01   3.3784021358e+01    0.1573526    0.1516631 -20.38 7.339961e-05    1.030    0.029
        72  -7.7887    132.6206    149.1719   9.5610117888e+01   2.5430809450e+01    0.1923361    0.1340759 -41.16 0.0005042009    1.559    0.359
        73 -15.6922     52.6624    246.6940   1.2329483568e+02   1.8907243815e+01    0.8682716    0.4850655  37.91  0.005899928    1.752    0.429
        74  -8.0474    168.6953     71.6971   6.7214727967e+01   3.2969717209e+01    0.1583589    0.1222288  16.14 0.0002461297    1.596    0.374
        75  -9.4398    115.4612     69.1275   7.9090200230e+01   4.6180055845e+01    0.2612312     0.255127  72.26 0.0002159836    1.102    0.092
        76  -9.8449     94.0468    157.6459   1.0619832398e+02   3.0360001994e+01    0.3679341    0.2929356 -62.29  0.001095637    1.259    0.206
        77  -7.8236    211.3393     61.0402   5.6731345144e+01   2.4003758270e+01    0.2107192    0.1783634 -31.07   0.00041032    1.109    0.098
        78  -7.3953    105.0353     59.4818   7.8723431436e+01   5.0304331900e+01    0.2001359    0.1499037  45.86 2.928726e-05    1.411    0.292
        79  -7.4248     82.7687     58.9269   8.5602333647e+01   5.4762792688e+01     0.182373    0.1112408 -41.40 0.0003069353    1.494    0.331
        80  -8.7812    160.3002     56.6976   6.4089479307e+01   3.7624895000e+01    0.3207063    0.2416264  20.25 0.0004877872    1.619    0.382
        81 -12.0264    177.7617     47.6240   5.7907557394e+01   3.4499314035e+01     1.159737    0.9100753  55.25  0.003116815    1.297    0.229
        82 -12.3325     66.1611    221.5144   1.1926081304e+02   2.1505735346e+01    0.2769042    0.1747413  71.93  0.001463828    1.405    0.288
        83 -12.1543     61.6187    231.0876   1.2078222043e+02   2.0408089985e+01     0.210556    0.1307424  61.42 0.0004453285    1.251    0.201
        84  -9.3625     34.4937     26.6519   9.2124063509e+01   6.8168012195e+01    0.2199554    0.1870006 -34.64 0.0002865865    1.116    0.104
        85 -12.1693     63.4326    237.4427   1.2090900336e+02   1.9115348422e+01    0.2176896    0.1426368  64.22  0.001542141    1.187    0.158
        86 -11.9220     65.3596    234.2472   1.2035383508e+02   1.9408280095e+01    0.1625372    0.1299986  55.67 0.0005735606    1.181    0.153
        87 -13.3454     68.4460    230.7094   1.1955535528e+02   1.9616650398e+01    0.3401215    0.1966587  75.68   0.00216814    1.692    0.409
        88 -11.6124     80.9168    235.4167   1.1772604971e+02   1.7211912832e+01    0.1857544    0.1431188  49.14 0.0007259195    1.182    0.154
        89  -9.9451     74.0897    227.4418   1.1829710799e+02   1.9447983585e+01    0.1307712   0.05394154 -85.85 0.0005531257    3.851    0.740
