#   1 NUMBER                 Running object number                                     
#   2 MAG_AUTO               Kron-like elliptical aperture magnitude                    [mag]
#   3 X_IMAGE                Object position along x                                    [pixel]
#   4 Y_IMAGE                Object position along y                                    [pixel]
#   5 X_WORLD                Barycenter position along world x axis                     [deg]
#   6 Y_WORLD                Barycenter position along world y axis                     [deg]
#   7 A_WORLD                Profile RMS along major axis (world units)                 [deg]
#   8 B_WORLD                Profile RMS along minor axis (world units)                 [deg]
#   9 THETA_WORLD            Position angle (CCW/world-x)                               [deg]
#  10 FWHM_WORLD             FWHM assuming a gaussian core                              [deg]
#  11 ELONGATION             A_IMAGE/B_IMAGE                                           
#  12 ELLIPTICITY            1 - B_IMAGE/A_IMAGE                                       
         1 -15.0037    206.9898      8.4890   4.5027842982e+01   3.0948314653e+01     2.902253     1.811145  25.75   0.01368178    2.081    0.520
         2 -14.1397    186.0830     38.3632   5.6454188283e+01   3.3062322204e+01    0.9741939    0.9349222  60.29  0.003256754    1.078    0.072
         3 -14.2082    171.3137     53.0100   6.3418107930e+01   3.4894002057e+01     2.067137     1.334374  30.01  0.006206398    1.892    0.472
         4 -10.8750     72.0005    231.2978   1.1923352593e+02   2.1209852701e+01    0.1709112    0.1178166  72.57 0.0009122356    1.447    0.309
         5 -13.5102    246.2359    245.3386   9.1396728039e+01  -3.0588498649e+00    0.7475606    0.4814419   4.36   0.00610985    1.280    0.219
         6 -17.1512     49.6408    243.4634   1.2391044048e+02   2.1909213017e+01     7.840751     4.459717  25.52   0.05277741    2.124    0.529
         7 -18.9918     23.1267     99.7625   1.1917267401e+02   5.3053357160e+01     16.19306     2.183289 -73.59   0.04034109    7.160    0.860
         8 -11.8717     54.6123    211.1343   1.2116287102e+02   2.6466546242e+01    0.2723661    0.1635186  30.87  0.001769081    1.687    0.407
         9 -12.1545     70.6872    209.8670   1.1791712865e+02   2.4784460616e+01    0.2846391    0.1407971  38.17 0.0006620653    1.637    0.389
        10 -11.8692    193.2557    195.3775   9.2556821550e+01   9.0452388718e+00    0.7461652    0.4432563 -59.96  0.003233375    4.795    0.791
        11 -12.2659    202.4958    197.2443   9.1253819299e+01   7.4038578502e+00    0.4082431    0.2174959   7.30  0.001956497    2.877    0.652
        12 -10.7838    161.1177    199.7007   9.9052159080e+01   1.3487656497e+01    0.1659075    0.1567373  46.18 0.0003667597    1.267    0.211
        13 -12.6087     64.4013    197.5086   1.1820044286e+02   2.7688728022e+01    0.3221204    0.2245362 -40.08  0.001384726    2.254    0.556
        14 -12.5288    151.8150    196.2776   1.0033333440e+02   1.5423718760e+01    0.4233583    0.2883973  16.54  0.001000533    1.684    0.406
        15 -10.6527     81.5400    195.6615   1.1447826774e+02   2.5847504161e+01    0.2676456     0.205775 -46.50  0.001796511    1.741    0.426
        16 -13.2028     74.4386    183.4138   1.1479310554e+02   2.9003834731e+01    0.7044895    0.6441793 -66.19   0.00512261    1.325    0.245
        17  -9.4846     66.0217    187.4144   1.1699910334e+02   2.9328631693e+01    0.1597759   0.09587839  40.33   0.00036033    1.422    0.297
        18  -9.9527     91.6929    184.3435   1.1113448618e+02   2.6487610296e+01    0.3588148    0.1644455  63.87   0.00147368    3.410    0.707
        19 -11.1759    204.5568    175.9779   8.7326389081e+01   9.6556532225e+00    0.3125121    0.2686244  24.38  0.001161555    1.155    0.134
        20 -10.7158    196.8578    176.1947   8.8717874432e+01   1.0893312398e+01    0.2954244    0.2283443  37.84  0.001032766    1.240    0.194
        21  -9.9240    188.6706    175.3901   9.0053346804e+01   1.2363071207e+01    0.2161061    0.1485538 -28.04 0.0005844309    1.573    0.364
        22 -11.8330    153.6969    185.1108   9.8320782323e+01   1.6778144522e+01     0.283099    0.2270293 -64.00  0.001223905    1.693    0.409
        23  -8.9981     64.5388    170.4784   1.1571690670e+02   3.2775778446e+01    0.1221546    0.1006518  62.48  0.000773083    1.010    0.010
        24 -11.4516    230.2734    166.9837   8.1405892872e+01   6.5849525358e+00     0.329142    0.1427609 -40.06  0.001540998    2.950    0.661
        25  -9.9848    185.5061    169.0096   8.9502343764e+01   1.3780991421e+01    0.1767638    0.1227745 -33.22 0.0005762096    1.572    0.364
        26  -9.9953      8.3143    227.3132   1.3046313303e+02   2.8434411040e+01    0.1640964   0.08186489  39.63  0.001178408    1.547    0.354
        27  -9.4086    117.0519    161.9210   1.0246510108e+02   2.6757600129e+01    0.1507933    0.1388885  55.55 0.0005082362    1.051    0.048
        28 -11.1212      5.4392    161.8877   1.2879448053e+02   4.0575597094e+01    0.2995823    0.1471831  26.95  0.001556965    2.181    0.542
        29  -9.7861     75.7206    206.7168   1.1666174397e+02   2.4690111341e+01    0.1595849    0.1506123  44.01 0.0002872547    1.298    0.229
        30 -12.5909     98.8359    151.9493   1.0517961149e+02   3.1645770017e+01    0.5581796    0.4324995 -26.75  0.003113164    1.777    0.437
        31 -10.3785    187.8204    154.3775   8.6313146409e+01   1.5467209445e+01    0.4611949    0.1380079  43.06  0.001706549    3.044    0.671
        32 -11.7328    133.8031    145.4729   9.5793945030e+01   2.6924569796e+01     1.084183    0.2929885 -53.87  0.003023189    5.835    0.829
        33 -10.6505    174.5131    149.0877   8.7826643496e+01   1.8718325512e+01    0.2498141    0.2388398  71.09  0.000840491    1.292    0.226
        34  -9.5451    120.0049    148.9895   9.9631978227e+01   2.8714698462e+01    0.2085826    0.1656204   2.54  0.001127787    1.676    0.403
        35 -11.3140    144.1210    146.8075   9.3734346488e+01   2.4782834038e+01    0.3893891    0.2449654 -60.00  0.001860857    2.102    0.524
        36 -11.9762    109.1213    138.7299   1.0042194289e+02   3.2637181371e+01    0.5958636    0.3489693 -34.37  0.002641273    2.418    0.586
        37  -9.7255    116.0309    144.8360   9.9837810395e+01   3.0215236849e+01    0.2103443    0.1675269  67.32 0.0006630282    1.353    0.261
        38 -10.5500    113.2679    151.5823   1.0166372448e+02   2.9362307388e+01    0.2553643     0.204337  79.20 0.0005251258    1.427    0.299
        39 -12.5589     97.7392    137.7446   1.0311895963e+02   3.4753934429e+01    0.2794467    0.2508995  59.51 0.0005478427    1.030    0.029
        40 -11.5957    105.8726    130.8175   9.9761572369e+01   3.4838509824e+01    0.3590073    0.3127318 -85.68  0.001161637    1.210    0.174
        41 -11.5431    103.8095    124.9769   9.9152606686e+01   3.6433979322e+01     0.285021    0.2503833  -0.63 0.0007772327    1.405    0.288
        42 -11.0431    135.9517    127.7299   9.1696909177e+01   2.9882418884e+01    0.5845522    0.2298219 -47.28  0.002203634    2.709    0.631
        43 -10.1440    134.8981    119.9111   9.0205878504e+01   3.1603608769e+01    0.3093028    0.1523877 -47.74  0.001156127    2.142    0.533
        44 -11.0345    115.9275    129.2094   9.6886105817e+01   3.3379416019e+01    0.3103118    0.2718847  -3.34 0.0009219924    1.378    0.274
        45 -10.3111    160.4030    127.6879   8.6196197557e+01   2.5014181109e+01    0.3211013    0.2473464 -59.74  0.001656868    1.626    0.385
        46 -10.7370    120.9042    122.9434   9.4321203813e+01   3.3732344837e+01    0.4336636       0.2693 -14.23   0.00157876    3.500    0.714
        47 -12.7332     60.3727    216.9432   1.2043557980e+02   2.4837455939e+01    0.3682789    0.1969979 -89.57  0.002190558    2.175    0.540
        48 -10.2172    110.9808    118.3020   9.5864844188e+01   3.6557572946e+01    0.2178982    0.2004328 -57.51  0.000360903    1.113    0.102
        49 -10.4773    168.0154    112.8940   8.1116687157e+01   2.5988028952e+01    0.3425234    0.2702439 -71.01  0.001703835    1.745    0.427
        50 -11.6933    119.1467    110.2695   9.1889549969e+01   3.6676534911e+01    0.5670983    0.3715184  71.31  0.002411534    2.234    0.552
        51 -10.5537    134.5474    105.3575   8.6779569910e+01   3.4523852127e+01    0.4325879    0.1439191 -44.78  0.001424347    3.075    0.675
        52 -10.4915    205.3967    110.1107   7.3412520129e+01   1.8527109119e+01    0.2971553    0.1988148  40.70 0.0009405187    1.486    0.327
        53  -9.1090     79.3198    104.3011   1.0179511067e+02   4.5140996134e+01    0.1373011     0.110443 -21.66 0.0003979102    1.624    0.384
        54 -10.0022     64.3150    209.2611   1.1912832499e+02   2.5655954160e+01    0.2001041     0.136608  13.39   0.00116983    2.285    0.562
        55  -9.3846    152.7571     81.3838   7.5897146001e+01   3.4926974033e+01    0.2081847    0.1383012  41.56  0.000387455    1.547    0.353
        56  -9.4170     73.2568     73.3929   9.6046595852e+01   5.3220411970e+01    0.1878009    0.1335025  50.66  0.000382708    1.531    0.347
        57 -12.6128    166.1243     66.4114   6.8592794543e+01   3.4184362438e+01    0.8140737    0.5462362 -69.56  0.001182571    2.152    0.535
        58 -10.8479    158.2630    234.3641   1.0401082425e+02   9.4633694206e+00    0.2295742    0.1383216  41.80  0.001553298    1.322    0.244
        59 -11.1223    168.0476    232.9608   1.0216093874e+02   8.2726494092e+00    0.2146518    0.1526019  43.63 0.0007887641    1.316    0.240
        60 -13.3892    190.5854     32.1503   5.3911472051e+01   3.2652305215e+01    0.5996207    0.5052986  45.00  0.001333083    1.252    0.201
        61 -11.8278     62.4992    205.7803   1.1923041264e+02   2.6466450958e+01    0.2544032    0.2168182  40.60 0.0008280961    1.262    0.208
        62  -9.5950     95.9707     63.3095   8.5163510217e+01   5.1187741726e+01    0.2066481    0.1888428  48.55 0.0004863534    1.135    0.119
