#   1 NUMBER                 Running object number                                     
#   2 MAG_AUTO               Kron-like elliptical aperture magnitude                    [mag]
#   3 X_IMAGE                Object position along x                                    [pixel]
#   4 Y_IMAGE                Object position along y                                    [pixel]
#   5 X_WORLD                Barycenter position along world x axis                     [deg]
#   6 Y_WORLD                Barycenter position along world y axis                     [deg]
#   7 A_WORLD                Profile RMS along major axis (world units)                 [deg]
#   8 B_WORLD                Profile RMS along minor axis (world units)                 [deg]
#   9 THETA_WORLD            Position angle (CCW/world-x)                               [deg]
#  10 FWHM_WORLD             FWHM assuming a gaussian core                              [deg]
#  11 ELONGATION             A_IMAGE/B_IMAGE                                           
#  12 ELLIPTICITY            1 - B_IMAGE/A_IMAGE                                       
         1 -13.6321     43.9954     22.6539   4.0875145984e+01   6.9055023749e+01     1.167972    0.8058443 -33.86  0.006562109    1.427    0.299
         2 -11.7566     39.8253      7.7081   3.4648490753e+01   7.1949742771e+01    0.4189955    0.1877967 -28.19  0.001941399    2.373    0.579
         3 -12.5380    178.3409     23.3778   6.3731544256e+00   3.7227927673e+01    0.5530452    0.3829602 -51.58  0.002984509    1.341    0.254
         4 -12.9302    143.8829      3.9009   4.4841325067e+00   4.8022855108e+01    0.9657908    0.4608598  84.44  0.004175218    2.112    0.526
         5 -13.8835    156.5854     11.6736   5.4406239757e+00   4.4009301182e+01    0.9554809    0.6340979  66.63  0.005047486    1.385    0.278
         6 -14.7967    166.4919      4.2788   2.1158812469e+00   4.2220086916e+01     2.380293      1.01188  83.47   0.01002853    2.319    0.569
         7 -12.8310    177.9191      4.1361   1.0172101502e+00   3.9390768592e+01     0.709726    0.3887879 -57.99  0.003567521    1.713    0.416
         8 -12.5306    226.5856     15.2232   5.6531834957e-02   2.6999433834e+01       0.6266    0.3491901 -58.81  0.003501858    1.523    0.344
         9 -11.1805     78.3739     13.2865   2.1636311470e+01   6.3495126777e+01    0.3090512    0.1997645  28.26  0.001550706    1.691    0.409
        10 -12.9257    193.5407      5.9563   2.1520143213e-01   3.5436779533e+01    0.7932878    0.3432497 -68.10  0.003419252    2.473    0.596
        11 -13.3706    205.5873      4.0442   3.5885627583e+02   3.2827229870e+01    0.8971844    0.3531559  78.35  0.004088136    2.399    0.583
        12 -11.6621    231.8439      9.0575   3.5834489687e+02   2.6565764737e+01    0.4154543    0.2348767 -63.83  0.002352596    1.505    0.336
        13 -12.1331      2.5966      3.2739   5.8253675916e+01   7.7400031644e+01    0.4223206    0.2885379  10.95  0.002784063    1.411    0.291
        14 -11.7516    223.6658      4.8978   3.5790459140e+02   2.8734231391e+01    0.4208268    0.1818052 -55.71  0.002111966    1.941    0.485
        15 -10.7163     70.5697      5.6737   2.0286769072e+01   6.6063392489e+01    0.3189462    0.1502234  58.49  0.001451943    1.963    0.491
        16 -11.5164     85.5954      3.5706   1.4814249221e+01   6.2792877704e+01    0.4658661    0.2291212  58.28  0.001910253    1.731    0.422
        17 -11.2179     17.9381      2.5999   4.5304977504e+01   7.5934250149e+01    0.2619795    0.1635961 -50.58  0.001472382    2.129    0.530
        18 -12.0981    130.3496      4.1844   6.3911034809e+00   5.1492481843e+01     0.494377    0.1933652  68.58  0.002026537    2.178    0.541
        19 -11.3001    217.6894      1.8731   3.5756977341e+02   3.0339337593e+01    0.2413383    0.1532959 -83.62  0.001335117    1.405    0.288
        20 -11.7253    246.3114    192.1236   3.5064178549e+01  -1.6208938267e+00    0.3905655    0.2389586  29.69  0.002013105    1.655    0.396
        21 -10.6880    141.4751    206.5147   5.7452865155e+01   1.1612170831e+01     0.133952    0.1163452  27.56 0.0003085517    1.005    0.005
        22 -11.7780     93.8578    199.2295   6.7503879813e+01   2.0464034829e+01    0.2506993    0.1691175 -33.27  0.001239963    2.081    0.520
        23 -12.9332     80.7014    199.3574   7.0719884295e+01   2.2353231228e+01    0.5346668    0.2166906  47.75  0.002215163    2.274    0.560
        24 -11.5685    202.7131    196.9689   4.3355380316e+01   3.7096951756e+00    0.2376603       0.2155 -13.28  0.001063005    1.208    0.172
        25 -11.9874    204.5253    192.2909   4.2197437064e+01   4.1574681157e+00    0.4262663    0.2121547  25.38  0.002022427    2.183    0.542
        26 -12.0208    191.0986    195.1353   4.5240909529e+01   5.7508226962e+00     0.322412    0.2728589  60.94  0.001949892    1.712    0.416
        27 -11.0045    102.1735    192.3267   6.4564461984e+01   2.0667106948e+01     0.289084    0.1252026  27.53  0.001096908    2.617    0.618
        28  -9.7859     78.6746    189.6630   7.0085158285e+01   2.4783150314e+01    0.1336165     0.106881 -21.30 0.0007051431    1.721    0.419
        29 -12.5338    195.7806    184.7202   4.2477937087e+01   6.7061447363e+00     0.468078    0.3271884 -31.44  0.002665294    1.392    0.282
        30 -11.7897    191.0183    185.9810   4.3627581680e+01   7.2563709377e+00    0.2460155     0.186513 -14.94  0.001425408    1.304    0.233
        31 -10.6699    219.7900    185.1894   3.8185226587e+01   2.9744585939e+00    0.1828714    0.1450723 -85.02 0.0009585071    2.869    0.651
        32 -10.5272     37.3062    185.0240   8.0168267519e+01   3.1136632859e+01    0.1876824    0.1568858  77.37   0.00116524    1.071    0.066
        33 -10.2143     26.6653    180.3107   8.2523886799e+01   3.3366980944e+01    0.1428909   0.07669032  59.31 0.0005034845    1.679    0.405
        34 -11.3602    102.3985    171.9344   6.1467756579e+01   2.5156112954e+01    0.3072436    0.2053585  82.46    0.0013662    2.063    0.515
        35 -11.1634    172.8190    158.9853   4.2134187844e+01   1.5197675363e+01    0.2157544     0.155755  15.39  0.001059572    1.602    0.376
        36 -11.9796    219.4419    155.3853   3.2538671192e+01   7.6458269626e+00    0.4526362    0.3031403  52.35  0.002446678    1.914    0.477
        37 -12.3108    104.6068    154.5495   5.7888229129e+01   2.8834988858e+01    0.4866621     0.276817 -64.47   0.00203433    1.992    0.498
        38 -10.8037     20.8729    155.1614   8.2137717187e+01   4.0042367379e+01    0.2139299    0.1581333  65.16  0.001232233    1.210    0.173
        39 -10.2949    162.1867    152.1895   4.3036640848e+01   1.8525916264e+01    0.2002765    0.1798021 -88.17 0.0008914774    1.362    0.266
        40 -10.5594     53.7443    143.3946   7.0963217559e+01   3.9479216062e+01    0.2852052    0.2227604 -55.58  0.001287192    1.322    0.244
        41 -10.4771    108.3872    141.2147   5.4244565731e+01   3.1328533575e+01    0.2150823    0.1467388 -68.04 0.0009447521    1.669    0.401
        42 -12.4188     11.1013    139.7358   8.3760674203e+01   4.4739070177e+01    0.4762565    0.2387945  63.26  0.002243238    1.985    0.496
        43 -14.4646    240.1831    123.7721   2.2823551686e+01   9.1677582016e+00     1.333897     1.174235  75.58  0.008306912    1.496    0.332
        44 -13.3529    245.9487    109.0545   1.8968776654e+01   1.0419222453e+01    0.8181558    0.7015598  53.11  0.005447618    1.414    0.293
        45 -14.1425    235.1347    102.3337   1.8926447746e+01   1.3344204877e+01      1.82738     1.346451  20.28  0.008710071    1.847    0.459
        46 -10.5229     18.4828    127.4737   8.0281175250e+01   4.7309034966e+01    0.1354449    0.1175065  89.97 0.0004258903    1.003    0.003
        47 -11.4596    220.4305    137.1683   2.8620309955e+01   1.0428002088e+01    0.2586767    0.1984592   0.67  0.001265942    1.464    0.317
        48 -10.9687    188.9825    115.6992   2.9266216476e+01   2.0167425696e+01    0.2791156    0.2072264 -12.26  0.001356715    1.659    0.397
        49 -11.4192    212.3774    112.9537   2.4602974810e+01   1.5932306535e+01    0.5242701    0.2441694 -35.48  0.002263005    1.965    0.491
        50 -10.7863    148.6247    110.2947   3.6394186559e+01   2.9998742612e+01    0.3852837    0.1938447 -35.68  0.001434036    2.215    0.549
        51 -10.9026     94.9851    111.7048   5.1595690738e+01   4.1015150334e+01    0.3336564    0.2055278 -82.95   0.00118911    2.757    0.637
        52 -11.0782    108.2519    108.5788   4.6724424220e+01   3.9138121352e+01    0.3088451    0.1486088  46.16  0.001136175    2.091    0.522
        53 -10.6898     68.5067    105.4771   5.9002278562e+01   4.7184399509e+01    0.1497138    0.1435942 -79.31 0.0008101912    1.010    0.010
        54 -11.4615    112.6297     99.1227   4.2886871159e+01   4.0395760418e+01    0.5961665    0.2920143 -51.68   0.00221078    2.125    0.529
        55 -10.1518    179.1463     92.1539   2.5229299782e+01   2.6597256354e+01     0.214727    0.1727581 -67.43 0.0007500539    1.346    0.257
        56 -11.0736      2.6523     88.4770   8.1675024560e+01   5.8357875312e+01    0.3178193     0.198867  78.09  0.001682636    1.666    0.400
        57 -11.5715      2.6903     83.0260   8.0965961186e+01   5.9726941837e+01     0.361501    0.1590219 -73.15  0.001667334    1.905    0.475
        58 -11.0397    100.8650     83.7417   4.1990700764e+01   4.6349045621e+01    0.3563863     0.179461 -45.80  0.001367862    1.991    0.498
        59 -12.1902     41.1565     82.7183   6.4235527421e+01   5.6686222295e+01    0.7165416    0.3141166  41.35  0.002878885    2.486    0.598
        60 -12.2136     45.7949     80.4185   6.1679069755e+01   5.6689663350e+01    0.8832017    0.2902746 -45.96  0.002987797    3.077    0.675
        61 -12.8447    226.6802     72.0482   1.3167053743e+01   1.9560336110e+01    0.4901479    0.3278268 -42.62  0.002438483    1.269    0.212
        62 -11.6423    226.9081     81.9345   1.5415498341e+01   1.8035585725e+01    0.3182226    0.2782095 -41.35  0.001813622    1.055    0.052
        63 -12.7852    214.4704     66.8755   1.3420767892e+01   2.2876015984e+01    0.4881551    0.2872102 -38.72  0.002452949    1.497    0.332
        64 -12.4374    219.6409     77.4825   1.5300922758e+01   2.0185473644e+01      0.79416    0.4555559  64.59  0.002820936    1.985    0.496
        65 -11.5003    218.9791     71.4799   1.3964463420e+01   2.1231571783e+01    0.2951549    0.2282201  81.91  0.001053712    1.433    0.302
        66 -10.1213    144.9991     80.7223   2.9073867069e+01   3.6773922472e+01    0.2249326    0.2048638  67.69   0.00116686    1.093    0.085
        67 -13.0314     14.1620     73.4696   7.4292486168e+01   6.1462370913e+01    0.7096035     0.464393  72.19  0.003659478    1.878    0.468
        68 -12.6100      4.5435     75.0081   7.8999171072e+01   6.1635921398e+01     0.625065    0.3440637  76.48  0.002982261    2.210    0.548
        69 -11.4519    245.4938     73.5094   1.1408559996e+01   1.5694780750e+01    0.3071693     0.218609  25.68  0.001704467    2.199    0.545
        70 -12.3944    248.1029     69.8565   1.0353303792e+01   1.5723340778e+01    0.4335621    0.2779006 -39.67   0.00214908    1.267    0.210
        71 -11.3736    238.0023     70.0118   1.1432749625e+01   1.7612203898e+01    0.2864818    0.1660205 -30.24 0.0009192589    1.649    0.394
        72 -10.7986     75.0828     68.9848   4.6233661195e+01   5.4755751379e+01     0.406687    0.2254068  30.04  0.001655693    2.092    0.522
        73 -10.9765     25.4457     64.3849   6.6822273978e+01   6.2787983933e+01    0.3175859    0.2145951 -79.09  0.001634792    1.683    0.406
        74 -13.4040    233.5147     63.6894   1.0491271403e+01   1.9390990479e+01    0.6983677    0.4394043 -61.79   0.00379189    1.616    0.381
        75 -11.8722    227.8210     56.8484   9.5238812569e+00   2.1505344644e+01    0.4123544    0.2073001  40.72  0.001729171    3.377    0.704
        76  -9.8402    169.4826     75.5011   2.2529390674e+01   3.1804246667e+01    0.1476075    0.1420424 -65.28 0.0008101428    1.038    0.037
        77 -11.2483    240.2322     61.5397   9.3227134283e+00   1.8368032762e+01    0.2470959    0.1550572 -38.18  0.001395238    1.341    0.254
        78 -11.6596    218.8209     61.5256   1.1612965065e+01   2.2730142331e+01    0.2739695    0.1733251 -43.22 0.0008910976    1.358    0.264
        79 -12.4192    215.2318     56.5058   1.0818353209e+01   2.4221229405e+01    0.4381377    0.3133468  89.74  0.002427602    1.509    0.337
        80 -10.5678    164.4097     53.6972   1.7159497269e+01   3.6618504248e+01    0.2572869    0.1938957 -24.22  0.001276704    1.511    0.338
        81 -10.9203    220.9723     53.5056   9.4640562285e+00   2.3406881291e+01    0.1894475    0.1269907  73.49  0.001037245    1.605    0.377
        82 -10.7467    199.2237     51.3198   1.1430159822e+01   2.8550676439e+01    0.3003446    0.1653778 -45.33  0.001422667    1.625    0.385
        83 -11.0142    215.0890     50.8220   9.4557581181e+00   2.5049483784e+01     0.305908    0.2097267  53.76  0.001669156    1.695    0.410
        84 -11.6205     85.5805     47.6178   3.4477861532e+01   5.6874339767e+01    0.5059418    0.3342259  43.08  0.002403784    1.472    0.321
        85 -12.4449     81.5664     39.3300   3.2493547342e+01   5.9158184082e+01    0.6993233    0.3482098 -44.50   0.00292103    2.190    0.543
        86 -11.7017      2.6666     41.1404   7.3175671946e+01   6.9752615012e+01    0.3405596    0.2522848 -57.75  0.002141858    1.163    0.140
        87 -10.1093     97.4685     36.4988   2.6150196564e+01   5.5995991698e+01    0.1439829    0.1363315  47.06 0.0001010249    1.006    0.006
        88 -10.2802    223.8109     40.3750   6.0839263897e+00   2.4562008494e+01    0.1683431    0.1131386  62.36 0.0009469948    1.656    0.396
        89 -10.4084    238.5070    249.4879   4.5474191378e+01  -7.6085928048e+00    0.1072338   0.07550419   4.33  0.000647741    1.004    0.004
        90 -11.9510    161.5004    229.5873   5.6569512835e+01   4.7078000355e+00    0.5367662    0.3164375   3.21  0.002624173    2.448    0.591
        91 -10.5171    229.7637     29.6672   3.1019788485e+00   2.4645342366e+01    0.2217318    0.1544167 -47.11 0.0008693349    1.189    0.159
        92 -10.5360    235.6748     29.4100   2.5873018461e+00   2.3452387117e+01    0.2228125    0.1409564  77.60  0.001309547    1.655    0.396
        93 -11.1791    145.7512     27.6603   1.2125111914e+01   4.5006973983e+01    0.4723091     0.251938 -72.19  0.001838928    2.618    0.618
        94  -9.9120     90.2651     27.9826   2.4725531472e+01   5.8912900550e+01    0.1824652    0.1238171 -30.43 0.0009001823    1.566    0.362
        95 -12.1860    241.5926    228.8358   4.1883092335e+01  -5.6303184279e+00    0.4086893    0.2286991  26.75  0.002674951    1.604    0.377
        96 -12.0138    172.9717     20.5084   6.1658678794e+00   3.8897518306e+01    0.3803526     0.191252  70.49  0.001546321    1.847    0.459
        97 -10.3588    246.2014     24.2080   7.1681426775e-01   2.1961305060e+01    0.1767812    0.1203192  28.26 0.0009494494    2.795    0.642
        98 -10.5495    224.6371     22.1124   1.7699822179e+00   2.6631048732e+01    0.2564779    0.1807767 -66.34  0.001565995    1.216    0.178
        99 -11.3347    187.2917     19.0907   4.2404394761e+00   3.5528895481e+01    0.2549982    0.2160431  70.90  0.001344501    1.228    0.186
       100 -11.6259    248.5990    224.3162   4.0062464648e+01  -5.8944308570e+00    0.4287642    0.2229383 -24.47  0.002706229    1.687    0.407
       101 -11.5618      3.9917    229.8607   9.0148928437e+01   2.4834167799e+01    0.2629667    0.1382979  34.48  0.001618599    1.660    0.398
       102  -9.9082    111.3174    228.6772   6.7020850017e+01   1.2127812325e+01    0.1305236   0.08461131  57.04 0.0007043311    1.667    0.400
       103 -10.2170     31.9717    227.0015   8.4229305585e+01   2.2622345938e+01    0.1490958    0.1121572  53.85 0.0007303787    1.032    0.031
       104 -10.5399    128.8096     18.0273   1.1658376704e+01   5.0519984687e+01    0.2667121    0.1938813  70.00    0.0013974    1.252    0.201
       105 -12.1834    158.5871    224.8463   5.6492697477e+01   5.8735808438e+00    0.2766347    0.2299781 -16.44  0.001368862    1.287    0.223
       106  -9.6680     94.3199     16.6597   1.8581188355e+01   5.9367074993e+01    0.1409519    0.1043854 -68.96  0.000704991    1.716    0.417
       107 -11.8293    214.8793    223.1374   4.5485100260e+01  -1.6868355200e+00    0.2513835    0.1960108 -14.08  0.001769537    1.186    0.157
       108 -13.0457    209.7613    215.2447   4.5135510685e+01   5.3109004199e-02    0.9694129    0.4949778   8.02  0.004396099    2.914    0.657
       109 -13.4688    182.4366    217.5882   5.0634130161e+01   3.5335759945e+00    0.6559924    0.3881449   7.09  0.003337349    2.104    0.525
       110 -11.6396     74.9839    220.2900   7.4231981299e+01   1.8779964107e+01    0.1908798    0.1451833  43.81 0.0009255655    1.089    0.082
       111 -11.8099     50.4070    218.1404   7.9613059340e+01   2.2326810541e+01    0.3234982    0.2326451  44.66  0.002016266    1.153    0.133
       112 -11.6019     67.2274    217.0368   7.5700021215e+01   2.0456851611e+01    0.2382262    0.1622344  39.88     0.001076    1.240    0.193
       113 -12.4458    183.8160    208.1228   4.8856111389e+01   4.7919635271e+00     0.347077    0.1912864  28.43  0.001804731    1.667    0.400
       114 -11.9793     80.8960    206.3736   7.1454095911e+01   2.0828031137e+01    0.2431654     0.198058 -63.20   0.00145143    1.390    0.281
       115 -12.6516    247.8523    186.0693   3.3757940181e+01  -1.0139702204e+00    0.8616253    0.3978315 -44.22  0.004303351    2.639    0.621
       116 -13.2871    243.3782    198.4827   3.6627798496e+01  -2.0845085158e+00    0.8312842    0.5437601 -33.83  0.004198309    1.497    0.332
