#   1 NUMBER                 Running object number                                     
#   2 MAG_AUTO               Kron-like elliptical aperture magnitude                    [mag]
#   3 X_IMAGE                Object position along x                                    [pixel]
#   4 Y_IMAGE                Object position along y                                    [pixel]
#   5 X_WORLD                Barycenter position along world x axis                     [deg]
#   6 Y_WORLD                Barycenter position along world y axis                     [deg]
#   7 A_WORLD                Profile RMS along major axis (world units)                 [deg]
#   8 B_WORLD                Profile RMS along minor axis (world units)                 [deg]
#   9 THETA_WORLD            Position angle (CCW/world-x)                               [deg]
#  10 FWHM_WORLD             FWHM assuming a gaussian core                              [deg]
#  11 ELONGATION             A_IMAGE/B_IMAGE                                           
#  12 ELLIPTICITY            1 - B_IMAGE/A_IMAGE                                       
         1 -14.3534    187.8887     41.8066   5.1149799424e+01   3.2864390301e+01     1.067678    0.9516335  -0.12  0.003681479    1.238    0.192
         2 -14.5688    211.8799     10.8487   3.9597602168e+01   3.0642123252e+01    0.9912077    0.8288252 -39.85  0.003990207    1.060    0.056
         3 -12.8084    242.9660      2.8650   3.5622914805e+01   2.4538278417e+01       0.8572    0.2226508  82.60  0.003064071    4.771    0.790
         4 -11.3178     67.0655    205.2563   1.1312009337e+02   2.4575569516e+01    0.2312666    0.1632637 -42.40  0.001186359    2.045    0.511
         5 -14.0205    247.7758    242.5061   8.5165805608e+01  -4.0057983024e+00     1.049495    0.3783273 -24.75  0.006175307    2.867    0.651
         6  99.0000     72.8177    226.2782   1.1363219185e+02   2.0173267281e+01     8.670303       6.4232  50.03   0.06343073    1.042    0.040
         7 -11.2248     55.2684    222.6896   1.1677844710e+02   2.2821358634e+01    0.1446911    0.1008098  51.20  0.001022041    1.096    0.087
         8 -10.7900     52.2851    250.3694   1.1892066424e+02   1.8642116294e+01    0.1200197   0.08938765  66.19 0.0005042615    1.203    0.169
         9 -11.3826     58.7441    201.7106   1.1457841392e+02   2.6239099015e+01    0.1469302    0.1279082  56.50  0.000457334    1.129    0.114
        10 -11.7012    193.0871    195.0438   8.6752909239e+01   8.1831414963e+00    0.6955253    0.3718776 -59.29  0.002400452    6.857    0.854
        11  -9.7826    223.2759    198.6559   8.2272615749e+01   3.4234256036e+00    0.0940653   0.08994912 -29.89 0.0005062468    1.625    0.384
        12 -10.9242     82.0442    195.0420   1.0898624817e+02   2.4598435901e+01    0.1793638     0.153702  57.08 0.0004523408    1.027    0.026
        13 -11.9966     62.5984    193.5467   1.1307281140e+02   2.7358593242e+01    0.2945814     0.213155 -34.98  0.001277263    2.132    0.531
        14 -13.1794    149.6107    187.8741   9.3804270429e+01   1.5938055847e+01    0.4291672    0.3257943 -75.69  0.002486048    1.953    0.488
        15 -12.5689     95.9189    188.7077   1.0525718040e+02   2.3907991837e+01    0.4852056    0.4342798 -13.98  0.001959955    1.443    0.307
        16 -12.2191     99.3231    180.8423   1.0351922339e+02   2.4940101567e+01    0.2620776    0.2396914  29.17 0.0005951254    1.186    0.157
        17 -11.0821     29.3982    192.8077   1.2023147989e+02   3.1185643848e+01     0.134298   0.08849867  47.93 0.0008737665    1.254    0.203
        18 -10.8211     56.5292    218.0925   1.1622754038e+02   2.3484864934e+01    0.2907063     0.122711  70.26  0.001329011    3.051    0.672
        19 -10.5947     28.8432    184.8240   1.1988024193e+02   3.2865087601e+01       0.1554   0.09675577  52.58 0.0003037653    1.305    0.233
        20 -10.2036    167.4743    228.0343   9.6084269656e+01   7.4701261345e+00    0.1372696     0.108857 -35.95 0.0005264654    1.524    0.344
        21 -12.8794    143.5750    177.9301   9.3464447033e+01   1.8589128182e+01    0.3854953    0.2330714 -43.74  0.001310293    1.812    0.448
        22 -11.4776    187.4500    176.0156   8.4519860567e+01   1.1745271607e+01    0.2891841    0.2662638 -12.33   0.00109151    1.165    0.142
        23 -11.2908    149.2887    177.0122   9.2130437566e+01   1.7816681974e+01    0.2129574    0.1695006  36.82 0.0003938545    1.144    0.126
        24 -18.4711     20.3848     97.6577   1.1441905499e+02   5.4149790181e+01     14.70472     1.726132 -73.27   0.03369702    7.502    0.867
        25 -12.3147    139.2154    171.4955   9.3326476494e+01   2.0451614778e+01    0.3291011    0.2172483  46.85  0.001766308    1.463    0.317
        26 -10.9317     44.1343    211.6388   1.1828531939e+02   2.6026952328e+01    0.1978879    0.1188302 -85.10  0.001274418    1.691    0.409
        27 -10.0166    193.5171    171.0330   8.2509599693e+01   1.1500287469e+01    0.1799116    0.1176063 -32.85 0.0006148852    1.535    0.349
        28 -10.4569    185.5765    169.7532   8.3727241283e+01   1.2993694403e+01    0.1647239    0.1192449 -45.06 0.0006900686    1.592    0.372
        29 -11.3588    240.4832    169.4886   7.4461770465e+01   4.4745840695e+00    0.1186206   0.09400421  -2.86 -4.606676e-05    1.020    0.019
        30 -11.0895      7.4877    162.0194   1.2356219282e+02   3.9682744233e+01    0.2292838     0.169857 -80.52  0.001547401    1.285    0.222
        31  -9.1236      3.5169    162.4379   1.2453448090e+02   3.9902445963e+01    0.1842952    0.1661974  67.98 0.0008246308    1.236    0.191
        32 -11.7954     92.3907    156.6143   1.0174928604e+02   3.0986020561e+01    0.2397582    0.2290258  63.93 0.0003702179    1.080    0.074
        33 -12.7798     97.8473    150.5016   9.9418844109e+01   3.1467925777e+01    0.5255228    0.4330561 -20.05   0.00290854    1.603    0.376
        34 -11.0213    187.1936    151.7803   7.9937992446e+01   1.5530208155e+01    0.1892866    0.1464794   7.15  0.001069071    1.342    0.255
        35 -11.9432    133.7596    145.4629   8.9810584757e+01   2.6380250365e+01     1.053653    0.2472241 -53.63  0.002595241    6.594    0.848
        36 -11.4921     39.3009    212.5572   1.1930930790e+02   2.6373682881e+01    0.1322173   0.09205894  39.77 0.0006348968    1.301    0.231
        37 -11.1315    107.2927    145.4513   9.6179262596e+01   3.1022181330e+01    0.2391955    0.1693929 -84.12  0.000694957    1.772    0.436
        38 -12.0510    108.7708    137.1076   9.4242368970e+01   3.2591756871e+01    0.4656007    0.2642346 -37.86  0.001992335    2.218    0.549
        39 -12.5276     97.1680    136.5215   9.7145360820e+01   3.4691877029e+01    0.2976706    0.2714142 -70.06 0.0005989437    1.084    0.077
        40 -12.0476    105.9645    130.8557   9.3727749119e+01   3.4469904366e+01    0.3939199    0.3187011 -65.02  0.001150703    1.246    0.198
        41 -11.1688    115.4767    128.5119   9.0773367971e+01   3.3281729430e+01    0.2833802    0.2502006 -11.54 0.0005979077    1.345    0.257
        42 -11.4404    103.3824    123.9480   9.2980805562e+01   3.6485852614e+01    0.2846077    0.2358871 -22.85 0.0006924524    1.494    0.330
        43 -10.7165    120.3742    122.8719   8.8282584066e+01   3.3596678098e+01    0.2154074    0.1316484 -38.59 0.0009396037    1.801    0.445
        44 -10.6639    135.0000    120.0016   8.3995190986e+01   3.1351373438e+01    0.2456803    0.0825768 -45.72 0.0008023787    2.942    0.660
        45 -10.3429    110.7886    117.8919   8.9648405630e+01   3.6505412753e+01     0.209442    0.1980273 -22.93 0.0004324293    1.161    0.139
        46 -10.7405    231.1399    113.8184   6.4280976225e+01   1.3304261701e+01    0.2199886    0.1898583 -17.90 0.0007840273    1.040    0.038
        47 -12.8051     75.2684    248.8580   1.1476715514e+02   1.6323754108e+01    0.2712859    0.1353922 -60.79  0.001763677    2.526    0.604
        48 -10.6879    167.2490    112.1295   7.4874578783e+01   2.6241006723e+01    0.2621679    0.1968938  85.03 0.0008031197    1.985    0.496
        49 -12.4462    119.2365    110.9897   8.5763184408e+01   3.6409864480e+01     0.490155    0.3231376  61.22  0.002095498    1.823    0.452
        50 -10.6133    205.5256    110.2214   6.7364268542e+01   1.8694388088e+01    0.2369283    0.1954714  43.26  0.000633549    1.318    0.241
        51  -9.5390     93.6322     62.3075   7.8674242709e+01   5.2245864096e+01    0.1558597    0.1196417 -85.18 0.0007036139    1.755    0.430
        52 -14.2244    172.7141     55.7626   5.7733405992e+01   3.4629339739e+01     1.703144    0.9562692  29.37  0.005243685    2.780    0.640
        53 -11.4859     62.0157    245.0724   1.1690149790e+02   1.8396018534e+01    0.1509885    0.1343208  67.43 0.0009651732    1.262    0.208
        54 -13.4136    192.6312     35.9680   4.8778702752e+01   3.2452871220e+01    0.5206151    0.5112427 -20.94  0.001278583    1.108    0.097
        55 -11.9811    198.0217     23.5299   4.4449999757e+01   3.2609633399e+01    0.2667876    0.1940765  -3.56 0.0009313669    1.615    0.381
        56 -11.1174     71.4967    242.9003   1.1505253542e+02   1.7659444079e+01    0.1386717   0.09800132 -86.87 0.0007987214    1.620    0.383
