#   1 NUMBER                 Running object number                                     
#   2 MAG_AUTO               Kron-like elliptical aperture magnitude                    [mag]
#   3 X_IMAGE                Object position along x                                    [pixel]
#   4 Y_IMAGE                Object position along y                                    [pixel]
#   5 X_WORLD                Barycenter position along world x axis                     [deg]
#   6 Y_WORLD                Barycenter position along world y axis                     [deg]
#   7 A_WORLD                Profile RMS along major axis (world units)                 [deg]
#   8 B_WORLD                Profile RMS along minor axis (world units)                 [deg]
#   9 THETA_WORLD            Position angle (CCW/world-x)                               [deg]
#  10 FWHM_WORLD             FWHM assuming a gaussian core                              [deg]
#  11 ELONGATION             A_IMAGE/B_IMAGE                                           
#  12 ELLIPTICITY            1 - B_IMAGE/A_IMAGE                                       
         1 -12.0373     43.5263     82.6588   1.0996200248e+02   5.4787994059e+01      1.09243    0.9621208 -18.47  0.006645388    1.366    0.268
         2  -8.8495     40.2906      1.7238   8.0163518581e+01   7.2688586562e+01    0.3062619    0.2053404  19.26  0.001676089    1.647    0.393
         3  -9.7107     38.0340      8.8965   8.6088308399e+01   7.1842201068e+01    0.6844201    0.3812419 -15.59  0.003005493    2.585    0.613
         4  -9.5789     40.0728     14.6389   8.8289080901e+01   7.0512765972e+01    0.3233258    0.2478424 -20.15  0.001700639    1.234    0.190
         5 -10.6115     39.5945     29.7018   9.5953792424e+01   6.7572906734e+01    0.5723785     0.375109 -62.01   0.00222949    1.659    0.397
         6 -11.8870     44.6864     22.3438   8.9897909331e+01   6.8388612987e+01     1.127896    0.9467257 -74.29   0.00589901    1.611    0.379
         7 -11.7601    115.5370     17.2874   6.1653216891e+01   5.4529837101e+01     2.092071     1.181883 -86.31   0.00730376    3.393    0.705
         8 -10.5621     99.5615      6.9420   6.0563434027e+01   5.9718067658e+01     1.439356    0.7118614 -55.75  0.005049261    3.429    0.708
         9 -11.6451    128.2708     18.0434   5.9199227205e+01   5.1166952237e+01      1.66212    0.8896014  49.72  0.006971716    1.812    0.448
        10 -11.9880     84.1359      4.0276   6.3295379752e+01   6.3710135295e+01     2.020616     1.100581   2.78  0.008256384    2.419    0.587
        11 -10.2932     71.3770      5.6834   6.8535088514e+01   6.6328715085e+01    0.6055114    0.5015466  33.99  0.002751126    1.190    0.160
        12 -11.7867    131.5389      3.3678   5.2255541491e+01   5.1836525113e+01     2.065876    0.7957888  73.52  0.007214239    2.878    0.653
        13 -10.8175    121.1588      4.0773   5.4408950372e+01   5.4516664962e+01    0.8451142    0.6327029 -72.52  0.004170888    1.616    0.381
        14 -10.9520    109.7091      4.5668   5.6969776945e+01   5.7429920518e+01     1.127167    0.5228724  64.79  0.004545331    2.172    0.540
        15 -12.5593    155.5684     20.6962   5.5332295639e+01   4.3642353172e+01     1.605706      1.01633  52.28  0.006424024    1.560    0.359
        16 -13.3584    169.1175     17.0681   5.2025771501e+01   4.0432547211e+01     2.863816     1.481519  77.14   0.01162399    2.171    0.539
        17  -9.7557     93.9238     17.6433   6.7562608090e+01   5.9736160872e+01    0.5162229    0.3763533 -46.73  0.002083678    1.530    0.347
        18  -9.4973     63.7005     15.8598   7.7469240548e+01   6.6386219368e+01    0.4918847    0.3762294  88.14  0.002419415    2.286    0.563
        19 -10.6301    248.6555     14.6174   4.3678666246e+01   2.1339329779e+01    0.5882908    0.3184493  -5.33  0.002807013    2.161    0.537
        20 -10.1488    245.6356      8.1110   4.2208317807e+01   2.2578445079e+01    0.5471489    0.2771292  26.52  0.002313288    3.198    0.687
        21  -9.6730    248.1643      2.1571   4.0540106999e+01   2.2556186680e+01    0.3583445    0.1868801  79.13  0.001841897    2.154    0.536
        22  -9.7370     70.4044     14.2887   7.3861828965e+01   6.5326211004e+01    0.4546428    0.3561753 -22.63  0.002374084    1.174    0.148
        23  -8.5151     20.2330     13.8020   9.9833451070e+01   7.3035213019e+01    0.6154373    0.2004832 -41.52   0.00247067    2.771    0.639
        24 -12.9322    170.3148      4.8250   4.7535261256e+01   4.1295053953e+01     3.354776    0.8458115  72.13   0.01010602    3.924    0.745
        25  -8.8274    230.4714      7.2567   4.2982023952e+01   2.6024788418e+01    0.3811309    0.1102995 -32.66  0.001478118    2.564    0.610
        26  -9.1449     56.2175      7.7349   7.6020084574e+01   6.9041480009e+01    0.6139036    0.3047053  52.84  0.002720257    2.468    0.595
        27  -9.9069     60.7858      2.3481   7.0623942489e+01   6.8926997396e+01    0.6139404    0.3646605  31.22  0.003003672    1.798    0.444
        28 -10.2013    200.8478      8.1394   4.5571463851e+01   3.3068036997e+01    0.3202373    0.2018047  73.81  0.001173944    1.647    0.393
        29  -8.4078     49.2133      6.7729   7.8767060798e+01   7.0430329317e+01    0.2710938    0.2140572   8.72  0.001584284    1.271    0.213
        30  -9.3291    213.5626      5.1293   4.3615863925e+01   3.0198159934e+01    0.2779674    0.1582595  52.48  0.001331722    1.907    0.476
        31  -8.7833     17.2758      2.4386   9.5592023223e+01   7.5584281489e+01    0.3389946    0.2196323 -66.96  0.001796125    2.212    0.548
        32  -9.8888    204.0748      4.0994   4.4060833102e+01   3.2620239557e+01    0.3124261    0.2031482  77.77  0.001399055    1.603    0.376
        33  -8.7376     26.7576      3.0167   8.9322531356e+01   7.4402565808e+01    0.2761116    0.2110954 -47.86  0.001694403    1.367    0.268
        34  -9.2016    217.9056      1.8900   4.2363387045e+01   2.9433533375e+01    0.2398224    0.1800497 -85.37  0.001236571    1.397    0.284
        35  -8.6295     52.2740      2.0910   7.4239846641e+01   7.0582504583e+01    0.2453486    0.2011504  49.50  0.001454033    1.443    0.307
        36  -9.6320     74.3161     69.2459   9.5368360172e+01   5.3806983480e+01    0.3963502     0.342569  53.50  0.001934275    1.270    0.213
        37  -8.7813     84.1138     69.5299   9.2048945325e+01   5.2077137224e+01    0.2669825    0.2132574  62.94 0.0009129691    1.469    0.319
        38  -8.2633     32.9051     68.6711   1.1111492495e+02   5.9266759998e+01    0.2029361    0.1585255 -25.41  0.001036567    1.518    0.341
        39  -9.5814     47.0541     62.5009   1.0383746429e+02   5.9241194236e+01    0.5283675     0.377286 -10.25  0.002726396    1.901    0.474
        40  -8.5441    221.4876     80.4595   6.3959826160e+01   1.9756823198e+01    0.2627576    0.1053436 -37.09  0.001035124    2.292    0.564
        41  -8.0661     76.7889     60.2143   9.1586401976e+01   5.5407905798e+01    0.2359297    0.1587673  85.49 0.0009450342    2.744    0.636
        42  -8.0000     93.4161     57.2057   8.4772846087e+01   5.2948283705e+01     0.216675    0.1351771 -52.57 0.0009461917    1.686    0.407
        43 -11.0625      4.6893     76.7793   1.2348660765e+02   5.9315403230e+01    0.8175569    0.5307659  70.19  0.004657561    1.521    0.342
        44  -9.3840    199.0748     55.4573   6.0245210107e+01   2.8161966399e+01    0.2905267    0.2489804  34.45 0.0004682856    1.224    0.183
        45  -7.6278    149.6688     55.6552   6.9094356314e+01   4.0343703798e+01    0.1648538    0.1172134  17.44 0.0007050341    1.757    0.431
        46  -9.2401     66.1267     53.2420   9.3205852961e+01   5.8704196349e+01    0.4864734    0.2006689 -57.59  0.001742626    2.816    0.645
        47  -7.8462     35.4849     52.4833   1.0599581438e+02   6.2901250838e+01    0.1350817    0.1143427 -54.81 0.0001330078    1.017    0.017
        48  -8.3277     23.1726     51.9216   1.1149130451e+02   6.4159060195e+01    0.1987198      0.16206 -88.45  0.001222344    1.268    0.211
        49  -9.8626     84.2334     48.1995   8.4521389899e+01   5.6569884970e+01    0.8227843    0.4882076  54.39   0.00359571    2.042    0.510
        50  -9.8530     82.0424     40.1426   8.2023743563e+01   5.8569465304e+01    0.5970476    0.3230777 -35.60  0.002569202    1.778    0.438
        51  -8.6478    111.2594     44.8002   7.4558636706e+01   5.1447482361e+01    0.6039482    0.2171417 -31.76  0.001957733    2.926    0.658
        52  -9.0763     11.4190     34.2405   1.1285008358e+02   6.9174926439e+01     0.519724    0.3382766 -33.78   0.00288874    1.564    0.361
        53  -7.7916    143.9475     41.7660   6.5370412730e+01   4.3931887744e+01    0.2012664    0.1276311  56.88 0.0008704626    1.601    0.376
        54 -10.2597    171.5043    243.9740   1.0349349350e+02   6.8365384755e+00    0.2168039    0.1416735   2.80  0.001513247    1.915    0.478
        55  -9.5209    161.7200    241.0265   1.0479366078e+02   8.4385518704e+00     0.204456    0.1030714  29.36  0.001278587    1.656    0.396
        56 -10.4743     50.7747     36.3658   9.3307353563e+01   6.4664513160e+01    0.7782616    0.5885273 -85.09  0.003979746    1.981    0.495
        57  -8.1542      3.6619    228.3284   1.3144750336e+02   2.8236302649e+01    0.1065065   0.04139024  56.34 0.0005289618    1.732    0.423
        58  -9.4329    197.9914    226.2138   9.6935795668e+01   5.1985080676e+00    0.1552651    0.1007774   3.54  0.001056005    1.628    0.386
        59 -10.3266      3.3385     40.2412   1.1861186193e+02   6.8188214772e+01    0.5756242    0.3977322 -85.56  0.003008714    1.359    0.264
        60  -9.5155    211.0072    224.4889   9.4585589451e+01   3.6245261093e+00     0.168278   0.08145364  34.99 0.0008848294    1.597    0.374
        61  -8.4866     27.6087     35.3553   1.0443740183e+02   6.7649729652e+01    0.2195904    0.1661325  10.84  0.001082189    1.563    0.360
        62 -10.3831    225.3095     29.3787   4.9524525461e+01   2.5055951458e+01    0.4775965    0.4191733   9.09  0.001638344    1.219    0.180
        63  -8.6809     97.6083     27.5853   7.1217108470e+01   5.7429566318e+01    0.4302395    0.2320937 -12.98  0.001603762    2.604    0.616
        64 -10.2887     86.4668     31.2507   7.6524319923e+01   5.9279133550e+01    0.3315587    0.3208002  21.56  0.001450414    1.100    0.091
        65  -8.9217     90.7934     28.8005   7.3935001859e+01   5.8760209672e+01    0.3542897    0.2543002  -7.60  0.001432313    1.593    0.372
        66  -9.4433     66.7440     29.5056   8.3188137053e+01   6.3450638908e+01    0.4007622    0.2380117 -32.78  0.001608541    1.611    0.379
        67  -9.2542    123.9940    205.9910   1.0762341225e+02   1.8224195215e+01    0.1618868    0.1313245  40.28  0.001152475    1.010    0.010
        68  -8.6522    239.2469    201.9897   8.6755309137e+01   2.0272733711e+00    0.1362524   0.08149412 -20.33 0.0007834834    1.638    0.389
        69 -11.6199      9.5767    140.5655   1.2702952527e+02   4.4194021562e+01    0.5920396    0.5158455  29.10  0.004435747    1.413    0.292
        70  -8.6096     53.4821    143.4908   1.1606317717e+02   3.9408378226e+01    0.1248629    0.1069841  75.10 1.761933e-05    1.004    0.004
        71  -9.3081     40.4691    141.7313   1.1923410660e+02   4.1213232097e+01    0.3439214    0.1293159  36.48  0.001614848    2.402    0.584
        72 -12.7170    240.9942    131.9226   7.3333572096e+01   9.4346767183e+00     1.354688     1.075041  30.10  0.005531643    1.271    0.213
        73  -8.8889     23.1089    125.5686   1.2238045147e+02   4.6476821049e+01    0.2513309    0.1565235 -48.75  0.001433262    1.903    0.474
        74  -9.7975     16.5401    125.6537   1.2420553542e+02   4.6986846813e+01    0.2782919    0.1108501  57.79   0.00130321    2.465    0.594
        75  -7.7178    192.5145    116.4773   7.7901323975e+01   2.0647193283e+01    0.1416211    0.1270134   3.10 0.0008100717    1.005    0.005
        76  -8.7500      6.4955    115.4865   1.2628499002e+02   5.0030146339e+01    0.1203394   0.09434409  82.47 8.430117e-05    1.026    0.025
        77  -8.7325     71.4188     23.8116   7.8503089829e+01   6.3593888147e+01    0.2862329    0.1687818 -46.68  0.001304908    1.809    0.447
        78  -9.0221    106.0418     26.9865   6.8489394619e+01   5.5551058883e+01     0.299342    0.2326693  64.43  0.001466272    1.438    0.304
        79  -9.1863     68.2040     36.8073   8.5903499037e+01   6.1792071526e+01    0.4706791    0.3513447  80.87  0.002226899    2.215    0.548
        80  -7.9772     14.3382    114.3259   1.2391489395e+02   4.9761200391e+01    0.1211867   0.07986549 -49.72 0.0007051499    1.725    0.420
        81  -8.4953    125.6322     28.6821   6.4268430692e+01   5.0477520592e+01    0.3174971    0.2404306  -8.02  0.001524226    1.405    0.288
        82  -8.9014     96.7307    111.7657   9.9125341949e+01   4.0411445884e+01    0.2678841     0.171304 -14.99   0.00102874    3.155    0.683
        83  -9.9657     20.7717    109.3602   1.2152513488e+02   5.0440612353e+01    0.3582741     0.221055  79.00  0.002031008    1.510    0.338
        84  -9.4993     16.8969    104.6040   1.2224318034e+02   5.1862381408e+01    0.3417495    0.2962349  56.59  0.002354048    1.213    0.176
        85  -7.8182      2.3456    111.6953   1.2723372452e+02   5.1161817717e+01    0.1266091   0.06837107  62.01 0.0007041353    1.691    0.409
        86 -10.8489     11.2972    128.4888   1.2583731036e+02   4.6738697968e+01    0.4606052    0.1876135 -79.10  0.002318025    2.066    0.516
        87  -9.2496     68.8301    105.8978   1.0611763570e+02   4.6067345334e+01    0.2089847    0.1838824 -44.12 0.0008451633    1.235    0.190
        88  -7.7407     10.7766     14.9903   1.0668852033e+02   7.3565517189e+01    0.3006991    0.1612551 -13.67  0.001512989    2.430    0.588
        89  -8.7303    228.2032     14.6103   4.5166114318e+01   2.5868519984e+01     0.181846    0.1183924  58.48 0.0007317585    1.678    0.404
        90  -9.7277     29.7657    101.9049   1.1783670843e+02   5.1467744239e+01    0.3575774    0.1576226 -59.85  0.001695857    1.982    0.495
        91  -9.1667     46.8103     99.4442   1.1192608458e+02   5.0361420820e+01    0.2624964    0.1725446 -69.64  0.001410077    1.358    0.263
        92  -9.2178    182.4905    246.0229   1.0193303874e+02   5.2031981286e+00    0.1266775   0.09843248 -23.79  0.001040429    1.613    0.380
        93  -8.5203     15.9487     60.3275   1.1653741633e+02   6.2655293998e+01    0.9442668    0.2595347 -65.95  0.003733063    2.640    0.621
        94 -10.2772     24.9773     65.3518   1.1367392247e+02   6.0767762161e+01    0.7630336    0.2440243 -56.18  0.003140179    2.414    0.586
        95 -11.0158     16.9008     74.6343   1.1854845721e+02   5.9104838127e+01    0.6186842    0.4961773 -56.91  0.003978295    1.190    0.160
        96  -9.3490     75.3678     27.4326   7.8753532623e+01   6.2199624783e+01    0.3175068    0.2496143 -33.09  0.001350221    1.179    0.152
        97 -10.1558     11.8257     70.0273   1.1985908765e+02   6.0555280583e+01    0.6161358    0.2794943 -68.98  0.003064894    1.727    0.421
        98  -9.1596    228.0819     78.5732   6.2545219337e+01   1.8610926137e+01    0.4116157    0.2531204  15.12  0.001267653    2.077    0.518
        99  -8.4154    138.7793     78.7275   7.9107500710e+01   3.8901909671e+01    0.2637645    0.1881363  45.54 0.0009424918    1.426    0.299
       100  -8.0292     77.4189     77.7606   9.6760023565e+01   5.1358065948e+01    0.2062976    0.1260206 -44.62 0.0009434832    1.590    0.371
       101  -9.2666      2.4836     88.8634   1.2546756466e+02   5.6524338610e+01    0.3830622    0.2023048  84.65  0.002074868    1.674    0.403
