#   1 NUMBER                 Running object number                                     
#   2 MAG_AUTO               Kron-like elliptical aperture magnitude                    [mag]
#   3 X_IMAGE                Object position along x                                    [pixel]
#   4 Y_IMAGE                Object position along y                                    [pixel]
#   5 X_WORLD                Barycenter position along world x axis                     [deg]
#   6 Y_WORLD                Barycenter position along world y axis                     [deg]
#   7 A_WORLD                Profile RMS along major axis (world units)                 [deg]
#   8 B_WORLD                Profile RMS along minor axis (world units)                 [deg]
#   9 THETA_WORLD            Position angle (CCW/world-x)                               [deg]
#  10 FWHM_WORLD             FWHM assuming a gaussian core                              [deg]
#  11 ELONGATION             A_IMAGE/B_IMAGE                                           
#  12 ELLIPTICITY            1 - B_IMAGE/A_IMAGE                                       
         1 -14.9958     68.5536    144.3662   1.0675861237e+02   3.7376344134e+01     5.339098     2.151013  58.90  0.004804669    4.788    0.791
         2 -12.7712    213.4354     26.4305   4.2308540511e+01   2.8726417140e+01    0.6112727    0.4779969  57.19  0.001158057    1.374    0.272
         3 -14.1670    220.4397     18.8845   3.9736020386e+01   2.7959698826e+01     1.351125     1.034871  36.54  0.004885377    1.755    0.430
         4 -13.6275    196.7032     40.5821   4.8076600523e+01   3.1007306511e+01     1.298699     1.066011  15.89  0.003525702    1.589    0.371
         5 -13.8540    205.3829     34.4581   4.5302395035e+01   2.9672158003e+01     1.360593     1.005403 -19.99  0.005890736    1.603    0.376
         6 -10.6830     52.8806      4.3159   6.8475721623e+01   6.8048691421e+01    0.1727181    0.1495603  42.14 0.0006770985    1.459    0.315
         7 -10.1276      6.6564      4.6924   9.2092517389e+01   7.3643887745e+01    0.1184979   0.06324382 -19.12 0.0005719551    1.694    0.410
         8 -10.4614      2.4069      3.2970   9.3971500070e+01   7.4170507595e+01     0.216212   0.07544392 -42.50  0.001143535    2.173    0.540
         9 -10.9179     47.7795      2.3982   6.9588643639e+01   6.9070951838e+01    0.2235646    0.1747279   7.09 0.0004748121    1.007    0.007
        10 -11.1811    243.0929      1.7353   3.4013033099e+01   2.4729807717e+01    0.5245475    0.1604817  77.22  0.002157982    3.195    0.687
        11 -10.6733     56.9206      1.8625   6.5608904949e+01   6.7628292220e+01    0.1854384    0.1548372  11.62  0.001183819    1.089    0.081
        12 -11.9909     69.2490    173.5170   1.1090746285e+02   3.0272869315e+01    0.3314565    0.2729541 -44.81  0.000771618    1.471    0.320
        13 -15.8019     68.9287    248.0911   1.1857515220e+02   1.4873708217e+01     9.809634     2.826211  30.74  0.008462546    9.557    0.895
        14 -16.5857     46.0950    197.4438   1.1877803161e+02   2.7818607519e+01     10.19429     4.065446  69.98   0.03915477    3.610    0.723
        15 -13.8250     57.5501    129.8357   1.0736462079e+02   4.2393328815e+01     2.766612    0.8771536 -72.73  0.006964578    6.144    0.837
        16 -13.3581     85.3231    157.7961   1.0455916033e+02   3.1657517197e+01     1.678036     1.031754  89.71  0.001625584    2.141    0.533
        17 -12.3170     78.6647    163.5150   1.0716650924e+02   3.1294386379e+01    0.6006675    0.4145636 -76.76 0.0006172988    1.435    0.303
        18 -13.5959     38.3315    206.7969   1.2116136417e+02   2.6719279668e+01    0.6856873    0.4713616  49.85  0.001507303    1.327    0.246
        19 -16.5564     12.1843    240.6122   1.2798380679e+02   2.2860914295e+01     3.544801     2.575596  81.03   0.02795204    1.149    0.129
        20 -10.0183    174.8681    148.7504   8.0709795330e+01   1.6622597182e+01    0.2910791    0.2022683 -68.82 0.0009809827    2.085    0.520
        21 -13.5553     66.0354    159.7759   1.0980554366e+02   3.3971526838e+01    0.5913706     0.454338 -50.03  0.001571818    1.418    0.295
        22 -11.0079     99.6368    142.6940   9.8015710615e+01   3.2958779587e+01    0.3635763    0.2769309   1.67  0.001495477    1.905    0.475
        23 -10.2705    102.0094    139.6769   9.6760532564e+01   3.3272576610e+01    0.4936333    0.3051109  10.55  0.001781855    3.128    0.680
        24 -12.2489     87.5138    141.6201   1.0109560961e+02   3.5233501007e+01    0.2961818    0.2506914 -49.91  0.001597996    1.199    0.166
        25 -10.5323     81.5132    141.3874   1.0269548631e+02   3.6227226000e+01    0.3073314    0.2267277  65.60 0.0005874158    1.489    0.329
        26 -10.6427     29.3189    136.6416   1.1629323832e+02   4.3754132454e+01    0.2164042    0.1691228  78.67 0.0005879695    1.226    0.184
        27 -10.3202    110.1049    131.3198   9.2746171626e+01   3.3806758705e+01    0.3341075    0.2763135  26.00 0.0009761467    1.356    0.263
        28 -10.1231    106.0022    130.9805   9.3797483666e+01   3.4646241297e+01    0.3733099    0.2772048 -84.01  0.001653146    1.668    0.401
        29 -11.6191     33.5847    130.0376   1.1423724722e+02   4.4960469428e+01    0.4739521    0.2268846 -76.44  0.001696034    1.965    0.491
        30 -11.4217    135.7613    126.0570   8.4666177927e+01   2.9902020051e+01    0.7567913    0.1484536 -48.74  0.001734036    5.437    0.816
        31 -11.4189     33.4078    156.2121   1.1755102472e+02   3.8658428367e+01    0.3151821    0.2228188 -89.63   0.00103717    1.231    0.188
        32 -10.7191     97.4625    127.5796   9.5428009959e+01   3.6988980792e+01     0.291207    0.2470723 -21.45 0.0007758101    1.392    0.282
        33  -9.5204    125.9455    127.4641   8.7574184408e+01   3.1617362865e+01     0.219155    0.1333317  65.45 0.0006163876    2.416    0.586
        34 -10.6681    116.6545    126.0174   8.9725683278e+01   3.3808469650e+01      0.39499    0.2428358 -62.73  0.001496523    1.864    0.463
        35  -9.9849    107.0369    119.9344   9.0938338505e+01   3.7086713859e+01    0.2189043    0.2123946 -60.07 0.0002930169    1.011    0.011
        36  -8.7879     86.6297    120.2715   9.6927479701e+01   4.0583872870e+01    0.1511153    0.1120809  71.83  0.000564085    1.673    0.402
        37 -11.3263     24.2098    119.6656   1.1546806492e+02   4.8305860480e+01    0.2980854    0.1212389  40.47   0.00135907    2.708    0.631
        38  -9.5869    168.2474    113.1394   7.3474018182e+01   2.5446850448e+01    0.2978276    0.2135854  84.94  0.001215062    2.088    0.521
        39 -11.1239    133.7498    144.2348   8.9428212959e+01   2.6177233545e+01     1.227487    0.2760563 -54.03   0.00260714    6.904    0.855
        40  -9.6139    114.3787    110.8069   8.6559758117e+01   3.7797860429e+01    0.2249191    0.1405451 -38.95  0.000511776    1.657    0.397
        41  -9.8179    205.3561    110.1963   6.5116323897e+01   1.7476248628e+01    0.2490222     0.204841  36.51 0.0008122287    1.312    0.238
        42 -10.8285     33.1039    109.1436   1.1113546939e+02   5.0085160210e+01    0.2433958    0.1749561 -80.12 0.0007089113    1.328    0.247
        43 -11.8325     18.4481    109.2836   1.1570510449e+02   5.1245991223e+01    0.3394518    0.1983603 -49.48  0.001879102    1.568    0.362
        44 -10.2826    134.7283    105.1905   7.9491730903e+01   3.4772359611e+01     0.387168      0.13718 -42.13  0.001212149    2.821    0.646
        45 -10.8577     39.2194    102.1654   1.0789821210e+02   5.1189429412e+01    0.3803642     0.159032  46.06  0.001555837    3.074    0.675
        46  -9.4727     32.8578     96.8090   1.0896298529e+02   5.3064410251e+01    0.1777559    0.1440283  88.07 0.0006586259    1.351    0.260
        47  -9.4706    130.3465     96.6590   7.8254101269e+01   3.7578395288e+01    0.1643161    0.1264909 -85.43 0.0005908048    1.789    0.441
        48 -11.0635     52.9124     90.9887   1.0084740948e+02   5.2359583506e+01     0.266674    0.2198602 -82.05  0.001027224    1.375    0.273
        49 -10.2331     41.6713     91.8706   1.0493560930e+02   5.3391570468e+01    0.2031983    0.1742758 -19.31 0.0004365168    1.278    0.218
        50  -9.8561    249.6989     87.6919   5.2693908519e+01   1.1738945578e+01    0.1299763    0.1049005   2.48            0    1.600    0.375
        51  -9.8967    112.5071     82.0870   7.8898004217e+01   4.4480720727e+01    0.3943658    0.2638468  83.68   0.00145271    2.977    0.664
        52  -9.1505    159.3100     81.3167   6.6607545988e+01   3.3858584882e+01     0.158899    0.1237334  13.56 0.0004754413    1.637    0.389
        53 -10.5580     13.5254     60.1515   1.0817555723e+02   6.2838077969e+01     0.218349    0.1783638 -52.06 0.0005059144    1.074    0.069
        54  -9.1695     97.8156     56.8783   7.4961672744e+01   5.2350033585e+01    0.1878844    0.1732281 -72.88 0.0004145991    1.345    0.256
        55 -12.2380    183.4783    215.0490   9.1894345661e+01   2.6369187751e+00    0.4183954    0.3646606 -60.20  0.002582666    1.504    0.335
        56  -8.7204    130.3106    212.6767   1.0252994479e+02   1.2207910774e+01    0.1364042   0.09606905  67.87  0.000421592    1.653    0.395
        57 -15.0309      9.3224    207.5549   1.2682826352e+02   2.9556668524e+01     1.150615     1.030222 -71.31  0.004237826    1.481    0.325
        58 -11.5472    193.4240    195.1142   8.6354637596e+01   4.2231215015e+00    0.8466133    0.4529561 -62.94  0.002705252    5.316    0.812
        59 -11.1539    139.2221     44.9266   5.9603955187e+01   4.4903966123e+01    0.3843493    0.2849372 -80.36 0.0008701152    1.802    0.445
        60 -10.4863    143.0134     40.2301   5.7197386692e+01   4.4631306621e+01     0.231052    0.2123435 -32.04 0.0003893919    1.142    0.124
        61 -10.1040    189.6835     15.0193   4.1998422427e+01   3.5863795067e+01    0.1857194     0.169301 -58.36 0.0006313844    1.121    0.108
        62  -8.9088    134.3476     11.7446   4.9102460642e+01   5.0100838439e+01    0.1337547     0.100722 -78.64 0.0002897593    1.593    0.372
        63  -9.5562      2.3477     50.3009   1.1051825479e+02   6.5527223776e+01    0.1267928   0.06292046 -38.39 0.0007038224    1.687    0.407
        64  -9.7003    112.0314    197.5440   1.0432542320e+02   1.8315263947e+01    0.2128942    0.1238368  40.91   0.00102599    1.581    0.368
        65 -11.4328    138.2938    171.7349   9.3958162318e+01   1.9150814531e+01    0.4894996    0.3069702  67.47  0.001939562    2.301    0.565
        66 -10.4934    147.1301    183.8690   9.4172501048e+01   1.4926018001e+01    0.2263498    0.1945783  64.63  0.001234754    1.241    0.194
        67  -9.7492     99.2806    180.9468   1.0479289510e+02   2.4033586859e+01    0.2398422    0.1903425  44.42 0.0006256331    1.222    0.182
        68 -12.1829     64.3761    178.8282   1.1273936678e+02   2.9699196575e+01    0.4086373    0.3121389 -36.47  0.002282216    1.811    0.448
