#   1 NUMBER                 Running object number                                     
#   2 MAG_AUTO               Kron-like elliptical aperture magnitude                    [mag]
#   3 X_IMAGE                Object position along x                                    [pixel]
#   4 Y_IMAGE                Object position along y                                    [pixel]
#   5 X_WORLD                Barycenter position along world x axis                     [deg]
#   6 Y_WORLD                Barycenter position along world y axis                     [deg]
#   7 A_WORLD                Profile RMS along major axis (world units)                 [deg]
#   8 B_WORLD                Profile RMS along minor axis (world units)                 [deg]
#   9 THETA_WORLD            Position angle (CCW/world-x)                               [deg]
#  10 FWHM_WORLD             FWHM assuming a gaussian core                              [deg]
#  11 ELONGATION             A_IMAGE/B_IMAGE                                           
#  12 ELLIPTICITY            1 - B_IMAGE/A_IMAGE                                       
         1 -13.3338    246.7784     12.7058   7.9631208295e+00   2.5777742566e+01    0.7968367    0.4258059 -48.43  0.005376717    1.259    0.206
         2 -11.6159    248.2509      3.2458   6.0223505811e+00   2.6486222142e+01     0.403735    0.2125002 -50.67  0.002767968    1.269    0.212
         3 -13.6175    226.7907     13.7154   8.9829673090e+00   2.9181389688e+01    0.8133291     0.321726 -77.38  0.004093511    2.749    0.636
         4 -13.7530    230.6778      7.6178   7.5075623887e+00   2.9105434650e+01    0.7758644    0.5293865 -59.53  0.005567881    1.121    0.108
         5 -11.9943    201.5921     11.3381   9.6459059464e+00   3.4328562356e+01    0.2908221    0.2319815  61.85  0.001961278    1.628    0.386
         6 -13.0253      9.8524      6.6797   5.9566858804e+01   7.9627772341e+01     0.642761    0.4988487   8.75  0.003925643    1.261    0.207
         7 -11.7873      2.6947      3.1454   6.5634404845e+01   8.1126273369e+01    0.4214299     0.276277 -57.21  0.002414468    1.683    0.406
         8 -12.3076    216.7496      5.9838   7.6904376930e+00   3.1869938043e+01    0.3566791    0.2444267 -70.84  0.002447756    1.253    0.202
         9 -11.6510     23.8087      6.0161   4.5363312822e+01   7.7513188407e+01    0.4639422    0.1821213 -36.70  0.001960432    2.742    0.635
        10 -11.0394    178.8082      4.4040   9.0941787162e+00   3.9916567705e+01    0.1671998    0.1035008  72.02 0.0009431785    1.700    0.412
        11 -11.7934    193.4143     15.1118   1.1043733677e+01   3.5629087403e+01    0.3898071    0.2281112 -10.21  0.001923994    2.733    0.634
        12  -9.4773     41.5120      1.5079   3.0361917948e+01   7.4381891961e+01    0.1304757    0.1185013  55.05 0.0008102823    1.034    0.033
        13 -11.2439    199.6911      3.5991   7.8523796397e+00   3.5509333941e+01    0.2132284    0.1606463 -55.82  0.001174276    1.032    0.031
        14 -10.1017     58.0287    246.9707   8.5510920335e+01   1.5028076593e+01    0.2041061    0.1047219  47.71  0.001123074    1.721    0.419
        15 -10.3419    238.3364    244.8189   5.0569582148e+01  -2.6301376707e+00    0.1411729   0.07290887 -29.84 0.0005116394    1.603    0.376
        16 -10.7064    238.8924    249.5530   5.1112338373e+01  -3.1789195970e+00     0.184206    0.1343696 -15.35  0.001199899    1.270    0.213
        17 -12.0292    111.5063    249.6933   7.3920919702e+01   8.9253863234e+00    0.3948145    0.1701204  29.35  0.002051194    1.791    0.442
        18 -10.7787     61.2855    237.0644   8.4091867913e+01   1.6533543804e+01    0.3761599    0.1633441  36.89  0.001892776    1.745    0.427
        19 -11.6271     76.8104    248.4769   8.1381235764e+01   1.2823921811e+01    0.4448273    0.2431434  42.68  0.001821649    1.582    0.368
        20 -12.0643     73.7883    240.1759   8.1418322509e+01   1.4626637917e+01      0.75125    0.3260036  46.13  0.003323999    2.151    0.535
        21 -10.8562     66.1560    233.8433   8.2705832360e+01   1.6631454735e+01    0.3152812    0.1820576  39.55 0.0009264997    1.407    0.289
        22 -11.5184     62.2221    228.8405   8.3264168391e+01   1.8028011503e+01    0.4931266    0.2662179  46.79  0.001934652    1.649    0.393
        23 -11.5584     66.4944    248.9290   8.3726889082e+01   1.3814678015e+01    0.4815842    0.2136451  38.99  0.002019928    1.739    0.425
        24 -10.1489     64.3534    242.7045   8.3778392986e+01   1.5159280028e+01    0.2757534    0.1091995  38.94  0.001349949    1.926    0.481
        25 -10.9343     50.9266    249.7220   8.7285506075e+01   1.5236668732e+01    0.4130749    0.1501517  31.34  0.002030931    1.933    0.483
        26  -9.9287    171.3758    248.5689   6.1955006197e+01   2.8725337454e+00     0.169087     0.102475 -60.38 0.0008966114    3.365    0.703
        27 -12.1275    104.0680    243.4970   7.4912480822e+01   1.0744419583e+01    0.2874643    0.2004938  78.72  0.001665327    2.290    0.563
        28 -10.7189     46.8076    243.9947   8.7900579819e+01   1.6695207458e+01    0.2594629    0.1719373  53.62 0.0009091217    1.383    0.277
        29 -11.8862     92.5054    241.8296   7.7310169381e+01   1.2298523807e+01    0.2559964    0.1786228 -70.27   0.00160468    1.879    0.468
        30 -10.8132     54.3777    240.0945   8.5912671314e+01   1.6672529905e+01    0.3799244    0.1976141  60.21  0.001999962    2.106    0.525
        31 -11.2057    127.4028    241.0885   6.9668101966e+01   8.5668957475e+00    0.2451723    0.1172616  37.32 0.0008189899    1.920    0.479
        32  -9.2404     19.3116    241.6500   9.4132756286e+01   1.9699617750e+01    0.1333634   0.06090723  49.98 0.0005814348    1.719    0.418
        33 -10.6145    203.4258    240.3631   5.5343928822e+01   8.6596251865e-01    0.3175464     0.109397  29.60  0.001724134    2.671    0.626
        34  -9.9933    185.7709    240.0182   5.8294650010e+01   2.5887288913e+00     0.168191    0.1061489  50.69 0.0008973816    3.627    0.724
        35  -9.4857     13.6336    239.8053   9.5380843965e+01   2.0546853851e+01    0.1581166   0.08995225  67.69 0.0008366061    1.671    0.402
        36 -10.1460    215.4710    239.1372   5.3244209712e+01  -7.4417645569e-02    0.1822191    0.1138492  33.74  0.001210317    2.032    0.508
        37 -11.3579    113.0057    239.2647   7.2535864930e+01   1.0462760644e+01    0.2636173    0.1535251   6.99  0.001130411    1.885    0.470
        38  -9.7793    220.0710    238.0021   5.2374429845e+01  -3.4518283381e-01    0.1653849   0.09036939  -9.19  0.000767717    1.664    0.399
        39 -10.3330    178.0889    237.7967   5.9368841231e+01   3.6509897130e+00     0.217198    0.1137826 -17.68  0.001236732    2.114    0.527
        40 -11.2876     80.5009    236.4080   7.9557956178e+01   1.4588876789e+01    0.6532372    0.1663591  42.68  0.002421343    3.521    0.716
        41 -12.0096     72.9836    227.0796   8.0526096195e+01   1.7192920457e+01      0.62537    0.3395322  60.42  0.002503424    2.258    0.557
        42 -11.1541    240.0188    235.2976   4.9045122787e+01  -1.7222865381e+00    0.2133071    0.1312004   3.11 0.0006909831    1.325    0.246
        43 -11.8065    244.6396    231.6831   4.7895004267e+01  -1.6971552048e+00    0.3660792    0.1272168 -24.67  0.001971502    2.863    0.651
        44 -12.0364    233.6290    235.2557   4.9961908181e+01  -1.1891996163e+00    0.3374725    0.1608779  -4.78  0.002036206    2.362    0.577
        45  -9.7756    192.1935    236.1821   5.6670600153e+01   2.4623056418e+00    0.1314459    0.1125515   3.92 0.0003977129    1.317    0.241
        46  -9.4361    135.3161    236.3140   6.7471482035e+01   8.4463457599e+00    0.1203027   0.07874214  -6.76  0.000703569    1.644    0.392
        47 -11.7074    102.6163    234.2236   7.4303555277e+01   1.2501164913e+01     0.267214    0.1745852 -18.14  0.001500881    1.927    0.481
        48 -10.2889     54.5993    231.6686   8.5304589032e+01   1.8276831608e+01     0.314832    0.1564488  54.47  0.001585338    2.011    0.503
        49 -10.0298    178.7686    232.5840   5.8553349431e+01   4.2977764799e+00    0.1455926   0.08961216  29.56 0.0006391804    1.568    0.362
        50 -10.3976    218.5157    231.0311   5.1656502175e+01   6.2665929831e-01    0.1508511   0.08219768 -31.44   0.00102998    1.585    0.369
        51 -11.6745     94.9892    229.7911   7.5588616704e+01   1.4173222846e+01    0.3464495    0.1628932 -52.57  0.001744086    2.423    0.587
        52 -10.4733     47.7826    230.5613   8.6874885247e+01   1.9197955423e+01    0.2913973     0.135848  48.34  0.001449466    1.861    0.463
        53  -9.6403    161.2612    230.4445   6.1540518687e+01   6.4728984884e+00    0.1475779   0.09339916  31.44 0.0003715822    1.509    0.337
        54 -11.4025     99.8750    231.1419   7.4606078118e+01   1.3364427449e+01    0.1946985    0.1513128   8.52 0.0006010588    1.237    0.192
        55  -9.4989    138.2697    228.9659   6.5962128475e+01   9.2895373761e+00    0.1306065    0.1025223 -41.38 0.0004640844    1.435    0.303
        56 -10.6490    235.8080    225.1742   4.8236847260e+01  -2.1349239513e-01    0.1728568    0.1229997  -9.28  0.000640116    1.036    0.035
        57  -9.3659    117.6770    226.6952   7.0112364252e+01   1.2076628666e+01    0.1247201   0.08571181  -7.29 0.0006857091    1.639    0.390
        58 -10.0279     85.4701    222.4749   7.7097473655e+01   1.6663524888e+01    0.2571318    0.1523081  61.03  0.001293115    2.161    0.537
        59 -10.6584     26.5528    224.2684   9.1724954958e+01   2.2553332009e+01    0.2216646    0.1143888  85.90  0.001137523    2.157    0.536
        60 -10.8539     54.4728    222.2632   8.4672866296e+01   2.0187879324e+01    0.4196509    0.2195809  44.92  0.002027715    1.621    0.383
        61 -10.1271    226.1485    230.0602   5.0352484725e+01   5.8516107108e-02     0.163517    0.1013477  -9.66  0.000961218    1.287    0.223
        62  -9.8960     16.8801    222.8180   9.4052299393e+01   2.3726157908e+01    0.1737688    0.1555074  22.12 0.0005443539    1.245    0.197
        63 -10.8921    228.9712    220.9302   4.8630985452e+01   9.0136448112e-01    0.1868063    0.1599972 -20.64 0.0005372594    1.499    0.333
        64  -9.4903    109.3762    222.2542   7.1464060395e+01   1.3861369664e+01     0.127628   0.08728565  -1.33 0.0006964076    1.651    0.394
        65  -9.9028     95.0661    222.0631   7.4770103642e+01   1.5610619225e+01    0.1956933     0.134853  54.63 0.0006171428    1.635    0.388
        66 -11.1350     63.3252    220.7856   8.2358298473e+01   1.9529670236e+01    0.4434471    0.1945088  43.32   0.00163224    1.940    0.485
        67 -10.3006     22.8512    220.6249   9.2483024359e+01   2.3662677921e+01    0.2628988    0.2208736  -8.67  0.001689367    1.502    0.334
        68 -10.1735     78.4112    218.6587   7.8439289340e+01   1.8244594995e+01    0.2838301    0.1233417 -63.27  0.001302205    2.628    0.620
        69 -11.3381    248.2047    218.2746   4.5504990070e+01  -4.8049535905e-01    0.1871081     0.109609 -35.14  0.000936123    1.601    0.375
        70 -11.4583    243.2287    218.9236   4.6285830641e+01  -1.2842509180e-01    0.2325659    0.1065645  -8.04  0.001265125    2.884    0.653
        71 -12.0853    231.8752    213.9224   4.7177132365e+01   1.4906530753e+00    0.4089756    0.1986446 -38.06  0.002624742    1.884    0.469
        72 -10.5641     11.7641    204.2356   9.4681376413e+01   2.8260812576e+01    0.5018958    0.1151833  37.48  0.001950355    2.683    0.627
        73 -12.2844      5.6686    198.6806   9.6122565232e+01   3.0040579922e+01    0.6451566    0.3853317  69.15  0.003447029    1.509    0.337
        74 -11.3840      2.7673    190.9658   9.6682617554e+01   3.2092888559e+01    0.4819427     0.279731  87.63  0.001923347    1.675    0.403
        75 -12.2254      8.3488    209.0648   9.5739153066e+01   2.7445730743e+01     0.540713    0.4894184  36.76  0.003659511    1.180    0.153
        76 -11.5733     16.0770    213.9263   9.3922017595e+01   2.5715714602e+01    0.5149434    0.3616515 -87.41  0.002509453    1.515    0.340
        77 -11.3023     12.1616    214.5654   9.4942050955e+01   2.5909103552e+01    0.4944619    0.2204641 -73.31  0.002404813    2.446    0.591
        78  -9.9924    126.9505    214.4630   6.6536336211e+01   1.3122541812e+01    0.1820451    0.1618797 -24.48 0.0006125489    1.186    0.157
        79 -10.2143     68.3373    214.5526   8.0566608209e+01   2.0256169361e+01    0.2381844    0.1654697 -63.70  0.001350256    1.653    0.395
        80 -10.1940    242.7536    214.4395   4.5698759366e+01   4.3948546762e-01    0.1313249   0.07726241   7.30  0.000939188    1.615    0.381
        81 -10.5190    209.4846    211.9556   5.0328803701e+01   3.9396060198e+00    0.1629889    0.1348732  13.71  0.000592735    1.328    0.247
        82  -9.5063     88.7218    212.2952   7.5248264384e+01   1.8297009092e+01    0.1295782   0.08923241  52.73 0.0002186816    1.531    0.347
        83 -10.1398     81.0499    211.3477   7.7054446583e+01   1.9424699896e+01    0.3294328    0.1491413  54.54  0.001337747    2.836    0.647
        84 -10.3870     22.4438    211.2426   9.2169647738e+01   2.5745685295e+01    0.2631138    0.1501981   6.95  0.001288639    2.134    0.531
        85  -9.3138    132.5734    210.5070   6.4763421165e+01   1.3127091142e+01    0.1248175    0.1089563  12.89 0.0002291104    1.031    0.030
        86  -9.2090    122.6165    210.2868   6.6958724912e+01   1.4430113322e+01    0.1306204   0.08949807  50.61  0.000701232    1.742    0.426
        87  -9.1439     69.3177    207.6358   7.9671617114e+01   2.1612080386e+01    0.1456222   0.08581344  55.20 0.0005829849    1.773    0.436
        88  -9.3969     52.4736    207.4655   8.4056213906e+01   2.3570646765e+01    0.1362808     0.111782  43.77 0.0008087835    1.038    0.037
        89 -10.2403    180.2890    216.9724   5.6093988170e+01   6.3660503836e+00    0.2034997    0.1535525 -10.41 0.0009894031    1.119    0.106
        90  -9.4119    129.6273    206.2449   6.4828227234e+01   1.4278140486e+01    0.1265784   0.08921843  47.38 0.0006940723    1.627    0.385
        91  -9.4110     73.3174    203.6939   7.8241006699e+01   2.1987708610e+01    0.1423535   0.08864621  53.12  0.000259779    1.630    0.386
        92 -10.1265    245.0000    199.9755   4.3217665086e+01   1.9776573320e+00    0.1681633   0.04542712 -37.29 0.0008051229    2.961    0.662
        93  -8.8281    186.5501    200.4908   5.2469027110e+01   8.1165941300e+00    0.1189166   0.09459284  -9.02 9.920216e-05    1.036    0.035
        94 -10.3177    128.0829    198.9013   6.4133784599e+01   1.5857939848e+01    0.1974156    0.1741529  10.16 0.0005540787    1.016    0.016
        95  -9.5676     32.5174    192.5042   8.8398844690e+01   2.9126607231e+01    0.1388561    0.1164395  49.72 0.0005723903    1.011    0.011
        96  -9.7633     91.6330    188.2761   7.1614621130e+01   2.3026437696e+01    0.1685997    0.1285913 -49.22 0.0002811111    1.426    0.299
        97  -9.9392    218.7634    187.3836   4.5005460660e+01   6.3183380010e+00     0.142732   0.09337274  13.72 0.0008821613    1.575    0.365
        98 -11.9690      1.7223    182.9223   9.6737215436e+01   3.4131027863e+01    0.5462704     0.174167 -79.15  0.002107245    3.051    0.672
        99 -10.8014     15.8013    183.0360   9.2652123061e+01   3.2992608926e+01    0.2381052    0.1776726  32.48  0.000558568    1.229    0.187
       100 -10.3290    249.4895    183.9616   4.0109120413e+01   3.5348486568e+00    0.1598936   0.07840407 -34.52 0.0008767325    1.572    0.364
       101  -9.0387     89.6682    163.7129   6.8591677860e+01   2.9011253899e+01    0.1469529    0.1135502 -15.16 0.0002880059    1.621    0.383
       102 -11.7459      4.5494    147.7228   9.4481940012e+01   4.3116613899e+01    0.3535934    0.2471274  17.64  0.001826389    1.516    0.340
       103 -10.4910      6.5023    141.4790   9.3464041700e+01   4.4701029785e+01    0.1447641    0.1268445  68.04  7.43521e-05    1.002    0.002
       104  -9.3483    215.4267    140.5354   3.7164541711e+01   1.3661405018e+01    0.1213617   0.09672996 -30.36 0.0001047367    1.009    0.009
       105  -9.9439    238.5022    135.5246   3.3151816441e+01   1.1281102531e+01    0.1152423   0.08724546 -31.80 9.697796e-05    1.018    0.018
       106 -10.4526    247.9529    130.6928   3.1145703959e+01   1.0745586733e+01    0.2663811    0.1692518 -57.06   0.00133085    2.118    0.528
       107 -11.2801    240.7267    126.0487   3.1116162364e+01   1.2322016254e+01     0.227955    0.1788653   1.36  0.001625894    1.519    0.342
       108  -9.3954    218.4856    124.4176   3.3581296253e+01   1.5689517893e+01     0.121323   0.09772462 -29.85 0.0008038937    1.062    0.059
       109  -9.8717    227.0406    124.9906   3.2579117301e+01   1.4357995733e+01    0.1800233    0.1238854 -54.57 0.0008841622    1.629    0.386
       110 -10.0656    239.6770    118.3485   2.9774710851e+01   1.3545645762e+01    0.1711327    0.1143678 -55.65  0.001087204    1.704    0.413
       111 -10.1344    235.8150    112.4884   2.9077979992e+01   1.4917214597e+01    0.2340435    0.1447329 -49.72  0.001227226    1.533    0.347
       112 -10.5740      5.4442    113.2505   9.2019366480e+01   5.2719887953e+01    0.2123715    0.1256514  80.76 0.0009526401    1.619    0.382
       113 -10.8168    239.8622    103.3580   2.6841122526e+01   1.5620329301e+01      0.20758     0.123513 -42.00 0.0008974093    1.288    0.223
       114 -13.0743    245.6100     98.9398   2.5388475530e+01   1.5401368437e+01    0.6274617     0.324327 -51.63  0.003623147    1.895    0.472
       115 -10.2745      5.5188     88.5045   8.9692972206e+01   5.9746475038e+01    0.1439367    0.1327282 -78.93 3.357063e-05    1.018    0.018
       116 -11.0824    238.5981     66.1931   1.9437495036e+01   2.0854708532e+01    0.1685454    0.0921868 -29.04 0.0009591116    1.714    0.417
       117 -11.8275    246.0877     58.8457   1.7356808493e+01   2.0592689783e+01    0.2952853    0.1351906 -50.40  0.001691187    1.740    0.425
       118 -11.5493    239.6026     46.6175   1.5294994332e+01   2.3160047143e+01    0.3434235    0.1361577 -23.54  0.001415258    3.732    0.732
       119 -11.0876    249.8316     44.3060   1.4177510425e+01   2.1765273296e+01    0.2887034    0.1668041 -22.26  0.001727944    2.035    0.509
       120 -10.1383    232.5217     42.4862   1.4893552376e+01   2.4872258531e+01    0.1183036   0.08692627 -48.48 0.0001561662    1.016    0.016
       121 -12.6250    242.9057     33.3765   1.2351949435e+01   2.4172324375e+01    0.5043898    0.1106703 -43.30  0.002299786    2.594    0.615
       122 -12.6307    244.7403     26.9235   1.0933954448e+01   2.4593423082e+01    0.3436881    0.2610673 -29.33  0.002041715    1.420    0.296
       123 -10.6582     13.9790     23.2223   6.6476223039e+01   7.5865146184e+01    0.1786659    0.1035989  25.81 0.0006503758    1.683    0.406
       124 -10.7375    247.8781    249.7241   4.9868501843e+01  -3.8749733259e+00    0.1955967   0.06611267  27.29  0.001218708    2.876    0.652
       125 -10.8036    151.9464    249.4915   6.5705117769e+01   4.6967434259e+00    0.3023194   0.08833279  27.40  0.001375656    2.782    0.641
       126 -12.9510    230.3467     18.8857   9.9409056841e+00   2.7979742050e+01    0.5483394    0.2368589 -85.90  0.002939685    2.604    0.616
       127 -10.5003    124.5312    249.5068   7.1178512871e+01   7.5635901400e+00     0.116143    0.0909203  17.64 0.0002465543    1.016    0.016
       128  -9.9819     33.6174    248.4256   9.1132665767e+01   1.7126764950e+01    0.2374932    0.1186037  41.89  0.001354411    1.489    0.328
       129 -10.7658    229.0058    247.3028   5.2261957030e+01  -2.1556697472e+00     0.138158   0.09206267  -1.78 0.0005410446    1.083    0.077
       130  -9.6155    225.2996    247.3245   5.2820314446e+01  -1.8557684359e+00    0.1030264   0.05518158  -9.10 0.0003826471    1.631    0.387
       131 -10.4967    198.0359    246.9981   5.7106857288e+01   5.4555474963e-01    0.2317675    0.1117371  35.63  0.001403649    2.445    0.591
       132  -9.5799    164.3201    247.3029   6.3099284355e+01   3.7444419446e+00    0.1134056   0.06879696  -5.02 0.0003158571    1.629    0.386
       133 -10.9333    131.4333    246.2908   6.9413757217e+01   7.3189388122e+00    0.1911621    0.1043607 -44.34  0.001022931    2.068    0.516
       134 -11.4051     95.6528    247.1883   7.7100908246e+01   1.1039528631e+01    0.1701194    0.1352064  52.17 0.0006021471    1.404    0.288
       135 -11.4558     88.8194    246.4365   7.8540794534e+01   1.1902144300e+01    0.2547854    0.1072428  36.56   0.00129174    1.870    0.465
       136 -11.3732     83.1246    244.3161   7.9631924028e+01   1.2881933023e+01    0.3783279     0.178477  40.68  0.001998046    1.795    0.443
