#   1 NUMBER                 Running object number                                     
#   2 MAG_AUTO               Kron-like elliptical aperture magnitude                    [mag]
#   3 X_IMAGE                Object position along x                                    [pixel]
#   4 Y_IMAGE                Object position along y                                    [pixel]
#   5 X_WORLD                Barycenter position along world x axis                     [deg]
#   6 Y_WORLD                Barycenter position along world y axis                     [deg]
#   7 A_WORLD                Profile RMS along major axis (world units)                 [deg]
#   8 B_WORLD                Profile RMS along minor axis (world units)                 [deg]
#   9 THETA_WORLD            Position angle (CCW/world-x)                               [deg]
#  10 FWHM_WORLD             FWHM assuming a gaussian core                              [deg]
#  11 ELONGATION             A_IMAGE/B_IMAGE                                           
#  12 ELLIPTICITY            1 - B_IMAGE/A_IMAGE                                       
         1 -11.0531     20.9128     29.1842   1.1041528791e+02   6.7069646727e+01    0.7500281    0.4500132 -14.53  0.004776442    1.545    0.353
         2 -10.9970     40.1139      3.0896   9.1380181121e+01   6.8112313669e+01    0.5145987    0.2456696  31.53  0.001412616    1.823    0.451
         3  -9.6817      2.8236     25.1249   1.1707925631e+02   6.9107612547e+01    0.3682364    0.1524839 -49.74  0.001899314    2.211    0.548
         4 -10.4109      6.5819     17.4125   1.1242586187e+02   6.9983461368e+01    0.4590328    0.2368652  -1.57  0.002343213    2.041    0.510
         5 -10.0636      1.4043     17.2908   1.1485604564e+02   7.0372514305e+01    0.3001476   0.07302253 -45.50  0.001086342    3.182    0.686
         6 -11.1280     19.7563     15.1107   1.0535747567e+02   6.9149231880e+01    0.5288866    0.3017715 -10.61  0.002151772    1.660    0.398
         7 -11.5695     25.7106      5.5894   9.8528000054e+01   6.9665532570e+01    0.5740191    0.3486048  21.10  0.003359234    1.431    0.301
         8 -10.3796     10.3992     10.1347   1.0761068192e+02   7.0659411500e+01    0.3284615    0.2113894 -14.42  0.001212949    1.203    0.169
         9 -10.5924     16.9188      9.9332   1.0444660539e+02   7.0084776942e+01    0.2886856    0.1789475   2.14 0.0004099868    1.409    0.290
        10 -11.7229      9.2721      3.4662   1.0521675333e+02   7.1588650442e+01    0.7698105    0.2456233  28.11   0.00386745    3.046    0.672
        11 -10.6274     26.6594     15.2067   1.0232324507e+02   6.8420419234e+01    0.4385379    0.2083441 -30.63 0.0008951479    1.867    0.465
        12 -10.4875     34.3682     11.0892   9.7258630595e+01   6.8015653523e+01    0.5417278    0.2573763  30.07  0.003168343    1.933    0.483
        13  -9.6072     75.3852     17.5495   8.5151529112e+01   6.1105825137e+01    0.3569884    0.1404556 -24.49   0.00164291    2.782    0.640
        14 -12.0290     68.7632     11.5125   8.4834480611e+01   6.2867370795e+01    0.3338659    0.2185975  33.39 0.0003154693    1.282    0.220
        15  -8.8403    161.1511     10.3338   6.4417884888e+01   4.3354412300e+01    0.1743419    0.1517648  53.05 0.0007443874    1.180    0.152
        16  -9.0978     48.9428     10.0071   9.1036610237e+01   6.6166329014e+01    0.1745566    0.1331457   8.54 0.0003893769    1.036    0.035
        17 -10.7146     80.4341      6.2228   7.9268014116e+01   6.1258140020e+01    0.3565218    0.2902539  58.40 0.0009346539    1.403    0.287
        18 -10.6495    247.0039      2.5136   5.3983575962e+01   2.4702743712e+01     0.573261    0.2063192  74.56  0.002807079    2.433    0.589
        19  -9.1043    144.3293      4.9668   6.5428117789e+01   4.7766135205e+01     0.307262    0.1796941  27.75  0.001566334    2.271    0.560
        20  -9.1829    157.5281      1.2775   6.2496922397e+01   4.5013452255e+01    0.3596067    0.1077472  69.96  0.001335104    2.937    0.660
        21  -8.3677    153.3164      1.2636   6.3070215700e+01   4.5994176387e+01     0.200014    0.1006202  64.76  0.000165966    1.599    0.374
        22  -9.9520     41.4482    244.2358   1.4237952871e+02   1.8649837854e+01    0.3706035    0.1860147  37.51 0.0004918255    2.121    0.529
        23  -9.5930    249.4747    250.3904   1.0319986742e+02  -1.4695560217e+01    0.3203933    0.1281277  31.35  0.001582545    2.328    0.570
        24  -9.3198    232.0619    250.7132   1.0638127818e+02  -1.2327937456e+01    0.2492815   0.09325844  36.90 0.0008752657    2.404    0.584
        25  -9.2473    202.8745    249.7340   1.1168952308e+02  -7.7852063378e+00     0.315061    0.1892234  29.32 0.0008117522    1.492    0.330
        26  -8.6926    197.9473    250.5572   1.1276739324e+02  -7.1266308129e+00    0.1821455    0.1068998  37.68 0.0004214478    1.478    0.323
        27  -8.5820    190.1107    249.4558   1.1411061840e+02  -5.6960946507e+00    0.2140986    0.1916267   8.20    0.0010931    1.109    0.098
        28  -8.7986    183.2675    250.6457   1.1562990520e+02  -4.7630326996e+00    0.1698173    0.1033891  31.81 0.0002518708    1.470    0.320
        29  -8.8704    166.5720    250.0511   1.1882461687e+02  -1.8918501988e+00    0.2192087    0.1626574  60.06  0.001084029    1.539    0.350
        30  -8.3347    150.4423    249.5054   1.2194789641e+02   9.2155303569e-01    0.1886128    0.1119284  32.86 0.0005398002    1.631    0.387
        31  -8.2970    148.1444    245.2166   1.2180235792e+02   2.0634733237e+00     0.251896    0.1474198 -51.65  0.001300086    1.984    0.496
        32 -10.1751    156.9779    246.1811   1.2016758581e+02   3.8620961634e-01    0.5064872    0.3113342  16.31 0.0007499985    2.494    0.599
        33  -9.2427    151.9677    244.2461   1.2089332657e+02   1.5809166437e+00    0.2488731    0.2301827  80.17 0.0003916284    1.204    0.169
        34  -9.9844     72.3842    250.3349   1.3724740088e+02   1.3265903638e+01    0.3639887    0.1587176  51.63 0.0001359253    1.914    0.477
        35 -10.5294     62.3663    248.7519   1.3895673884e+02   1.4990407602e+01    0.3564349    0.1903423  42.51  0.001265839    1.723    0.420
        36  -9.6468     51.5185    250.4885   1.4107068950e+02   1.6117420139e+01    0.2118818    0.1564522  43.92 0.0006276158    1.451    0.311
        37 -10.6595     46.9861    250.2249   1.4185705772e+02   1.6760982164e+01    0.2610773    0.1686982  38.49 0.0006808743    1.720    0.419
        38  -9.5334     37.4089    249.1754   1.4346189340e+02   1.8176191050e+01    0.2351062    0.1579256  71.85 0.0006902624    1.142    0.124
        39 -10.4933     33.1140    248.0186   1.4412550096e+02   1.8926963364e+01    0.2295374    0.1918351  73.83 0.0004377659    1.234    0.190
        40  -9.3067     25.3781    248.9231   1.4551206023e+02   1.9665069565e+01    0.2926558    0.1704149  36.91  0.001228549    1.981    0.495
        41 -10.8050     15.9840    249.0549   1.4709281967e+02   2.0701721111e+01    0.4572082    0.2068897  35.34  0.001914978    2.565    0.610
        42  -9.9590      9.0954    248.2026   1.4817395582e+02   2.1611047962e+01    0.2260339    0.1734211  51.58 0.0005409434    1.433    0.302
        43  -9.1903      2.6707    250.5599   1.4933345751e+02   2.1828521114e+01     0.241972   0.09314415  37.43  0.001345875    2.714    0.632
        44  -9.1180     45.2875    244.6463   1.4172225569e+02   1.8080993762e+01    0.3098771    0.1104814  37.27   0.00142359    2.870    0.652
        45 -10.9360    234.2470    243.1140   1.0470001897e+02  -1.1597296261e+01    0.3167366    0.2203992  -1.93 0.0004901851    1.418    0.295
        46  -8.5100    220.0168    243.8170   1.0745914604e+02  -9.5780055839e+00    0.2203916    0.1569628  47.75   0.00129437    1.676    0.403
        47  -8.7816    163.7694    244.0396   1.1848837072e+02  -4.0471386212e-01     0.205649     0.181502 -51.75  0.001299975    1.323    0.244
        48  -9.6492    114.0265    244.0134   1.2849825874e+02   8.0380946008e+00    0.2099213    0.1634988  48.81 0.0003501756    1.117    0.104
        49  -8.9077     20.1660    243.9248   1.4607420734e+02   2.1240499058e+01    0.1887329    0.1314095  58.88 0.0007671486    1.233    0.189
        50  -9.6465      2.6900    242.5831   1.4890865257e+02   2.3365806345e+01    0.2260113    0.1508505  67.28 0.0007475261    1.143    0.125
        51  -8.5285    210.5729    241.6898   1.0889338918e+02  -7.7947061877e+00    0.1432011    0.1211464 -39.50 0.0003206542    1.395    0.283
        52  -8.2761    177.2260    242.5769   1.1556958680e+02  -2.4498401975e+00    0.1815606    0.1106187  29.10 0.0003611025    1.606    0.377
        53 -10.5895    105.1249    240.9749   1.2990795143e+02   1.0080473096e+01    0.4670217    0.2339548  37.52  0.001243774    1.947    0.486
        54  -8.7140     57.9762    241.9383   1.3916622831e+02   1.6949067170e+01    0.1876076    0.1408017  67.95 0.0004487356    1.051    0.049
        55  -8.3022    136.4785    250.4645   1.2485331392e+02   3.1071899780e+00    0.2405992   0.09766719  49.08 0.0009429384    2.265    0.559
        56  -9.7376    126.5975    240.2992   1.2548406579e+02   6.6451434959e+00    0.2392079    0.1976887  50.38 0.0004773918    1.046    0.044
        57 -10.1906    202.2991    239.6955   1.1015624970e+02  -6.1596163732e+00     0.222655    0.1950338  17.76 0.0003572686    1.032    0.031
        58  -9.5295    199.2861    234.9174   1.0994165616e+02  -4.9028497908e+00    0.4793372    0.1443341 -47.15  0.001704403    4.093    0.756
        59  -9.7136    170.6538    239.9008   1.1646838611e+02  -8.7496687698e-01    0.2369984    0.1909348  25.97 0.0004057816    1.183    0.155
        60  -9.4392    135.9695    239.0688   1.2340391390e+02   5.2760181350e+00    0.3745013    0.2174442  59.48  0.001795422    1.924    0.480
        61  -9.9726     69.1887    239.8129   1.3684461182e+02   1.5814504410e+01    0.2285674    0.1743206  51.97 0.0004187317    1.218    0.179
        62  -9.5136     62.1450    239.4586   1.3815545179e+02   1.6878911721e+01    0.2093197    0.1772587  63.63 0.0004459588    1.176    0.150
        63 -10.8149     35.5967    231.6652   1.4245933625e+02   2.1933109762e+01    0.6110681    0.3133127 -68.19  0.002541296    1.832    0.454
        64  -9.1687     29.8707    228.8981   1.4329933255e+02   2.3188118147e+01     0.276633    0.2126219 -61.09  0.001855656    1.605    0.377
        65  -9.7132     35.7767    239.8572   1.4306139398e+02   2.0230957909e+01    0.3442281    0.1662195  45.81  0.001188685    1.821    0.451
        66 -10.0844     16.4211    239.9392   1.4645927637e+02   2.2446334532e+01     0.351417    0.2097354  46.82  0.001791559    1.584    0.369
        67 -10.4258     10.7017    238.8774   1.4736607771e+02   2.3270988199e+01    0.2373615    0.1873358  66.66 0.0004955189    1.228    0.186
        68 -10.4919     25.4600    239.2957   1.4485118758e+02   2.1563776114e+01    0.2512223    0.2365884 -29.71 0.0005067655    1.821    0.451
        69  -9.3132     29.5239    239.5288   1.4415157084e+02   2.1044795864e+01    0.2251377    0.1761972  65.43 0.0008178709    1.169    0.144
        70  -9.0896    240.7649    238.9277   1.0279254347e+02  -1.1951376731e+01    0.1899619    0.1475162  16.53  0.000441504    1.115    0.103
        71  -9.6903    214.7975    238.8195   1.0760078774e+02  -8.0268554676e+00    0.2083777    0.1881317  15.26 0.0003655313    1.130    0.115
        72  -9.2444    118.5572    239.1169   1.2696313076e+02   8.2282251750e+00    0.2207323    0.1675231  42.08 0.0004129579    1.223    0.182
        73  -9.4587    220.7039    237.8398   1.0631232687e+02  -8.8020454395e+00    0.2528188    0.1556858  33.99 0.0006366684    1.473    0.321
        74  -8.2959    225.2260    235.9939   1.0514257953e+02  -9.2237628814e+00    0.1535293    0.1292196   7.36 0.0003335265    1.009    0.009
        75  -9.6732    149.4663    237.9556   1.2048053496e+02   3.1444829424e+00    0.2442291     0.191378  38.25 0.0004269702    1.149    0.130
        76  -8.1063    149.0174    232.7077   1.1978587066e+02   4.1959783335e+00    0.2593844    0.1981566 -84.09  0.001407644    1.695    0.410
        77  -8.9390    112.4875    237.0191   1.2792849049e+02   9.6516608896e+00    0.3379864    0.1928322 -72.62  0.001419661    2.143    0.533
        78  -8.9437    108.6357    233.1103   1.2821676436e+02   1.1071018348e+01    0.2113139     0.155462  54.93 0.0004475573    1.182    0.154
        79  -8.7731     96.8788    236.5937   1.3104178289e+02   1.2276956551e+01    0.3070239    0.1787951  65.33   0.00153982    1.801    0.445
        80 -10.0553     91.5364    236.1318   1.3206228001e+02   1.3213616463e+01    0.2354582    0.1976724  53.28 0.0004079329    1.147    0.128
        81 -11.1369     93.5053    228.2852   1.3073225959e+02   1.4521231203e+01    0.3818763    0.3524972 -13.61 0.0009245249    1.554    0.356
        82  -8.2172    183.8198    236.8605   1.1333562516e+02  -2.6155047539e+00    0.1714576    0.1479527  56.99 0.0004836694    1.322    0.244
        83  -9.8667     79.2469    235.9813   1.3449342232e+02   1.5125065236e+01    0.2355422    0.1658231  43.21 0.0003711934    1.389    0.280
        84 -10.0186      4.3566    235.5294   1.4823856348e+02   2.4592382831e+01    0.2766516    0.1724798  47.24 0.0007937247    1.570    0.363
        85 -10.4676    238.8838    217.5157   9.9291527351e+01  -8.5123109782e+00    0.3775682    0.2277543  33.00  0.001186142    1.617    0.382
        86  -9.1284    216.8752    220.6777   1.0400495188e+02  -5.5025513195e+00    0.2367307    0.1839843 -27.73 0.0003082115    1.277    0.217
        87 -11.3751    207.5298    232.3926   1.0789678770e+02  -5.8586433605e+00    0.7529753    0.4312067  22.53 0.0008866456    1.931    0.482
        88 -10.2196    221.7664    225.3637   1.0391629477e+02  -7.0514353524e+00    0.7618575    0.4016206  19.75  0.003139039    2.460    0.593
        89 -10.9007    231.7369    203.2553   9.7916439479e+01  -5.0727817887e+00    0.6559362    0.3667496 -43.05  0.003235527    1.821    0.451
        90  -8.7531    236.4819    201.9512   9.6788949067e+01  -5.6338008041e+00     0.187402     0.119793 -34.17 0.0003449232    1.470    0.320
        91 -11.0875    227.2852    215.7541   1.0111518195e+02  -6.4033722505e+00    0.7186626    0.5613601   1.12  0.004277842    1.243    0.195
        92 -10.4733    233.6980    210.2829   9.8892643660e+01  -6.5503579689e+00    0.4000253    0.3221873  -3.92 0.0008911304    1.158    0.137
        93 -11.1984    203.5593    216.2895   1.0581305870e+02  -2.5048341098e+00    0.5302519    0.3025854 -44.50  0.002578272    1.879    0.468
        94 -11.3721    211.1956    217.1744   1.0446776472e+02  -3.9689043387e+00    0.7936196     0.509437  28.12  0.002609939    1.531    0.347
        95 -10.2468    171.8549    233.4007   1.1519173226e+02   4.8532422031e-02    0.3247946    0.2687856  57.48 0.0007351349    1.308    0.235
        96  -8.6733    130.0208    235.2477   1.2409125277e+02   7.0284136840e+00    0.1838611    0.1492771  47.90 0.0002538115    1.081    0.075
        97 -10.3883    192.2813    233.0567   1.1101335508e+02  -3.4197522378e+00    0.2607723    0.2327467   7.66 0.0004441947    1.078    0.073
        98  -8.8128     65.0151    234.2760   1.3710830625e+02   1.7542955635e+01      0.17181    0.1362801  62.71 0.0004053166    1.096    0.087
        99  -8.8866    230.9903    232.8613   1.0351965456e+02  -9.6369770291e+00    0.1877807    0.1598743  14.29 0.0007591885    1.082    0.076
       100  -8.5358    176.9607    232.7018   1.1403824744e+02  -7.2041193020e-01    0.1855842    0.1503738  34.67 0.0002156152    1.097    0.088
       101  -8.9712    153.2648    233.0058   1.1895150188e+02   3.3911218676e+00    0.2219669    0.1691695  43.43 0.0003931863    1.159    0.137
       102 -10.2967     10.5051    231.4940   1.4694507370e+02   2.4779473811e+01    0.2276296    0.2082319 -87.40 0.0007271934    1.470    0.320
       103  -9.0180     14.6713    231.3324   1.4620734934e+02   2.4375160637e+01    0.1913847    0.1203412  77.33 0.0007332647    1.225    0.184
       104 -10.2231    250.3105    231.4549   9.9768841729e+01  -1.2254978557e+01    0.2122848    0.1510205 -28.33  0.001338879    1.332    0.249
       105  -7.9463    166.4358    232.5315   1.1616117661e+02   1.1545517347e+00    0.1341499    0.1197237  36.53 0.0001117732    1.006    0.006
       106  -9.8412    100.7998    231.1737   1.2958486891e+02   1.2750332008e+01    0.2471151    0.1998487  38.42 0.0004248357    1.322    0.243
       107  -9.5224    123.5887    230.9296   1.2482390151e+02   8.9831670802e+00    0.2433409     0.176541  42.90 0.0004076343    1.252    0.201
       108  -9.3911     85.3154    230.9881   1.3272673590e+02   1.5237321752e+01    0.2210473      0.18964  57.32 0.0007550382    1.143    0.125
       109  -9.5789     55.6534    230.9531   1.3860412110e+02   1.9524671168e+01    0.2008552     0.179226  71.14 0.0005152914    1.237    0.192
       110  -8.3722    226.4877    230.0537   1.0386250040e+02  -8.5239552163e+00    0.1842725    0.1450602  22.84 0.0003180086    1.144    0.126
       111  -9.4061    159.0900    229.2213   1.1715050606e+02   3.0613679161e+00    0.2808548    0.2181979 -17.60 0.0006380625    1.662    0.398
       112 -10.0812    162.5069    224.3205   1.1564318404e+02   3.3661371130e+00     0.501527     0.339013  77.99  0.001464486    2.452    0.592
       113  -9.6177    160.4095    218.1945   1.1506479859e+02   4.9190268988e+00    0.3453649    0.2371203  59.33 0.0009785139    1.651    0.394
       114  -9.5395    133.2219    230.0151   1.2267902272e+02   7.4920821049e+00    0.3380463    0.1943563  40.82 0.0008584002    1.567    0.362
       115 -10.2943     45.9051    229.1096   1.4030933438e+02   2.1189451425e+01    0.3583899    0.2269135  35.23 0.0007714496    1.844    0.458
       116  -9.3590     42.2283    212.8102   1.3954074072e+02   2.5170993315e+01    0.3340054    0.1904025  30.93 0.0009376066    2.200    0.546
       117 -10.3943     34.1162    215.0240   1.4135422318e+02   2.5658025027e+01    0.6103407    0.3192494  76.87  0.003197056    1.885    0.470
       118 -11.5327     49.3252    220.0364   1.3881033572e+02   2.2691872676e+01    0.7899397    0.5423471  74.61  0.004193076    1.250    0.200
       119  -8.6777    145.0802    229.1372   1.2006288836e+02   5.5711062877e+00    0.2022347    0.1742011  24.28 0.0004490849    1.250    0.200
       120  -9.5679    114.2497    228.9956   1.2650989207e+02   1.0966193479e+01    0.2901646    0.1737533  46.08 0.0005272356    1.475    0.322
       121  -9.3034     79.7176    228.4862   1.3357832319e+02   1.6613738753e+01    0.2682669    0.1869406  42.28  0.001050282    1.422    0.297
       122  -9.4389      1.9304    220.1504   1.4773819741e+02   2.7969116167e+01    0.3749141    0.1466105 -83.39  0.001959887    2.127    0.530
       123 -10.2079      8.0533    215.9270   1.4636356377e+02   2.8264475680e+01    0.2329962    0.2088273 -52.58 0.0005698903    1.647    0.393
       124  -9.0348     12.9516    216.4905   1.4550247671e+02   2.7655113268e+01      0.20461    0.1363723  57.84 0.0004692967    1.342    0.255
       125 -10.7633      7.2557    226.2049   1.4717886350e+02   2.6194741051e+01    0.3862285    0.3434621 -16.37   0.00186213    2.033    0.508
       126  -9.7647      1.6709    227.0826   1.4820274700e+02   2.6564902929e+01    0.2227879    0.1311091 -80.25 0.0005955798    1.383    0.277
       127 -10.3749    236.3881    226.4052   1.0137240288e+02  -9.4895961993e+00    0.2562628    0.2251747  16.33  0.001146889    1.156    0.135
       128  -9.5649    140.4269    234.8275   1.2188081432e+02   5.3035903177e+00    0.2289936    0.2043281  34.01 0.0004103731    1.143    0.125
       129  -8.8756    153.0185    227.9851   1.1822142412e+02   4.3770738738e+00    0.2034139    0.1861966  32.46 0.0003751631    1.084    0.078
       130  -8.4502    107.7068    228.3557   1.2779198261e+02   1.2195018861e+01    0.1761422    0.1181281  36.29 0.0004636574    1.534    0.348
       131 -10.3054     19.6161    226.7927   1.4501582615e+02   2.4781386499e+01    0.2226419    0.2016144 -74.66  0.000580135    1.473    0.321
       132  -8.9250    175.5665    227.0420   1.1338453766e+02   5.2742712123e-01    0.1997405    0.1643964  35.91 0.0003150245    1.094    0.086
       133  -7.9662    139.2570    227.3275   1.2101193806e+02   6.9562940042e+00      0.12647    0.1070665  -7.35 0.0002236973    1.556    0.357
       134 -10.2419     40.4343    220.6542   1.4061629279e+02   2.3677925183e+01    0.3218877    0.2871722 -74.85  0.001918236    1.357    0.263
       135  -9.5460    229.3908    225.5024   1.0250478346e+02  -8.2778831153e+00    0.2109326    0.1873227  -8.81  0.000324472    1.115    0.103
       136 -10.0570    200.1768    224.9679   1.0804526092e+02  -3.4075173661e+00    0.2294566    0.2094966 -11.90 0.0003780421    1.112    0.101
       137  -8.7142    185.3012    225.9961   1.1121608947e+02  -1.0054030175e+00    0.1768953    0.1659691  -8.59 0.0003751721    1.110    0.099
       138  -8.8467    120.9721    224.7894   1.2450947096e+02   1.0675806239e+01    0.1903036    0.1709582  40.52 0.0003136683    1.171    0.146
       139 -10.5711    249.0838    223.0266   9.8467898249e+01  -1.0866614537e+01    0.2631504    0.2095015 -28.82 0.0004186584    1.255    0.203
       140  -9.1949    191.6937    224.0353   1.0958076814e+02  -1.7820230694e+00    0.2145005    0.1761171  29.29  0.000432798    1.106    0.096
       141  -8.2107    170.9866    223.7168   1.1377241660e+02   1.9512732597e+00    0.1885246    0.1582106  35.87  0.000211383    1.081    0.075
       142  -8.8995    155.9335    223.8282   1.1694445512e+02   4.6464958697e+00    0.1982573    0.1745222  22.52 0.0003516173    1.183    0.154
       143  -9.8497    129.6501    223.5511   1.2248270322e+02   9.4112887597e+00     0.247215    0.2300074  22.63 0.0001684396    1.235    0.190
       144  -8.5198    104.7773    223.6938   1.2779131379e+02   1.3653097899e+01    0.1965188    0.1544144  36.64 0.0006550369    1.358    0.264
       145  -9.9555     42.3526    236.6990   1.4161786391e+02   2.0061270422e+01    0.3162189    0.2136755  52.85  0.001097962    1.316    0.240
       146  -8.4377    136.2526    223.0607   1.2100070111e+02   8.3383767358e+00      0.18771    0.1714729  57.47 0.0004915469    1.025    0.025
       147  -8.6097     83.0728    222.9462   1.3225041819e+02   1.7283628552e+01    0.1901339    0.1623631  70.05 0.0003430745    1.043    0.041
       148  -8.8073    175.0345    221.0546   1.1247739957e+02   1.7136540301e+00    0.2727028    0.1987501 -53.32 0.0009315559    1.573    0.364
       149  -8.9413     97.8925    221.8468   1.2900512221e+02   1.5176628259e+01    0.1837077     0.175902  64.02 0.0003816216    1.209    0.173
       150  -8.7403     75.6710    222.5489   1.3373551736e+02   1.8485802249e+01    0.2075637    0.1211307  38.21 0.0004328705    1.762    0.432
       151  -9.9916     16.2708    221.1558   1.4522392831e+02   2.6322184814e+01    0.2563805     0.230545  40.30 0.0009785128    1.556    0.357
       152 -10.4098     21.1452    218.4074   1.4411812492e+02   2.6386315336e+01    0.4246477    0.1864476 -61.29  0.001715491    2.271    0.560
       153  -8.6016    180.9145    220.9264   1.1123774974e+02   6.7916125596e-01    0.2028615    0.1734204  11.35 0.0004727616    1.199    0.166
       154  -8.3748    115.6660    221.4507   1.2516564213e+02   1.2283406078e+01    0.1775594    0.1267481  34.71 0.0009254655    1.471    0.320
       155  -8.2673     92.9903    221.7631   1.3002984473e+02   1.5984900365e+01    0.1654233    0.1027703  43.68  0.000441371    1.497    0.332
       156  -8.3090     68.6213    221.0125   1.3501293393e+02   1.9847380707e+01    0.1706797    0.1437774  86.31 0.0004612627    1.085    0.079
       157  -9.1083     59.9985    220.5910   1.3672452795e+02   2.1149272981e+01    0.1986877     0.160663 -66.41 0.0004724033    1.357    0.263
       158  -9.5795    186.0120    219.9236   1.1001409950e+02  -5.1517423757e-02    0.2099085    0.2054939 -56.74 0.0004076741    1.181    0.153
       159  -8.8964    141.6239    220.1640   1.1940134244e+02   7.9557838138e+00    0.1851497    0.1745543 -57.14  0.001108458    1.169    0.145
       160  -8.3160    109.4442    219.4732   1.2622154608e+02   1.3763288904e+01    0.1367742    0.1219991  65.84 9.054443e-05    1.033    0.032
       161  -8.0480    137.0277    218.2444   1.2008765183e+02   9.1756014615e+00    0.1768282    0.1101234  41.51 0.0002435397    1.475    0.322
       162  -8.3100    110.2145    224.3876   1.2673432218e+02   1.2597772462e+01    0.1853025    0.1120356  51.09 0.0002939253    1.492    0.330
       163 -10.4099    194.4408    216.3597   1.0765839020e+02  -9.1430746208e-01    0.3833985    0.2744768  22.33  0.001429429    1.440    0.305
       164  -8.5560    120.1779    217.2091   1.2357793089e+02   1.2392699077e+01    0.1909046    0.1822691  52.49 0.0004852135    1.136    0.120
       165  -8.2878     72.6351    217.0998   1.3374250438e+02   2.0120696923e+01    0.1695833    0.1101776 -58.29 0.0003566121    1.645    0.392
       166  -8.0561    124.8441    215.8112   1.2235351124e+02   1.1864719499e+01    0.1908037    0.1474079  64.52  0.000313543    1.280    0.219
       167  -8.0680     91.2921    216.2938   1.2969078177e+02   1.7440864745e+01    0.1199551    0.1084623 -23.68 0.0003872202    1.554    0.357
       168  -8.9600     83.1843    215.5123   1.3132471928e+02   1.8884372259e+01    0.2017484    0.1955783 -42.47 0.0004377175    1.369    0.270
       169  -9.8916    171.9647    214.3021   1.1194466660e+02   3.5433646881e+00    0.2395156    0.2041244 -30.46 0.0003924444    1.273    0.214
       170  -7.9329    166.2540    215.3119   1.1333020301e+02   4.4025924099e+00    0.1333573    0.1076619  -4.34 0.0002188524    1.522    0.343
       171  -8.8339    144.0516    214.9523   1.1803907016e+02   8.5695882075e+00     0.212449    0.1924496  41.42  0.000447318    1.067    0.062
       172  -8.6689    132.8333    213.7464   1.2028838243e+02   1.0865597324e+01    0.1956531    0.1801002  34.19 0.0004505483    1.155    0.134
       173  -9.9126    248.7294    212.6568   9.6616071897e+01  -9.2559670866e+00    0.2878194    0.1975515 -12.03  0.001299829    1.448    0.310
       174 -10.9782    193.9859    208.2564   1.0626101862e+02   6.3534989436e-01    0.4210624    0.3584842 -26.71  0.001459297    1.200    0.167
       175 -10.5052    179.1851    201.8665   1.0814867642e+02   4.6041246897e+00    0.3299325    0.2655266  85.40  0.001242646    1.698    0.411
       176 -10.9811    187.1037    212.3634   1.0843401132e+02   1.1308233004e+00    0.3718422    0.2648432  11.07  0.001848515    1.725    0.420
       177 -12.1078    184.0956    206.6208   1.0800272981e+02   2.7623128508e+00    0.6944913    0.6115821 -68.73  0.003794366    1.362    0.266
       178  -8.2969    112.0185    213.0119   1.2473870635e+02   1.4711141331e+01    0.1690976    0.1454166  58.36 0.0003280274    1.053    0.050
       179  -8.3545     75.1775    212.6219   1.3267802096e+02   2.0737191476e+01    0.1633118    0.1239216  33.27 0.0001547773    1.559    0.358
       180  -9.6613     20.4041    201.9199   1.4294034432e+02   3.0063501863e+01    0.4742995   0.09687646  40.78  0.001892422    3.821    0.738
       181  -9.2766     13.2418    203.9649   1.4451648531e+02   3.0335309630e+01    0.2178718    0.1588553  49.08 0.0005161425    1.438    0.305
       182 -10.1567      7.6207    203.5119   1.4556679631e+02   3.0976456100e+01    0.2259087    0.2083624  14.11 0.0005816191    1.676    0.403
       183  -8.5440      2.0151    212.0014   1.4720416019e+02   2.9674065305e+01    0.1807683   0.09755605  69.30 0.0004439167    1.571    0.363
       184 -10.8288    206.7863    205.8047   1.0321366429e+02  -1.2249494234e+00    0.3396455    0.2658963 -16.52  0.001009093    1.334    0.250
       185  -7.9691    155.3368    213.2587   1.1531396566e+02   6.8284110977e+00    0.1383469    0.1088401  11.32 0.0002483131    1.577    0.366
       186  -8.5745     98.9388    211.3706   1.2737222224e+02   1.7282030693e+01    0.1879535    0.1598626  50.11 0.0004326793    1.156    0.135
       187  -9.7514     26.5014    210.9612   1.4249706870e+02   2.7413494607e+01     0.354605    0.2227854  35.18  0.001222029    1.866    0.464
       188  -8.7441     16.2953    207.1815   1.4417544302e+02   2.9324475854e+01    0.2131509    0.1329827 -70.33  0.001324942    1.435    0.303
       189  -8.3939    107.7454    210.1440   1.2525930444e+02   1.6071849927e+01    0.1770837    0.1591333  26.31  0.001017903    1.334    0.251
       190 -10.3761     67.4448    208.0251   1.3378347576e+02   2.2895426370e+01    0.3315262    0.2266887 -72.92  0.001294938    1.363    0.266
       191  -8.5343    200.9122    209.5169   1.0509046479e+02  -8.4291796834e-01    0.1963391    0.1283516  36.70 0.0003718404    1.459    0.314
       192  -8.2380    162.4848    209.4650   1.1311353341e+02   6.2531450133e+00    0.1423082    0.1322884  42.15 8.296326e-05    1.008    0.008
       193  -8.3725    125.3335    211.0148   1.2150517884e+02   1.2797209091e+01    0.1867982     0.174784  67.81 0.0002624987    1.046    0.044
       194  -8.2381    134.0440    208.0722   1.1910523755e+02   1.1844597559e+01    0.1699116    0.1561191  57.90 0.0004451181    1.009    0.009
       195  -7.9622     93.9793    208.7789   1.2810316962e+02   1.8671490631e+01    0.1684106    0.1060467  42.56  0.000208916    1.528    0.345
       196  -8.5084     78.8791    208.1170   1.3132342348e+02   2.1192603973e+01    0.2040071    0.1575213  71.43 0.0002985485    1.170    0.145
       197  -8.8004     72.4752    208.2403   1.3272686633e+02   2.2119378039e+01    0.2236232    0.1571552  31.74 0.0005402308    1.707    0.414
       198  -8.3077    149.5508    207.5501   1.1559355286e+02   9.0715576433e+00    0.1425706    0.1332065  46.35 0.0001548483    1.022    0.021
       199  -8.2355    115.0439    207.3321   1.2321728089e+02   1.5425907050e+01     0.193015     0.170649  60.63  0.001100964    1.036    0.035
       200  -8.7741    127.3064    206.0348   1.2027265432e+02   1.3515416183e+01    0.1917157     0.179936 -89.73 0.0003866263    1.075    0.070
       201  -8.4508    120.2963    206.6053   1.2193115903e+02   1.4654968749e+01    0.1847041    0.1320642  34.20 0.0003487965    1.483    0.326
       202  -9.0008     47.9024    205.9621   1.3769593183e+02   2.5993326208e+01     0.178397    0.1554247 -79.19 0.0003977761    1.213    0.175
       203  -8.8141     33.4695    206.7161   1.4073822273e+02   2.7566923574e+01    0.2952203   0.07581098  40.37   0.00119745    3.345    0.701
       204  -9.3930    247.1328    204.3939   9.5337387490e+01  -7.7207414139e+00    0.2174997    0.1655627 -32.75 0.0006349795    1.241    0.194
       205  -9.0189    224.6555    204.6165   9.9509270827e+01  -4.1194581820e+00    0.3987693    0.1931009  48.61  0.001722125    2.481    0.597
       206  -9.9466    219.8174    202.1419   9.9957816663e+01  -2.8661558151e+00    0.3270636    0.2311296   7.03  0.001685833    1.651    0.394
       207  -8.0718    104.4382    205.5361   1.2531696904e+02   1.7659146860e+01    0.1380319    0.1284362  74.24 1.805395e-05    1.080    0.074
       208  -8.8069     39.9336    205.5605   1.3930934611e+02   2.7066249286e+01    0.2435046    0.1180486  36.02  0.001205648    2.230    0.552
       209  -9.3939     43.4876    203.4793   1.3836342978e+02   2.7105044579e+01     0.204668    0.1729229 -78.56 0.0005705594    1.190    0.160
       210  -8.8036     94.1913    203.6577   1.2733939710e+02   1.9791722856e+01    0.2310225    0.1556728  61.15 0.0008924502    1.453    0.312
       211  -9.8401     18.1163    211.1373   1.4413340438e+02   2.8274707516e+01    0.2478602    0.2119138  43.30 0.0009930613    1.480    0.324
       212  -8.3055    141.1798    203.6317   1.1677062076e+02   1.1467341196e+01     0.194703    0.1318683  32.87 0.0002890511    1.553    0.356
       213 -10.4836    196.1937    193.9485   1.0306161107e+02   2.9174148330e+00    0.2758884    0.2028523  31.20 0.0005792888    1.362    0.266
       214 -10.4579    199.8821    201.3506   1.0374936324e+02   8.3395946924e-01    0.2970112    0.2466986  -8.18 0.0003135838    1.263    0.208
       215 -11.3865    194.6467    199.8288   1.0452631795e+02   2.0870205813e+00     0.460009    0.3375744  -6.21  0.001859501    1.701    0.412
       216  -9.6950    192.4839    196.4430   1.0431681853e+02   3.1389958709e+00    0.2291531    0.1873145 -28.47 0.0006555735    1.257    0.204
       217  -7.8925    121.3404    202.2858   1.2100614231e+02   1.5419860702e+01    0.1376087    0.1159491  -1.60 0.0006252031    1.637    0.389
       218  -7.9476    110.5494    202.4617   1.2347590988e+02   1.7296610012e+01     0.141128    0.1305055  71.59 0.0002057377    1.047    0.045
       219  -8.5449     98.8789    201.9079   1.2603144688e+02   1.9415335296e+01    0.1945416     0.184248  43.27 0.0004129121    1.216    0.178
       220 -12.1867     64.4564    196.6674   1.3305841597e+02   2.5923454495e+01    0.7802063    0.4930376  69.03   0.00346018    1.610    0.379
       221 -10.1001     81.6643    200.5974   1.2972247651e+02   2.2482306535e+01    0.3231514    0.2120631  63.02 0.0007361192    1.507    0.337
       222  -9.4417     29.4112    201.4887   1.4108260947e+02   2.9195701144e+01    0.2111958    0.1158439  36.91 0.0007329407    1.993    0.498
       223  -9.4282    250.3933    199.0060   9.3728969378e+01  -7.3630260301e+00    0.1812752    0.1468746 -31.74  0.000514412    1.179    0.152
       224 -12.5408    205.0215    195.2113   1.0151551591e+02   1.0297287470e+00    0.7896821    0.5285861 -45.04  0.003860538    1.542    0.351
       225  -9.1930    243.3950    198.1304   9.4797306137e+01  -6.1188167659e+00     0.202135    0.1775012  22.35 0.0004488278    1.183    0.154
       226  -7.7162    104.2692    198.7070   1.2432412992e+02   1.9233668926e+01    0.1423898    0.1022383  75.67 0.0006920507    1.512    0.339
       227  -8.7249    118.0914    212.6689   1.2335458230e+02   1.3727750664e+01    0.1962399    0.1638868  47.16 0.0003599488    1.136    0.120
       228  -8.0966     89.5356    197.3768   1.2749172615e+02   2.1987451487e+01    0.1373615     0.123966  74.11  0.000132403    1.056    0.053
       229  -8.7709     22.0028    197.4782   1.4223400751e+02   3.0891651984e+01    0.1580029    0.1155944  41.31 0.0005057475    1.547    0.353
       230  -9.1429    238.0595    195.9322   9.5331042532e+01  -4.8861692895e+00    0.1950583    0.1717519  -9.37 0.0003642753    1.008    0.008
       231  -8.8883      3.8039    195.5418   1.4571511106e+02   3.3073371127e+01    0.2183596    0.1913722 -43.49  0.001604265    1.647    0.393
       232  -9.1591    114.2791    194.9848   1.2142906951e+02   1.8332394878e+01    0.2799442    0.1975733  52.77 0.0006863956    1.358    0.263
       233  -8.2209    150.6847    197.2677   1.1351758212e+02   1.1019469026e+01    0.1459997    0.1114131  71.12 0.0002285575    1.551    0.355
       234  -8.3078     74.8910    194.1768   1.3038295891e+02   2.5000378547e+01    0.1712559    0.1609434 -52.69 0.0004538903    1.303    0.233
       235 -10.1180    186.9740    193.3264   1.0485861711e+02   4.7970864090e+00    0.2026662     0.182993  28.87 0.0005125399    1.071    0.066
       236  -7.7549     37.3185    193.2975   1.3862174155e+02   3.0168275416e+01    0.1177677   0.09160786 -48.62 0.0003748531    1.614    0.380
       237  -8.6335     27.7998    192.5591   1.4057626483e+02   3.1396906020e+01    0.2492085    0.1442503  67.02 0.0008569553    1.667    0.400
       238  -9.5760    226.2697    191.9640   9.6731486334e+01  -2.2009913863e+00    0.1956807     0.170415 -21.47 0.0004339273    1.064    0.060
       239  -9.9518     57.4345    202.4889   1.3529295655e+02   2.5540970821e+01    0.3069174    0.1845947  31.52 0.0009150717    2.008    0.502
       240 -11.6449    211.7697    198.7024   1.0085738069e+02  -8.3822657782e-01    0.5296968    0.3505471  32.79  0.002423207    1.508    0.337
       241 -11.0799    190.3247    190.5801   1.0361271114e+02   4.6930917216e+00    0.4151453    0.3007401  84.90  0.001829756    2.337    0.572
       242  -8.9508    215.3637    190.2852   9.8488428970e+01   4.5205745400e-02    0.1449948    0.1046743   4.50 0.0007020326    1.689    0.408
       243 -11.2446    154.0902    188.2695   1.1106853847e+02   1.2293860521e+01    0.5270614    0.3906111  62.83  0.001947458    1.514    0.339
       244  -8.3275      9.9528    190.4787   1.4409036965e+02   3.3643170003e+01     0.156479    0.1108285  43.03 0.0006975454    1.573    0.364
       245  -8.8770     42.3626    199.1328   1.3815207773e+02   2.8231643822e+01    0.1891919    0.1706503  48.33 0.0007056107    1.340    0.254
       246  -8.0770     14.9309    189.0000   1.4294207211e+02   3.3510176315e+01    0.1648749   0.06708052  31.21 0.0006427851    2.875    0.652
       247  -9.0533      2.2117    187.7990   1.4544151690e+02   3.4927069612e+01    0.2564946    0.1194183  34.84  0.001413201    2.395    0.582
       248 -10.2795    233.0682    181.2901   9.3321707124e+01  -1.4966572852e+00     0.377558    0.3376211  43.19  0.001961719    1.261    0.207
       249 -10.5075    231.4727    185.5027   9.4467174870e+01  -1.9659277767e+00    0.3216445    0.2551798 -28.12  0.001133285    1.168    0.144
       250 -10.1636    229.5237    182.4900   9.4218557542e+01  -1.0854293687e+00    0.2492072    0.2256838 -13.81 0.0007551823    1.007    0.007
       251  -8.5867    131.6549    201.0843   1.1847446537e+02   1.3796432682e+01    0.1949815    0.1828672 -61.50 0.0004886852    1.133    0.117
       252  -9.1007     94.6639    189.0876   1.2505860271e+02   2.3087402899e+01    0.2365393    0.1827917  62.48 0.0005084675    1.250    0.200
       253  -7.9419    130.3207    185.3099   1.1600051706e+02   1.7581144801e+01     0.146461    0.1208836  -8.31 0.0007035565    1.645    0.392
       254 -11.0000    177.0242    183.8745   1.0510593386e+02   8.6634286283e+00    0.3897378    0.2987333  27.13  0.001924335    1.400    0.286
       255  -9.8315     28.1052    179.4935   1.3918661457e+02   3.4387094185e+01    0.5177451    0.2578864 -73.45  0.002654257    1.679    0.404
       256  -9.3412    224.5186    182.9515   9.5249203715e+01  -2.7323186194e-01    0.2101039    0.1297206 -40.47 0.0005906368    1.546    0.353
       257  -9.8232     32.0076    182.2769   1.3861542034e+02   3.3322625412e+01    0.3921039    0.2704352 -60.32  0.002191096    1.420    0.296
       258  -7.6715     69.2991    183.3383   1.3018032951e+02   2.8384819275e+01    0.1340557    0.1034387 -39.55 0.0007034382    1.661    0.398
       259  -9.0208      9.1620    182.6000   1.4358697187e+02   3.5492187989e+01     0.237321    0.1322754  36.93  0.001392158    2.009    0.502
       260  -9.4441      4.2814    182.4099   1.4458787108e+02   3.5958256030e+01    0.3053077    0.1738933 -83.79  0.001821549    1.383    0.277
       261  -8.3442    122.3108    181.6959   1.1723533995e+02   1.9930116175e+01    0.2188691    0.1448884  57.60 0.0003100639    1.595    0.373
       262 -10.6616    116.7629    178.8940   1.1805575124e+02   2.1618813123e+01    0.5615954    0.4653193  36.59  0.002003741    1.281    0.219
       263  -7.9473     56.3013    181.2751   1.3294984150e+02   3.0660571399e+01    0.1233213    0.1004254 -42.13 0.0003549006    1.537    0.349
       264  -8.9170     43.5220    179.9408   1.3574433152e+02   3.2569791129e+01    0.1982903    0.1115699 -70.24 0.0005508613    1.533    0.348
       265  -8.1700     14.9638    180.2177   1.4213952594e+02   3.5509898005e+01    0.1385287   0.09579901  39.11 0.0003826325    1.655    0.396
       266 -11.7013    191.9348    175.1444   1.0012118114e+02   7.4691615600e+00    0.4524722     0.419283 -31.53  0.002501282    1.065    0.061
       267 -10.6765     40.4814    171.7597   1.3545001131e+02   3.4871105399e+01    0.4305981    0.3249888 -85.85  0.001557838    1.142    0.124
       268  -9.7783      9.8497    176.7173   1.4291753847e+02   3.6772062144e+01    0.3061382    0.2065886  16.97  0.001869888    2.185    0.542
       269  -9.8508     11.0144    172.7952   1.4229875876e+02   3.7570975801e+01    0.3167922    0.1718674  70.99  0.001710942    1.894    0.472
       270 -10.1748    199.4725    175.6409   9.8664369417e+01   5.8664682903e+00    0.2926799    0.1845453  39.52   0.00112243    1.616    0.381
       271  -8.9472     83.9910    172.7416   1.2501224126e+02   2.8731975814e+01    0.1791625     0.122638  40.61 0.0004072992    1.520    0.342
       272 -11.8996    185.6704    165.9217   9.9482975553e+01   1.0654360513e+01    0.5717082    0.4596769  44.82  0.001767766    1.258    0.205
       273 -11.7352    148.9947    166.5271   1.0788244793e+02   1.8170260082e+01     0.747709    0.5680038   9.79  0.003349188    1.833    0.455
       274 -10.6877      6.2566    163.4182   1.4245817059e+02   4.0126757473e+01    0.3878655    0.3049447 -81.27  0.001539404    1.039    0.037
       275 -11.1457    216.7831    161.0756   9.2134774320e+01   5.3087117729e+00    0.7760537    0.4323966  52.54  0.003126494    2.060    0.515
       276 -10.1601    217.1688    156.5780   9.1087885293e+01   6.1061147497e+00    0.3075886     0.255175  10.13  0.001028438    1.396    0.283
       277 -11.2109    171.3325    158.2083   1.0093220407e+02   1.5330031095e+01    0.4618939    0.3453214  52.25  0.001648174    1.377    0.274
       278 -11.2337    193.1405    163.2105   9.7317406617e+01   9.6689934907e+00    0.4753703    0.3430154 -19.92   0.00217777    1.703    0.413
       279  -9.3715    100.9976    157.0282   1.1786515020e+02   2.9727213603e+01    0.2306292    0.2192157 -87.86 0.0006878731    1.029    0.028
       280  -8.4149    229.2437    155.9843   8.8730952023e+01   3.8588436260e+00    0.2017786    0.1706256 -34.62 0.0004104189    1.088    0.081
       281  -9.7839    123.4878    155.4733   1.1178415276e+02   2.5907417473e+01    0.3124373    0.3029957 -80.64 0.0008261051    1.028    0.028
       282  -9.8553     84.4233    154.7538   1.2175650863e+02   3.3061867073e+01    0.2988585    0.2863669 -50.82  0.001548593    1.141    0.124
       283  -9.4458    245.5246    149.9207   8.4630418051e+01   1.9277414804e+00      0.25202    0.1902343  26.50 0.0008121605    1.589    0.371
       284 -11.8797     84.0601    145.9977   1.2018023310e+02   3.5265233379e+01    0.6329952    0.5792105  16.88  0.002180169    1.281    0.219
       285  -8.7901     58.1854    150.1936   1.2788501869e+02   3.7959484554e+01    0.1934021    0.1508576  78.16 0.0004879672    1.349    0.258
       286  -9.1922    133.9593    148.3223   1.0759076808e+02   2.5493167075e+01    0.3073346    0.2284074 -41.40 0.0007161094    1.401    0.286
       287 -10.0537     26.7795    148.3686   1.3579510170e+02   4.1888108780e+01    0.3241711    0.1805717 -58.26 0.0009675467    1.526    0.345
       288  -9.8749     11.8901    146.4904   1.3930727400e+02   4.3612685095e+01    0.2922309    0.2199996 -74.49  0.001293975    1.043    0.041
       289  -9.3633     98.9072    147.0987   1.1641493815e+02   3.2512588399e+01    0.2368885    0.2003683  80.87 0.0006116501    1.262    0.207
       290  -8.3070    236.4550    145.4877   8.5211056744e+01   4.4409124889e+00    0.1419816    0.1273166 -32.84 9.214153e-05    1.042    0.040
       291 -10.4342     48.1348    143.3366   1.2943856107e+02   4.0860780101e+01    0.3922343    0.3021669  27.99  0.001385937    1.545    0.353
       292  -9.4150    200.2641    141.0645   9.0905442921e+01   1.2717101282e+01    0.3009806    0.2212729 -19.39  0.001374297    1.689    0.408
       293 -10.3244     98.8573    137.6960   1.1442707909e+02   3.4798320971e+01    0.3953362    0.3675132 -68.07   0.00107572    1.021    0.020
       294  -9.7009    225.0950    138.1448   8.5581474351e+01   8.0747813120e+00    0.4673123    0.3127065 -15.58  0.001634137    2.130    0.531
       295  -9.4557    175.7945    140.3684   9.5866975128e+01   1.8238675552e+01    0.2275081    0.1461962  37.78 0.0009542393    1.707    0.414
       296 -10.0738     42.2103    134.0849   1.2952285405e+02   4.3754676454e+01     0.316287     0.256945 -74.72 0.0008284359    1.112    0.101
       297  -8.5787    249.7110    134.0289   8.0601580387e+01   4.0247203885e+00    0.2006451    0.1571953 -42.13 0.0003836749    1.115    0.103
       298  -7.9928    234.4498    132.5700   8.2745275576e+01   7.2438041003e+00    0.1416433    0.1288352 -41.35 0.0001860492    1.030    0.029
       299  -9.7770    161.2556    131.7093   9.7080080877e+01   2.3376234476e+01     0.330362    0.2217788 -35.91  0.001143334    1.601    0.376
       300 -10.1086    173.6211    129.6966   9.3799266579e+01   2.1019518694e+01    0.3229349    0.2569211   0.65  0.000815047    1.710    0.415
       301  -8.6870    145.4893    130.4633   1.0053764635e+02   2.7155625333e+01    0.1571416    0.1533842 -79.59 0.0001100752    1.003    0.003
       302 -10.6609    169.8340    125.9546   9.3724333401e+01   2.2680789518e+01    0.3535015    0.2951395 -29.67  0.001716222    1.300    0.231
       303  -8.6016    219.3320    126.3092   8.3943446672e+01   1.1551183643e+01    0.1454757    0.1171304   3.14 0.0005559336    1.670    0.401
       304  -8.4057    242.4899    125.5115   7.9907904982e+01   6.9540877008e+00    0.1410672    0.1247518 -47.63 0.0001204079    1.001    0.001
       305  -8.5483    119.6548    122.6966   1.0525601687e+02   3.4387124176e+01    0.1570769    0.1243095  -4.74 0.0007040255    1.687    0.407
       306  -9.9951    165.8979    120.1459   9.3164749762e+01   2.4819772819e+01    0.2952025    0.2181001  45.01  0.001270858    1.388    0.280
       307 -10.9690    100.4188    116.8739   1.0912650122e+02   3.9427403670e+01    0.4531179    0.3817269 -85.31 0.0006546738    1.383    0.277
       308  -8.3468    102.4606    112.5079   1.0744407492e+02   4.0044588504e+01    0.2260536    0.1360795 -40.41 0.0006812298    1.685    0.406
       309 -11.1334     18.1011    115.0308   1.3324537371e+02   5.0436979784e+01    0.4279373    0.2803732 -75.69  0.001200497    1.419    0.295
       310  -8.9800    231.3972    116.2684   7.9642412466e+01   1.0902561260e+01    0.3721494    0.1689021  57.36  0.001099378    2.526    0.604
       311  -9.7129     34.0338    109.4700   1.2744838826e+02   5.0352709071e+01    0.3579274    0.2058156 -51.13  0.001268604    1.447    0.309
       312  -9.3863    129.0340    109.9900   9.9505189875e+01   3.5269195107e+01    0.2444225    0.2375594  78.48  0.001156669    1.045    0.043
       313  -9.5483    144.3860    106.3323   9.4646198964e+01   3.2662421196e+01    0.3054125    0.2423736  35.15  0.000723461    1.357    0.263
       314  -9.0313    250.5529    103.4247   7.3978683573e+01   9.2991709647e+00    0.2795458     0.119191 -40.69 0.0008042653    2.065    0.516
       315 -10.8748      8.0474     99.0223   1.3359814934e+02   5.4715969984e+01    0.3431856     0.287765 -38.84  0.001211832    1.194    0.162
       316  -9.3107    141.7015     97.9338   9.3037730313e+01   3.4997718568e+01    0.3060551    0.2264381  58.11 0.0007454155    1.408    0.290
       317  -9.5849     72.3270     98.1289   1.1277918618e+02   4.8282645535e+01    0.2352372     0.189443   9.08 0.0006370283    1.400    0.286
       318 -10.9759    241.2955     94.9335   7.3443558941e+01   1.2659562507e+01    0.4546457    0.3700083  52.72  0.002604119    1.413    0.292
       319  -8.9087    114.4383     95.9438   9.9615703772e+01   4.1298650040e+01    0.2843071    0.2112206  24.94  0.001079018    1.548    0.354
       320 -10.0227      2.1718     94.3302   1.3463967802e+02   5.6078313715e+01    0.2811595    0.1859055 -61.15  0.001550679    1.167    0.143
       321  -8.9770     54.0695     95.4904   1.1797476748e+02   5.1322024114e+01    0.1837848     0.132798  25.75 0.0007410887    1.541    0.351
       322  -8.2023    222.4996     92.4427   7.5652476432e+01   1.7154148923e+01    0.1441959    0.1289577 -67.72 0.0001020007    1.010    0.010
       323 -10.5465    158.1300     91.2355   8.7363454775e+01   3.2498847150e+01    0.2808102    0.2764252  -1.51 0.0003314793    1.093    0.085
       324 -10.4640     16.9289     88.0136   1.2862986486e+02   5.6508145111e+01    0.5376856    0.2465945 -64.12  0.002697683    1.950    0.487
       325  -9.0692     21.3481     86.3102   1.2677304670e+02   5.6542273384e+01    0.2014342    0.1433935 -38.14 0.0008543413    1.232    0.188
       326  -8.8953     33.9369     88.9255   1.2309219963e+02   5.4910401934e+01    0.1924523     0.160525 -43.64 0.0004562194    1.005    0.005
       327  -9.3698    187.0525     85.9633   8.0084461731e+01   2.6554567864e+01    0.2452668    0.1749135 -76.21  0.000582301    1.681    0.405
       328 -10.6235    154.4592     82.2550   8.5716518644e+01   3.5044089232e+01    0.4604751    0.3280404  47.80 0.0006655037    1.387    0.279
       329 -10.8443    156.9375     77.9841   8.3988149156e+01   3.5220527886e+01    0.4872095    0.3611114   9.07  0.001324062    1.991    0.498
       330 -10.1381    244.0427     82.7470   7.0441661488e+01   1.4154223690e+01    0.1902087    0.1666218 -76.39 0.0005964229    1.073    0.068
       331 -11.4582    220.7612     79.9408   7.3039671517e+01   1.9709677255e+01    0.3236458    0.2742767  88.17 0.0004048442    1.141    0.123
       332 -12.6108     79.9850     75.8167   1.0403722552e+02   5.1662747788e+01    0.3791762    0.3679914  -4.88 0.0003467959    1.121    0.108
       333 -12.4261     22.1396     74.2495   1.2369690269e+02   5.8976095433e+01    0.4251209    0.4053918  -8.24  0.002406219    1.243    0.196
       334  -8.6684    184.5297     77.5032   7.8382321880e+01   2.8652197231e+01    0.1460355    0.1400097  81.97 8.113361e-05    1.067    0.063
       335 -11.5977    115.8167     74.3711   9.2933779657e+01   4.5187511831e+01    0.4890502    0.4456067  76.24  0.001557385    1.257    0.205
       336 -11.2394    246.5529     72.5029   6.7950642421e+01   1.5298373015e+01    0.6055874    0.3027231 -55.91   0.00280212    1.930    0.482
       337 -10.1467     45.0964     74.9148   1.1563318517e+02   5.6658048488e+01    0.3280659    0.2834395 -75.64   0.00094761    1.513    0.339
       338  -9.7432    101.1279     73.1804   9.6717315789e+01   4.8368101940e+01    0.4116738    0.2220535  51.23  0.001708991    2.060    0.515
       339  -9.8359      4.9862     70.4791   1.2903064898e+02   6.0890140572e+01    0.3610304    0.2338922 -14.33  0.002345626    1.668    0.401
       340 -11.2499    227.0005     70.5773   7.0031552452e+01   1.9850540447e+01     0.437833    0.3217781 -74.95 0.0007474039    1.344    0.256
       341 -10.0344    164.5060     73.0054   8.1031975634e+01   3.4265959438e+01    0.2994749    0.2103979  76.86  0.001387436    1.631    0.387
       342 -10.0652      8.3996     72.7933   1.2831321754e+02   6.0226170605e+01    0.6438397    0.2819851  -8.41  0.002953514    3.516    0.716
       343  -8.4197    178.5354     74.4590   7.8695097672e+01   3.0622842367e+01    0.1478816    0.1377039  89.20  0.000808171    1.006    0.006
       344 -11.1249    238.0332     64.1804   6.7214610882e+01   1.8429858603e+01    0.5736042     0.292107 -43.16  0.002748556    1.778    0.437
       345 -11.6131    143.6065     64.1961   8.2988781286e+01   4.0708786196e+01      0.56757    0.4226422 -17.43  0.002169896    1.634    0.388
       346  -9.6691    106.9690     66.2398   9.2868513837e+01   4.8432732353e+01    0.2508339    0.2082454 -30.22  0.001010655    1.217    0.178
       347  -9.6462     51.7409     64.8187   1.1028955089e+02   5.7807277512e+01    0.2605686    0.2371231 -82.37  0.001105375    1.562    0.360
       348  -8.1288    250.3011     64.3412   6.5812665053e+01   1.5797310854e+01    0.1164239    0.1053008   8.17 0.0004072619    1.672    0.402
       349  -9.8489     59.2322     60.6351   1.0628744298e+02   5.7579733407e+01    0.4547363    0.2849448  -5.24  0.002107905    2.045    0.511
       350  -7.8034    243.2983     61.2877   6.5976735682e+01   1.7742305312e+01    0.1142649    0.1052707  28.22 0.0002404462    1.554    0.357
       351 -11.4694     80.2787     54.2817   9.7016023204e+01   5.5395553929e+01     0.876241    0.5081232  13.32  0.001319662    2.542    0.607
       352 -10.1637     15.7568     54.6013   1.2090974832e+02   6.3243480579e+01     0.492452    0.2021624 -41.15  0.002584764    1.920    0.479
       353  -8.5649    125.3322     55.9699   8.4788435852e+01   4.6176781166e+01    0.1909187    0.1827261  -2.35 0.0005090349    1.081    0.075
       354  -8.4307     96.5125     56.0032   9.2577264621e+01   5.2171996556e+01    0.2090773    0.1310564 -34.64  0.001043241    1.621    0.383
       355  -9.3428     27.1891     55.2064   1.1657639045e+02   6.2198303635e+01    0.1743245    0.1301557 -36.65 0.0004284577    1.108    0.098
       356  -9.9530     31.1706     52.1200   1.1405586569e+02   6.2374052549e+01    0.3517111    0.1430548 -36.42  0.001686003    2.223    0.550
       357  -8.7383    113.1955     53.0356   8.6944753118e+01   4.9254449115e+01    0.2139162    0.1767881  16.70 0.0006972713    1.258    0.205
       358  -9.7549      2.4469     59.1096   1.2732566908e+02   6.3247900688e+01    0.2502546    0.1785116 -83.14  0.001602978    2.016    0.504
       359  -8.8584     38.6521     52.7047   1.1132929373e+02   6.1501405704e+01    0.1275098   0.07961819 -15.63 0.0007032655    1.675    0.403
       360 -10.2830    225.3614    247.7959   1.0712839118e+02  -1.0949849551e+01    0.2303009    0.2056009   5.59 0.0004524451    1.169    0.145
       361  -9.8543     13.9976     26.6801   1.1254331909e+02   6.8045987128e+01    0.3787188     0.191938  -2.43  0.001707555    2.315    0.568
       362 -10.5537     31.6040     35.0883   1.0806122692e+02   6.5124541845e+01    0.6259445    0.3208614   3.48  0.003016138    2.662    0.624
       363 -10.4787     24.5101     38.4951   1.1223190875e+02   6.5294188748e+01    0.1991845    0.1648488 -26.89 0.0006044573    1.176    0.150
       364 -12.6388     19.6530     41.0345   1.1513248079e+02   6.5308629502e+01    0.5565516    0.2927515 -13.99  0.001464578    2.164    0.538
       365 -12.6512     13.1447     38.8395   1.1716595564e+02   6.6190152703e+01    0.5770321    0.3355338   0.72  0.001842516    1.801    0.445
       366  -8.7724    159.6658     59.3621   7.8222801282e+01   3.7644780371e+01    0.2218498    0.1634974 -76.33 0.0007767022    1.640    0.390
       367  -8.2960    179.6704     42.6995   7.0186616211e+01   3.5192699805e+01    0.1376098    0.1016755  37.79 0.0007031714    1.645    0.392
       368  -7.8725     75.6504     41.6894   9.4125359269e+01   5.8085305006e+01    0.1353912   0.08950966   9.44 0.0007045071    1.716    0.417
       369  -8.8821     31.9739     40.3314   1.0979220764e+02   6.4268415435e+01    0.1606208    0.1268802  -3.49 0.0004889304    1.120    0.107
       370  -9.2528     44.9873     38.0075   1.0376982571e+02   6.3140993149e+01    0.2705969     0.136516 -19.71  0.001304288    2.404    0.584
       371  -9.4341     45.6735     32.8912   1.0158719994e+02   6.3800365960e+01    0.2395648    0.1889877 -35.36 0.0009542679    1.404    0.288
       372  -8.0514    189.7758     37.0305   6.7251705051e+01   3.3504437420e+01    0.1660482     0.109281 -38.28 0.0006795202    1.616    0.381
       373  -9.6786     53.5786     36.1451   9.9808710313e+01   6.2278804628e+01    0.2778016    0.1707181  10.30  0.001237739    1.787    0.440
       374 -10.2019      5.2976     32.4427   1.1847631171e+02   6.7790255618e+01    0.4363928    0.1757318  22.63   0.00246538    2.653    0.623
       375  -9.5570     75.4582     31.8432   9.0578939333e+01   5.9442676428e+01    0.2975928    0.1574835  35.16  0.001067001    1.764    0.433
       376  -8.9337    205.5136     30.9919   6.3763556028e+01   3.0541397746e+01    0.2498787    0.1634172 -89.47 0.0008283912    1.477    0.323
       377  -9.8118    145.6593     34.1536   7.3701818054e+01   4.4462822709e+01    0.3982085    0.2352862  56.47  0.001313357    1.487    0.328
       378  -8.6774    110.2754     30.1737   8.0122838099e+01   5.2906847727e+01    0.3073616   0.06591054  49.83  0.001006868    3.645    0.726
       379  -9.4168     66.7080     30.0320   9.2797902944e+01   6.1131882347e+01    0.2027445    0.1589575  25.32 0.0005966278    1.143    0.125
       380  -8.4632    177.6646     29.3282   6.7034162040e+01   3.7377673586e+01    0.1421087   0.09292271 -73.39 0.0007051901    1.724    0.420
       381  -8.3778     91.6878     29.0145   8.4627733023e+01   5.6815968760e+01    0.1763959    0.1517343   8.66 0.0006337033    1.100    0.091
       382  -8.0956    221.3608    248.2356   1.0794592196e+02  -1.0415673645e+01    0.1612906    0.1165291 -27.06 0.0002701633    1.426    0.299
       383 -10.2528    125.0598    248.3940   1.2685055450e+02   5.3900585848e+00    0.2501316    0.2266799  84.85 0.0005374267    1.171    0.146
       384  -8.0908    108.5350    249.4063   1.3023335559e+02   7.9096365082e+00     0.128274    0.1050711  56.84 0.0001400484    1.023    0.023
       385 -11.0887    211.5136    246.6238   1.0953431156e+02  -8.6787187804e+00    0.3447106    0.2245756  35.17 0.0005222824    1.361    0.265
       386  -8.2020    120.0682    248.4915   1.2785249659e+02   6.1992446640e+00    0.1838285    0.1098151  43.91 -2.197524e-05    1.425    0.298
       387  -9.7209    140.9500    246.8843   1.2347978455e+02   2.9914950837e+00    0.2014242    0.1867104  85.31 0.0004007543    1.185    0.156
       388 -10.1812    243.3007    245.0121   1.0338477925e+02  -1.3145179071e+01    0.2672332    0.1782668 -14.95 0.0004192345    1.436    0.304
       389  -9.0473    245.0989    229.8864   1.0041726989e+02  -1.1289437429e+01     0.226711    0.1590967   2.55 0.0004590675    1.377    0.274
       390 -10.2892    247.8794    238.4436   1.0143256054e+02  -1.2888137359e+01    0.3067303    0.1884555  24.38  0.001820516    1.500    0.333
       391  -9.4301    243.3763    234.4236   1.0153260617e+02  -1.1690731793e+01    0.3010301    0.2531574 -78.85  0.001172281    2.368    0.578
       392  -8.4778    238.8178    234.2509   1.0232701434e+02  -1.1005636249e+01     0.181416    0.1433238  56.61  0.001087867    1.958    0.489
       393  -9.6194    244.0856     23.7731   5.8260089262e+01   2.2806647176e+01    0.2472059      0.16901  32.91  0.001281747    2.945    0.660
       394  -8.2009    128.5344     22.4931   7.3524438802e+01   4.9737909407e+01    0.1303131    0.1144223  54.41     6.64e-05    1.023    0.023
       395  -8.5370     31.2052     19.9714   1.0235274508e+02   6.7305226306e+01    0.1539135    0.1312721 -54.14  0.001071881    2.047    0.511
       396  -8.7859     83.5249     19.4564   8.3447559604e+01   5.9426215139e+01     0.125163     0.101775  24.93 7.341085e-05    1.036    0.035
       397  -8.0438    171.4044    246.4937   1.1733398657e+02  -2.1161884394e+00    0.1280882    0.1119008  35.27  7.33865e-05    1.025    0.024
       398  -9.2523     58.1110     18.2713   9.1154148702e+01   6.3897338981e+01    0.2188132    0.1570123   7.58 0.0004678247    1.240    0.193
       399  -8.4169     76.0732    246.4984   1.3618599083e+02   1.3480428944e+01    0.1725459    0.1073887  43.83 0.0003888324    1.476    0.323
       400  -8.8236    248.9290    245.3520   1.0244043542e+02  -1.3964101972e+01    0.1638988    0.1186881  20.76 0.0004202819    1.205    0.170
       401  -9.6704    193.1494    243.0876   1.1250141102e+02  -5.1957955274e+00    0.4368457    0.3208795  85.71  0.001187791    2.735    0.634
       402  -9.1082    188.1532    244.7808   1.1375427564e+02  -4.6401055852e+00    0.3072219    0.2061651  13.17  0.001639551    1.760    0.432
       403  -8.8838    133.7209    245.0095   1.2467612049e+02   4.5572787394e+00    0.1709349     0.157154  65.21 0.0003194253    1.101    0.092
       404 -10.2256     94.5904    244.8503   1.3244308191e+02   1.0998411482e+01    0.3999913     0.182059  39.08 0.0004811421    2.062    0.515
       405 -10.0511     81.6106    244.2651   1.3490204880e+02   1.3101239035e+01     0.351182    0.1843886  38.33  0.001493797    1.887    0.470
