#   1 NUMBER                 Running object number                                     
#   2 MAG_AUTO               Kron-like elliptical aperture magnitude                    [mag]
#   3 X_IMAGE                Object position along x                                    [pixel]
#   4 Y_IMAGE                Object position along y                                    [pixel]
#   5 X_WORLD                Barycenter position along world x axis                     [deg]
#   6 Y_WORLD                Barycenter position along world y axis                     [deg]
#   7 A_WORLD                Profile RMS along major axis (world units)                 [deg]
#   8 B_WORLD                Profile RMS along minor axis (world units)                 [deg]
#   9 THETA_WORLD            Position angle (CCW/world-x)                               [deg]
#  10 FWHM_WORLD             FWHM assuming a gaussian core                              [deg]
#  11 ELONGATION             A_IMAGE/B_IMAGE                                           
#  12 ELLIPTICITY            1 - B_IMAGE/A_IMAGE                                       
         1 -11.1291     18.4154     25.5420   1.0320959941e+02   6.7334351893e+01    0.4402665    0.2763662 -22.62 0.0007316403    1.618    0.382
         2 -11.1096    224.8207     17.2026   4.7533412917e+01   2.6569893693e+01    0.3076006    0.1900038 -25.14 0.0007407318    1.670    0.401
         3 -11.7046    222.8218     21.7359   4.9012032928e+01   2.6558715602e+01    0.4941483    0.2448353  58.44  0.001304414    1.941    0.485
         4 -11.7472      2.9949      7.2820   1.0348799201e+02   7.1544260399e+01    0.4293679    0.1674235 -41.57  0.001257565    1.799    0.444
         5 -10.1886     10.9979      5.9177   9.9125966050e+01   7.1256553692e+01    0.3864473    0.1354672 -36.13 0.0003556084    2.343    0.573
         6 -10.7180     10.8400     10.2805   1.0097287566e+02   7.0543697800e+01    0.3289268    0.1732654 -36.37 0.0003711456    1.440    0.306
         7 -11.5325     11.8751     18.5372   1.0357981101e+02   6.9045780090e+01    0.5301313    0.2555669  21.60  0.003243095    2.551    0.608
         8 -10.8701      5.4277     16.2697   1.0563482638e+02   6.9846030151e+01    0.4214073    0.2013119   5.61  0.002194384    2.806    0.644
         9 -11.8978     16.6238      5.8017   9.6424108072e+01   7.0852464996e+01    0.8033209    0.4497047   4.48   0.00502674    2.169    0.539
        10 -10.9465     15.7149     14.1613   1.0027101762e+02   6.9540138979e+01    0.2104244    0.1731352 -32.60 0.0003190863    1.154    0.134
        11 -10.1913     16.5061     10.0460   9.8275246330e+01   7.0172194299e+01    0.2406252     0.141612 -38.04 0.0007388578    1.248    0.199
        12  -9.9911     22.8134     15.5716   9.7691141533e+01   6.8743359729e+01    0.2235911    0.1464252 -40.18 0.0003387056    1.162    0.139
        13  -9.3597     23.9448     11.5076   9.5533799520e+01   6.9320898110e+01    0.1702994    0.1173567 -35.14 0.0004199048    1.094    0.086
        14 -10.3651     28.7766     13.5014   9.4256156892e+01   6.8557791676e+01    0.2326273    0.1664315 -38.61 0.0008673191    1.170    0.145
        15 -10.6442     33.2726     12.6734   9.1972450140e+01   6.8251716290e+01      0.57068    0.1980429 -35.98  0.001885512    2.471    0.595
        16 -10.4448     38.1339     10.8631   8.9117474892e+01   6.8019329380e+01    0.7579511    0.3559934 -13.95  0.003011813    4.178    0.761
        17 -10.6702     31.4963      5.5536   8.9543070489e+01   6.9530870524e+01    0.2241148    0.1587002 -29.71 0.0004842945    1.111    0.100
        18 -11.3546     36.6816      6.0422   8.7518692159e+01   6.8902060861e+01    0.6123358    0.2526877  25.88  0.003029963    3.011    0.668
        19  -9.4394     50.6909     13.4839   8.5202409770e+01   6.6123581820e+01      0.21324    0.1332481 -31.42 0.0008885534    1.326    0.246
        20  -9.3265     43.9808     10.3195   8.6451016240e+01   6.7427904427e+01    0.1621474     0.129205  -9.04 0.0004493677    1.099    0.090
        21 -10.7843     52.9766      5.1607   8.0437343515e+01   6.6995544774e+01    0.4068151     0.335614 -16.22  0.002434805    1.132    0.117
        22 -10.5596     35.6802      2.0540   8.6034306284e+01   6.9585896092e+01    0.2549029    0.1889386   1.84  0.000405806    1.258    0.205
        23  -9.5196     74.6675      5.1041   7.2630197902e+01   6.3656984928e+01     0.248986    0.2107703 -79.65  0.001498981    2.078    0.519
        24  -8.1239     64.3484      5.2581   7.6247327908e+01   6.5317782895e+01    0.1246755    0.0808695   9.91 0.0003064381    1.600    0.375
        25  -8.7513    229.4451      4.5087   4.3632882984e+01   2.6769182872e+01     0.134423    0.1266107 -86.25 0.0001716684    1.054    0.051
        26  -9.0368     59.3933      3.2862   7.7095219874e+01   6.6318249050e+01    0.1570386   0.09892463 -31.69 0.0004994328    1.474    0.322
        27  -8.1863    239.3522      1.2758   4.1889194778e+01   2.4628777867e+01    0.1344489   0.09591918  43.85  0.000443387    1.642    0.391
        28  -8.7358     62.8109      1.3475   7.4899064519e+01   6.6035494250e+01    0.1562983   0.09898823  28.70  0.000250756    1.547    0.354
        29  -9.2756     41.3170    236.6882   1.2692233594e+02   2.3168646953e+01    0.1462341    0.1292223 -62.50 0.0008085019    1.938    0.484
        30 -11.8649    233.5666    245.1820   9.7396538038e+01  -6.5913768316e+00    0.4427362     0.251285 -12.83  0.002729845    2.344    0.573
        31 -11.8088    184.0814    236.5979   1.0416609987e+02   2.3293712676e+00    0.6281164    0.3887656  17.06  0.000468713    2.529    0.605
        32 -12.6871    197.4107    196.5637   9.5899057701e+01   5.3031514621e+00     1.584082     1.145653 -21.92  0.008196213    1.685    0.407
        33 -12.1064    225.2231    243.5549   9.8475548979e+01  -5.1313455886e+00    0.8734941    0.3027117 -32.29   0.00435511    3.725    0.732
        34 -12.9212    189.2565    217.0597   1.0057338550e+02   3.9494992978e+00     1.188169    0.8663548 -23.94  0.006772299    1.775    0.437
        35 -13.2101    205.8339    205.4375   9.5887624971e+01   2.5464137309e+00     2.709324     1.100321 -23.19  0.008606732    6.539    0.847
        36 -11.9575    210.6691    213.8948   9.6419263997e+01   6.0468846943e-01      1.23029    0.3560629 -40.03  0.004999614    4.185    0.761
        37 -13.0015    208.8767    244.3301   1.0117816851e+02  -2.6123711607e+00     1.046853    0.5783889  40.88  0.003827555    1.354    0.261
        38 -12.0003    204.6734    231.9845   1.0014490714e+02  -5.4803880407e-01    0.3202151    0.2934047  22.80 0.0006815143    1.214    0.176
        39 -12.2605    216.3574    230.6770   9.8038859236e+01  -2.3398003057e+00    0.4407578    0.3510514 -38.46 0.0006665713    1.648    0.393
        40 -11.6479    233.5052    210.9357   9.2098875980e+01  -2.9850941934e+00    0.4956602    0.2750525 -18.03 0.0009217052    2.231    0.552
        41 -13.0746    245.4374    242.2413   9.5120461945e+01  -8.1333023231e+00    0.8411929    0.7307194 -15.41  0.006340082    1.473    0.321
        42 -14.5042    223.6260    185.4935   8.9288447342e+01   1.9450380256e+00     3.392154     1.896492 -37.80   0.01752241    2.017    0.504
        43 -12.0107    235.9115    226.9275   9.4294685046e+01  -5.1359891126e+00    0.3658001    0.3206479  -5.53 0.0007585509    1.310    0.237
        44 -11.9773    238.4219    217.9051   9.2445337927e+01  -4.5857979958e+00    0.4373114    0.2957922 -24.69  0.001198877    1.668    0.400
        45 -11.9512    230.2454    233.9387   9.6277272510e+01  -4.9517463753e+00    0.3715717    0.2752245 -36.30  0.002618637    1.782    0.439
        46 -13.4710    248.0365    221.4555   9.1476243252e+01  -6.5201141350e+00     1.450852    0.3776341 -31.65  0.006050384    4.364    0.771
        47 -12.2256    249.9906    152.2667   7.8087171940e+01   1.4453880162e+00       1.1887    0.1915642 -34.50  0.003298899    5.596    0.821
        48 -15.4696    245.2811    124.8851   7.2719189128e+01   6.3135328764e+00     11.56226     2.229306 -35.76   0.03283669    4.549    0.780
        49 -10.8268    163.5358    244.9814   1.0854757342e+02   4.6421304567e+00    0.2419486    0.2031769 -49.53 0.0005223884    1.585    0.369
        50 -10.7517    156.9730    245.9988   1.0971835915e+02   5.5631062932e+00    0.2234946    0.1988947  42.82 0.0004545164    1.242    0.195
        51 -11.5824    159.3119    235.6511   1.0813536775e+02   6.5464845845e+00    0.3221634    0.2198189  34.80  0.002108613    1.469    0.319
        52 -10.0548    158.4415    229.3796   1.0751402011e+02   7.5489843375e+00    0.2185758    0.1986573  19.54 0.0005158522    1.371    0.270
        53 -10.9120    163.4449    225.2114   1.0613662561e+02   7.2906527426e+00    0.3172223    0.2454529  60.59 0.0003689858    1.223    0.182
        54  -9.6083    165.7860    220.4078   1.0509979129e+02   7.5690092613e+00    0.1928919    0.1743429  24.18 0.0002878409    1.278    0.217
        55 -10.7245    151.9908    250.1129   1.1096337129e+02   5.8234283296e+00    0.4033485    0.1587949  53.62 0.0007714654    2.232    0.552
        56 -10.8511    151.8716    244.6835   1.1039104634e+02   6.5464088478e+00    0.4042694    0.2059666  45.74  0.001761608    1.490    0.329
        57  -9.6900    154.8598    241.1649   1.0951214544e+02   6.5331788673e+00    0.1783852    0.1652072 -40.31 0.0003757061    1.474    0.322
        58 -12.0743    140.4647    246.4783   1.1240887591e+02   8.1029326250e+00    0.3428955    0.2813018  17.23 0.0004996113    1.823    0.452
        59  -9.3489    101.4313    250.6036   1.1888237078e+02   1.3338132575e+01    0.1953039   0.07732742  46.20 0.0002344037    1.940    0.485
        60  -9.9706     87.4243    249.7404   1.2093361511e+02   1.5400259316e+01    0.1788319    0.1359397  59.09 0.0005089098    1.187    0.158
        61  -9.3601     72.5091    250.5653   1.2320792719e+02   1.7244439384e+01     0.182971   0.07554336  46.17 0.0005480211    1.925    0.480
        62 -10.0586     61.3736    248.7357   1.2471536968e+02   1.8919036664e+01     0.180053    0.1526064 -89.14 0.0007402096    1.492    0.330
        63 -10.1160     46.5969    250.4693   1.2693087246e+02   2.0422179881e+01    0.1659393   0.08859362  51.34 0.0005951306    1.460    0.315
        64 -10.3563    139.5169    234.7639   1.1130493680e+02   9.8782733242e+00    0.2100812    0.1851913  41.77 0.0005279721    1.301    0.231
        65  -9.8243    129.6223    235.1922   1.1297962143e+02   1.1380245620e+01    0.1980135     0.152775  43.11   0.00063791    1.304    0.233
        66 -10.1423     77.7663    235.5246   1.2133021043e+02   1.8865282139e+01    0.1985541    0.1399223  69.97 0.0004991789    1.062    0.058
        67  -8.4856      2.9963    236.4680   1.3232046886e+02   2.7163760854e+01   0.08718129   0.08217386  12.07 0.0005780742    2.358    0.576
        68 -10.4556    170.9553    232.9418   1.0586631232e+02   4.9795498446e+00    0.2117683    0.1821701  32.92 0.0004149546    1.219    0.179
        69  -9.7877    152.9160    233.0867   1.0889018531e+02   7.9461199661e+00    0.1744101    0.1500379  44.42  0.000362687    1.184    0.155
        70  -9.4753    108.2788    233.2325   1.1627052537e+02   1.4929500207e+01     0.172797    0.1424261  54.45 0.0005257163    1.239    0.193
        71  -8.8709     64.5272    233.9887   1.2326657651e+02   2.0824034844e+01    0.1159769   0.08071174 -52.18  0.000531893    2.363    0.577
        72  -9.8251    165.7804    232.4096   1.0666195125e+02   5.9127048126e+00    0.1970987    0.1605761  39.89 0.0002451743    1.153    0.133
        73 -10.0542     35.5019    230.8878   1.2745174264e+02   2.4755351059e+01    0.2632588    0.1704448 -54.34  0.001582207    2.616    0.618
        74 -10.2418    145.4062    230.9793   1.0989574121e+02   9.4706635770e+00    0.2152537    0.1750894  44.50 0.0005061991    1.187    0.158
        75  -9.6314    143.7234    226.1738   1.0961329419e+02   1.0444885543e+01    0.2019412    0.1643051  44.09 0.0003643644    1.197    0.165
        76 -10.0813    123.5339    230.8039   1.1352201753e+02   1.2982338485e+01    0.2413289    0.1899864  28.05 0.0006587576    1.755    0.430
        77  -9.8214     85.0230    231.3916   1.1985523676e+02   1.8542593247e+01    0.1762446    0.1489488  77.73 0.0006054305    1.254    0.203
        78 -10.8282     54.7083    230.9209   1.2456310677e+02   2.2532446158e+01    0.2319661    0.1730506  46.46  0.000725035    1.560    0.359
        79  -9.7426    133.9123    230.3217   1.1174265825e+02   1.1419683111e+01    0.1746905     0.166138 -84.06 0.0005550588    1.338    0.253
        80 -10.1285    100.3320    230.4457   1.1730282620e+02   1.6530191366e+01     0.200013    0.1653921  57.26 0.0005868995    1.238    0.192
        81  -8.5722      9.4726    231.4832   1.3122911272e+02   2.7343697013e+01   0.09497076   0.06224156  74.24 0.0008095142    1.038    0.037
        82  -9.5986     44.8437    229.2629   1.2595860961e+02   2.3968574471e+01     0.150919    0.1150922 -61.43 0.0005967544    1.924    0.480
        83 -10.4498    174.4092    227.4529   1.0457052368e+02   5.1250722733e+00    0.2165298    0.1806489  32.86 0.0005186585    1.200    0.167
        84  -8.6767    130.1806    228.8732   1.1220680985e+02   1.2229623363e+01    0.1446611    0.1201322  42.94  0.000474684    1.302    0.232
        85 -10.3766    113.2708    227.9990   1.1493677234e+02   1.4991810039e+01    0.2116516    0.1783603  74.60 0.0004088695    1.158    0.136
        86  -9.3367    109.5652    224.0257   1.1515331087e+02   1.6182166562e+01    0.1969381     0.120497  55.72  0.000492165    1.288    0.224
        87  -9.5402     79.0167    228.3736   1.2056751994e+02   1.9845875544e+01     0.161615    0.1365881 -75.21 0.0004906654    1.484    0.326
        88  -9.1931    169.6349    228.0710   1.0545876784e+02   5.8503494998e+00    0.1479674      0.13426  40.49 0.0004493491    1.177    0.150
        89  -9.5870    152.6745    227.8373   1.0829721167e+02   8.7253720875e+00     0.212866    0.1669143  26.23 0.0006143473    1.560    0.359
        90  -9.6056    155.2414    223.4398   1.0731136392e+02   8.9283287045e+00    0.1933022    0.1724861  32.58  0.000555097    1.280    0.218
        91  -8.9689    106.8285    228.1847   1.1602268307e+02   1.5931658086e+01    0.1405184    0.1153074  48.72 0.0003406326    1.321    0.243
        92  -9.5801     92.8593    227.7424   1.1827548806e+02   1.8034494928e+01    0.1566826    0.1352654  88.27 0.0004927915    1.301    0.231
        93  -8.5098     29.6662    228.6933   1.2819366827e+02   2.5748013754e+01   0.08065559   0.07099292 -81.56 0.0004673447    1.668    0.401
        94  -9.5204     19.8823    227.4192   1.2956034654e+02   2.6976344564e+01    0.1569164     0.124457 -82.25 0.0007949594    1.525    0.344
        95  -9.3757    139.0414    227.1117   1.1051670105e+02   1.1070575706e+01    0.1668584    0.1370876  37.34 0.0004675337    1.350    0.259
        96  -9.8426     67.9314    226.9284   1.2222037715e+02   2.1540294402e+01    0.1788416    0.1274136  53.15 0.0004662134    1.301    0.231
        97  -8.9414      1.4075    227.1279   1.3217968271e+02   2.8806760796e+01    0.1264004   0.06537996 -88.08 0.0004130835    1.487    0.328
        98 -10.9931    206.4611    223.3956   9.8593624255e+01   1.6739000933e-01     0.273114    0.2204534  -5.51 0.0006823477    1.444    0.307
        99  -9.2854    120.6363    224.7983   1.1336921456e+02   1.4357908323e+01     0.180986    0.1329747  46.32 0.0006223283    1.268    0.211
       100  -9.0548      7.4696    225.0070   1.3123681040e+02   2.8589313717e+01    0.1426301   0.09264334  64.07 0.0005428302    1.182    0.154
       101  -9.6236    170.6923    223.8065   1.0471412236e+02   6.2524043439e+00    0.2072528    0.1524982  31.51 0.0005836356    1.385    0.278
       102 -10.2267    174.9523    221.1710   1.0362466841e+02   5.8828600535e+00    0.2186119    0.1838731  20.19 0.0003969464    1.354    0.262
       103  -9.5312    129.4209    223.8882   1.1177966173e+02   1.3110413867e+01    0.2125214    0.1407653  43.28 0.0005604848    1.374    0.272
       104  -9.2688    104.1064    223.9264   1.1605836142e+02   1.7016442177e+01    0.1685841    0.1342566  63.25 0.0006240843    1.083    0.076
       105  -8.3313     89.6153    224.7283   1.1853694043e+02   1.8982976642e+01   0.09585678    0.0830672  33.27 0.0006994146    1.708    0.414
       106 -10.4155    180.7582    221.0836   1.0261583593e+02   4.8908699345e+00      0.21759    0.1990885  -4.47 0.0003978962    1.330    0.248
       107  -9.3045    135.4099    223.0767   1.1066464022e+02   1.2268812715e+01    0.1873714    0.1369719  43.33 0.0006075968    1.277    0.217
       108  -8.8444     82.4353    222.7812   1.1954500089e+02   2.0302205905e+01    0.1278151   0.09529149 -67.02 0.0005451247    1.579    0.367
       109 -10.4322     49.7232    222.3622   1.2476369975e+02   2.4548743619e+01    0.2008151    0.1555846  64.55 0.0004037749    1.231    0.188
       110 -10.3078    148.5147    220.5592   1.0810514854e+02   1.0483438935e+01    0.2239236    0.2051735  -1.91 0.0005683604    1.507    0.336
       111  -9.0940    114.9121    221.6053   1.1399811249e+02   1.5752891206e+01    0.1631782     0.150647 -89.26 0.0005782073    1.317    0.241
       112  -9.6327     97.9210    221.9310   1.1689951465e+02   1.8251948310e+01    0.1659039    0.1326222  64.83 0.0004827187    1.095    0.087
       113  -9.0846     74.1161    222.1879   1.2085454036e+02   2.1522448385e+01    0.1495635    0.1206065  65.04 0.0003741079    1.203    0.169
       114 -10.0291     40.0004    220.9293   1.2618448519e+02   2.5911714192e+01    0.1971065    0.1771182  42.86 0.0009822345    1.773    0.436
       115  -9.1387     28.6524    221.9506   1.2797823544e+02   2.6977336737e+01    0.1387711   0.09275667  82.06 0.0006027203    1.120    0.107
       116  -9.4980     15.6094    221.3979   1.2989291637e+02   2.8402854056e+01    0.1676304    0.1248795 -55.23 0.0009169338    2.286    0.563
       117  -9.4873    140.7905    220.2661   1.0940408424e+02   1.1815554594e+01    0.1794815    0.1697415 -67.96 0.0005690652    1.328    0.247
       118  -8.5321     92.4759    221.4812   1.1776702913e+02   1.9112169712e+01    0.1120663   0.08607826  66.30 0.0002563776    1.036    0.035
       119  -8.6348     68.2089    220.8743   1.2170847715e+02   2.2516018695e+01    0.1297822    0.1130217  76.90 0.0005346769    1.341    0.255
       120  -9.7337     58.6833    220.4321   1.2320944499e+02   2.3793649845e+01    0.2952082    0.1415039  46.38    0.0018636    1.804    0.446
       121 -10.1756     56.0069    216.6074   1.2335876326e+02   2.4776840564e+01    0.2103694    0.1221181 -83.83  0.000604695    1.551    0.355
       122  -8.1993    124.6771    220.7311   1.1223432936e+02   1.4360857765e+01    0.1046093   0.08515385  31.57   0.00035722    1.568    0.362
       123  -8.8970    128.9146    219.0201   1.1130891352e+02   1.3952030978e+01    0.1603014    0.1352689  25.58 0.0004761195    1.606    0.377
       124  -9.1477    109.1358    219.1127   1.1471979866e+02   1.7042960246e+01    0.1592259    0.1372134  51.97 0.0003520292    1.288    0.224
       125  -9.8480    158.9497    217.6742   1.0591949943e+02   9.1392394062e+00    0.1952444    0.1709403  31.70 0.0004798747    1.264    0.209
       126  -8.5774    154.4494    218.5100   1.0681341193e+02   9.7853776101e+00    0.1204386   0.09756432  50.20 0.0001530682    1.035    0.034
       127  -8.8536    136.0050    218.0224   1.0996132327e+02   1.2952451043e+01    0.1666809    0.1356123  24.76 0.0004603348    1.640    0.390
       128  -9.2890    119.8474    216.8484   1.1263047753e+02   1.5749612587e+01    0.1630902    0.1411483  52.99 0.0004874026    1.224    0.183
       129  -8.4461     77.3203    217.2747   1.1991461726e+02   2.1925885269e+01   0.09007921   0.08466907  50.67 0.0002504512    1.573    0.364
       130 -10.1244      7.9106    216.1645   1.3078096319e+02   3.0024351055e+01    0.1990826    0.1630954 -73.39  0.001460625    1.697    0.411
       131 -10.1251    179.6974    215.4624   1.0199478848e+02   5.8451201519e+00    0.2176631    0.1759039  29.29 0.0002135946    1.241    0.194
       132 -10.6440    171.0798    213.8724   1.0327256184e+02   7.5852275294e+00    0.2527251    0.2176609 -41.31 0.0005198368    1.435    0.303
       133  -8.9492    150.9768    215.4792   1.0702404724e+02   1.0833189785e+01    0.1663876    0.1488596  61.49   0.00039054    1.120    0.107
       134  -9.4662     83.1580    215.3791   1.1876820292e+02   2.1452512196e+01    0.1720338    0.1603877 -87.98  0.000640926    1.453    0.312
       135  -9.9221     31.0935    214.4031   1.2717023923e+02   2.8006122901e+01    0.2017099    0.1426836 -71.39 0.0009677254    1.601    0.376
       136  -9.7267    165.5865    214.0842   1.0426749696e+02   8.5169639775e+00    0.2106936    0.1658253  26.05 0.0006943616    1.441    0.306
       137  -9.6858    143.3204    214.3241   1.0822105660e+02   1.2310724551e+01    0.2168506    0.1717431  27.79 0.0006658175    1.558    0.358
       138  -8.7979    124.0611    215.5037   1.1174391260e+02   1.5296474101e+01    0.1748049   0.09709807  46.71 0.0004092908    1.503    0.335
       139  -9.0142    101.7571    214.6305   1.1552074833e+02   1.8901472832e+01    0.1812057    0.1540985 -36.28 0.0007984496    1.924    0.480
       140  -9.4330    132.0176    213.5504   1.1011601864e+02   1.4318223409e+01     0.174856    0.1705035 -27.86  0.000497877    1.416    0.294
       141  -9.6608    154.6338    212.3676   1.0596450697e+02   1.0679303272e+01    0.2109756    0.1832869  36.28  0.000421178    1.230    0.187
       142  -8.5782    111.3094    213.3043   1.1372168408e+02   1.7671012959e+01    0.1009765   0.09095895  24.76 0.0002701324    1.609    0.379
       143  -9.4768     63.2815    212.8915   1.2188184302e+02   2.4518629603e+01    0.1905185     0.137972  49.36 0.0007112851    1.408    0.290
       144  -9.6353     51.3048    212.8178   1.2384417292e+02   2.6001843846e+01    0.1509801    0.1411482   7.78 0.0008309367    2.013    0.503
       145  -8.4928    117.4770    212.4707   1.1254787394e+02   1.6844369679e+01    0.1176638   0.09586737  60.75 9.877148e-05    1.063    0.059
       146  -9.1437     97.0539    212.2101   1.1608565643e+02   2.0010730917e+01    0.1589675    0.1378133  58.99 0.0006195499    1.262    0.208
       147  -9.1185     41.0681    212.5202   1.2547573934e+02   2.7239715406e+01     0.140742   0.08590747  48.60 0.0005662908    1.532    0.347
       148  -9.6374     17.7291    210.9582   1.2904524702e+02   2.9974923751e+01    0.1812049    0.1597991 -44.40  0.001144202    2.160    0.537
       149 -10.4108    176.8729    208.6518   1.0148802459e+02   7.3130946551e+00    0.2440023    0.2042329 -28.29 0.0006363955    1.484    0.326
       150  -8.8449    125.1736    210.8363   1.1099728734e+02   1.5880665018e+01    0.1490374    0.1329016  41.07 0.0003934914    1.335    0.251
       151  -9.6678     25.2245    210.5036   1.2785782049e+02   2.9299657680e+01    0.1674962    0.1301743 -75.80 0.0008110636    1.517    0.341
       152 -10.3044    161.2283    208.7429   1.0428834301e+02   1.0080757673e+01     0.216679    0.2008855  -5.07 0.0005665484    1.367    0.269
       153  -8.9943    149.4698    210.0945   1.0657577554e+02   1.1923203981e+01    0.1530497    0.1217606 -53.14 0.0004256073    1.512    0.339
       154  -8.8342    106.9098    210.0730   1.1413828827e+02   1.8895572995e+01    0.1528537    0.1395615  25.42 0.0004813686    1.597    0.374
       155  -8.7958     78.4258    208.7326   1.1896490069e+02   2.3259587544e+01    0.1340027   0.09653967 -66.55 0.0006143177    1.546    0.353
       156  -8.7231    167.6370    208.0977   1.0305050959e+02   9.0431432702e+00    0.1510399    0.1168198 -28.91 0.0009193257    1.706    0.414
       157  -8.9070    146.1857    207.7577   1.0684940429e+02   1.2859064232e+01    0.1712593    0.1356444  50.17 0.0004894063    1.074    0.069
       158  -9.3821    149.5272    205.0806   1.0588017299e+02   1.2707600605e+01    0.2167651    0.1736804  32.66  0.000712416    1.377    0.274
       159  -8.7015    134.5408    208.0318   1.0897777511e+02   1.4795474959e+01    0.1562903    0.1182803 -61.86 0.0004042002    1.518    0.341
       160  -8.2595    131.2968    208.3506   1.0960001831e+02   1.5284607675e+01    0.1089541   0.09467211  12.31 0.0004086099    1.685    0.406
       161  -8.2363     74.4630    212.4622   1.1997509358e+02   2.3139794806e+01    0.1110333   0.08459972  71.30 0.0001977929    1.032    0.031
       162  -9.0725    114.7592    206.6615   1.1235819184e+02   1.8255655464e+01    0.1718093    0.1344549  41.55 0.0006154555    1.389    0.280
       163  -8.6271     72.9336    207.5258   1.1979875562e+02   2.4213052011e+01    0.1562179   0.09332571  47.97 0.0005169262    1.510    0.338
       164 -10.0429     46.7562    206.3224   1.2411746459e+02   2.7686281123e+01    0.1911626     0.166187  57.40 0.0004644188    1.468    0.319
       165  -9.6269    183.3790    205.7988   9.9898038840e+01   6.5544367853e+00    0.2094662    0.1645248  12.52 0.0007282105    1.541    0.351
       166 -10.0452    186.8513    201.3051   9.8570245894e+01   6.5704586850e+00    0.2361704    0.1961955 -28.49 0.0004386531    1.433    0.302
       167  -9.0954    171.5660    206.2507   1.0207562813e+02   8.6173649715e+00    0.1856145     0.161446  29.77 0.0004030921    1.201    0.167
       168  -9.0316    173.4114    202.4649   1.0117136041e+02   8.8525058199e+00    0.1884399    0.1797892  10.74 0.0006011166    1.211    0.174
       169  -9.3910    156.3661    205.1955   1.0465830296e+02   1.1488003778e+01    0.1890896    0.1731076  28.63 0.0006279394    1.254    0.203
       170 -10.0611    124.5372    205.8574   1.1050418988e+02   1.6816434987e+01    0.2894134    0.1568186  42.58 0.0005540306    1.696    0.410
       171  -9.5829    120.2232    206.0970   1.1131044279e+02   1.7477646417e+01    0.1789661    0.1487587  62.81 0.0004628073    1.050    0.048
       172  -8.8353     31.9904    206.5147   1.2654224443e+02   2.9294735340e+01    0.1373076   0.08663402  48.53 0.0005869814    1.539    0.350
       173  -8.7045    104.0654    205.4454   1.1413189365e+02   2.0130677807e+01    0.1666427    0.0991117  47.02 0.0002587896    1.481    0.325
       174  -9.3269     86.4080    204.9264   1.1720973247e+02   2.2824694380e+01     0.180079    0.1466329  44.17 0.0005561362    1.451    0.311
       175  -9.1134    140.5210    195.5221   1.0619467171e+02   1.5864837061e+01    0.1814506    0.1244407 -54.40 0.0006971852    1.664    0.399
       176  -9.8054    139.9362    203.0096   1.0734061857e+02   1.4707176633e+01    0.2813013    0.2251239  85.84 0.0009117832    1.337    0.252
       177  -9.3734    139.1673    199.1711   1.0695737689e+02   1.5481273854e+01     0.190035    0.1496234  73.30 0.0003854978    1.255    0.203
       178 -10.1160      6.3201    203.9699   1.3044424667e+02   3.2276688241e+01    0.1551614    0.1261646  61.71 0.0006346644    1.435    0.303
       179 -10.3496    164.9492    200.0515   1.0234188379e+02   1.0759383648e+01    0.2685598    0.2292674  15.29 0.0005757379    1.423    0.297
       180  -8.7661    162.2582    197.3649   1.0242808935e+02   1.1673258902e+01    0.1701757    0.1235114 -44.02 0.0005841105    1.642    0.391
       181  -8.6526    110.2151    202.5562   1.1269552562e+02   1.9684430154e+01    0.1538864    0.1041168  39.69 0.0005238517    1.577    0.366
       182  -9.4803     55.9905    201.9705   1.2222688807e+02   2.7374011732e+01    0.1608017    0.1278407  78.37 0.0004700571    1.129    0.114
       183  -9.2111     21.0891    202.1925   1.2802897096e+02   3.1189110726e+01    0.1411409    0.1104716  85.36 0.0005239468    1.242    0.195
       184  -9.2796    144.5722    200.8000   1.0618796980e+02   1.4269666219e+01    0.2010403    0.1493204  42.94 0.0006664796    1.250    0.200
       185 -10.2515    132.0882    199.6347   1.0832704400e+02   1.6615504079e+01      0.28328    0.2099737  27.95 0.0009159406    1.763    0.433
       186  -9.9080     98.3081    200.3291   1.1459830105e+02   2.1909881312e+01    0.2024214    0.1561656  69.87 0.0003251401    1.054    0.051
       187  -8.7992    155.0213    200.2438   1.0418937317e+02   1.2515070733e+01    0.1890928    0.1316515  24.90 0.0004518506    1.886    0.470
       188  -9.4132     69.3674    200.1610   1.1975068236e+02   2.6013079432e+01    0.1645857    0.1329367  58.03 0.0004019272    1.261    0.207
       189  -8.6461     80.7481    199.1335   1.1763415673e+02   2.4665853922e+01     0.136639    0.1248145  74.02 0.0004387052    1.326    0.246
       190  -8.7251     41.4965    199.4950   1.2449675954e+02   2.9522235315e+01    0.1063264   0.07994519  79.47 0.0008096048    1.073    0.068
       191  -8.4084    103.7471    198.3146   1.1337801983e+02   2.1444648158e+01    0.1189271   0.07792521  75.94 0.0002382527    1.525    0.344
       192  -8.3809     74.7141    198.7148   1.1866942911e+02   2.5567959083e+01   0.09302974   0.08852492 -70.43 0.0002400035    1.527    0.345
       193  -9.0418     49.3950    198.4029   1.2307026351e+02   2.8816560820e+01    0.1312744    0.1162622 -78.44 0.0006218666    1.470    0.320
       194  -9.7057    176.1619    195.7307   9.9613992736e+01   9.3750620001e+00    0.2306804    0.1782586 -37.84 0.0008508962    1.537    0.350
       195  -8.9580    149.2342    196.7362   1.0474594840e+02   1.4121360050e+01    0.1611352    0.1413327  27.72 0.0006362648    1.332    0.249
       196  -9.6456    179.0050    202.3346   1.0014238882e+02   7.8541703865e+00    0.1969719    0.1814322  -6.11 0.0003657562    1.278    0.218
       197 -10.2425    184.1696    194.4641   9.7942190427e+01   8.0777136994e+00    0.2964701    0.2393234  31.12  0.001323979    1.192    0.161
       198  -9.8350    185.6313    189.1523   9.6781592611e+01   8.6105068772e+00    0.2385688    0.2195442  43.55 0.0004018435    1.073    0.068
       199  -9.2915    170.0861    195.9827   1.0077087400e+02   1.0458968617e+01    0.1943481     0.166958  43.89 0.0005086819    1.047    0.045
       200  -8.6642    156.8368    196.2047   1.0325529756e+02   1.2844133186e+01    0.1614226    0.1433027  21.01 0.0003931933    1.335    0.251
       201  -8.8780    124.7698    196.4135   1.0925598690e+02   1.8405809602e+01    0.1647686    0.1069038  40.03 0.0004679973    1.560    0.359
       202  -8.4194     89.4241    195.5360   1.1568807799e+02   2.4095169737e+01     0.115515   0.09645535  74.12 0.0001495079    1.089    0.081
       203  -8.4938     60.9912    195.7613   1.2082909714e+02   2.7899115189e+01     0.133925   0.08071581  48.58  0.000363478    1.530    0.346
       204  -9.0379     16.9628    195.0075   1.2827414154e+02   3.2891022471e+01    0.1343441     0.107699 -67.93 0.0004707187    1.630    0.386
       205  -9.4441    132.9064    193.3515   1.0731713750e+02   1.7562886573e+01    0.2017101    0.1799152 -63.60 0.0003632993    1.285    0.222
       206  -8.8338    112.8052    193.8383   1.1115736120e+02   2.0826940330e+01    0.1695517    0.1519074  63.09 0.0004673216    1.172    0.147
       207  -9.0665     36.1235    193.1466   1.2494571873e+02   3.1285822049e+01    0.1480779    0.1203232  89.57 0.0004948196    1.251    0.201
       208  -8.3819    157.4635    192.4977   1.0257308640e+02   1.3339537528e+01    0.1288921    0.1112601  49.95 0.0008092469    1.038    0.037
       209  -8.7885    152.0074    192.2960   1.0356673024e+02   1.4365822041e+01    0.1785763    0.1442204  51.14 0.0003479272    1.066    0.062
       210  -9.6649    146.1604    191.2976   1.0451906936e+02   1.5588586370e+01    0.1946552    0.1721514 -43.64 0.0005991757    1.374    0.272
       211  -8.5407     26.5324    191.9871   1.2649511252e+02   3.2504965577e+01    0.1282991   0.06952082 -58.03  0.000513316    2.300    0.565
       212 -10.3736    198.9294    189.7082   9.4447412741e+01   6.0060650781e+00    0.2679178    0.2130035 -24.96 0.0008137905    1.437    0.304
       213  -9.7010    161.9579    190.2778   1.0138139246e+02   1.2879345792e+01    0.2076734    0.1882412 -32.04 0.0003850876    1.329    0.247
       214  -9.6388    172.6288    189.2770   9.9217736279e+01   1.1049309342e+01    0.2234623    0.2051596  15.55 0.0005455929    1.216    0.178
       215  -9.1361    139.8741    189.8334   1.0549432973e+02   1.6961911310e+01    0.1834009    0.1642257  36.92 0.0005676551    1.257    0.204
       216  -9.0090     64.0844    190.0756   1.1975356985e+02   2.8576886070e+01    0.1540206    0.1358038  87.85 0.0004377675    1.284    0.221
       217  -9.6819    178.9420    188.1073   9.7844069715e+01   1.0042357846e+01    0.2353587    0.1878533 -31.73 0.0005566402    1.479    0.324
       218  -9.2659    134.3301    187.1825   1.0616534662e+02   1.8407572559e+01    0.2209057    0.1892945  85.98  0.001415339    1.163    0.140
       219  -8.4826      1.5206    187.9751   1.3039995940e+02   3.5570674697e+01    0.1241549    0.0606581 -61.87 0.0007033877    2.308    0.567
       220  -9.4012    156.9776    186.5594   1.0173205202e+02   1.4424576123e+01    0.2142474    0.1841998 -14.11 0.0006363687    1.538    0.350
       221  -8.8875    150.9600    185.6437   1.0273772088e+02   1.5692052912e+01    0.1836469    0.1476653  50.29 0.0004447222    1.092    0.084
       222  -8.7499    128.4531    185.7074   1.0708305333e+02   1.9695917971e+01    0.1513396    0.1220158 -48.17 0.0007442211    1.494    0.331
       223  -8.9062     20.9417    186.0765   1.2705271792e+02   3.4163512735e+01    0.1387337    0.1122115 -63.26 0.0005814843    1.655    0.396
       224  -9.6623    166.5164    184.2793   9.9541496439e+01   1.3020217976e+01     0.246687    0.1934697  -0.22 0.0007028743    1.811    0.448
       225  -8.7042     34.7644    184.3852   1.2452709028e+02   3.3084992561e+01    0.1274222    0.1001417  36.57 0.0007157923    1.737    0.424
       226  -8.4178     27.2940    184.3356   1.2583639484e+02   3.3865980686e+01   0.09525868   0.07191449 -62.86 0.0004698496    1.644    0.392
       227  -9.8684    183.7347    181.3141   9.5769942452e+01   1.0200556719e+01    0.2930819    0.2051867 -33.70 0.0009560279    1.664    0.399
       228  -8.6046    134.4573    183.4226   1.0558422087e+02   1.9062611117e+01    0.1283289    0.1117275  59.52 0.0001453606    1.044    0.042
       229  -9.4064    197.4079    181.1300   9.3190345599e+01   7.5745838504e+00    0.2141887    0.1811934   7.13 0.0006922566    1.279    0.218
       230  -8.9053    189.8630    183.8882   9.5082323680e+01   8.6117089205e+00    0.1941635    0.1629334  17.91 0.0006294543    1.262    0.208
       231  -8.7691    154.6595    182.1088   1.0145871185e+02   1.5620513075e+01    0.1683539    0.1224213 -37.59 0.0004399228    1.690    0.408
       232  -9.9527    176.7326    179.4109   9.6758493644e+01   1.1867226107e+01    0.2641922    0.2068791 -22.85 0.0008674778    1.578    0.366
       233  -9.2991    173.3417    183.9317   9.8186953994e+01   1.1779085936e+01    0.1703875    0.1658586 -26.07  0.000524183    1.175    0.149
       234  -8.9034      9.6188    181.6876   1.2870605293e+02   3.6037044398e+01   0.09188265   0.06894589 -58.81 0.0007023974    1.806    0.446
       235 -10.0964    190.8087    177.3146   9.3717686743e+01   9.4546011299e+00    0.2840403    0.2393852 -30.59 0.0005765544    1.326    0.246
       236  -9.7097    192.8985    171.6504   9.2263498148e+01   9.9415016979e+00    0.2857641    0.1972109 -31.72 0.0004863751    1.637    0.389
       237  -8.6739    160.2155    179.5795   9.9963634557e+01   1.5013022102e+01    0.1775722    0.1159847  38.56 0.0003412176    1.494    0.330
       238  -8.9304    145.6956    179.0086   1.0270212267e+02   1.7831744901e+01    0.1739141    0.1656796  86.09 0.0006002833    1.121    0.108
       239  -8.7555     20.3142    179.3376   1.2670805888e+02   3.5502881477e+01   0.09587381   0.07050212 -61.11    0.0007047    1.695    0.410
       240  -9.2568     14.9749    180.0000   1.2768306332e+02   3.5874399167e+01    0.1428438   0.05361906  36.29  0.000799687    2.923    0.658
       241  -9.8599    134.4534    177.2725   1.0464408994e+02   2.0191721962e+01    0.2369628    0.2021846  66.65 0.0007387663    1.048    0.046
       242 -10.3000    169.5058    176.6704   9.7662846332e+01   1.3728194156e+01    0.2150281    0.1837146 -12.49  0.001006187    1.450    0.310
       243  -8.6422      6.3869    177.2821   1.2899498288e+02   3.7149720221e+01   0.08971688   0.06918376 -59.88 0.0007005224    1.738    0.425
       244  -9.7570    197.7178    175.2416   9.2040281803e+01   8.4182724974e+00    0.2461308    0.2115737   3.16 0.0008371833    1.255    0.203
       245  -9.3103    150.0524    175.5194   1.0127117298e+02   1.7649735672e+01    0.1917714    0.1781696 -74.74 0.0005368539    1.155    0.134
       246  -8.6044    101.0113    175.9769   1.1110686896e+02   2.6068751044e+01    0.1414613    0.1189348  76.88            0    1.008    0.008
       247  -9.3270    187.5549    171.2800   9.3207422981e+01   1.1068750136e+01    0.2294413    0.2081219  -9.77 0.0005742438    1.210    0.174
       248  -9.8586    182.3801    174.3778   9.4773323219e+01   1.1589105312e+01    0.2789461    0.2224524 -11.34 0.0008760566    1.561    0.359
       249  -9.0904    183.9801    169.9412   9.3639097908e+01   1.2004302425e+01    0.2310907    0.1954879 -34.57 0.0007447733    1.309    0.236
       250 -10.8955    176.2255    171.7598   9.5476514018e+01   1.3244011271e+01    0.4638346     0.430145  41.06  0.002863977    1.041    0.039
       251 -10.2675    178.8321    167.0262   9.4083587945e+01   1.3528661054e+01     0.454925    0.3028074 -29.88  0.001193243    1.822    0.451
       252  -8.7724    139.8420    175.1561   1.0323718352e+02   1.9608740014e+01    0.1673172    0.1544879  22.49 0.0003803142    1.314    0.239
       253  -9.7714    161.3403    173.8734   9.8763978491e+01   1.5792770536e+01    0.2423441    0.1794109  39.63  0.000504229    1.298    0.229
       254  -9.1603    129.0352    172.5441   1.0498561185e+02   2.2046435282e+01    0.1813081    0.1645886  84.01 0.0003120423    1.073    0.068
       255  -8.9856      2.9884    173.2316   1.2934142474e+02   3.8204209665e+01    0.1146185   0.07478706  47.35 0.0005435466    1.622    0.383
       256  -9.1173    200.8931    170.4298   9.0528516714e+01   8.5364602874e+00    0.2626252    0.1730289 -30.36  0.001311956    1.701    0.412
       257  -8.1684     89.5915    171.5074   1.1279866415e+02   2.8694921824e+01    0.1237074    0.1034524  82.34 0.0001461286    1.022    0.021
       258  -9.1716     24.0469    172.0675   1.2551450950e+02   3.6554847318e+01    0.1472266     0.113968 -59.06 0.0007277706    1.655    0.396
       259  -8.4003    143.3748    169.7919   1.0164039299e+02   1.9952035260e+01    0.1728435    0.1263611 -40.89 0.0005221848    1.622    0.384
       260  -9.0617    197.3416    168.7347   9.0864231326e+01   9.5161994097e+00     0.218164    0.1607558 -12.31 0.0006616911    1.675    0.403
       261  -9.9903    199.6514    163.2671   8.9347693275e+01   9.9224262196e+00    0.3540352    0.2208341 -37.70 0.0009837528    1.734    0.423
       262  -8.8036    158.2881    169.0289   9.8511810948e+01   1.7246855074e+01    0.1781749    0.1740471  77.27 0.0005248736    1.096    0.087
       263  -8.7491    134.6506    168.0959   1.0312661267e+02   2.1884803926e+01    0.1770412    0.1214284 -42.26 0.0005580847    1.745    0.427
       264  -9.1630    169.8354    166.6304   9.5777040416e+01   1.5399871690e+01    0.2064703    0.1876469 -22.75 0.0005321624    1.255    0.203
       265  -8.8964    150.1717    166.9116   9.9767313327e+01   1.9201062037e+01    0.1743744    0.1607192  11.49 0.0004508195    1.304    0.233
       266  -9.2198      9.0079    167.4919   1.2791890810e+02   3.8808476689e+01    0.1145307   0.08778533 -28.77 0.0008102629    2.522    0.603
       267 -10.0805    191.8753    163.6036   9.0894495027e+01   1.1456841840e+01     0.351336    0.2042337 -32.61  0.001104401    1.971    0.493
       268  -9.5009    184.8533    164.0831   9.2343943263e+01   1.2809553125e+01    0.2667762    0.1960499 -32.28 0.0007804771    1.526    0.345
       269 -10.6873    213.0595    160.7105   8.6330192305e+01   7.5871154529e+00    0.4227384    0.2505888 -36.94  0.000968483    1.796    0.443
       270 -10.1632    215.0490    147.1423   8.3081048544e+01   9.2993141262e+00    0.3359783    0.2491654 -31.50 0.0006034558    1.389    0.280
       271  -9.1845    211.6320    154.1989   8.5232740299e+01   8.8971573258e+00    0.3173454    0.1376863 -32.76  0.001018515    2.528    0.604
       272  -9.2240    211.7336    150.6208   8.4449477821e+01   9.4439721368e+00    0.2379444     0.164796 -10.45 0.0005934506    1.772    0.436
       273  -8.7205    159.4696    163.4707   9.7262500124e+01   1.8025120072e+01    0.1377593    0.1263182  52.64 0.0001294504    1.021    0.020
       274  -9.0310    120.2128    163.2009   1.0530235826e+02   2.5418253075e+01    0.1829346     0.171376  58.65 0.0005328255    1.158    0.137
       275 -10.4352    205.3819    159.7596   8.7557710795e+01   9.3083320956e+00    0.3280375    0.2580015 -17.45  0.001018241    1.393    0.282
       276  -8.6888    172.5123    162.4924   9.4460970075e+01   1.5591583238e+01    0.1394516    0.1275553  40.77 -1.275073e-05    1.045    0.043
       277  -8.5179    183.7770    158.9943   9.1546416227e+01   1.3898251739e+01    0.1906899    0.1335923 -26.35 0.0004305064    1.702    0.413
       278  -8.3332    146.5595    161.4869   9.9535681483e+01   2.0913295828e+01    0.1352033     0.126509  54.30 9.368618e-05    1.073    0.068
       279  -8.8365      9.3646    161.2895   1.2743099910e+02   3.9995506470e+01    0.0953713   0.06982025 -57.73 0.0004515341    1.701    0.412
       280  -9.0844    163.4968    160.1154   9.5815194968e+01   1.7836674522e+01    0.1903072    0.1392305 -44.01 0.0003810838    1.487    0.327
       281  -8.6421    152.9126    160.3645   9.8022352648e+01   1.9891707597e+01    0.1909847    0.1215898  37.13 0.0004270043    1.652    0.395
       282  -8.7251    127.6576    166.1522   1.0423978780e+02   2.3523237275e+01    0.1696374    0.1203728 -46.57 0.0003387311    1.608    0.378
       283  -9.8323    176.7106    157.1264   9.2570855794e+01   1.5683211032e+01    0.2614359    0.2268532 -21.53 0.0006427437    1.300    0.231
       284  -8.8350    168.1767    157.8026   9.4419759474e+01   1.7311609959e+01    0.1849439    0.1637293  10.06 0.0005848032    1.304    0.233
       285  -8.7965    158.8237    158.2306   9.6407340035e+01   1.9120418305e+01    0.1832172    0.1614714  17.48 0.0004138709    1.320    0.242
       286 -10.1080    197.1690    155.1890   8.8168032038e+01   1.1756465268e+01    0.3331234    0.2300979 -25.47 0.0007139421    1.649    0.393
       287 -10.5335     23.9397    155.9573   1.2423255741e+02   3.9784597717e+01    0.2219321    0.1624889 -43.89  0.001530787    2.030    0.507
       288  -9.6194    187.6899    154.0540   8.9771390653e+01   1.3935139509e+01    0.3658991    0.1849798 -35.31  0.001467882    2.222    0.550
       289  -8.4848    154.5779    155.4647   9.6752721403e+01   2.0487197893e+01    0.1379938    0.1295781  59.04 9.794251e-05    1.021    0.021
       290 -10.0428    216.0682    154.8890   8.4562339367e+01   7.8699684516e+00    0.3095208      0.20081 -31.27 0.0007572991    1.615    0.381
       291  -9.4561    205.9955    152.9471   8.6019341829e+01   1.0274628592e+01    0.2911595    0.2000958 -21.73 0.0008372513    1.657    0.396
       292  -8.7761      5.6594    154.6751   1.2766023945e+02   4.1608981809e+01   0.09939396   0.06661457 -58.13 0.0007051169    1.729    0.422
       293  -8.6491    192.5386    153.0497   8.8615205107e+01   1.3088028073e+01    0.2020518    0.1409813 -36.37 0.0006955953    1.531    0.347
       294  -8.1095    184.3010    153.3009   9.0283312300e+01   1.4776685783e+01    0.1413603    0.1089985  13.92  0.000321185    1.585    0.369
       295  -8.8989    165.9145    153.4343   9.4015564580e+01   1.8573997691e+01    0.4052991    0.1308783  46.58  0.001392435    2.894    0.655
       296  -8.2833    171.2916    152.3501   9.2698928614e+01   1.7663481702e+01    0.1419556    0.1118734   5.97 0.0003719555    1.671    0.402
       297  -9.8712    144.9914    151.1225   9.7930660093e+01   2.3219449003e+01    0.2444321    0.2321903  77.50 0.0004022416    1.034    0.033
       298  -9.6105    143.3323    147.2416   9.7531191735e+01   2.4310406239e+01    0.2868768    0.1943267 -45.52 0.0007383248    1.569    0.363
       299  -9.0977    202.4625    150.2323   8.6108623034e+01   1.1463427347e+01    0.2466905    0.1403079 -30.11  0.001040715    1.963    0.491
       300  -9.1441    157.4580    151.0012   9.5279667338e+01   2.0755965959e+01    0.2027777    0.1402657 -45.34 0.0005399587    1.538    0.350
       301  -8.6886    151.8485    151.1587   9.6487215193e+01   2.1855337712e+01    0.1825368    0.1669369   6.03 0.0003504968    1.304    0.233
       302  -8.1312    107.7496    151.3188   1.0600884906e+02   2.9967716574e+01     0.132219   0.09468982  85.55  0.000225306    1.529    0.346
       303  -8.4817    176.4358    150.4373   9.1262715799e+01   1.6936503962e+01    0.1419051    0.1323892  37.45 0.0001793411    1.038    0.037
       304 -10.7794    133.1848    147.2788   9.9734772635e+01   2.6261335670e+01    0.5167924     0.330638 -71.62  0.002059065    1.948    0.487
       305 -10.6118    132.0751    140.2017   9.8603190966e+01   2.7916669922e+01    0.4503996    0.2821475 -64.89  0.001681198    1.818    0.450
       306  -8.9974      2.3091    150.3169   1.2799170709e+02   4.2737551995e+01   0.09843268   0.06503491 -60.76 0.0007031648    1.635    0.389
       307  -9.4131    196.9451    148.5000   8.6794811451e+01   1.2925940226e+01    0.2512016    0.1920017 -14.44 0.0005737779    1.523    0.343
       308  -9.3391    181.9955    148.1830   8.9670889125e+01   1.6166417997e+01     0.227052    0.2010945 -28.32   0.00030954    1.208    0.172
       309  -9.1755    162.0564    147.3482   9.3579711528e+01   2.0507923091e+01    0.2245528     0.195263 -28.46 0.0003430351    1.297    0.229
       310  -8.5685    121.8785    148.3664   1.0240601396e+02   2.8127591763e+01    0.1810119    0.1259076  35.83 0.0004852392    1.630    0.387
       311  -9.5429    190.9850    146.5604   8.7538692456e+01   1.4532925103e+01    0.2445315    0.2059839 -45.63 0.0004736668    1.280    0.219
       312  -9.0031    149.8842    146.9373   9.6067001359e+01   2.3068881302e+01    0.2066302    0.1921425  12.59  0.000355903    1.246    0.197
       313  -9.1857      3.0101    146.4993   1.2758188410e+02   4.3451712344e+01    0.1223439    0.0838796 -31.23 0.0008105955    2.646    0.622
       314  -9.8937    208.2982    143.5148   8.3538438956e+01   1.1325170303e+01      0.29691    0.2265439  -9.86 0.0007267699    1.490    0.329
       315  -9.1634    176.1377    144.8495   9.0145855381e+01   1.8014695704e+01    0.2185362    0.1737325   2.63 0.0007809769    1.610    0.379
       316  -9.2602    218.6790    143.3654   8.1581782897e+01   9.1289016807e+00    0.2273097    0.1600396  -9.17  0.000575973    1.672    0.402
       317  -9.3217    200.2577    143.4875   8.5062650498e+01   1.3063319711e+01    0.2478884    0.1864695 -34.33 0.0005325288    1.385    0.278
       318  -8.8398    194.4433    142.3029   8.5929340201e+01   1.4525261245e+01    0.2487635    0.1431547 -31.81 0.0008253293    1.917    0.478
       319  -9.0066    171.7915    143.1706   9.0678632484e+01   1.9249605629e+01    0.1923591    0.1681587   5.10  0.000471208    1.324    0.245
       320  -9.5277    214.0908    141.0409   8.1905160764e+01   1.0482284857e+01    0.2669662    0.2005135 -20.69 0.0007585869    1.406    0.289
       321  -9.2627    155.6789    141.0668   9.3621766666e+01   2.3035288724e+01    0.2457379    0.1931968 -28.11 0.0006890263    1.512    0.338
       322  -9.8942    138.9235    141.2313   9.7294462659e+01   2.6380984263e+01    0.2538247    0.2066715 -39.91 0.0005953417    1.360    0.265
       323  -8.7024    147.5288    141.4932   9.5467848498e+01   2.4616659465e+01    0.1411287    0.1359009  59.17 0.0001543664    1.051    0.048
       324  -8.8248    203.5195    139.9938   8.3658262294e+01   1.2945591479e+01    0.2034418    0.1428677 -31.85 0.0004457659    1.482    0.325
       325  -8.8041    186.8495    139.1209   8.6725849262e+01   1.6738676768e+01    0.1936027    0.1652343 -10.57 0.0004765898    1.306    0.234
       326  -9.1835    166.3544    138.6893   9.0843860451e+01   2.1250885162e+01    0.2300783    0.1970498  41.71 0.0006442324    1.143    0.125
       327  -8.7528    152.0005    137.6415   9.3689166405e+01   2.4468363067e+01    0.1979764    0.1813561  56.63  0.001106606    1.050    0.047
       328  -9.9792    208.3739    136.1443   8.1862950728e+01   1.2529417044e+01     0.264406    0.2362782 -11.24 0.0006175559    1.129    0.114
       329  -9.6811    198.6249    135.1650   8.3505270182e+01   1.4844444470e+01    0.3570966    0.2405955 -37.33   0.00124361    1.529    0.346
       330  -9.2661    146.8889    136.8402   9.4635342894e+01   2.5675446106e+01    0.2093791     0.194261  -3.73  0.000471259    1.266    0.210
       331  -9.7829     69.3353    136.3573   1.1223737836e+02   3.8914140508e+01     0.295642    0.1884906  69.29 0.0009971975    1.698    0.411
       332  -9.7514    192.8857    135.0245   8.4598201538e+01   1.6138797999e+01    0.2901018    0.2025464 -30.82 0.0006198271    1.525    0.344
       333  -8.3757    183.3008    136.3467   8.6818462366e+01   1.8015469546e+01    0.1505842    0.1150823   8.34 0.0007038115    1.685    0.406
       334  -8.9484    172.3347    135.5100   8.8887217554e+01   2.0565720485e+01    0.2422587    0.1380363 -41.11 0.0006924389    1.829    0.453
       335  -9.0085    142.9665    135.9655   9.5315586599e+01   2.6645171190e+01    0.1723898    0.1624929 -70.10 0.0004898381    1.063    0.059
       336 -10.1159    137.3875    135.9897   9.6562129274e+01   2.7750577215e+01    0.2499762    0.2090816  14.00  0.001314888    1.557    0.358
       337  -9.1689    187.8634    133.7981   8.5317833161e+01   1.7469429335e+01    0.2518046    0.1941934 -21.33  0.000610429    1.460    0.315
       338  -9.2627    163.5028    133.4857   9.0300505222e+01   2.2859326855e+01    0.2397292    0.1931041  -2.56 0.0005706392    1.624    0.384
       339  -8.7282    155.8606    134.2055   9.2106938777e+01   2.4342922111e+01    0.1936652    0.1735834   5.89  0.000389606    1.312    0.238
       340 -13.1397    235.0052    145.7998   7.9217912650e+01   5.3472603609e+00     2.286679     1.083137 -15.99  0.008133642    3.423    0.708
       341 -10.0303    179.4286    129.9605   8.6148541443e+01   2.0043084980e+01    0.2860284    0.2477982 -24.67 0.0004938637    1.231    0.187
       342 -10.0293    136.5157    130.0108   9.5492689124e+01   2.9153218087e+01      0.31342    0.2146798 -44.80 0.0009723788    1.505    0.335
       343 -12.0924    134.7156    122.8622   9.4330579029e+01   3.0995506062e+01    0.9459313    0.3651103 -53.49  0.003312384    2.865    0.651
       344 -10.9801    133.9772    107.6544   9.0905753188e+01   3.4315569774e+01    0.5580535    0.2396935 -43.37  0.001859422    2.320    0.569
       345  -8.7145    205.5897    129.7958   8.0917811199e+01   1.4215762871e+01    0.2049409    0.1372255 -45.29 0.0007706943    1.609    0.378
       346  -9.6846    160.6666    130.0268   9.0131680220e+01   2.4141271444e+01     0.209612    0.1873178 -41.43 0.0006167529    1.159    0.137
       347  -9.2484    121.4811    126.9934   9.8320160646e+01   3.2681132141e+01    0.2286832    0.1802545 -15.97 0.0006961517    1.829    0.453
       348  -9.2641    124.3713    124.7441   9.7162252473e+01   3.2615340776e+01     0.212811      0.18257 -52.65 0.0007248651    1.158    0.137
       349 -10.6435    134.0000    113.5972   9.2348771747e+01   3.3072594739e+01    0.4623508    0.2073954 -43.62   0.00117558    2.246    0.555
       350  -9.0131    211.8347    127.8289   7.9276998872e+01   1.3149893900e+01    0.2033606     0.169662 -52.59  0.001053517    1.363    0.266
       351  -9.3080    192.5848    127.4465   8.2893350189e+01   1.7550028433e+01    0.2708375    0.1762501 -31.82 0.0007231041    1.624    0.384
       352  -8.9920    186.4211    127.6696   8.4182573669e+01   1.8899299091e+01     0.197747    0.1443749 -25.11 0.0009309393    1.527    0.345
       353  -9.0365    171.8508    127.3792   8.7128903213e+01   2.2209753940e+01    0.2330281    0.1835961 -31.78 0.0004998449    1.357    0.263
       354  -8.8867    154.6194    128.2487   9.1048312389e+01   2.5784723907e+01    0.2044057     0.139714 -35.01 0.0009437453    1.627    0.385
       355  -9.6664    125.7149    129.6008   9.7882288225e+01   3.1334596423e+01    0.3228627    0.1581198 -50.54  0.001068517    2.019    0.505
       356  -9.0866    200.0475    125.1110   8.0871108801e+01   1.6271663217e+01    0.2260527    0.1915087  11.38 0.0003656443    1.276    0.216
       357 -10.1859    152.0161    124.4777   9.0761310644e+01   2.7091479970e+01    0.2926466    0.2217664 -46.61 0.0005918166    1.336    0.252
       358  -9.5138    179.7638    122.5070   8.4315024880e+01   2.1353569380e+01    0.3687531    0.2065747 -31.61  0.001169026    2.010    0.503
       359  -8.5428    107.9832    123.9509   1.0089167141e+02   3.5760941757e+01    0.1647714    0.1495341 -75.13 0.0003311544    1.020    0.020
       360  -8.2598      5.3418    124.3352   1.2527437839e+02   4.7837154187e+01    0.1083354   0.06481965 -53.98 0.0007050681    1.759    0.432
       361  -8.1646    208.3101    123.2890   7.8852626851e+01   1.4708122566e+01    0.1509981    0.1127113  16.12 0.0003486262    1.580    0.367
       362  -9.1658    146.4819    123.5190   9.1783287624e+01   2.8452356689e+01    0.1444775    0.1427857  66.51 0.0008096769    1.046    0.044
       363  -9.8656    212.5097    120.6525   7.7428875631e+01   1.4197639100e+01    0.3014956    0.2399415  -8.12 0.0007886409    1.373    0.272
       364  -9.3630    187.9770    121.1988   8.2316331843e+01   1.9722692982e+01    0.2444244    0.2112816 -30.86 0.0002862395    1.182    0.154
       365  -8.8340    128.0123    122.0082   9.5706151076e+01   3.2495126814e+01    0.1752768    0.1593507 -62.88 0.0004172538    1.069    0.065
       366  -9.0158    203.0526    119.7131   7.8983050532e+01   1.6522732052e+01    0.2057343    0.1943063  21.66 0.0005558148    1.028    0.027
       367  -9.1421    194.1474    119.2346   8.0601301200e+01   1.8658303582e+01    0.2512403    0.1966346 -23.27 0.0005521078    1.362    0.266
       368  -8.9164    152.3010    120.3246   8.9725297975e+01   2.7864481082e+01    0.1479672    0.1197761   2.06 0.0003152569    1.635    0.388
       369  -8.1916    170.2690    119.3233   8.5543387561e+01   2.4101692683e+01     0.148351    0.1193663   3.23 0.0002923355    1.569    0.362
       370  -8.3464    184.0000    117.9828   8.2337498371e+01   2.1224267714e+01    0.2366134   0.08630269 -38.61 0.0004355012    2.785    0.641
       371  -8.8941    174.0086    117.7274   8.4356664448e+01   2.3559645444e+01    0.2127104    0.1966885  38.47 0.0005375907    1.075    0.070
       372  -9.6243    157.1781    118.1084   8.8104739837e+01   2.7249205933e+01    0.2214386    0.2039813   4.87 0.0004527366    1.212    0.175
       373  -9.2476    147.4845    116.0539   8.9795257367e+01   2.9758242501e+01    0.2252459    0.1456922 -44.81 0.0007595257    1.547    0.354
       374  -8.3436    199.6676    115.6664   7.8636223499e+01   1.8010847542e+01    0.1596285     0.116667  14.07 0.0007052226    1.730    0.422
       375  -8.3703    209.4127    117.4922   7.7231935981e+01   1.5439681471e+01    0.1489383    0.1406406   3.31 0.0002034244    1.030    0.029
       376  -9.8537    129.2832    114.3948   9.3662458827e+01   3.3850830887e+01    0.2688817    0.1733423 -38.03 0.0007921622    1.692    0.409
       377  -8.4438    212.2378    114.3712   7.5933723774e+01   1.5314915697e+01    0.1512934    0.1133763   1.69 0.0004148961    1.611    0.379
       378  -8.7565    203.3097    113.9767   7.7512824703e+01   1.7457150305e+01    0.2115194    0.1860658 -17.88 0.0004429491    1.153    0.133
       379  -9.3476    185.8626    113.2816   8.0783582312e+01   2.1656545360e+01    0.2781141    0.2164272 -26.66 0.0005977487    1.358    0.264
       380  -8.7432    181.2551    114.5351   8.2045553335e+01   2.2495741963e+01    0.2049319    0.1409958  37.54 0.0009182513    1.528    0.345
       381  -9.1416    153.2502    114.0241   8.7988625442e+01   2.8923091808e+01    0.1925688    0.1277454 -42.96  0.000407746    1.514    0.340
       382  -8.6714     21.3541    114.3474   1.2052184701e+02   4.8761864937e+01     0.117185   0.06993335 -48.44  0.000703588    1.831    0.454
       383 -10.1104    122.1292    113.1237   9.5092238473e+01   3.5512616427e+01    0.2062706    0.1705477 -89.47  0.001081438    1.345    0.256
       384  -9.5973    114.1490    112.8192   9.6979810230e+01   3.7070149393e+01     0.194371    0.1667157 -29.38 0.0005952923    1.347    0.258
       385  -9.5610      6.5036    113.0240   1.2390005195e+02   5.0134111970e+01    0.1738812   0.08169245 -74.34 0.0008714875    1.568    0.362
       386  -8.7427    208.3835    111.8119   7.6009654554e+01   1.6644626348e+01    0.2110758     0.142296 -21.08 0.0007386403    1.646    0.392
       387  -9.3033    194.5823    111.6727   7.8627253274e+01   1.9905846505e+01     0.271698     0.149217 -31.90 0.0006705308    1.912    0.477
       388  -8.7995    114.4166    130.8120   1.0075616272e+02   3.3153803859e+01    0.1885293    0.1265773 -44.85 0.0005424522    1.585    0.369
       389  -8.8290    143.9863    110.2401   8.9178875694e+01   3.1688446344e+01    0.1926806    0.1253902  48.41 0.0003626428    1.549    0.354
       390  -8.6894     17.3341    110.3177   1.2100370229e+02   4.9940569574e+01    0.1131624   0.06952017 -50.14 0.0007048229    1.695    0.410
       391  -9.3686    218.4566    108.0163   7.3209326123e+01   1.4928747023e+01    0.2898823    0.2777846  59.33  0.001036029    1.121    0.108
       392  -8.1937    150.3372    109.2888   8.7471544028e+01   3.0510451447e+01    0.1509156    0.1203306  10.21  0.000363087    1.636    0.389
       393  -8.4675      1.5171    109.4509   1.2470523163e+02   5.1207416588e+01    0.1097919   0.07904716 -75.30 0.0003351229    1.066    0.062
       394  -8.6523    201.3414    107.7705   7.6316283243e+01   1.8998619713e+01    0.2126692    0.1417219 -24.73 0.0006492454    1.625    0.384
       395  -8.6772    176.5197    108.5158   8.1505667670e+01   2.4721493838e+01    0.1518558    0.1486836  18.32 0.0001002643    1.022    0.021
       396 -11.1687    123.0122    107.7366   9.3595680617e+01   3.6487322958e+01    0.4290976     0.251201  57.58  0.001465014    1.990    0.498
       397 -11.0716    119.7033    101.9216   9.2986895646e+01   3.8358737003e+01    0.4193852    0.2425769 -42.91  0.001257854    1.709    0.415
       398  -8.5550    182.7751    106.9989   7.9809605316e+01   2.3535603706e+01    0.2005215    0.1261242 -37.33 0.0003672543    1.599    0.374
       399 -10.0491    129.3551    106.5638   9.1753569622e+01   3.5481892685e+01    0.2545123    0.2048782  77.50  0.001284705    1.444    0.308
       400  -9.0925    160.8195    105.9471   8.4245024281e+01   2.8835751259e+01    0.2262052    0.2021739  -7.38 0.0004126039    1.247    0.198
       401  -9.7927    112.9942    105.7036   9.5606409778e+01   3.8812178251e+01    0.1967432    0.1896926 -81.86 0.0005653215    1.042    0.040
       402  -9.5152    222.0408    103.0152   7.1305617211e+01   1.4909756237e+01     0.327666      0.20867 -39.26  0.001338359    1.550    0.355
       403  -8.4883    218.4827    103.4958   7.2054540523e+01   1.5667207629e+01    0.2634507    0.1882712 -18.71 0.0006685289    1.501    0.334
       404  -8.8563    205.5432    103.9459   7.4532411161e+01   1.8660928677e+01    0.2330227    0.1490697 -30.13  0.001017868    1.588    0.370
       405 -14.5894    248.6980     73.0071   5.9379835288e+01   1.3274518075e+01     9.852264          nan -32.06   0.01763071   10.366    0.904
       406  -9.1709     65.9719    103.5146   1.0740972000e+02   4.6590078107e+01    0.1669871    0.1145424  -6.28 0.0008103293    2.647    0.622
       407  -8.4115    195.3768    101.5166   7.5844158492e+01   2.1520142167e+01    0.1518473     0.144996 -11.05 0.0001777719    1.042    0.040
       408  -9.0028    140.5349    100.4900   8.7501595613e+01   3.4414952419e+01    0.1484109    0.1452171 -30.01 -1.539284e-05    1.048    0.046
       409  -9.9612    130.0188    100.0068   8.9927892126e+01   3.6715277692e+01    0.2290577    0.1843031  -4.09  0.000610604    1.645    0.392
       410  -8.9067    165.7907    104.6208   8.2800651888e+01   2.7954738989e+01    0.2183037     0.145619  60.62 0.0009470659    1.656    0.396
       411  -9.1032     89.9410     97.9245   9.9771536893e+01   4.4428856473e+01    0.2144232    0.1605169  88.31 0.0006671239    1.657    0.397
       412 -12.4916    248.7752    179.1044   8.3783588616e+01  -1.8429559587e+00     1.101482    0.3230207 -34.33  0.004267328    3.502    0.714
       413  -8.8553    190.0442    107.3138   7.8413801753e+01   2.1758586810e+01    0.2080096    0.1963897  44.27 0.0003464392    1.053    0.051
       414  -9.4465      7.4485     96.7820   1.2181232054e+02   5.3517790765e+01     0.162523   0.07314516 -62.50 0.0007411112    1.638    0.389
       415  -8.8066    203.2104     96.1048   7.2908488945e+01   2.0567343628e+01    0.2012923     0.122978 -31.24 0.0004182118    1.648    0.393
       416  -8.4140    195.4277     95.4812   7.4225705118e+01   2.2569551247e+01    0.1536165    0.1477351   1.61 0.0002383722    1.037    0.036
       417  -8.6356    135.6829     95.6866   8.7397104159e+01   3.6426465382e+01    0.1501284    0.1199574   0.81 0.0004510474    1.645    0.392
       418  -8.2350     94.3733     94.2556   9.7695533171e+01   4.4515756057e+01     0.133694    0.1078541  -9.71 0.0004264355    1.647    0.393
       419  -8.7358     21.3562     94.3229   1.1781010597e+02   5.3084361654e+01    0.1190257   0.06984711 -45.67 0.0007045679    1.765    0.433
       420 -12.9315    245.8383    162.7818   8.0996419689e+01   8.1399959660e-01     1.485075    0.4438517 -27.15  0.004910308    4.216    0.763
       421  -8.4857     75.5418     93.5028   1.0268038964e+02   4.7527124549e+01    0.1338208    0.1161595 -60.46 6.880291e-05    1.004    0.004
       422  -8.4045    164.5502     92.4827   7.9799752217e+01   3.0566868788e+01    0.1537897    0.1491525   1.78 0.0001802796    1.051    0.049
       423  -9.1233    127.9344     91.3029   8.8128818124e+01   3.8937322942e+01     0.195285    0.1881256  34.03 0.0001775461    1.090    0.083
       424  -8.7177    103.5292     91.5108   9.4535915539e+01   4.3551847460e+01    0.1418177     0.130771 -48.39 0.0002100484    1.034    0.033
       425  -9.2139    121.1562     90.1523   8.9539295370e+01   4.0540452212e+01    0.1986755    0.1685455 -70.76 0.0003322819    1.283    0.221
       426  -8.1898    203.3228     89.3165   7.1058725625e+01   2.1696047497e+01    0.1604137    0.1188457  17.73 0.0007042747    1.665    0.399
       427  -8.8804    158.3254     88.5039   8.0073961574e+01   3.2785931913e+01    0.2535793    0.1416087 -37.90 0.0004676215    1.780    0.438
       428  -8.7034    151.2553     86.3293   8.1075803185e+01   3.4841822615e+01     0.150943    0.1205451  -1.31 0.0002744455    1.557    0.358
       429  -9.4685     10.3250     85.9264   1.1957999268e+02   5.5647263643e+01    0.2065793    0.1424988  57.82  0.001421559    1.725    0.420
       430  -8.1909    221.5900     85.7053   6.6862043751e+01   1.7811405378e+01    0.1635932    0.1118231  24.09 0.0004151099    1.836    0.455
       431 -12.8697    219.7346    222.0598   9.6178535196e+01  -1.9284548723e+00     1.107931    0.7327278  60.24  0.006190504    2.037    0.509
       432  -8.5398    206.1943     83.0524   6.8818478161e+01   2.2033493657e+01    0.2027943    0.1190017 -31.44 0.0003756645    1.690    0.408
       433  -8.9477      2.8488     83.3891   1.2129111511e+02   5.6625905675e+01    0.1277446   0.09745648 -25.58 0.0009431468    1.725    0.420
       434 -12.2304    227.7580    218.3450   9.4265030884e+01  -2.8568839695e+00    0.5013399    0.3602911 -35.53   0.00267826    1.724    0.420
       435  -8.5634    159.0110     79.9847   7.7458452654e+01   3.4223298411e+01     0.188928    0.1756727 -34.16 0.0004248905    1.063    0.059
       436  -8.4614    126.6675     80.7361   8.5463437533e+01   4.1333167899e+01    0.1459404    0.1164091   7.97  0.000320052    1.578    0.366
       437  -8.3968    110.6708     80.6806   8.9660250887e+01   4.4514983348e+01    0.1462381    0.1130633  -7.60 0.0007047669    1.687    0.407
       438  -8.6944    215.2066     78.7768   6.6067738659e+01   2.0486834770e+01    0.2101526    0.1739834   4.65 0.0006962724    1.360    0.264
       439  -8.9550      9.5150     79.4632   1.1883808884e+02   5.7069129809e+01    0.1145574   0.08265408 -63.24  7.10524e-05    1.076    0.070
       440  -8.9122    150.6243     77.2176   7.8553994461e+01   3.6714748577e+01     0.208184    0.1445508 -26.15 0.0002902387    1.562    0.360
       441 -12.9285    245.2819    190.3497   8.6502882036e+01  -2.6005468256e+00     1.022038     0.803605 -59.49  0.006010805    2.155    0.536
       442 -13.2362    241.2063    203.0484   8.9471260240e+01  -3.3914761510e+00    0.8831677    0.5607328 -19.18  0.004423219    1.712    0.416
       443  -8.7678    157.3837     73.7922   7.5974590740e+01   3.5745097251e+01    0.2165742    0.1468259 -23.96 0.0005647463    1.633    0.388
       444  -8.3924    206.4665     72.5548   6.5841490252e+01   2.3674924767e+01    0.1528205    0.1473166  11.06  0.000203814    1.054    0.051
       445  -8.4983    140.2842     72.3140   7.9525997170e+01   4.0003809685e+01    0.1513465    0.1188103   4.74 0.0001949102    1.578    0.366
       446 -11.2033     92.3813     69.8827   9.1647473339e+01   4.9963356872e+01    0.4551242    0.3162161   2.45   0.00214633    2.182    0.542
       447 -10.7282      1.6973     68.3440   1.1939482281e+02   5.9837346389e+01    0.4397638   0.09260018 -65.32  0.001288258    2.917    0.657
       448 -12.5096    248.7882    202.4347   8.8118625695e+01  -4.6074113894e+00    0.8788484    0.4187272  -7.84  0.003638379    3.729    0.732
       449  -9.4122    116.1881     69.7605   8.4914524571e+01   4.5623519090e+01    0.2042264    0.1684228 -11.59 0.0006730683    1.353    0.261
       450  -9.0874    184.0471    249.9689   1.0585946327e+02   7.4662869089e-01    0.1676128    0.1259541  42.60 0.0004885814    1.022    0.022
       451  -8.3270    163.2987     69.3216   7.3304210134e+01   3.5104301987e+01    0.1584972    0.1207886  14.11 0.0003396386    1.623    0.384
       452  -9.1542    170.6688     68.1223   7.1369684751e+01   3.3484778278e+01    0.2191947    0.1904349 -27.32 0.0004069495    1.154    0.133
       453 -11.8838    176.4143    243.9428   1.0634620972e+02   2.6890430034e+00    0.4127739    0.2578461  32.20 0.0007185902    1.595    0.373
       454  -9.0658    138.8116     65.1592   7.7642320517e+01   4.1651252167e+01    0.2085126    0.1769986   4.27 0.0005018342    1.308    0.235
       455  -8.4633     86.6705     65.6500   9.2065251739e+01   5.1747946852e+01    0.1429749    0.1015465 -16.61 0.0007048376    1.766    0.434
       456 -10.0985     68.7165     63.9240   9.7084639536e+01   5.4740754011e+01    0.2552954     0.216231 -53.68  0.001038229    1.118    0.105
       457 -11.0701    169.9020    240.6541   1.0700158122e+02   4.1583946951e+00    0.2570262    0.2247451  15.83 0.0004801655    1.412    0.292
       458  -9.0619    146.0000     64.0269   7.5557806101e+01   4.0193745396e+01    0.2491825   0.08527903 -35.88 0.0004200355    2.870    0.652
       459  -8.5646    208.3237     62.7854   6.2748652870e+01   2.4732883553e+01    0.2126522    0.1415947 -19.89 0.0006869273    1.642    0.391
       460 -11.5308    177.5478    232.4721   1.0470722973e+02   3.9380477346e+00    0.2835487    0.2358696  -3.01 0.0005163418    1.596    0.374
       461  -9.0957    122.6104     60.2313   8.0151927573e+01   4.6096239548e+01    0.2029405    0.1350887 -27.15 0.0003577105    1.563    0.360
       462  -8.6139    164.6546     58.1386   6.9522243400e+01   3.6660798335e+01    0.2207969     0.144791 -19.69 0.0009379028    1.722    0.419
       463  -8.5408     31.5120     58.4706   1.0779496404e+02   5.9907747763e+01    0.1211787   0.09256054 -50.02 4.439062e-05    1.046    0.044
       464 -11.3116      2.4519     53.9733   1.1660977106e+02   6.2754890675e+01    0.5326853    0.3314418  73.37  0.003325303    2.288    0.563
       465 -11.9987      8.9244     49.1876   1.1338346903e+02   6.3379895999e+01    0.4971141    0.3282686 -36.24   0.00256588    1.471    0.320
       466 -11.4874    166.6467    250.4741   1.0868128313e+02   3.4628708056e+00    0.3237172    0.1126816  43.60  0.000264631    2.173    0.540
       467  -9.2842    147.0098     56.6528   7.2933435597e+01   4.1226317468e+01    0.2095851    0.1936297  37.40 0.0004558041    1.082    0.076
       468 -11.1147     78.3228     52.6821   9.0530378616e+01   5.5581065303e+01    0.4760298    0.3598704  64.75  0.002587656    1.928    0.481
       469 -10.1189      1.9687     45.8036   1.1510252135e+02   6.4423414511e+01    0.2577831    0.1346066 -51.94 0.0004244176    1.382    0.276
       470  -9.1796    172.1120     49.9795   6.5406024853e+01   3.6057368079e+01    0.2175975     0.210727  18.26            0    1.028    0.027
       471 -10.2069      4.8473     41.4544   1.1307371796e+02   6.5141000771e+01    0.2020959    0.1463572 -59.82 0.0003430244    1.094    0.086
       472  -9.2658     11.4995     35.4713   1.0901992525e+02   6.5932563768e+01    0.2099294     0.119043 -55.19 0.0006957824    1.305    0.234
       473 -10.3360     17.5306     40.4898   1.0809652785e+02   6.4572522688e+01    0.2227186    0.1812912  28.70 0.0009911697    1.604    0.377
       474 -10.7327     10.4670     39.9254   1.1060119039e+02   6.5130045661e+01     0.310422    0.1942923 -11.67 0.0005710496    2.006    0.502
       475  -8.6649     23.8737     38.1856   1.0503966773e+02   6.4560682956e+01    0.1570639     0.102766 -37.89 0.0003132769    1.283    0.220
       476  -8.2730     29.6600     37.6709   1.0268106350e+02   6.4191452637e+01    0.1248219   0.07025708 -31.52 0.0007051661    1.738    0.425
       477  -8.2978    173.7472     33.9799   5.9919099799e+01   3.7922800653e+01    0.1816848    0.1292784 -25.50 0.0002288851    1.441    0.306
       478  -9.0918     25.8476     34.1457   1.0303759957e+02   6.5173450486e+01    0.1583307    0.1042973 -35.13 0.0002823806    1.289    0.224
       479  -9.9579      5.9084     33.2473   1.1059700488e+02   6.6680325388e+01    0.2614403    0.1270823 -30.59  0.001261418    2.149    0.535
       480  -8.7249     10.6528     31.6848   1.0828396840e+02   6.6707070023e+01    0.1509203    0.1005524  -1.20 0.0008966104    1.849    0.459
       481  -9.0539     21.4057     32.7627   1.0434288952e+02   6.5778134274e+01    0.1627595   0.07809683 -46.53 0.0004409185    1.537    0.349
       482  -9.1216     30.3091     31.0805   1.0028024609e+02   6.5367218182e+01    0.1682545    0.1233047 -44.40  0.001099072    1.096    0.087
       483 -10.7494      3.8868     27.6306   1.0985210055e+02   6.7853316240e+01    0.3092252    0.2201788  -0.80  0.001584424    1.710    0.415
       484  -9.5316      4.2481     23.5606   1.0850310254e+02   6.8591692256e+01    0.1946053    0.1121373 -28.28 0.0006723068    1.681    0.405
       485  -9.3024     70.1613     29.1783   8.4682025272e+01   6.0969225103e+01    0.2823219    0.1337815 -22.92  0.001158132    2.793    0.642
       486  -9.6569     23.3310     27.6887   1.0191926469e+02   6.6570293005e+01    0.1941616     0.137006 -54.03 0.0005992818    1.305    0.233
       487 -12.2357    191.5525    244.5484   1.0398227038e+02   1.5956685659e-01    0.2852429     0.241355  15.23 0.0005301436    1.337    0.252
       488  -9.6782     12.6271     27.4070   1.0620123211e+02   6.7386986512e+01    0.1938451    0.1502668 -56.17 0.0006901138    1.226    0.184
       489  -9.4147    186.5417    245.4920   1.0490727705e+02   8.6228576462e-01    0.1591319    0.1442764  -1.08 0.0005597738    1.384    0.278
       490 -10.7484    124.2425    246.8264   1.1501263270e+02   1.0542278798e+01    0.2163606    0.1708399  60.14 0.0005290945    1.090    0.083
       491  -9.9506     29.1468     20.1979   9.6799824514e+01   6.7404004540e+01    0.2846332    0.2741836  -7.88  0.002251755    1.388    0.280
       492  -8.6728     34.4792     20.4321   9.4679625873e+01   6.6858046633e+01    0.1190896   0.08874249 -28.13 0.0001122632    1.067    0.063
       493  -9.7743    120.0752    248.2285   1.1579813370e+02   1.0970277595e+01     0.181884    0.1531972 -45.18  0.001237955    1.830    0.454
       494  -9.2581    108.1728    249.1045   1.1772357781e+02   1.2590906072e+01    0.1511531    0.1201397  54.00 0.0005201526    1.235    0.190
       495  -9.1053     16.2163    249.0919   1.3103648295e+02   2.3922892234e+01    0.1277402   0.09492054  81.39  0.000955958    1.317    0.241
       496  -9.7496     31.5497    247.2880   1.2886970494e+02   2.2593241666e+01    0.1570075    0.1331559  71.79  0.000497977    1.531    0.347
       497  -8.9669      8.2479    248.2269   1.3205998361e+02   2.4843285109e+01    0.1235351   0.08727335  73.85  0.001150465    1.207    0.172
       498 -10.4573    133.0700    245.2769   1.1346291814e+02   9.4121710231e+00    0.2092279    0.1746477  46.18 0.0003970061    1.270    0.213
       499 -10.6155    113.4001    244.3145   1.1648445075e+02   1.2517277181e+01    0.2080512    0.1900187 -73.66 0.0007529111    1.484    0.326
       500  -9.2335     75.7711    246.2255   1.2242466951e+02   1.7473229296e+01    0.1246721    0.1048446  64.17 0.0006340074    1.361    0.265
       501  -9.1772     47.3398     18.6677   8.8773762213e+01   6.5740082683e+01     0.234027    0.1378547 -14.57 0.0006736919    1.944    0.485
       502  -8.8246     78.9252     22.1409   7.8829276506e+01   6.0670568357e+01    0.1858995    0.1677791 -32.32 0.0005403013    1.257    0.205
       503  -9.4106     37.8687     15.6135   9.1301560243e+01   6.7303321477e+01    0.1948758    0.1238276 -30.56  0.000321414    1.259    0.206
       504 -10.1893     80.3256    244.3168   1.2160020462e+02   1.7162725077e+01    0.1979633    0.1451773  55.38 0.0004498875    1.235    0.190
       505 -10.4315     92.9928    244.5318   1.1968100975e+02   1.5409053048e+01     0.217181    0.1505664  49.89 0.0006283104    1.295    0.228
       506  -9.2379     40.9374    244.8411   1.2742716062e+02   2.1930245108e+01      0.13476     0.106007  71.04 0.0007792801    1.308    0.235
       507 -10.7513    104.5397    241.6098   1.1763620212e+02   1.4208825182e+01    0.2242282    0.2023854  47.00 0.0007299127    1.491    0.329
       508 -10.4059    125.1979    240.0325   1.1419606863e+02   1.1362047924e+01    0.2139626    0.1827283  62.16  0.000481129    1.180    0.152
       509 -10.6102     68.3767    240.1741   1.2311236642e+02   1.9356796297e+01    0.1971541    0.1570578  60.69 0.0004617633    1.299    0.230
       510  -9.8721     51.4222    240.4483   1.2565986224e+02   2.1400326352e+01    0.1721484    0.1420291  74.81 0.0007172905    1.355    0.262
       511 -10.0469     25.0967    239.7595   1.2940898853e+02   2.4451475282e+01    0.1959431    0.1456379 -66.39  0.001080976    1.940    0.485
       512 -10.1498    134.8646    238.9756   1.1252316542e+02   1.0014729989e+01    0.1858733    0.1637326  87.05 0.0004823494    1.287    0.223
       513  -8.9086     35.0645    240.3200   1.2802472136e+02   2.3291387424e+01    0.1354577   0.08879986  64.24 0.0006932092    1.109    0.098
       514 -10.5055    148.7875    238.2189   1.1016787534e+02   7.9078890055e+00    0.2239505    0.1710298  44.62 0.0003413815    1.162    0.139
       515 -10.1537    117.7791    238.7401   1.1526291501e+02   1.2678376331e+01    0.1952856    0.1623262  55.26 0.0005121889    1.209    0.173
       516  -9.2542     62.0572    239.0992   1.2399219586e+02   2.0320797556e+01    0.1410092    0.1155911  69.17 0.0005209959    1.307    0.235
       517  -8.4843      8.6680    239.6826   1.3167503414e+02   2.6119264771e+01    0.0761714   0.06327954 -82.81 0.0007047523    1.689    0.408
       518  -9.4738    112.4186    237.4179   1.1599846545e+02   1.3678518059e+01    0.1571872     0.146795  55.11 0.0006041834    1.426    0.299
       519 -10.3965     91.0223    235.8072   1.1927055840e+02   1.7014928218e+01    0.2061678    0.1865948  61.48 0.0005219018    1.435    0.303
