#   1 NUMBER                 Running object number                                     
#   2 MAG_AUTO               Kron-like elliptical aperture magnitude                    [mag]
#   3 X_IMAGE                Object position along x                                    [pixel]
#   4 Y_IMAGE                Object position along y                                    [pixel]
#   5 X_WORLD                Barycenter position along world x axis                     [deg]
#   6 Y_WORLD                Barycenter position along world y axis                     [deg]
#   7 A_WORLD                Profile RMS along major axis (world units)                 [deg]
#   8 B_WORLD                Profile RMS along minor axis (world units)                 [deg]
#   9 THETA_WORLD            Position angle (CCW/world-x)                               [deg]
#  10 FWHM_WORLD             FWHM assuming a gaussian core                              [deg]
#  11 ELONGATION             A_IMAGE/B_IMAGE                                           
#  12 ELLIPTICITY            1 - B_IMAGE/A_IMAGE                                       
         1 -10.2162    241.6864    126.6695   1.0229483297e+01   1.0259881528e+01    0.1230065   0.08302895  -1.94 0.0004940269    1.676    0.403
         2  -9.4681    221.1306    234.3561   3.1999858309e+01  -4.4057121008e-01    0.1419705   0.07978621  34.26 0.0009456502    1.761    0.432
         3  -9.8854    195.3921    221.2158   3.4422949168e+01   4.1175828229e+00    0.1350804    0.1026974 -38.17 0.0009451802    1.647    0.393
         4 -10.2421    211.3541    218.6378   3.1321093084e+01   2.4703917605e+00    0.1953076     0.179094  43.14  0.001498769    1.786    0.440
         5  -9.1742    234.5125    216.5333   2.7303274120e+01   7.0695302379e-03    0.1064701   0.07919742   1.79 0.0002307158    1.040    0.039
         6  -9.9368    170.9507    214.1490   3.7861119987e+01   8.2499178939e+00     0.188804    0.1250705  50.86  0.001088022    2.056    0.514
         7 -11.9470    218.4658    209.6197   2.8777741914e+01   2.6868735382e+00    0.3372967    0.2062292 -25.68  0.002233984    1.530    0.347
         8 -11.1347    226.1236    209.7152   2.7562514977e+01   1.7512566763e+00    0.1735161    0.1338042 -23.50 0.0009002388    1.365    0.267
         9  -9.1305    203.4925    209.4973   3.1266106719e+01   4.5776867108e+00    0.1140285   0.09082179   7.43 -1.481867e-05    1.043    0.041
        10  -9.6650    248.7875    208.3653   2.3913931616e+01  -6.9336562605e-01    0.1461629   0.07812145  20.20 0.0009495128    1.715    0.417
        11 -10.1223    238.4973    205.5190   2.4989496838e+01   7.8034844641e-01    0.1612674   0.09319462  40.12 0.0009426199    2.129    0.530
        12  -9.8879    246.0454    203.7008   2.3578584838e+01   1.2029332126e-01    0.1505822     0.110085   4.92 0.0006457703    1.088    0.081
        13  -9.2639    175.6761    204.2860   3.5498331901e+01   9.0216839946e+00    0.1093752   0.09068143  50.81 0.0006144331    1.602    0.376
        14  -9.2099    250.4606    202.4523   2.2739151993e+01  -2.3853107084e-01    0.1062571   0.07781098  -3.65 0.0001598361    1.021    0.020
        15 -10.6995    217.0229    201.7751   2.7774464277e+01   3.8273253539e+00     0.260179    0.2099106  81.76   0.00144049    3.653    0.726
        16  -9.5597    193.4941    202.0343   3.1855797801e+01   6.8838996771e+00    0.1662653    0.1081864 -33.32  0.001029366    1.583    0.368
        17 -10.8814    210.6738    200.4440   2.8615787906e+01   4.8109499730e+00    0.1842491    0.1565802  32.10 0.0009043457    1.452    0.311
        18 -10.1652    238.8031    200.5664   2.4152388442e+01   1.3086498546e+00    0.2126079     0.093799  42.93  0.001125913    2.989    0.665
        19 -11.5141    230.3561    200.2754   2.5399495325e+01   2.3535561394e+00    0.2952203    0.1346905  35.01  0.001611392    2.135    0.532
        20 -10.3631    243.6694    198.8851   2.3155282189e+01   9.3128794847e-01    0.1742166    0.1054688 -12.90 0.0007653158    1.417    0.294
        21 -10.9392    224.6683    198.1792   2.5955435198e+01   3.3084353652e+00    0.1584495     0.128699 -26.60 0.0007783796    1.398    0.285
        22  -9.4884    248.9438    196.9796   2.2076690286e+01   5.3711952192e-01     0.140696    0.1282548 -24.88  0.001097598    1.693    0.409
        23  -9.9338    202.2933    197.1983   2.9524077849e+01   6.3488795698e+00    0.2010652    0.1507937  53.60  0.001233576    2.113    0.527
        24  -9.8011    144.3998    197.2209   4.0714356269e+01   1.4657866260e+01    0.1575202    0.1247397 -61.03  0.000789464    1.638    0.389
        25 -10.9296    219.9816    194.8246   2.6158573051e+01   4.3211910602e+00    0.2690608    0.1485931 -54.17  0.001117211    5.078    0.803
        26  -9.8303    195.9910    196.0209   3.0442526180e+01   7.3708489963e+00    0.1614783    0.1523658  72.52  0.001131628    1.706    0.414
        27  -9.3616    124.3344    199.6665   4.5415900070e+01   1.7193764546e+01     0.130533   0.09118582  59.00 0.0004502317    1.735    0.424
        28 -10.5287    209.6503    195.1985   2.7933387802e+01   5.6276928993e+00     0.159091    0.1302342  13.54 0.0008324109    1.132    0.116
        29 -10.8795    185.9643    194.4845   3.2015508773e+01   8.9962223762e+00     0.213452    0.1713522 -48.98  0.001376106    1.660    0.398
        30  -9.7397    246.2971    193.0262   2.1812491727e+01   1.2913094096e+00    0.1557625    0.1133362 -11.10 0.0007656514    1.075    0.070
        31 -10.2272    242.2306    192.4050   2.2306244555e+01   1.8456041726e+00    0.1735144   0.09939452  44.29   0.00104439    2.415    0.586
        32 -11.2153    224.2626    192.7626   2.5127177401e+01   4.0299768890e+00    0.2274347    0.1762152  58.58  0.001420353    2.502    0.600
        33 -10.9039    233.0679    191.8161   2.3590146613e+01   3.0344641195e+00    0.1591604    0.1376604  -2.23  0.001024386    1.278    0.218
        34 -11.1188    227.3114    189.9745   2.4176979218e+01   3.9874149202e+00    0.2440798    0.1984923 -80.70  0.001388104    3.404    0.706
        35 -10.5069    206.0079    190.5243   2.7776479654e+01   6.7448843034e+00    0.1716703    0.1040409  33.34 0.0006030063    1.568    0.362
        36 -10.3374    194.3965    190.1783   2.9761923727e+01   8.4157270508e+00    0.1569185    0.1096895 -43.67 0.0009472492    1.712    0.416
        37 -11.1388    237.3588    188.8553   2.2440684733e+01   2.8587899619e+00    0.1967991    0.1356659  24.70 0.0008423039    1.389    0.280
        38 -10.6663    233.8732    185.8723   2.2464199837e+01   3.6583362379e+00    0.1791402    0.1383816  -7.04 0.0007346497    1.029    0.028
        39 -10.9544    210.8634    188.7775   2.6654825445e+01   6.3161643588e+00    0.1939964    0.1546866 -55.82  0.001167415    2.065    0.516
        40 -11.0538    243.5629    188.0246   2.1378475559e+01   2.1975652976e+00    0.2053562     0.147311  20.82 0.0008243842    1.324    0.244
        41 -10.8713    230.0078    186.7504   2.3209356291e+01   4.0432461864e+00    0.1812945    0.1501158 -36.97  0.001145339    1.580    0.367
        42 -11.0426    215.8262    196.1689   2.7060683820e+01   4.6886898309e+00    0.1624135      0.14469   6.13 0.0008082941    1.299    0.230
        43  -9.5702    166.5065    187.4697   3.4616545370e+01   1.2938794698e+01    0.1265071    0.1099641  15.85 0.0003160699    1.028    0.027
        44 -12.8237    243.5833    181.1798   2.0210489217e+01   3.0078395383e+00    0.4553367    0.4225834  88.51  0.003351408    2.141    0.533
        45 -12.0456    236.3215    182.3354   2.1486160717e+01   3.7819468658e+00    0.3384257    0.2710291  73.39  0.002012404    3.135    0.681
        46 -11.4144    224.9803    183.5178   2.3444205090e+01   5.1079591118e+00    0.2074228    0.1495446 -40.87  0.001121404    1.697    0.411
        47 -11.7031    210.6155    183.6395   2.5815983084e+01   7.0439760065e+00    0.2237793    0.1748839 -39.23  0.001446793    1.524    0.344
        48  -9.9003    177.4115    184.2589   3.1930251242e+01   1.1792764098e+01    0.1623519    0.1184922 -47.46 0.0009506483    1.649    0.394
        49 -11.0831    217.6086    182.8151   2.4510422191e+01   6.1909931611e+00    0.1536645    0.1005329 -37.80 0.0007491584    1.631    0.387
        50 -10.4533    198.7645    181.9977   2.7581667612e+01   8.9597155920e+00    0.1555164   0.09384363 -33.60 0.0008790629    1.620    0.383
        51 -10.5414    121.4900    181.9961   4.3529075878e+01   2.0911133176e+01    0.1909948    0.1341132 -53.55  0.001014988    1.599    0.375
        52 -11.5777    249.3916    177.1685   1.8683067821e+01   2.7671937019e+00    0.3879625    0.1920891 -41.67  0.002163672    2.415    0.586
        53 -10.6027    204.4208    181.1952   2.6449455092e+01   8.2576607071e+00     0.159453    0.1076927 -42.53 0.0009448667    1.713    0.416
        54 -12.1562    225.3212    178.2541   2.2471801255e+01   5.7432174370e+00    0.2894298     0.239244 -69.60  0.001801904    2.456    0.593
        55 -11.0102    219.4930    178.5089   2.3449289203e+01   6.5053011710e+00    0.1976642    0.1004346 -43.19 0.0007871844    2.309    0.567
        56  -9.4905    164.3255    177.6587   3.3396575545e+01   1.4893260383e+01    0.1234483     0.103807  72.39 0.0007040967    1.732    0.423
        57 -11.4942    233.1326    174.6295   2.0620062396e+01   5.1627159607e+00    0.1923321    0.1392573 -30.53 0.0009529188    1.346    0.257
        58  -9.5388    195.6875    174.6894   2.6836021858e+01   1.0485685450e+01    0.1281805   0.08629613   0.81  0.000702892    1.629    0.386
        59  -9.4486    106.6837    173.6621   4.5841422381e+01   2.4895425882e+01    0.1366779    0.1056648 -11.28 0.0007048208    1.701    0.412
        60 -11.1474    224.0545    172.8358   2.1706946435e+01   6.6299120136e+00    0.2076145    0.1403654 -40.34  0.001284795    1.657    0.397
        61 -10.1636    118.2375    170.7208   4.2539494408e+01   2.3663298001e+01    0.2102146    0.1033616 -42.59  0.000890184    2.377    0.579
        62 -10.1171    101.0000    171.0569   4.6880314243e+01   2.6326975765e+01    0.2138225    0.0794121 -58.32 0.0008038604    2.952    0.661
        63  -9.9450     83.5033    171.4958   5.1470359837e+01   2.8851904100e+01    0.1384066    0.1219721  52.32 0.0008106054    1.018    0.018
        64 -11.2602    249.5285    151.0253   1.3939564984e+01   5.9521045285e+00    0.2258059   0.09416424 -28.00 0.0009759677    2.073    0.518
        65 -12.8903    245.3986    157.6142   1.5736619650e+01   5.6798181033e+00    0.5249114    0.2187783 -41.48  0.002586221    2.583    0.613
        66 -10.9658    244.3490    169.0444   1.7968126067e+01   4.3891402623e+00    0.1651692    0.1180645 -20.65 0.0007192176    1.147    0.128
        67 -11.8840    211.7235    168.1838   2.2863760576e+01   9.0345971093e+00    0.3285455    0.1834451 -55.45  0.001406145    3.779    0.735
        68 -10.1674    129.0000    167.9727   3.9500418550e+01   2.2447552322e+01    0.2176168   0.07917163 -51.20 0.0008082292    2.983    0.665
        69 -11.3682    224.1395    166.8895   2.0611189214e+01   7.4148923463e+00    0.2119091    0.1264802 -36.91  0.001235944    1.632    0.387
        70 -11.0230    217.1845    167.1717   2.1776252787e+01   8.3760768317e+00    0.1547772    0.1394112 -30.09 0.0009099728    1.338    0.253
        71 -11.6345    234.3062    163.8962   1.8501326309e+01   6.3880803333e+00    0.2759011    0.1320425 -33.78  0.001106857    1.843    0.457
        72 -10.0486    220.2943    164.6573   2.0808120721e+01   8.2719685027e+00    0.1084619   0.09362492 -52.72 0.0006587938    1.661    0.398
        73 -10.2071    138.5844    163.8046   3.6529403197e+01   2.1649378472e+01    0.1887554    0.1343203 -62.05 0.0009561859    1.738    0.425
        74 -10.0737    182.7475    162.0047   2.6882127537e+01   1.4504281774e+01    0.1685411    0.1060644 -36.88 0.0007377095    1.570    0.363
        75 -12.4559    226.8943    157.1664   1.8364244079e+01   8.3386706196e+00     0.441177    0.1400553 -36.44  0.001887278    2.809    0.644
        76 -10.0408     78.6723    159.6615   5.1150128446e+01   3.2232875245e+01    0.1397143    0.1086554 -22.46 0.0007051739    1.731    0.422
        77 -12.0083    237.9906    157.5435   1.6778989175e+01   6.7051303654e+00    0.2421613    0.1507545 -27.26  0.001114005    1.355    0.262
        78 -10.9305    217.6028    156.7539   1.9744987248e+01   9.7780030529e+00    0.1700229    0.1039677 -39.54 0.0009502488    1.637    0.389
        79 -10.6457    204.4057    154.7780   2.1553192436e+01   1.2120990668e+01    0.1812892    0.1081819 -24.52  0.000948549    1.653    0.395
        80 -12.6021    235.7179    146.9058   1.5079271500e+01   8.4369364409e+00     0.503075    0.2042316 -46.93  0.002049305    3.688    0.729
        81  -9.4164    158.4993    153.5123   3.0140388310e+01   2.0125514634e+01    0.1373256    0.1267795   8.11 0.0002708527    1.015    0.015
        82 -12.1283    224.4440    149.7579   1.7312763739e+01   9.7273185409e+00    0.3131861    0.1782758  -8.82  0.001547303    2.273    0.560
        83  -9.9771    176.0000    150.9708   2.6026898861e+01   1.7494235767e+01     0.216374   0.07364966 -41.09 0.0007563994    2.911    0.656
        84  -9.8113    122.5979    150.2181   3.7858059400e+01   2.7184674686e+01     0.202458    0.1331244 -40.25 0.0009557601    1.670    0.401
        85 -12.3396    249.4072    166.2354   1.6750222942e+01   4.0809154399e+00    0.7791405    0.1543925 -31.23  0.002684626    4.935    0.797
        86 -10.4053    215.5041    147.5077   1.8272868203e+01   1.1434271572e+01     0.125632     0.106761 -12.41 0.0008106155    1.010    0.009
        87 -11.6921    247.4018    143.8671   1.2866479996e+01   7.1574994566e+00    0.2394283    0.1240116 -20.45  0.001009181    1.860    0.462
        88  -9.5784    148.5074    142.4995   3.0103771402e+01   2.4029043622e+01    0.1407286    0.1346137  12.08 0.0008106519    1.001    0.001
        89 -11.5551    245.8353    138.5017   1.2036481082e+01   8.0757962808e+00     0.235359    0.1208835 -15.04  0.001162171    2.315    0.568
        90 -10.5364    227.4946    170.5157   2.0748535276e+01   6.4608510052e+00    0.1179619   0.09546267  -7.53  0.000159428    1.023    0.023
