#   1 NUMBER                 Running object number                                     
#   2 MAG_AUTO               Kron-like elliptical aperture magnitude                    [mag]
#   3 X_IMAGE                Object position along x                                    [pixel]
#   4 Y_IMAGE                Object position along y                                    [pixel]
#   5 X_WORLD                Barycenter position along world x axis                     [deg]
#   6 Y_WORLD                Barycenter position along world y axis                     [deg]
#   7 A_WORLD                Profile RMS along major axis (world units)                 [deg]
#   8 B_WORLD                Profile RMS along minor axis (world units)                 [deg]
#   9 THETA_WORLD            Position angle (CCW/world-x)                               [deg]
#  10 FWHM_WORLD             FWHM assuming a gaussian core                              [deg]
#  11 ELONGATION             A_IMAGE/B_IMAGE                                           
#  12 ELLIPTICITY            1 - B_IMAGE/A_IMAGE                                       
         1 -14.0756     55.6484     65.9493   6.3267392554e+01   5.9231227495e+01     1.570321     1.092312 -11.59  0.007087735    1.961    0.490
         2 -14.9887      6.4258     70.8901   8.9486587773e+01   6.3657797875e+01     1.105644    0.7806749 -51.47  0.004672701    1.248    0.198
         3 -14.6498    120.1188     54.3755   3.7477272717e+01   4.7534411768e+01     1.274198    0.8811195  41.73  0.005499967    1.586    0.369
         4 -14.1790    122.2149     36.7258   3.0814928682e+01   4.9626062661e+01      1.10945    0.5940642  38.63  0.003354133    2.445    0.591
         5 -13.3821    131.4383     33.3643   2.7926454031e+01   4.7756806633e+01    0.8414119    0.4967691 -44.40  0.004016516    1.680    0.405
         6 -13.5595    187.7685     11.1757   1.4814649264e+01   3.6734534676e+01     0.685905    0.4413377 -39.01  0.003578117    1.411    0.291
         7 -13.9387    188.4286     23.0460   1.7816541901e+01   3.5329714466e+01     1.577146    0.6708947 -48.94  0.007435105    2.021    0.505
         8 -13.1552      7.8363      2.6309   6.1049428093e+01   7.8229324558e+01    0.6233299    0.4681819  40.95  0.003967113    1.624    0.384
         9 -15.9409     11.4931     23.0771   7.0806576274e+01   7.4234786366e+01     2.011515     1.111853 -29.48  0.009550856    1.853    0.460
        10 -14.5648     27.4111     11.5197   5.2285940273e+01   7.4061414333e+01     1.003537    0.6552022   1.77  0.005328881    1.854    0.461
        11 -14.5519    166.5538     28.4674   2.1452891999e+01   3.9747365302e+01     0.989458    0.8341607  85.08  0.004272277    1.132    0.117
        12 -14.6169    147.4933     29.6730   2.4212638610e+01   4.4219684791e+01     1.298273     0.685493  71.69  0.004814342    1.827    0.453
        13 -13.5241    141.2212     21.5745   2.2467059130e+01   4.6701328516e+01     1.107813    0.3656358  71.46  0.003853413    2.908    0.656
        14 -13.8894    216.5795     28.1208   1.6836039890e+01   2.8787588191e+01    0.9302853    0.4106059 -48.37  0.004819797    1.803    0.445
        15 -14.3271    219.0670     15.5938   1.3834839302e+01   2.9668237595e+01    0.8064626    0.7021295  80.78  0.005900577    1.333    0.250
        16 -14.1192    214.9046      9.4424   1.2687387209e+01   3.1138880833e+01     1.263616    0.5343536  56.00  0.006149844    3.092    0.677
        17 -15.4094     98.9878     11.1572   2.5448114452e+01   5.8381005146e+01     1.594791    0.9570773  61.59  0.004603959    1.467    0.318
        18 -12.6452     85.5688     13.9097   2.9662168273e+01   6.1426698928e+01    0.4671313    0.3988574 -45.27  0.002435218    1.282    0.220
        19 -11.8344     70.9042     16.3781   3.5035970486e+01   6.4645411939e+01     0.270938     0.222001 -25.99 0.0008008622    1.318    0.242
        20 -12.4900     60.1199     15.1879   3.8170728985e+01   6.7212317997e+01    0.5922233    0.2956853  36.47  0.002618822    2.167    0.538
        21 -13.3115    120.2057     25.8953   2.7265832776e+01   5.1488331097e+01    0.7983847    0.5322953  40.81  0.003974545    1.705    0.413
        22 -11.9508     46.6495     12.7316   4.2412539245e+01   7.0350682854e+01    0.2847556     0.237418  54.95  0.001690617    1.266    0.210
        23 -13.9706     41.9276      4.2684   3.9231220757e+01   7.2279270907e+01    0.6860715    0.5316997  27.34  0.003398029    1.183    0.155
        24 -11.3098    122.9844     10.5216   2.1172688008e+01   5.2395732695e+01    0.3173588    0.1599789 -59.39  0.001389869    2.274    0.560
        25 -12.5352     74.8625      9.4683   3.0317895267e+01   6.4442477459e+01    0.3826858    0.2626963   0.75  0.002007178    1.769    0.435
        26 -12.0220    152.9623      8.3500   1.6925870965e+01   4.5142712052e+01    0.2313021    0.1997324 -14.58 0.0009921957    1.406    0.289
        27 -11.0882     80.3082      7.3119   2.7810623058e+01   6.3336965919e+01    0.2090856    0.1662075 -14.50 0.0009107737    1.412    0.292
        28 -12.3483    118.5762      2.3863   1.8767882385e+01   5.4208408351e+01    0.4233626    0.2207904 -82.38  0.001924524    2.116    0.527
        29 -12.0309     79.6027      1.6051   2.5155174571e+01   6.3987798122e+01    0.6019963   0.09798393  61.64  0.001922503    3.814    0.738
        30 -11.4175     67.6111      2.7261   2.8799117671e+01   6.6762347465e+01    0.2979198    0.1745193  36.48  0.001510752    1.733    0.423
        31 -11.4145    232.6194      1.7452   1.0166212443e+01   2.8440124173e+01    0.1961777    0.1348734 -86.47  0.001378069    1.399    0.285
        32 -11.5126     61.2666      1.4610   2.9982081006e+01   6.8340138299e+01    0.3554126    0.1135418  62.73  0.001370224    2.773    0.639
        33 -12.2172      8.1294    149.7856   9.8074381535e+01   4.2628031495e+01    0.3763608    0.2127927  25.10  0.001861256    1.824    0.452
        34 -12.8020     51.5385    248.6365   9.3598775899e+01   1.5933070087e+01    0.3787612    0.3127004  38.18  0.002696516    1.078    0.073
        35 -12.3215      2.8140    249.4956   1.0390622185e+02   2.0459791092e+01    0.3406903    0.2146608  55.36  0.001774329    1.212    0.175
        36 -14.0308      9.5263    245.6198   1.0240672171e+02   2.0608510073e+01    0.8868072    0.3642266  46.50  0.003809982    1.747    0.428
        37 -11.6447    103.4312    149.8761   6.8337380798e+01   3.0528167899e+01    0.3797722    0.2490417 -33.25  0.001451631    1.831    0.454
        38 -11.9437     60.7159    147.3260   8.0795059711e+01   3.7817760502e+01    0.3960787    0.2599166  -5.74  0.001667405    2.277    0.561
        39 -12.4937    135.9376    132.0270   5.5847523588e+01   2.8610094982e+01    0.5978629    0.3714299  37.83  0.002660007    1.671    0.401
        40 -12.5279    133.8079    126.3769   5.5042731661e+01   3.0253169351e+01    0.6235179    0.3668286 -36.90  0.002633009    1.801    0.445
        41 -14.1264    104.6988    121.8879   6.1856715643e+01   3.6998306639e+01     1.521968     1.105393  39.53  0.007103229    1.389    0.280
        42 -14.9090    106.5057    105.5259   5.7133843039e+01   4.0461659677e+01     1.691767     1.395083 -84.46  0.008179124    1.439    0.305
        43 -12.6689     78.8665    110.3400   6.7261771568e+01   4.4587982048e+01    0.4859158    0.3390379 -72.20  0.002146909    1.661    0.398
        44 -11.5770     86.5570    114.9239   6.5804517008e+01   4.2077820395e+01    0.7457302    0.4401036   6.79  0.002392542    3.656    0.726
        45 -12.5916     82.1689    115.1696   6.7318324195e+01   4.2799137205e+01     0.428235     0.393867  11.90  0.002235779    1.176    0.150
        46 -12.3750     49.0550     93.2261   7.4310019577e+01   5.3657413944e+01    0.4418729    0.3357671  62.91  0.001966265    1.540    0.351
        47 -12.6157     42.4552     90.5319   7.6458113178e+01   5.5227905622e+01    0.3542348    0.2900357 -79.11 0.0004440382    1.291    0.226
        48 -12.1322     36.6887     92.8602   7.9519864813e+01   5.5324521003e+01    0.4598162    0.2790345   9.65   0.00142068    2.028    0.507
        49 -14.6459     24.5285     92.9161   8.4918165858e+01   5.6571204958e+01     1.411867     1.291951 -13.03  0.008212329    1.169    0.145
        50 -14.3002     11.3684    102.2583   9.2178326735e+01   5.5119064083e+01     1.038469      0.72452 -69.46   0.00431469    1.274    0.215
        51 -12.1610    177.2028    110.1239   4.1749054826e+01   2.4725747102e+01    0.3783752    0.3111078  22.22  0.002064843    1.445    0.308
        52 -11.7187     62.9013    110.6204   7.3032254852e+01   4.7139490073e+01    0.2957864     0.240392  66.85  0.001458269    1.363    0.266
        53 -11.8479      6.2895    119.1831   9.6148475580e+01   5.0892060124e+01    0.3884701    0.2723021 -28.47  0.002039155    1.662    0.398
        54 -11.6817     87.9125    109.0655   6.3889747204e+01   4.3269015583e+01    0.3777396    0.2698136 -66.23  0.001697068    1.543    0.352
        55 -12.6485    136.4998    102.9864   4.8432806348e+01   3.4647943084e+01    0.5635064    0.3433331  45.42  0.001973143    1.701    0.412
        56 -11.0945      1.6953    119.6554   9.7911468796e+01   5.1035013605e+01    0.2093835    0.1379085 -43.07 0.0008198138    1.617    0.382
        57 -12.0733     61.4898     97.7328   7.0434644969e+01   5.0664844169e+01    0.4902967    0.3334646  75.06  0.002018598    2.091    0.522
        58 -12.1258     52.9740     97.4852   7.3754069692e+01   5.2010750111e+01    0.5313789     0.331348 -15.94  0.002096272    2.481    0.597
        59 -11.7113     46.4927     98.5099   7.6646387716e+01   5.2636698492e+01    0.2777365    0.2327175  27.95  0.001321469    1.249    0.199
        60 -11.9323    163.5668     97.4348   4.1127616971e+01   2.9865211180e+01    0.3480473    0.2408452 -57.55 0.0007925785    1.550    0.355
        61 -13.4375    136.8687     94.5881   4.6041623525e+01   3.6263110706e+01    0.5449946     0.460276 -87.46  0.001963563    1.350    0.259
        62 -13.6750      2.2746     96.9549   9.5402971310e+01   5.7073566463e+01    0.9667234    0.3696923 -81.98  0.003530741    2.520    0.603
        63 -11.8040    129.3651     96.1095   4.8283545438e+01   3.7618830946e+01    0.3053055    0.2301645  59.72  0.001433909    1.421    0.296
        64 -14.0360     18.4937    111.0267   9.0447699105e+01   5.2231473348e+01     0.911668    0.6604904 -48.08  0.003698148    1.369    0.270
        65 -12.8066    188.6005     83.8106   3.3384512162e+01   2.6908344186e+01    0.5383308    0.3096582  44.38  0.002467929    2.113    0.527
        66 -13.2708    187.5939     79.2185   3.2384484822e+01   2.7853725447e+01    0.2962276    0.2486406 -17.71  0.001340488    1.362    0.266
        67 -14.0548    163.9028     71.3823   3.4051707278e+01   3.4322971217e+01     1.320247    0.9372709  64.09  0.006757309    1.477    0.323
        68 -13.3999    161.2371     80.3926   3.7012155471e+01   3.3415383249e+01    0.8342869    0.5604345  16.78  0.003265891    2.616    0.618
        69 -14.6457    169.3734     77.0856   3.4687250850e+01   3.2151028636e+01     1.184821    0.6217809  51.05   0.00415011    2.054    0.513
        70 -12.8058     28.7840    121.8400   8.7987407002e+01   4.8393116902e+01    0.3575806    0.3077793 -53.42  0.001985459    1.160    0.138
        71 -12.1546    109.1281    249.1200   8.1203581836e+01   9.2128753459e+00    0.3014393    0.1758591  27.67  0.001755766    1.392    0.282
        72 -13.6019     91.9501     57.1738   4.6152262859e+01   5.3722417751e+01    0.5512689    0.5226685 -35.87  0.001693095    1.082    0.076
        73 -13.6895     87.4170     65.2703   5.0613582926e+01   5.3192420013e+01     1.057554    0.6706538  19.08  0.004012871    2.538    0.606
        74 -12.7608     54.8928     81.1289   6.8523572650e+01   5.5818350333e+01    0.5865349    0.4952542 -45.58  0.003055113    1.148    0.129
        75 -13.9409     61.2025     75.5563   6.4120715809e+01   5.6105609156e+01    0.8040014    0.5731586 -31.82  0.002753829    1.549    0.354
        76 -13.1759     70.9671     75.2225   6.0071173450e+01   5.4427805376e+01    0.5772966     0.435001  -2.83  0.001669107    1.769    0.435
        77 -12.1807     77.1440     73.0953   5.7005698963e+01   5.3704575598e+01    0.5529471    0.3380541 -27.98  0.001948567    2.150    0.535
        78 -12.0862    114.0340     80.0342   4.7507739724e+01   4.4318686771e+01    0.4722087    0.3441633 -50.73  0.001961388    1.387    0.279
        79 -12.7024    211.1769     77.3031   2.8781942470e+01   2.3379008006e+01    0.7331035     0.424576 -85.35  0.003364151    2.757    0.637
        80 -12.8280    135.1770     79.2087   4.1984177771e+01   3.9608180761e+01    0.7303295    0.3964139  57.80  0.003025299    1.942    0.485
        81 -12.2293    237.0903     80.0224   2.6511468075e+01   1.8259959400e+01    0.3012488    0.1546186  81.01  0.001411945    3.333    0.700
        82 -13.4150     66.2037     49.0253   5.2161225938e+01   6.0748428684e+01    0.9376036    0.6438844 -43.99  0.004623924    1.500    0.333
        83 -13.6176     28.5910    245.9462   9.8389199220e+01   1.8780421735e+01     0.449102     0.286066  56.46  0.002906784    1.319    0.242
        84 -14.3127      4.4527     63.0883   8.9010688579e+01   6.5732064343e+01     0.848336     0.688596 -22.27  0.005081361    1.238    0.192
        85 -11.4572     27.0216     75.0835   7.9779175607e+01   6.0942451404e+01    0.4508911    0.2383058  84.47   0.00155177    3.703    0.730
        86 -12.1894    214.8332     71.1425   2.6930422576e+01   2.3568050132e+01    0.2846922    0.2227765 -58.38  0.001427676    1.172    0.147
        87 -13.5433    199.5938     69.5692   2.8364010818e+01   2.6833043958e+01    0.6578062    0.3907036  54.98  0.002826896    1.907    0.476
        88 -13.3647    133.4514     65.7741   3.8240636188e+01   4.2413814703e+01    0.9206342    0.7248105   2.14   0.00441628    1.747    0.428
        89 -12.2698     39.1894     68.0775   7.1721374911e+01   6.1227590201e+01    0.5067211    0.2197046  35.47  0.002024204    2.324    0.570
        90 -11.5780     99.7898     64.7660   4.6502870200e+01   5.0534623295e+01    0.3201881    0.2460923 -70.10  0.001525002    1.573    0.364
        91 -12.1660    199.8181     61.2643   2.6304107251e+01   2.7988180426e+01    0.2697935    0.2357244 -69.16  0.001263562    1.095    0.087
        92 -13.0233     78.9809     60.1119   5.1661718624e+01   5.6006844977e+01    0.5606505    0.4998015 -35.71  0.002797078    1.139    0.122
        93 -11.5944     38.8202     59.9860   6.9211569026e+01   6.3158589230e+01    0.3309348    0.2074734  68.52  0.001316187    2.953    0.661
        94 -11.3493     34.7178     59.9711   7.1337512668e+01   6.3709240021e+01    0.4971308    0.1653802 -45.22  0.001741696    2.925    0.658
        95 -12.3497     37.1864     53.4948   6.7698504226e+01   6.4833727589e+01    0.4611315     0.280224 -33.19  0.002157315    1.769    0.435
        96 -11.7457     24.9205     59.0675   7.6351613659e+01   6.5070733523e+01    0.4653535    0.2158466 -52.29   0.00202908    1.913    0.477
        97 -11.2870    111.2463     58.6099   4.1133588584e+01   4.8967061423e+01    0.2499188    0.2038266  44.52 0.0005516492    1.255    0.203
        98 -14.0568     97.2975    239.2447   8.2748621966e+01   1.2357803880e+01    0.6499285    0.4091364  35.57  0.003824257    1.303    0.233
        99 -12.3074    109.8626     41.9487   3.5426564511e+01   5.1960526706e+01    0.4102309    0.1998478  58.73  0.000680199    1.944    0.486
       100 -13.1994    113.6602     37.8961   3.3036370383e+01   5.1598384960e+01    0.3980977    0.3766497  55.98  0.001320986    1.077    0.071
       101 -14.0122     91.2201    231.8991   8.3354811312e+01   1.4457430616e+01    0.5439776    0.3457312  82.83  0.002843526    2.371    0.578
       102 -11.9728    170.3231    241.6640   6.7823145061e+01   2.9663115398e+00    0.1059377   0.08673995  46.04 0.0007050798    1.713    0.416
       103 -11.2209    117.8948     71.9012   4.3888391023e+01   4.5003106725e+01    0.2283165    0.2112265  11.14 0.0008831778    1.225    0.184
       104 -12.5268    135.5439     50.0785   3.2769976474e+01   4.4425034314e+01    0.5445805    0.3855812  19.47  0.001960219    2.117    0.528
       105 -12.1618    247.9283     54.3172   2.0173245036e+01   1.9793177318e+01    0.4902569    0.1563167 -42.23  0.002347387    2.204    0.546
       106 -11.8289    249.2309     48.5785   1.8902898901e+01   2.0278314977e+01    0.2004683     0.177721  34.45  0.001490258    1.639    0.390
       107 -11.5825     17.5276     55.5127   7.9486952095e+01   6.6634922290e+01    0.3306144     0.219197 -59.20  0.001735158    1.409    0.290
       108 -13.7026    103.3469     50.5120   4.0302955310e+01   5.2214518388e+01      1.00425    0.5026377 -46.60  0.002243092    2.142    0.533
       109 -13.4630     97.9833     49.9956   4.1606879772e+01   5.3572478349e+01     0.839511    0.4454995 -43.78  0.002848523    1.954    0.488
       110 -13.8351    177.7188     56.4142   2.7840835082e+01   3.3480792434e+01    0.9704485    0.4928845 -45.66  0.003899078    1.774    0.436
       111 -10.5007     23.6627     49.7377   7.3935870427e+01   6.7356236971e+01    0.1395402   0.09483033 -21.23 0.0003189041    1.585    0.369
       112 -11.5706    152.0102     47.0000   2.8917340502e+01   4.0852627425e+01     0.267261    0.1641923  74.44 0.0009502334    1.694    0.410
       113 -13.0159    158.2018     43.0472   2.6790502148e+01   3.9905474330e+01    0.5693804    0.5157173  15.70  0.002530277    1.387    0.279
       114 -11.0849     38.8614     46.0777   6.3827763477e+01   6.6165262626e+01    0.1958653    0.1918089  86.53 0.0004956177    1.210    0.174
       115 -12.0758     11.7224     43.4609   7.9220470728e+01   6.9919323083e+01    0.4655301    0.2525213  -7.26   0.00203107    2.242    0.554
       116 -12.8237      3.7386     42.7749   8.4373275668e+01   7.0648400597e+01    0.5488138    0.3779459  -4.62  0.003126247    1.494    0.331
       117 -12.6497     23.8215    216.4863   9.7960275033e+01   2.5201148776e+01    0.7079204    0.2388384  44.14  0.003194914    2.253    0.556
       118 -14.2728    212.3690     41.1035   2.0180421092e+01   2.8086378659e+01     1.806529    0.6111874  78.62  0.006886988    4.099    0.756
       119 -14.0276     26.2170    226.5426   9.7941008248e+01   2.2849034725e+01    0.7225784    0.3689284 -56.38  0.003807601    2.395    0.583
       120 -12.7762     32.9890     40.1161   6.4529035451e+01   6.8233170501e+01     0.340464    0.2726641   4.02 0.0006185189    1.262    0.208
       121 -12.6666     76.0166     36.9956   4.3192018572e+01   6.0711676454e+01    0.4805398    0.3034852  44.19  0.001371378    1.519    0.342
       122 -11.8082     70.7921     36.0109   4.4630904008e+01   6.2016513188e+01    0.3048833    0.2989943   6.77  0.000905957    1.058    0.055
       123 -13.0866    242.5793     35.9231   1.6753360169e+01   2.2951262231e+01    0.5396932    0.2686082  87.25  0.002688368    2.390    0.582
       124 -13.9631     20.6258    223.8623   9.9089833056e+01   2.3937904675e+01    0.6889181    0.4665743  33.84  0.004302614    1.298    0.230
       125 -14.3841     66.2782    223.0766   8.8300985577e+01   1.9233697147e+01     1.086715    0.7514717  39.96  0.006411175    1.212    0.175
       126 -13.9969     64.5889    214.1553   8.7886920101e+01   2.1293578849e+01    0.5684391    0.3401103  47.16  0.003017765    1.493    0.330
       127 -13.1524     44.3420     32.4403   5.4574771531e+01   6.7854722922e+01    0.7245368     0.573298  41.25  0.004124017    1.272    0.214
       128 -13.1519     59.4013    212.7750   8.9035065637e+01   2.2205844112e+01    0.4353159    0.2688087 -49.08  0.001457008    1.939    0.484
       129 -12.6442     94.1872    218.1563   8.1162655596e+01   1.6734395173e+01    0.2382401    0.2019249  30.18  0.001466879    1.035    0.034
       130 -12.7673     72.1859    206.7657   8.5258827971e+01   2.1945412164e+01    0.3321452    0.2639979  51.05  0.001960079    1.162    0.140
       131 -12.0997    105.1008     34.8379   3.3834479362e+01   5.4135460132e+01    0.5296431    0.2705033 -13.72  0.001940008    3.259    0.693
       132 -12.3443     57.4307    202.7845   8.8599424527e+01   2.4634883015e+01    0.5301891    0.2605409  88.62   0.00221618    2.831    0.647
       133 -11.9398     41.3472    205.6982   9.2947692968e+01   2.5800195817e+01    0.2264042    0.1217886  57.09  0.001114385    1.783    0.439
       134 -12.3900     17.1216    195.5220   9.8445267993e+01   3.0525027632e+01    0.3788856    0.2122868 -71.16   0.00199528    1.796    0.443
       135 -13.5923     57.9691     26.5642   4.5124237304e+01   6.6169028231e+01     1.105771    0.3631188  46.32  0.003253297    2.802    0.643
       136 -10.3851     32.8873     31.0000   6.0234319962e+01   6.9996235555e+01    0.2142906   0.07236379  36.21 0.0007980575    2.912    0.657
       137 -12.5408     30.9980     25.4746   5.8462201419e+01   7.1269083965e+01    0.4254763      0.21877  25.55  0.001642673    2.177    0.541
       138 -11.8234     35.9742     23.0138   5.4110069598e+01   7.0875366620e+01    0.2990231    0.2266448 -13.67  0.001538832    1.366    0.268
       139 -12.2697    164.3364    195.2396   6.1955107110e+01   1.1178824326e+01    0.3169515    0.2143158 -76.56  0.001353134    3.570    0.720
       140 -12.1927     36.8041    194.5878   9.3245105669e+01   2.8831889567e+01    0.3254844    0.2048062 -89.52  0.001687537    1.636    0.389
       141 -10.7895     51.2505     20.4037   4.4764701030e+01   6.8417984616e+01    0.3085726    0.1199774  52.61  0.001218194    2.594    0.615
       142 -11.8564     47.0123     19.6508   4.6326367969e+01   6.9364862320e+01    0.3560885    0.1740688  32.47  0.001520771    2.355    0.575
       143 -13.3480     29.9531    169.3390   9.3011098863e+01   3.5701454621e+01    0.8909177    0.5583434 -33.19  0.004220092    2.166    0.538
       144 -13.3353     22.2076    180.7347   9.6139222021e+01   3.3598839247e+01    0.7173759     0.391659 -63.91   0.00342985    1.849    0.459
       145 -15.0254      8.8131    183.0604   9.9940509105e+01   3.4188224217e+01     1.288751     1.098172  43.13  0.008279894    1.150    0.131
       146 -12.1599     40.4774     40.3342   6.0427818902e+01   6.7059050669e+01    0.5235315    0.2760472  34.36  0.002398563    1.885    0.469
       147 -14.5983     15.4033    174.7775   9.7630641111e+01   3.5671952382e+01     2.060425    0.5270083  42.91  0.007595444    3.064    0.674
       148 -12.5230     40.3910    195.1874   9.2348338301e+01   2.8310221015e+01    0.4222735    0.2470033  78.88  0.002086843    1.856    0.461
       149 -12.2460    198.7378    181.3334   5.2810021967e+01   8.5757163072e+00    0.2080952    0.1943936 -20.77   0.00126653    1.269    0.212
       150 -11.5869     48.9387    181.3541   8.8732637826e+01   3.0658350238e+01    0.2752097    0.2009382 -63.03  0.001480455    1.424    0.298
       151 -10.3062     55.3291     11.3114   3.7830283339e+01   6.8701114289e+01     0.139924   0.09009822  27.82 0.0007042212    1.668    0.400
       152 -13.2615    124.3586    166.4325   6.5949122411e+01   2.3174449842e+01    0.6818979    0.4369473 -64.12  0.003093917    1.929    0.482
       153 -12.1043     22.1038    165.9815   9.5041536073e+01   3.7299366214e+01    0.2079854     0.187298  71.73 0.0007118223    1.027    0.026
       154 -10.7187    200.5380    191.5296   5.4309778447e+01   6.7121519028e+00    0.1232537    0.1027072  -9.80 0.0001801745    1.038    0.037
       155 -12.0570    111.1264    155.3949   6.7295225510e+01   2.7909176145e+01    0.5384971    0.3334412  88.80  0.001901395    3.349    0.701
       156 -12.0651     76.9647    156.7001   7.7282473860e+01   3.3102241616e+01    0.3757918    0.2849077  23.24  0.001162648    1.392    0.282
       157 -13.1040     73.5766    153.2548   7.7736870901e+01   3.4472088155e+01    0.6722586    0.5127925  19.89    0.0024006    1.430    0.301
