#   1 NUMBER                 Running object number                                     
#   2 MAG_AUTO               Kron-like elliptical aperture magnitude                    [mag]
#   3 X_IMAGE                Object position along x                                    [pixel]
#   4 Y_IMAGE                Object position along y                                    [pixel]
#   5 X_WORLD                Barycenter position along world x axis                     [deg]
#   6 Y_WORLD                Barycenter position along world y axis                     [deg]
#   7 A_WORLD                Profile RMS along major axis (world units)                 [deg]
#   8 B_WORLD                Profile RMS along minor axis (world units)                 [deg]
#   9 THETA_WORLD            Position angle (CCW/world-x)                               [deg]
#  10 FWHM_WORLD             FWHM assuming a gaussian core                              [deg]
#  11 ELONGATION             A_IMAGE/B_IMAGE                                           
#  12 ELLIPTICITY            1 - B_IMAGE/A_IMAGE                                       
         1 -13.6317    170.2331     74.5217   7.3390170678e+01   3.2482996222e+01     2.881505     1.933324  19.50   0.01178676    2.090    0.522
         2 -15.4993    243.5782    119.5063   7.1728858398e+01   7.4792066990e+00     6.166449     5.526187  33.31   0.03557761    1.127    0.113
         3 -14.0732    214.1176     21.9909   5.0141128757e+01   2.8784174726e+01     2.842671     1.427019  31.88   0.01031538    3.115    0.679
         4 -15.7650    214.3572     72.9584   6.4607598388e+01   2.1621212702e+01     9.200078     5.045563  88.44   0.01991258    4.162    0.760
         5 -16.8645    243.5586     34.4943   5.0038157365e+01   1.9779887720e+01     7.265128      3.01848  52.80   0.02884951    2.506    0.601
         6 -15.0929    223.4982     63.8962   6.0638146880e+01   2.0715331246e+01     3.957098      2.04397  81.96   0.01321443    3.451    0.710
         7 -15.0001    237.2809     16.5603   4.6027486502e+01   2.3492939066e+01     1.559479    0.6788128 -25.43  0.005843956    2.335    0.572
         8 -14.8450    247.8091      7.8624   4.2804229198e+01   2.1872445597e+01     1.110526     0.701574 -12.28   0.00539114    1.951    0.487
         9 -12.6528    206.7139     15.3388   4.9144304098e+01   3.1483778638e+01      0.99523    0.6341994  -8.92  0.004421067    1.915    0.478
        10 -11.2227    128.8935      9.8626   6.0115446425e+01   5.2033363183e+01    0.9458107    0.3070963 -15.22  0.002866714    4.475    0.777
        11 -12.2593    131.6778     21.6087   6.4038237245e+01   5.0029383508e+01    0.6648827    0.5906035  -2.89  0.003798154    1.092    0.084
        12 -11.0025    135.1177     15.4569   6.0940340340e+01   4.9944640617e+01    0.4310086    0.2851423 -15.87 0.0009648251    1.566    0.362
        13 -10.8178    171.5195     18.0377   5.5035416354e+01   4.0472228315e+01    0.4039922    0.2493048 -13.21  0.001171263    1.841    0.457
        14 -10.0646    189.0388     17.3941   5.2133070083e+01   3.5924748712e+01    0.3288504    0.2273351  -3.58 0.0005147366    1.736    0.424
        15  -9.3810    165.2949     13.5975   5.4568588239e+01   4.2584430394e+01    0.3749742    0.1896363 -14.66  0.001165527    2.304    0.566
        16 -10.6008     92.3256     12.4911   7.0484596538e+01   5.9571154992e+01    0.2974151    0.2509364 -10.71  0.001041676    1.085    0.079
        17 -12.0341    119.4089      9.6730   6.2171057943e+01   5.4236115131e+01    0.6835911     0.434306  32.49  0.002994331    1.555    0.357
        18 -10.2103    118.8436      3.1562   5.9635028846e+01   5.5029549452e+01    0.2769919    0.2098356  16.58 0.0007159958    1.278    0.217
        19  -9.1682    187.2984      6.6074   4.9005327520e+01   3.7527353830e+01    0.4027024    0.1757587 -42.20  0.001591536    2.399    0.583
        20  -9.6862    181.9494      2.8100   4.8521225381e+01   3.9305744334e+01    0.3720401    0.2731606 -54.56  0.001601539    1.479    0.324
        21  -9.5481    142.1033      7.8691   5.6662239400e+01   4.9058204257e+01    0.4594856    0.2017282  54.86  0.001910946    2.009    0.502
        22  -9.0162    209.5957      7.3217   4.6482076586e+01   3.1585636976e+01    0.1705186    0.1382502  -8.05 0.0009130868    1.409    0.290
        23  -9.9681    136.3554      5.7013   5.6958822537e+01   5.0676411841e+01     0.303246    0.1865259  64.98  0.001456488    1.651    0.394
        24  -9.0905    206.0878      4.8783   4.6177263619e+01   3.2751045894e+01     0.214785    0.1866487 -14.56 0.0006692027    1.269    0.212
        25  -9.0318     79.4787      4.5072   7.0795704328e+01   6.2889764576e+01      0.24942    0.1121859 -25.80 0.0007411545    2.054    0.513
        26  -8.8260    147.8394      3.2510   5.3901057985e+01   4.8079021152e+01     0.331731    0.1734723  -8.28  0.001119015    2.256    0.557
        27 -10.2138    113.5515      2.9114   6.0748186671e+01   5.6237000310e+01    0.2872697    0.2464162  45.14  0.001732582    1.149    0.130
        28  -8.7578    171.8779      2.7357   4.9892872329e+01   4.1955846288e+01    0.2539742    0.1537739 -51.57 0.0007170708    1.910    0.476
        29  -9.5121    138.1469      1.4303   5.4982223589e+01   5.0643266240e+01    0.2776353    0.1165511  58.13  0.001143719    2.093    0.522
        30 -11.9200    216.2876      8.1338   4.5967171278e+01   2.9760333227e+01    0.4091924    0.2667612  -9.99  0.001106392    1.852    0.460
        31 -10.5691    133.6629    145.7287   9.9334017925e+01   2.6484812442e+01     1.115532    0.2821489 -55.14  0.003026801    5.407    0.815
        32  -9.2918    223.0907    148.8989   8.2001012206e+01   7.3391809936e+00    0.1920793    0.1828315  43.58  0.001142445    1.161    0.139
        33  -9.1375     33.1793    218.5906   1.2709579137e+02   2.7062174418e+01    0.1214326   0.08700348  44.21 0.0005829648    1.662    0.398
        34  -9.9111    150.5344    146.4684   9.5834138130e+01   2.3029906656e+01    0.2097362    0.1781169   9.27   0.00050098    1.505    0.335
        35 -10.5525    151.8737    142.7935   9.4798122439e+01   2.3478618893e+01    0.4016279    0.2796401 -74.88  0.001630392    1.910    0.476
        36  -9.8088    144.0588    146.0313   9.7135935982e+01   2.4407562579e+01    0.2324754    0.1703926  82.90  0.001136108    1.713    0.416
        37  -8.9843    222.7993    145.4700   8.1301556515e+01   7.9288806888e+00    0.2001739    0.1336729  47.82 0.0009859182    1.468    0.319
        38 -10.4202    198.5721    144.2536   8.5556574622e+01   1.3297314639e+01     0.366134    0.2747405  68.69  0.001806064    1.655    0.396
        39 -11.7342    178.2450    142.7588   8.9265747940e+01   1.7945813757e+01    0.6135294    0.4354875  57.36  0.002740677    1.455    0.313
        40  -9.6415    192.2805    144.1322   8.6756056836e+01   1.4676019257e+01     0.258025     0.202726  55.33 0.0003821845    1.293    0.227
        41 -11.3743    156.8433    140.7543   9.3306620630e+01   2.2854914247e+01    0.7259878    0.4422994 -83.56  0.002537807    3.637    0.725
        42 -10.4378    194.9820    198.4860   9.6654930055e+01   5.4791509298e+00    0.4966579     0.344295 -73.87  0.002517029    2.635    0.620
        43 -10.7783    211.5363    136.7477   8.1407604980e+01   1.1737045878e+01    0.3398806    0.3035913 -71.38  0.001651608    1.379    0.275
        44 -10.0408    173.9378    136.7551   8.8831549200e+01   1.9984421596e+01    0.3476248    0.1979778 -58.05  0.001403878    2.330    0.571
        45 -10.1386    166.3297    135.7088   9.0193910145e+01   2.1824918828e+01    0.4298702    0.2386205 -27.61  0.001674004    2.572    0.611
        46 -10.4770    201.1487    135.6954   8.3138143533e+01   1.4195638917e+01    0.2534433    0.2023396 -46.41  0.000792572    1.356    0.263
        47 -11.5144    159.8466    128.9689   9.0068852739e+01   2.4524809493e+01    0.6686671    0.4405169 -25.72  0.002944877    1.986    0.496
        48 -11.0152    129.2971    115.7027   9.3965384570e+01   3.3572721085e+01    0.8996261    0.5522605 -83.70  0.003173112    3.142    0.682
        49 -10.4241    137.2299    127.8084   9.4850993470e+01   2.9466052543e+01    0.4202713    0.3185952 -65.48  0.001478469    1.412    0.292
        50 -10.9999    134.7641    123.7595   9.4520785273e+01   3.0798899332e+01    0.9961991    0.2840729 -51.89  0.002965593    3.945    0.747
        51  -9.9743    190.9973    191.4964   9.6197876697e+01   7.2409950702e+00    0.4962016    0.2799855 -66.99  0.001858786    4.505    0.778
        52 -10.3628    203.6778    152.7196   8.6408438055e+01   1.0798251918e+01     0.325672    0.2743387 -39.86  0.001039376    1.283    0.220
        53 -11.0049    172.7339    127.1032   8.6878007316e+01   2.2066370945e+01    0.4904057    0.3043393  71.66  0.001934997    2.446    0.591
        54 -10.7973    153.3421    128.1666   9.1311335622e+01   2.6071969017e+01    0.4412151    0.2653334 -48.62  0.001972131    1.704    0.413
        55  -9.2276    140.8778    121.9223   9.2693708738e+01   2.9941100331e+01     0.233775    0.1776447  87.72 0.0008413368    1.661    0.398
        56 -11.4295    159.4723    116.0642   8.7097568699e+01   2.7148683037e+01    0.4165179    0.3226382 -67.96  0.002006702    1.521    0.342
        57 -10.7790    168.0588    113.9847   8.4702048298e+01   2.5628435074e+01    0.4861299    0.3457931 -40.87  0.001398738    1.420    0.296
        58 -10.2604    164.6144    115.7715   8.5894577650e+01   2.6059640689e+01    0.3561497    0.1805241 -47.73  0.001225339    2.066    0.516
        59  -9.9016    175.1549    115.3937   8.3536351396e+01   2.3740061452e+01    0.3681109    0.2379046  63.44  0.001240698    1.821    0.451
        60  -8.7813    172.6566    112.3259   8.3297249061e+01   2.4895715844e+01    0.2575787    0.1867839  72.44 0.0007563184    1.730    0.422
        61 -10.6744    134.7458    109.5312   9.1185391824e+01   3.3767601127e+01      1.13689    0.2617824 -45.35  0.003146618    4.268    0.766
        62  -9.9018    133.7121     98.0358   8.8504896205e+01   3.6359975222e+01    0.3386671    0.2698295 -81.20 0.0007142069    1.533    0.348
        63 -10.1892    120.9875    110.9946   9.4872524317e+01   3.6184180572e+01    0.3958452    0.3287724 -81.13  0.002110603    1.307    0.235
        64 -10.6066    210.8659    190.4677   9.2442100367e+01   3.6510378586e+00    0.2504315     0.165433 -10.94  0.001095755    1.982    0.495
        65 -11.4140    123.9765    104.1105   9.2465906872e+01   3.7066002536e+01    0.8126653    0.5141724 -67.86  0.003503379    2.051    0.512
        66  -8.5850    141.3778    105.2673   8.8538430443e+01   3.3260381541e+01    0.2038838    0.1386165 -52.43 0.0005226805    1.499    0.333
        67 -10.9165    191.7276    152.0118   8.8555250912e+01   1.3435871564e+01    0.5143946    0.3322384 -58.03  0.002355088    2.066    0.516
        68 -10.0037    147.1758    102.1479   8.6367450820e+01   3.2639606738e+01    0.3208459    0.2751242  32.23 0.0006007672    1.254    0.203
        69 -10.0815    204.8410    190.1327   9.3457225201e+01   4.8290658670e+00    0.3100221    0.1914783  63.69  0.001485424    2.299    0.565
        70  -8.6983    165.9373    100.5296   8.1686440347e+01   2.8707411300e+01    0.2295954    0.1999298 -35.95 0.0004198224    1.153    0.132
        71 -13.4882     14.1012    177.5619   1.2767700557e+02   3.6418711064e+01    0.7758849    0.5302159  83.60  0.003661995    1.036    0.035
        72 -10.4807    157.4717     96.3660   8.2450795346e+01   3.1470535611e+01    0.5798787    0.3310294  40.50  0.002373554    1.885    0.470
        73  -9.1313    207.2792     93.0844   7.1347369195e+01   2.0090027471e+01    0.4582337    0.2531624  -5.01  0.001395505    3.876    0.742
        74 -10.4334    140.6712     92.2715   8.5256343244e+01   3.6044959977e+01    0.3475613    0.2861638 -61.07  0.001021115    1.296    0.229
        75  -9.2885    193.7665     89.4876   7.2915386091e+01   2.4023099972e+01    0.4569523    0.2670047  -2.82  0.001484045    3.430    0.708
        76  -8.6609    197.5359     86.4428   7.1353228025e+01   2.3615596960e+01    0.2510036    0.1380296  43.79 0.0005231059    1.896    0.472
        77 -10.9330    245.2189    156.8614   7.9862015300e+01   1.7372169920e+00      0.64346    0.3611811  63.17   0.00270211    2.975    0.664
        78 -10.7204    109.3571     75.9214   8.8636160612e+01   4.5728504188e+01    0.4412858    0.3223323 -12.13  0.001175549    1.819    0.450
        79 -10.3266      8.8117     77.3839   1.1871675922e+02   5.7550980011e+01    0.2290261   0.06993665 -70.80  0.001022343    2.652    0.623
        80  -9.5092    139.4819     78.5351   8.1605568559e+01   3.9005041021e+01     0.291867    0.2642398  10.35 0.0009087847    1.192    0.161
        81  -8.7044     83.5915     76.7002   9.6170879232e+01   4.9963477272e+01    0.2284872     0.124916  39.79   0.00107697    2.056    0.514
        82 -10.4108    196.4378    157.7598   8.8840111254e+01   1.1482654451e+01    0.3961239    0.2855681  16.69  0.001974105    1.687    0.407
        83  -9.3778    246.3197    183.3371   8.5008452668e+01  -1.9285694771e+00     0.217583     0.185436  89.70 0.0007784897    2.028    0.507
        84  -9.8257    107.9787     69.3020   8.7020565643e+01   4.7305199132e+01    0.1942206    0.1889588  -7.93 0.0004704818    1.065    0.061
        85  -9.4851    159.3381    158.1612   9.6288662661e+01   1.9030455961e+01    0.2754438     0.208419 -86.38  0.001400932    1.709    0.415
        86 -10.3279    106.0750     60.4627   8.4748293346e+01   4.9365280191e+01    0.4388052    0.1889662 -47.27  0.001159696    2.354    0.575
        87  -9.3521     97.6944     60.7347   8.7250412272e+01   5.0850757893e+01    0.2860161    0.1744384 -37.69  0.001371848    1.525    0.344
        88 -10.8672    123.1231     58.9107   7.9580577559e+01   4.6226444366e+01    0.2709143    0.2691492 -34.20            0    1.087    0.080
        89 -12.8741     51.5418    156.8636   1.1877137733e+02   3.6730004480e+01      0.73672    0.5065166  89.06  0.002769111    1.231    0.187
        90  -8.5132     72.6117     58.2567   9.4144800733e+01   5.5339735909e+01    0.1782535    0.1089129 -40.47 0.0003779269    1.443    0.307
        91 -10.9604    124.0625     53.2205   7.7418076787e+01   4.7028870784e+01    0.4074988    0.2157922 -37.00  0.001566875    1.809    0.447
        92 -11.6866      5.7075     41.6698   1.1280712364e+02   6.5053433686e+01    0.2710041    0.2129364 -54.54  0.002093062    1.084    0.077
        93 -10.3169    109.3694     39.7680   7.6585377078e+01   5.2339857814e+01    0.2659033    0.1782935 -22.97  0.001309367    1.492    0.330
        94 -10.8242    102.1289     36.0124   7.7228949980e+01   5.4370476130e+01    0.4019017    0.1584571 -38.17  0.001587237    2.389    0.581
        95 -10.0711    162.4898     32.9231   6.1661104475e+01   4.0976047133e+01    0.3619285    0.2090714  55.74 0.0003786281    1.653    0.395
        96  -9.8593    160.8620     28.8714   6.0592635424e+01   4.1925013004e+01    0.3313197     0.240605  52.92    0.0016209    1.316    0.240
        97 -11.9004      4.6173     24.8064   1.0872412051e+02   6.8341463139e+01    0.3605362    0.2895744 -79.60  0.002742854    1.594    0.373
        98  -9.3699    165.3446     27.6458   5.9337124120e+01   4.0928575990e+01    0.5821118    0.2316577 -50.61  0.001772063    3.937    0.746
        99 -10.6406    154.6163     26.6293   6.1025567149e+01   4.3799386466e+01     0.576197    0.4084521  -0.31  0.002734656    1.636    0.389
       100  -9.3574    159.4080     22.0361   5.8508541075e+01   4.3146059787e+01    0.2904794    0.2237511 -20.43 0.0004356998    1.342    0.255
       101 -10.5560    117.9478     28.6604   7.0069335340e+01   5.2207144936e+01    0.2528469    0.1850548 -12.98 0.0008397484    1.384    0.278
       102 -10.7754    179.1868     23.8255   5.5684149902e+01   3.7782494850e+01       0.5353    0.4238381  71.11  0.002092456    1.264    0.209
       103 -14.1380    241.2034     46.3073   5.3421232296e+01   1.8813137206e+01    0.7679919    0.4747325 -69.16  0.001996942    2.063    0.515
       104 -10.7196    230.5281    167.3006   8.4546859115e+01   3.1355474040e+00    0.3751301    0.2701235 -44.04  0.001555351    1.668    0.401
       105 -11.7548    243.4868    168.4724   8.2557471653e+01   4.9760055052e-01    0.7666214    0.4388301 -32.06  0.003940255    1.798    0.444
       106 -11.1237    236.4658    168.4173   8.3743011419e+01   1.8359747300e+00    0.4288268    0.2739155  18.00  0.001386773    1.751    0.429
       107  -9.4471    171.3744     23.2203   5.6784968791e+01   3.9906122604e+01    0.2800936    0.2042842 -32.03 0.0006773343    1.401    0.286
       108 -11.9426    222.7534    176.5470   8.7745192070e+01   3.3390423167e+00    0.6317406    0.4582725   6.78     0.003503    1.533    0.348
       109 -10.4504    225.8713    172.1106   8.6327087132e+01   3.3615474420e+00    0.6112202    0.2529818  51.74  0.002485472    2.595    0.615
       110  -8.6917    143.8337     17.2134   5.9790688242e+01   4.7627131403e+01    0.2029774    0.1541095  27.49 0.0004215378    1.337    0.252
       111 -10.1921    233.8941    178.1338   8.6109507399e+01   1.0113132197e+00    0.2742667     0.228072 -60.85 0.0008849449    1.786    0.440
       112 -11.1054    234.8719    173.7267   8.5078533891e+01   1.4179158449e+00    0.3982148     0.272831  47.13  0.001012271    1.447    0.309
       113 -10.0166    248.5220    174.9950   8.3019257377e+01  -1.2803484959e+00    0.2993307     0.238821  26.43  0.001528742    1.095    0.087
       114 -10.0825    201.0778    173.7185   9.1127151385e+01   7.9894322104e+00    0.3100173    0.2323774  20.31  0.001697939    1.440    0.305
       115 -11.0850    213.9095    167.5517   8.7562921067e+01   6.3752220506e+00    0.6582798    0.3552969  66.06  0.002392848    3.743    0.733
       116  -8.4717     89.5761    169.9320   1.1259618756e+02   2.9013221746e+01    0.1630965     0.110684 -68.22 9.365517e-05    1.413    0.292
       117  -8.4910    156.1908    168.8743   9.8903542019e+01   1.7681484429e+01    0.1729329    0.1537452  22.92 0.0002202141    1.284    0.221
       118 -10.2158    203.1974    166.1901   8.9265957021e+01   8.7370999572e+00    0.2438258    0.2131797  56.12 0.0003420506    1.219    0.180
       119 -11.5350     25.2000    165.1667   1.2475969994e+02   3.7809312246e+01    0.3949706    0.1994086  86.94  0.002376035    1.734    0.423
       120 -12.4949     68.5371    144.6758   1.1362340794e+02   3.7221146642e+01      1.04846    0.8548883  49.10  0.004928221    1.340    0.254
       121 -12.3323     57.6097    153.0765   1.1707230421e+02   3.6805668918e+01    0.6528389    0.3925113  87.73  0.001751761    1.630    0.387
       122 -12.3758     43.8468    161.4718   1.2081151315e+02   3.6645421159e+01    0.4705988    0.3737673  39.00  0.001501119    1.587    0.370
       123  -8.7986    245.2695    244.0314   9.5410676966e+01  -8.2721628076e+00    0.1461582    0.1115995  25.55 0.0003043326    1.073    0.068
       124 -10.0490    139.1002    230.4269   1.1088730052e+02   1.0572365784e+01    0.1809435    0.1578021  69.21 0.0001736783    1.164    0.141
       125  -9.7493    151.8640    150.3164   9.6318357321e+01   2.2014852461e+01    0.2487604    0.1912053 -61.37 0.0009854351    1.408    0.290
