#   1 NUMBER                 Running object number                                     
#   2 MAG_AUTO               Kron-like elliptical aperture magnitude                    [mag]
#   3 X_IMAGE                Object position along x                                    [pixel]
#   4 Y_IMAGE                Object position along y                                    [pixel]
#   5 X_WORLD                Barycenter position along world x axis                     [deg]
#   6 Y_WORLD                Barycenter position along world y axis                     [deg]
#   7 A_WORLD                Profile RMS along major axis (world units)                 [deg]
#   8 B_WORLD                Profile RMS along minor axis (world units)                 [deg]
#   9 THETA_WORLD            Position angle (CCW/world-x)                               [deg]
#  10 FWHM_WORLD             FWHM assuming a gaussian core                              [deg]
#  11 ELONGATION             A_IMAGE/B_IMAGE                                           
#  12 ELLIPTICITY            1 - B_IMAGE/A_IMAGE                                       
         1 -11.9965    132.1456     18.0253   1.0200834686e+01   4.9155212482e+01    0.4699793     0.180549 -37.14  0.001848377    2.617    0.618
         2 -12.3553     66.8223     16.1763   2.6177635611e+01   6.5479058822e+01    0.2702192    0.2206009 -12.05 0.0004474996    1.282    0.220
         3 -11.2429    204.8535     10.8392   3.5984615116e+02   3.1632673767e+01    0.1724202     0.156034 -85.14 0.0003270452    1.166    0.142
         4 -11.6029     92.0833      8.5006   1.4567899110e+01   6.0402132554e+01    0.2557946    0.1907755   5.87  0.001015345    1.560    0.359
         5 -12.1770     85.4559     10.4915   1.7235143982e+01   6.1829726413e+01    0.3188892     0.238807 -59.70  0.001601732    1.703    0.413
         6 -12.4026     87.8196      7.3467   1.5120477680e+01   6.1557457183e+01    0.2752014    0.2262858 -16.27 0.0004025964    1.364    0.267
         7 -12.4000    215.2235      2.6440   3.5721567497e+02   3.0124389779e+01    0.2131457    0.1753952 -63.92 0.0003168664    1.063    0.059
         8 -10.3823    100.3439      1.3052   9.5311150189e+00   5.8947675857e+01    0.1475549   0.08528293  42.05  0.000704163    1.688    0.408
         9 -11.7382     77.8902    243.3653   7.5500610459e+01   1.4317784457e+01     0.207136    0.1538475  36.29 0.0006802045    1.121    0.108
        10 -13.8971    246.2285    249.6760   4.3455685977e+01  -8.4220015693e+00    0.2784166    0.1710888  16.15  0.001196342    1.255    0.203
        11 -11.7820    236.9804    250.6063   4.5092740845e+01  -7.5354971364e+00    0.1508221   0.07991369  24.38 0.0003396243    1.531    0.347
        12 -10.2710    179.3156    250.7036   5.5385763358e+01  -6.1858538371e-01    0.1069421    0.0811508  42.49 0.0002678035    1.606    0.377
        13 -12.2953    139.6549    248.7937   6.3013320427e+01   5.0086009695e+00    0.2897923    0.2062812 -59.62  0.001349603    1.999    0.500
        14 -12.3076    124.5708    249.0157   6.6155691139e+01   7.0602165937e+00    0.3548804    0.2551011  83.42  0.001715972    2.272    0.560
        15 -12.1351    119.7566    244.6438   6.6679725370e+01   8.4265112929e+00    0.1859137    0.1458835  23.03  0.000609647    1.161    0.139
        16 -11.4217    106.4876    250.7028   7.0110026331e+01   9.2642433313e+00    0.2000953    0.0869576  33.35 0.0009962992    1.776    0.437
        17 -12.1304     84.6123    250.6273   7.4689511899e+01   1.2180398985e+01    0.2322743   0.09117956  33.26 0.0006349418    1.981    0.495
        18 -11.2540     77.3144    250.4352   7.6201886259e+01   1.3151670215e+01    0.2158674    0.1092359  42.37 0.0006336576    1.480    0.324
        19 -15.8029     25.1178    156.7630   8.1049752859e+01   3.9490162264e+01     2.404151     1.756845  34.84   0.01183529    1.369    0.270
        20 -15.6091     44.8474    224.4357   8.1298403072e+01   2.1997251487e+01     1.927125     1.103553  62.27  0.007442225    1.600    0.375
        21 -16.2159     12.6309    187.0831   8.6564944805e+01   3.3384373821e+01     1.782565     1.537669  74.69   0.01217012    1.094    0.086
        22 -16.4784     19.0009    212.2190   8.6384738302e+01   2.7280407311e+01     2.181278     0.956373  58.94   0.01117773    1.953    0.488
        23 -14.7985      2.1267    226.3714   9.0604030748e+01   2.5969627696e+01    0.5498673    0.3257912 -87.46  0.002808442    1.626    0.385
        24 -15.5982      2.3756    216.9316   9.0237271158e+01   2.7838767436e+01     1.134742    0.4167536 -82.81   0.00566659    2.610    0.617
        25 -15.1052      4.6570    249.2645   9.0801892106e+01   2.1430246642e+01    0.7257102    0.2445378  27.31  0.003624528    2.846    0.649
        26 -17.3751      8.8858    238.2488   8.9627623703e+01   2.3063810580e+01      1.77966     1.219118  43.35   0.01262405    1.194    0.163
        27 -11.3115     48.8622    249.9068   8.2064290778e+01   1.6706745636e+01     0.186776    0.1235197 -43.69 0.0007693691    2.357    0.576
        28 -11.7858    143.9218    242.0923   6.1312005357e+01   5.4306528909e+00    0.2458625    0.1422679  26.98  0.001375241    1.434    0.303
        29 -11.2951    125.9668    241.8007   6.5040984895e+01   8.0156855183e+00    0.2452081    0.1359279  44.56  0.001327313    1.628    0.386
        30 -11.3173    246.4563    241.0798   4.2137224395e+01  -7.5332694770e+00    0.1637228     0.108908  13.58 0.0004503765    1.180    0.152
        31 -11.5937    198.6610    240.9975   5.0380911536e+01  -1.8700261758e+00    0.2048538    0.1360384  38.03 0.0008503883    1.636    0.389
        32 -11.0342    187.0337    241.2822   5.2605481989e+01  -3.9027297835e-01    0.1642874    0.1173003  21.49 0.0001629797    1.096    0.087
        33 -12.2592    108.2793    240.0572   6.8631816615e+01   1.0794820523e+01    0.3274988    0.1899206  23.03   0.00123422    1.720    0.419
        34 -11.8118    149.1740    238.2890   5.9734427026e+01   5.2699844152e+00    0.2757009    0.2456509 -72.19  0.001883091    1.630    0.386
        35 -12.2573    103.6021    237.1269   6.9335211956e+01   1.1955878003e+01    0.2293057    0.2143513  51.46 0.0006062464    1.191    0.161
        36 -14.8664     39.6392    198.8731   8.0667819226e+01   2.7999793001e+01     2.104176    0.9032513  42.65   0.01001125    1.886    0.470
        37 -11.5212    210.2847    235.5813   4.7452429075e+01  -2.6633955465e+00    0.1586173   0.08843024  20.80 0.0006501091    1.515    0.340
        38 -11.6239    119.4459    235.7223   6.5728086831e+01   9.9528821988e+00    0.3538874    0.1019933  29.45  0.001217618    3.603    0.722
        39 -11.6640    222.9819    231.8320   4.4632254889e+01  -3.7759094624e+00    0.1937422    0.1376758 -15.67 0.0007312159    1.266    0.210
        40 -11.3791    182.1911    232.0954   5.2203280464e+01   1.5259706435e+00    0.2186022      0.15967  33.76  0.001397409    1.317    0.241
        41 -10.7045    162.5666    232.1922   5.6143465438e+01   4.2834688558e+00    0.1553052    0.1109122 -21.76  0.000506258    1.565    0.361
        42 -11.6631    194.6035    229.4717   4.9419017152e+01   1.8969572461e-01    0.2289974    0.1903796 -28.81 0.0007791441    1.433    0.302
        43 -11.0583    150.6689    230.3326   5.8351888452e+01   6.2978430737e+00    0.1238835   0.09049732  54.01 0.0007052124    1.725    0.420
        44 -11.7564    178.2968    228.5745   5.2446268738e+01   2.5764173471e+00    0.2383974    0.1550361  -0.14 0.0009307212    1.680    0.405
        45 -11.8483    182.2115    225.3060   5.1177998507e+01   2.4975697846e+00    0.2237096     0.167192  14.95  0.000581136    1.101    0.092
        46 -12.2879     96.3709    228.4289   7.0012191618e+01   1.4540716179e+01    0.3152657    0.1765217  21.31  0.001052705    1.997    0.499
        47 -11.9589    233.1904    221.6113   4.1267999430e+01  -3.7681944761e+00     0.251063   0.08752827 -33.54  0.001217299    2.742    0.635
        48 -10.5197    166.3038    228.3124   5.4822332978e+01   4.3333510502e+00    0.1269037   0.08518891   3.65 0.0002695951    1.614    0.381
        49 -11.1091    120.8507    227.1991   6.4390977996e+01   1.1223878130e+01    0.1755002    0.1370496  13.36 0.0004584996    1.334    0.250
        50 -11.1259     87.4782    220.4963   7.1198533316e+01   1.7303348421e+01    0.1771873    0.1137971  25.50 0.0006520107    1.535    0.349
        51  99.0000     75.5155    211.5446   7.3081923223e+01   2.0763384814e+01    0.5142102     0.203274  20.23  0.001647318    4.547    0.780
        52 -13.2618     81.6820    221.5838   7.2652070058e+01   1.7893983722e+01    0.5114872    0.4752487 -69.01  0.003453413    1.288    0.223
        53 -12.8985     77.0912    219.5010   7.3509308897e+01   1.8932072136e+01    0.6852174    0.2825804  61.77  0.002465233    3.925    0.745
        54 -12.7093    232.4874    226.4620   4.2163705729e+01  -4.2744049484e+00    0.3840766    0.2223631   8.95  0.002156978    1.596    0.373
        55 -10.6490    222.4812    225.5113   4.3725898362e+01  -2.9307693012e+00    0.1164108   0.08921506   4.84 0.0001231042    1.044    0.042
        56 -11.6787    116.4993    225.0449   6.5094535071e+01   1.2250128051e+01    0.2117376    0.1565447  49.24 0.0005465349    1.305    0.234
        57 -13.1209    114.3279    222.3024   6.5244666709e+01   1.3070206642e+01    0.4549942     0.167909  30.54  0.001823643    2.491    0.599
        58 -11.7997     91.7585    224.5937   7.0648889912e+01   1.5911288201e+01    0.2072466    0.1771105 -72.46 0.0008611609    1.389    0.280
        59 -11.7418    212.0759    223.5476   4.5258367516e+01  -1.3451585631e+00    0.1957415    0.1553683 -22.98 0.0003791134    1.345    0.256
        60 -12.1567    160.3867    222.6797   5.5218900466e+01   6.0798060566e+00    0.3439553    0.2072563  34.43    0.0011302    1.400    0.286
        61 -12.0188    193.2821    220.6000   4.8289313106e+01   1.6120360536e+00    0.3494403    0.1331857 -41.06  0.001598485    2.894    0.655
        62 -12.0495    245.7327    221.5015   3.9191333620e+01  -5.2414753690e+00    0.2534616    0.1366572   2.26  0.001473977    1.934    0.483
        63 -13.6168    174.2671    219.9534   5.1944248353e+01   4.4476770695e+00    0.3551179    0.2616978 -29.25 0.0007915833    1.458    0.314
        64 -13.4989    123.8363    221.0511   6.2939377786e+01   1.1873469175e+01    0.4392457    0.3289095  89.66  0.002453284    1.981    0.495
        65 -12.7564    119.7500    213.7603   6.2901195538e+01   1.3836487092e+01    0.4377666    0.1659184  43.08  0.001776585    2.354    0.575
        66 -13.3348    123.4763    209.8291   6.1499681696e+01   1.3999465454e+01    0.2907773    0.2648688 -88.84 0.0005415853    1.341    0.254
        67 -12.0833     95.9847    221.9026   6.9387487355e+01   1.5825452626e+01    0.2677186    0.1574098 -30.63  0.001224882    2.865    0.651
        68 -11.9757    238.3871    220.6431   4.0246699458e+01  -4.2766191766e+00    0.1952347    0.1459532  11.72 0.0005994679    1.151    0.131
        69 -12.7347    146.1745    216.4217   5.7336080510e+01   9.2726040791e+00    0.4008692    0.3201207  49.78  0.002013631    1.394    0.283
        70 -13.3805    140.3779    211.6910   5.7919661733e+01   1.1003315819e+01    0.6259962    0.3329349 -42.30  0.002959366    2.174    0.540
        71 -12.4522    142.3504    205.1091   5.6479497785e+01   1.1877218871e+01    0.3651685    0.2231567  42.78 0.0004489943    1.530    0.347
        72 -12.5851    145.7440    201.5757   5.5157858398e+01   1.1972979488e+01    0.3019761    0.2553519 -78.96  0.001061289    1.648    0.393
        73 -12.5237    129.8434    216.5330   6.0978873986e+01   1.1772295740e+01    0.2093714     0.192292 -39.93 0.0004642105    1.286    0.222
        74 -11.4872    115.6111    217.2142   6.4308454866e+01   1.3820215307e+01    0.1670591    0.1230397 -39.87 0.0006133398    1.641    0.391
        75 -12.9454    107.9283    215.0212   6.5805873126e+01   1.5394225771e+01    0.3690121    0.2569875  73.36  0.001945027    1.918    0.479
        76 -11.2529    226.0084    216.3387   4.1629683164e+01  -2.2093190844e+00    0.1604916    0.1196051  11.78 0.0003202719    1.106    0.096
        77 -11.1728    156.4247    213.2583   5.4637769638e+01   8.2247080918e+00    0.2913164    0.2172865 -13.81 0.0009857295    1.493    0.330
        78 -14.0879    159.2968    207.0631   5.3046408985e+01   8.8252668462e+00    0.7843715    0.5735139   1.94  0.004384893    1.481    0.325
        79 -11.8856    247.4993    213.0139   3.7520515151e+01  -4.4352142294e+00    0.1945675    0.1381254  15.73 0.0003714054    1.243    0.195
        80 -11.7100    187.2363    211.5203   4.8000400622e+01   3.8198595183e+00    0.2065556    0.1631821 -22.61 0.0003408789    1.283    0.220
        81 -13.3383    228.9792    206.2825   3.9434568024e+01  -1.2799746525e+00    0.4442973    0.3506033 -31.26  0.001995509    1.455    0.313
        82 -12.2223    180.3068    207.9851   4.8802910854e+01   5.4063803675e+00     0.310345    0.2240507 -17.17  0.001460709    1.422    0.297
        83 -11.1472    170.5810    210.2649   5.1171664678e+01   6.5310235900e+00    0.1798505    0.1484184  58.56 0.0005152046    1.696    0.410
        84 -11.8357    104.1172    206.6178   6.5633333218e+01   1.7624274670e+01     0.346483    0.2362731  71.66  0.001754669    1.914    0.478
        85 -10.9620     72.2389    206.7937   7.3383674849e+01   2.2204520435e+01    0.2474704    0.1458975  83.40  0.001188004    2.172    0.540
        86 -12.1197    238.7557    204.6273   3.7518903662e+01  -2.3222004529e+00    0.1978031    0.1593698  -6.72 0.0003087396    1.134    0.119
        87 -10.2353    214.6798    205.7330   4.1844717531e+01   7.2314878922e-01    0.1240602   0.07931769   3.94 0.0002078571    1.559    0.359
        88 -12.6561    111.3855    203.7584   6.3506066382e+01   1.7074856910e+01    0.3064898    0.1979268  46.93 0.0006454392    1.438    0.304
        89 -10.6635     79.5207    195.0741   7.0266322327e+01   2.3717338202e+01     0.394991      0.31877  11.25  0.001289928    1.473    0.321
        90 -11.4952     64.9022    183.0633   7.2654478258e+01   2.8479498261e+01    0.4876015    0.2952253 -50.57  0.002372861    1.911    0.477
        91 -12.2557     69.1758    187.1284   7.1997244181e+01   2.6958014776e+01    0.5655034    0.1772638  42.31  0.002083566    2.667    0.625
        92 -12.1329     75.8958    186.1212   7.0109818355e+01   2.6241855862e+01    0.9533067    0.3775876 -68.26  0.003682244    2.923    0.658
        93 -11.5102     91.0049    189.0461   6.6556978062e+01   2.3340720738e+01    0.2810219    0.2122264 -69.32 0.0009823699    1.475    0.322
        94 -12.3757     85.8147    200.7152   6.9363165121e+01   2.1584719852e+01     0.634611    0.3171121  66.65  0.002353319    3.218    0.689
        95 -12.9876     91.7174    199.6852   6.7770787478e+01   2.0931585984e+01    0.8021718    0.4484746 -27.30  0.003053152    3.654    0.726
        96 -11.9354     92.8092    193.6283   6.6712105966e+01   2.2063676736e+01    0.3682129    0.3208454 -15.03  0.001948183    1.408    0.290
        97 -12.6121     84.3107    214.7303   7.1324069300e+01   1.8893111321e+01    0.5987747    0.1937533  36.92  0.001650366    2.407    0.585
        98 -12.8988    176.4011    199.2821   4.8135499130e+01   7.4202304422e+00    0.4168747    0.1967528 -43.38  0.001920949    2.322    0.569
        99 -12.9705    172.8867    195.4198   4.8200778067e+01   8.6320058511e+00    0.3266548    0.2297144  39.92 0.0003722011    1.404    0.288
       100 -12.1371    135.9623    199.4888   5.7065310441e+01   1.3960922820e+01     0.407781    0.2668199  87.84  0.001664946    3.360    0.702
       101 -12.3361    120.8156    201.1719   6.0883318291e+01   1.6094033766e+01    0.1858109    0.1548908   7.93 0.0004915925    1.298    0.230
       102 -11.7155    212.4761    200.0009   4.1251697441e+01   1.8468713940e+00    0.2084568    0.1653068  39.41 0.0007122688    1.533    0.348
       103 -11.5973    181.1936    199.3425   4.7162023253e+01   6.6533248180e+00    0.2866232    0.1730257   6.89  0.001362518    2.101    0.524
       104 -10.9591    219.4514    198.4166   3.9725001607e+01   1.0856127608e+00    0.1231173   0.09827042   1.04 7.172347e-05    1.009    0.009
       105 -12.6891    201.8391    196.3443   4.2579784251e+01   3.9467606399e+00    0.2956724    0.2088275 -14.87  0.001737916    1.360    0.265
       106 -12.9014    110.5284    196.0386   6.2624767438e+01   1.8780251124e+01    0.3205701    0.2673317  -4.18 0.0003378259    1.428    0.299
       107 -11.1832    100.3014    196.2022   6.5178149967e+01   2.0359409728e+01    0.2648458    0.1666033 -40.30  0.001274012    1.996    0.499
       108 -12.1363    192.4182    194.8966   4.4138484957e+01   5.6112414061e+00    0.3806859    0.2454394  -1.80  0.001975741    1.796    0.443
       109 -10.9807     94.5080    218.0608   6.9297734816e+01   1.6780163235e+01      0.16782    0.1320708 -69.63 0.0004112983    1.502    0.334
       110 -11.7429    153.0920    195.4888   5.2508684397e+01   1.1875882146e+01    0.2099591    0.1218623  35.02 0.0005372757    1.528    0.345
       111 -10.9718    186.5346    194.4846   4.5232596372e+01   6.5995898229e+00    0.1318712    0.1132085   9.62 0.0001399828    1.033    0.032
       112 -11.1209    138.3099    197.2966   5.6173525220e+01   1.3991474123e+01     0.137852    0.1023727   1.59 0.0002176089    1.594    0.373
       113 -10.4417     81.0482    200.0396   7.0468989855e+01   2.2418381925e+01    0.1860741    0.1598592  49.85            0    1.015    0.015
       114 -11.5633    161.9803    192.6597   5.0058869930e+01   1.0907241641e+01    0.3338799    0.1160923  37.04  0.001257603    2.595    0.615
       115 -12.0873    133.3787    190.8833   5.6292416574e+01   1.6059557796e+01     0.300401    0.1816491  18.97  0.001341483    1.958    0.489
       116 -12.5195     50.7567    189.9533   7.7097132923e+01   2.8707868368e+01    0.3336079    0.2216705  20.70 0.0009531638    1.702    0.412
       117 -14.4675     36.0063    248.8588   8.4622464818e+01   1.8339219910e+01     0.890262    0.4742992  61.00    0.0040581    1.614    0.380
       118 -12.2957     28.9097    173.4971   8.1419334170e+01   3.5025212663e+01    0.5231444    0.2069353  76.51  0.001906573    3.415    0.707
       119 -11.1346     43.4615    186.8731   7.8702984732e+01   3.0285793108e+01    0.2104218    0.1529278  58.55 0.0007535775    1.212    0.175
       120 -10.8333     40.2833    185.2932   7.9391364029e+01   3.1016161848e+01    0.1946689    0.1319945  60.93  0.000404373    1.332    0.249
       121 -12.1287     36.5217    186.0541   8.0433497319e+01   3.1257930080e+01    0.2450313    0.1996235  -7.36 0.0003510971    1.680    0.405
       122 -12.7216     33.5003    184.4510   8.1087211348e+01   3.1957281013e+01    0.2836528    0.2023025 -84.32  0.001089464    1.355    0.262
       123 -12.2763     38.8533    181.4178   7.9427959128e+01   3.2083755142e+01     0.334316    0.2131201  35.85  0.001268343    1.450    0.310
       124 -13.0563     37.5373    178.0077   7.9476578752e+01   3.3036426069e+01    0.6381025    0.2929451  23.61  0.002321788    2.372    0.578
       125 -10.9162    167.9691    189.4744   4.8199270539e+01   1.0472720589e+01     0.206177    0.1227494  36.15 0.0005535631    1.534    0.348
       126 -13.1785    109.9099    187.2883   6.1478181611e+01   2.0718584581e+01    0.4443628    0.2808753  79.71  0.001855682    2.664    0.625
       127 -11.3519     97.1170    188.6718   6.4935457431e+01   2.2474859067e+01    0.1876481    0.1727317  35.99 0.0009482969    1.068    0.064
       128 -12.3588     94.4640    182.7263   6.4770019692e+01   2.4207827907e+01    0.6180941     0.294698 -68.39  0.002459674    2.681    0.627
       129 -12.8032    122.4016    196.5618   5.9815900829e+01   1.6753156610e+01    0.3183738    0.2432142  49.06  0.001321631    1.287    0.223
       130 -11.1449    174.4948    188.5232   4.6640083248e+01   9.5505105703e+00      0.13778    0.1181983  10.69 0.0001024923    1.026    0.025
       131 -13.1798    127.3130    185.9844   5.6947005205e+01   1.8074672353e+01    0.3596652    0.2248979  33.93  0.001726816    1.445    0.308
       132 -13.1337    122.6620    185.8500   5.8066654356e+01   1.8893136149e+01    0.3417805    0.2710694   7.92  0.001190785    1.429    0.300
       133 -12.0720    247.6523    185.8263   3.2803374147e+01  -1.0109270805e+00     0.262552    0.1512506  10.12  0.001469085    1.967    0.492
       134 -12.6163    157.5076    184.9177   4.9680969211e+01   1.3077454455e+01    0.3855545    0.2410115  -9.93  0.001665367    2.408    0.585
       135 -10.3803    239.3184    185.2834   3.4021459272e+01   1.6847501429e-01    0.1218855   0.07791382  -0.43 0.0002069253    1.585    0.369
       136 -11.3429    163.9178    185.1638   4.8304527222e+01   1.1930837482e+01    0.2115029    0.1898776  16.84 0.0004288953    1.035    0.034
       137 -11.6401    167.5512    182.7410   4.7069660940e+01   1.1746666566e+01    0.2749689    0.1948784 -15.40  0.001407034    1.608    0.378
       138 -11.5322    201.8607    182.7764   4.0106784561e+01   6.0493329662e+00    0.2002483    0.1552962   2.82 0.0005178919    1.193    0.162
       139 -12.3416    142.0600    181.4061   5.2612227756e+01   1.6443622912e+01    0.2800342    0.2015304 -46.61 0.0007974752    1.522    0.343
       140 -12.2072     89.3457    181.3924   6.5926285790e+01   2.5309472190e+01    0.4324281    0.2988981  76.94  0.001916828    1.785    0.440
       141 -12.0105     48.6922    183.0071   7.6966141600e+01   3.0567898651e+01     0.406666    0.1960554  35.97  0.001620551    1.822    0.451
       142 -10.8178     49.7143    179.6984   7.6361205967e+01   3.1223276004e+01    0.1969644   0.09897374 -46.98 0.0001493833    2.562    0.610
       143 -11.0127    210.4315    182.5397   3.8469449017e+01   4.7478481239e+00     0.130014    0.1068976  -2.29 9.992895e-05    1.033    0.032
       144 -11.4184    151.9651    181.7814   5.0371679725e+01   1.4633148242e+01    0.2397845    0.1559018   7.95   0.00106776    2.060    0.515
       145 -10.4191    233.2350    181.3645   3.4295217299e+01   1.5535101256e+00    0.1247568   0.07861875 -10.03 0.0003782749    1.594    0.373
       146 -11.0587    192.8912    180.8782   4.1480949151e+01   7.8018002419e+00    0.1639399    0.1576209  27.76            0    1.291    0.226
       147 -11.5402    136.6535    181.3131   5.3885962534e+01   1.7410009765e+01    0.1460299    0.1092182  64.03 0.0007046766    1.714    0.417
       148 -13.8994    117.4574    179.2955   5.8289340151e+01   2.1165056257e+01    0.5961592    0.3713927  51.85  0.001936811    1.697    0.411
       149 -11.3025    198.1046    180.1870   4.0336952327e+01   7.0655262210e+00    0.1949929    0.1560122   1.42 0.0002969582    1.146    0.128
       150 -12.3124    242.5621    175.4796   3.1708762622e+01   1.0719408805e+00    0.2246275    0.1997856  30.23  0.001120321    1.431    0.301
       151 -11.0460    246.4518    179.4948   3.1843085793e+01  -6.5432374629e-03    0.1703396   0.09662558 -37.72 6.072998e-05    1.711    0.416
       152 -11.8493    247.7556    175.9985   3.1001743685e+01   2.9144830521e-01    0.2168665    0.1541147  14.44 0.0007900245    1.371    0.271
       153 -13.2382    122.6664    167.8604   5.4956309927e+01   2.2728564715e+01    0.6202319    0.2957396  26.14  0.002237081    2.638    0.621
       154 -14.2019    125.9795    172.8884   5.5022384445e+01   2.1048349028e+01     0.631645    0.4023035 -62.32  0.001702356    1.926    0.481
       155 -13.1987    130.9760    169.0246   5.3059885530e+01   2.0972007222e+01    0.3738195    0.2597451  24.06  0.001086212    1.512    0.339
       156 -12.2492     62.0840    177.1750   7.2724095812e+01   3.0241902851e+01    0.3560185    0.2120205  23.92  0.001672164    1.824    0.452
       157 -12.3129    224.5634    176.1963   3.4783601234e+01   3.5592653671e+00    0.3581969    0.1865669  28.11  0.001809022    2.039    0.510
       158 -13.0718    149.6507    176.0854   4.9861576669e+01   1.6148174269e+01     0.391919    0.2833009  52.65  0.001225917    1.559    0.359
       159 -13.0042    144.3182    172.4792   5.0444042695e+01   1.7827911821e+01    0.4090212    0.2806909  62.89  0.001376152    2.024    0.506
       160 -12.3584    137.5762    177.0402   5.2903611514e+01   1.8114305406e+01    0.2845404    0.2005204  38.51 0.0005396437    1.301    0.231
       161 -11.3635     53.7003    177.2738   7.5024686261e+01   3.1305812054e+01    0.3402372    0.1262138  43.49  0.001351082    2.340    0.573
       162 -12.8410    106.2810    175.9040   6.0617053563e+01   2.3807285386e+01    0.3462186    0.2148207  36.12 0.0009105287    1.469    0.319
       163 -11.6257    204.6275    174.1055   3.7940140619e+01   6.9888428680e+00    0.2870399    0.1491152 -46.59  0.001323812    2.270    0.560
       164 -13.8269    152.7087    169.1937   4.7840710252e+01   1.6951850980e+01    0.7601801    0.3459324 -50.66  0.002464381    2.519    0.603
       165 -12.6265    156.9787    165.5625   4.6141731023e+01   1.6878449225e+01    0.2571077     0.240809  21.25  0.001470704    1.044    0.043
       166 -10.6867     66.9621    175.0277   7.1122566578e+01   3.0088293370e+01    0.1650102    0.1467681  57.15 0.0002977878    1.006    0.006
       167 -11.9788    173.1252    173.5431   4.4132021522e+01   1.2441537291e+01     0.245035    0.1902191 -26.59  0.000307341    1.301    0.231
       168 -13.2708     90.5939    171.8140   6.4172047592e+01   2.7316102454e+01    0.4884876    0.2877488 -46.97  0.001673438    1.923    0.480
       169 -11.6638     95.1626    171.8595   6.2935411981e+01   2.6568341944e+01    0.2300445    0.2100349  45.30 0.0005796817    1.012    0.012
       170 -12.9563     78.8232    173.0116   6.7581617568e+01   2.8856707000e+01    0.4226703    0.2590032  49.09   0.00199019    1.546    0.353
       171 -12.8888    100.1640    171.3268   6.1497975073e+01   2.5866288091e+01    0.3432769    0.2644417  30.85 0.0007284918    1.254    0.203
       172 -15.0598     35.6050    229.2885   8.3641041293e+01   2.2074497045e+01     1.507146    0.6575562  80.10  0.007227862    2.710    0.631
       173 -11.6812    191.7291    171.6276   3.9934079790e+01   9.5445423114e+00    0.1845655    0.1226957  44.50 0.0008375508    1.626    0.385
       174 -11.8316     61.2048    170.9208   7.2208900334e+01   3.1857296905e+01    0.3671122    0.1911202  33.89  0.001650338    1.779    0.438
       175 -11.5772      2.0818    171.0398   8.8398926030e+01   3.7962472336e+01    0.1826935    0.1509475  77.29 0.0003211207    1.040    0.038
       176 -11.5428    197.7151    170.0920   3.8467185425e+01   8.7879492177e+00    0.1909818    0.1594057 -10.58 0.0004597705    1.092    0.084
       177 -12.0887    164.5015    170.5255   4.5422803895e+01   1.4542686669e+01    0.3031094    0.1325011  39.23  0.001209249    2.164    0.538
       178 -11.4434    110.2009    170.0166   5.8597107418e+01   2.4456285403e+01    0.1911583    0.1879782  64.70 0.0003168279    1.075    0.070
       179 -13.2882     52.8331    167.2667   7.4133430790e+01   3.3832253587e+01    0.6226781    0.2918725  50.57  0.002637799    2.093    0.522
       180 -12.1324     57.3301    164.4387   7.2499941917e+01   3.3950643715e+01    0.3796054    0.2078038  72.43  0.001575045    2.331    0.571
       181 -11.5243     51.8227    161.8536   7.3776164459e+01   3.5292871088e+01    0.2315037     0.178101  33.56 0.0005993815    1.291    0.226
       182 -12.6141     47.1231    161.3230   7.5084011829e+01   3.5998946278e+01    0.3517164    0.2024565  65.25  0.001605804    1.885    0.469
       183 -10.8458    176.5724    167.7922   4.2271859825e+01   1.2872018901e+01    0.1850699    0.1335773 -50.92   0.00076169    1.629    0.386
       184 -12.2468     31.2835    167.5438   8.0255246622e+01   3.6223906804e+01    0.2803616    0.1946164  54.83 0.0003879745    1.303    0.233
       185 -10.9909    233.3262    167.6697   3.1704840176e+01   3.5063063280e+00    0.1129205     0.097746 -57.87 0.0005622049    1.706    0.414
       186 -12.7582     72.1887    166.7091   6.8548179598e+01   3.1343867265e+01    0.2615534    0.2291894 -50.52 0.0007279665    1.267    0.211
       187 -12.1904    212.2252    164.1306   3.4599660029e+01   7.3443778285e+00    0.2408077    0.2021003 -44.84 0.0003233901    1.403    0.287
       188 -12.4948    201.3972    165.9022   3.6938041217e+01   8.8616352121e+00     0.357693    0.2097399  46.20 0.0008112196    1.913    0.477
       189 -11.9487    170.9434    165.1493   4.2946530761e+01   1.4378980802e+01    0.2263437    0.1665458  65.49  0.001076548    2.001    0.500
       190 -13.1356    111.4189    164.0149   5.7212871829e+01   2.5598318404e+01    0.4755941    0.3109953 -26.19  0.002026656    2.171    0.539
       191 -13.4071     87.7282    163.9738   6.3732629228e+01   2.9623779443e+01    0.3865204    0.2808419  73.21  0.001860197    1.606    0.377
       192 -12.4498     91.2170    145.3994   5.9470149537e+01   3.3542066790e+01    0.3438311    0.2077542  45.32  0.001363609    1.604    0.376
       193 -13.5560     83.7550    159.5787   6.4153784833e+01   3.1314981393e+01    0.4230913    0.2563988  54.16  0.001613895    1.739    0.425
       194 -14.4410     77.8030    154.2778   6.5028753579e+01   3.3544423250e+01    0.5847204    0.5373392  52.02  0.003261072    1.028    0.027
       195 -13.7280     84.4536    144.7817   6.1386660162e+01   3.4832820582e+01    0.7326979    0.3908849  17.57  0.002614983    2.855    0.650
       196 -13.1852      4.4095    160.3845   8.7201222477e+01   4.0329774759e+01    0.3835721    0.3367497  83.84  0.002567522    1.085    0.078
       197 -12.0019    103.4521    165.0000   5.9542039294e+01   2.6764653174e+01    0.3440356   0.08008827  35.41 0.0009426864    3.999    0.750
       198 -12.3568     64.0366    163.8823   7.0491969279e+01   3.3187582296e+01    0.2590927    0.2064341 -73.99  0.001396916    1.271    0.213
       199 -12.2152     66.6650    160.4351   6.9250368905e+01   3.3669730253e+01    0.2913375    0.1373569  31.28 0.0008558941    2.058    0.514
       200 -11.4876    229.8040    161.9821   3.1175192403e+01   4.8790901957e+00    0.1794298    0.1578863 -35.65 0.0005980562    1.302    0.232
       201 -10.7038    186.2450    162.3254   3.9173811985e+01   1.2116233200e+01    0.1381347    0.1006148  -7.22 0.0001895591    1.534    0.348
       202 -12.7127    170.0500    159.7607   4.2044205379e+01   1.5556731937e+01    0.3282482    0.2964902  72.71  0.001771575    1.404    0.288
       203 -13.9728    120.2104    158.0678   5.3753099633e+01   2.5346998409e+01    0.5853037    0.4198473  40.56  0.002812999    1.306    0.235
       204 -12.8711     84.2768    149.8553   6.2354066530e+01   3.3608176487e+01    0.3502441    0.3018641 -40.75 0.0004843512    1.283    0.221
       205 -15.1147     65.8190    246.9509   7.8346104943e+01   1.5206174562e+01      1.90792    0.6923182  35.24  0.009227376    2.049    0.512
       206 -12.5778     95.6351    158.9628   6.0659560748e+01   2.9514105824e+01    0.3100637    0.2627256  -3.67 0.0005111979    1.428    0.300
       207 -11.8189    105.3678    158.7145   5.7895505980e+01   2.7888793573e+01    0.3164552    0.2300182  68.48 0.0009065577    1.674    0.403
       208 -12.1025    145.9611    157.6465   4.7137818809e+01   2.0558026193e+01    0.2604684    0.2182958 -43.54 0.0002982747    1.255    0.203
       209 -12.2869    160.1300    169.1076   4.6123772775e+01   1.5608353808e+01    0.2248432    0.1846884   0.46 0.0006052495    1.277    0.217
       210 -10.5987    231.6500    157.6553   3.0026482592e+01   5.2410090412e+00    0.1350697   0.08778912  -1.23  0.000704172    1.810    0.448
       211 -12.0396    190.5834    155.4075   3.6883022045e+01   1.2553305209e+01    0.2462568    0.2004482 -38.00 0.0006034808    1.244    0.196
       212 -11.9718    133.2893    156.0269   4.9949501659e+01   2.3331790506e+01    0.2099676    0.1956924 -45.60 0.0004132341    1.138    0.121
       213 -14.0105     63.1726    153.1791   6.9238552391e+01   3.5965451888e+01    0.6129104    0.3504266 -71.73  0.002730177    1.830    0.454
       214 -11.0646    141.5268    155.5435   4.7787830838e+01   2.1851468912e+01    0.1495532    0.1412401  34.32 7.585054e-05    1.039    0.038
       215 -12.2249     88.5555    153.5900   6.1750219583e+01   3.1991676647e+01    0.2450887     0.206157 -78.13 0.0009227545    1.261    0.207
       216 -11.7642      2.0573    152.3972   8.7390439667e+01   4.2437294779e+01    0.3253646    0.1610195  64.89  0.001299602    1.898    0.473
       217 -12.4303      5.3850    149.9609   8.6279847391e+01   4.2805002225e+01    0.2679959    0.1924296  67.75  0.001169046    1.239    0.193
       218 -11.3389    212.4699    153.5133   3.2412762425e+01   9.0103099957e+00    0.1331984    0.1170175 -12.83  4.11915e-05    1.019    0.018
       219 -12.8856    172.1854    151.4777   3.9843597811e+01   1.6721755608e+01    0.3905515    0.1972195 -43.74  0.001638085    2.018    0.505
       220 -12.7775     12.3485    151.2143   8.4332500624e+01   4.1975125948e+01    0.4565087    0.2213078 -77.60  0.002187246    1.849    0.459
       221 -11.6077    224.7345    151.9997   3.0018400624e+01   7.2032589376e+00    0.1879549    0.1488914 -23.51 0.0003519806    1.100    0.091
       222 -12.8204    133.5015    150.9636   4.8853248055e+01   2.4391192941e+01    0.3556664    0.3027162  83.21  0.001359187    1.446    0.308
       223 -11.9680     43.9435    152.1662   7.4940662579e+01   3.8670851863e+01    0.2138673    0.1694453  64.59 0.0004479731    1.198    0.165
       224 -10.3628    249.2928    151.7162   2.6178644302e+01   3.4470571447e+00    0.1085612   0.08920266 -49.52 0.0001883879    1.537    0.349
       225 -12.7203    125.9185    149.2387   5.0466022979e+01   2.6245036039e+01    0.5347396    0.3158345  69.44  0.001812072    3.316    0.698
       226 -12.4240     69.4689    150.4915   6.6919854840e+01   3.5742178067e+01    0.2930522    0.1439882 -65.19 0.0009576121    2.091    0.522
       227 -13.3697     51.8324    151.8152   7.2491641365e+01   3.7807781085e+01     0.506763    0.3243982 -34.53 0.0006429222    2.098    0.523
       228 -12.3628    108.6580    149.1002   5.5144078154e+01   2.9543801624e+01    0.3377976     0.289919 -59.33 0.0008746908    1.229    0.187
       229 -13.4917     26.8866    147.4456   7.9630663143e+01   4.1664540262e+01    0.5935169    0.3457406 -88.43  0.002330141    1.687    0.407
       230 -12.1062     32.4575    147.7401   7.7947420110e+01   4.1043405022e+01    0.2385302     0.228312 -86.46 0.0006857708    1.110    0.099
       231 -12.9468     19.8333    142.0553   8.1285838551e+01   4.3666156845e+01    0.3693747    0.2561974  34.89 0.0004272684    1.458    0.314
       232 -13.2124     12.7150    141.7834   8.3473357602e+01   4.4308255055e+01    0.4058502    0.3180705 -74.09  0.002431437    1.181    0.153
       233 -11.7061     20.3673    149.6517   8.1820942671e+01   4.1700617869e+01     0.297298    0.2242634 -27.64  0.001274089    1.712    0.416
       234 -11.6145    146.9440    148.7791   4.5038047401e+01   2.2211913756e+01    0.2445796    0.2139656 -35.94 0.0003365799    1.176    0.150
       235 -12.2834     95.8570    149.1220   5.8808890651e+01   3.1834793885e+01      0.23716     0.204593  72.77 0.0008378252    1.229    0.186
       236 -12.8538     41.1816    146.9587   7.5150760335e+01   4.0309775696e+01    0.3792396    0.2381423 -63.48  0.001183764    1.534    0.348
       237 -12.9393    120.4832    144.2071   5.0865448884e+01   2.8436692520e+01    0.5206145    0.2824353  37.17  0.001019132    1.790    0.441
       238 -11.3267    228.9896    145.1092   2.7929130177e+01   7.5705421126e+00    0.1909096    0.1640084 -16.36 0.0003565933    1.014    0.014
       239 -12.3234    187.2832    143.3195   3.4953619892e+01   1.5327650750e+01    0.2640319    0.2256924 -35.04 0.0002304539    1.149    0.130
       240 -12.8156     57.6573    143.9770   6.9565052482e+01   3.9047761700e+01    0.3060538    0.2565525 -23.93 0.0003836507    1.451    0.311
       241 -12.9614     94.8334    140.2966   5.7392611966e+01   3.4157935331e+01    0.5854366    0.3782562  28.78  0.001851196    1.637    0.389
       242 -12.0752    103.7448    144.7726   5.5675416786e+01   3.1469792904e+01    0.4023043    0.2541115  46.39  0.001218259    1.548    0.354
       243 -12.2352    101.4799    141.4833   5.5665288966e+01   3.2671803881e+01    0.2973765    0.2840891  77.71 0.0008076094    1.062    0.059
       244 -11.2724    194.9755    143.6901   3.3540765606e+01   1.3801298380e+01    0.1910292    0.1720925  28.48 0.0004499048    1.136    0.120
       245 -12.5370     70.3481    143.3063   6.5468852714e+01   3.7422592236e+01    0.2762738    0.2402294  64.25 0.0002142574    1.127    0.113
       246 -10.8932    223.9846    142.6644   2.8226268390e+01   8.7850181467e+00    0.1730665    0.1554746  -3.01 0.0004014901    1.081    0.075
       247 -12.8063     51.4124    142.4871   7.1323968792e+01   4.0238224382e+01    0.3901618    0.1988994  43.08  0.001021723    1.886    0.470
       248 -11.6214    177.9791    142.1260   3.6580078380e+01   1.7358091965e+01    0.2171735    0.2028723   5.19 0.0004321288    1.022    0.021
       249 -11.2553    166.6821    142.3202   3.9044581255e+01   1.9569843968e+01    0.1450562    0.1202635 -89.60 0.0003335353    1.662    0.398
       250 -10.8384      2.5086    142.4676   8.6635519980e+01   4.4855648733e+01    0.1290893    0.1081954  79.81 0.0003093469    1.022    0.022
       251 -13.6083     39.3437    140.0685   7.4860178985e+01   4.2280451671e+01    0.3998051    0.3211291  47.92  0.001300706    1.214    0.176
       252 -11.2644     30.9157    140.3069   7.7595818136e+01   4.3096823257e+01    0.2442994   0.04805729  43.28 0.0007011375    4.526    0.779
       253 -10.9151    132.6879    139.6652   4.6622031537e+01   2.7032327069e+01     0.158489    0.1221253  -4.54 0.0006890136    1.683    0.406
       254 -11.0778    212.4838    137.9753   2.9148230839e+01   1.1548798270e+01    0.1997993      0.12187 -35.80 0.0003849596    1.497    0.332
       255 -13.8032     57.8996    134.0968   6.7911113643e+01   4.1551401269e+01    0.6906665    0.2920073  41.46   0.00168435    2.278    0.561
       256 -11.8012    171.0036    137.0072   3.6906177738e+01   1.9728396859e+01    0.2260814    0.2117097 -15.62 0.0005994669    1.036    0.034
       257 -10.9474    126.3357    137.3240   4.7777728706e+01   2.8838656790e+01    0.1604414    0.1234019  -2.93 0.0007051036    1.714    0.417
       258 -10.8499    109.4774    137.5034   5.2506554646e+01   3.2121493705e+01    0.1544586    0.1494481  31.82 9.195351e-05    1.035    0.033
       259 -11.4908     90.0300    135.9852   5.7978686853e+01   3.6063001300e+01    0.2348215    0.2134505  59.60 0.0003978426    1.085    0.079
       260 -13.6727     84.9134    135.9294   5.9552696193e+01   3.6957080151e+01    0.5462238    0.3850532 -45.33  0.002539673    1.516    0.340
       261 -13.1823     44.5203    134.5705   7.2412968953e+01   4.3114806561e+01    0.5593147     0.246823  55.23  0.002068615    2.787    0.641
       262 -13.3713     12.8489    134.5872   8.2806496958e+01   4.6121530841e+01    0.5231697    0.2849141  63.32  0.002527199    1.876    0.467
       263 -12.1908      7.7106    131.3035   8.4177699834e+01   4.7318274004e+01    0.1804344    0.1443614  84.77 0.0002773409    1.103    0.093
       264 -10.8484    197.2631    134.9884   3.1202874939e+01   1.4890243577e+01    0.1833819    0.1149018 -37.07 0.0006391366    1.505    0.336
       265 -13.2378    102.5993    134.1335   5.3786206182e+01   3.4231449999e+01    0.6287445    0.2614767  28.97  0.001968649    3.173    0.685
       266 -11.0583    209.9458    134.0255   2.8728971845e+01   1.2665460359e+01    0.1647983    0.1483016 -19.33 0.0004915143    1.005    0.005
       267 -11.6703    119.4945    134.5001   4.9009943130e+01   3.0857045078e+01    0.1555621    0.1501841  41.12  0.000810674    1.000    0.000
       268 -11.3672     74.3034    134.3107   6.2600272255e+01   3.9096258825e+01    0.1506663    0.1169849 -24.59 0.0004130164    1.610    0.379
       269 -11.2438    232.7539    136.9399   2.5664802304e+01   8.2011251234e+00      0.17819    0.1471652 -26.38 0.0003395829    1.043    0.041
       270 -10.8222    128.4600    133.5141   4.6341814529e+01   2.9261529034e+01    0.1547256    0.1500967  35.59 0.0001088955    1.003    0.003
       271 -13.2741     35.0544    131.7236   7.5173656692e+01   4.4894209881e+01    0.5080247    0.2831883   4.61  0.001761546    2.590    0.614
       272 -10.5130    139.3129    132.7226   4.3331223522e+01   2.7184562593e+01    0.1517515    0.1229306  78.01 0.0005897049    1.563    0.360
       273 -11.9843     19.8350    131.3797   8.0212302621e+01   4.6395200883e+01    0.2567704     0.184107 -36.56  0.001380107    1.636    0.389
       274 -11.4635    230.1376    130.6484   2.4747894501e+01   9.6098906534e+00     0.208106    0.1545178 -39.27 0.0004057259    1.242    0.195
       275 -12.8741     35.6212    128.2075   7.4502320514e+01   4.5748043324e+01    0.5783147    0.2056188 -67.07  0.002175062    2.518    0.603
       276 -11.8976     94.0398    128.9516   5.5254134061e+01   3.7077424315e+01    0.2928097    0.2071263 -53.79  0.001337979    1.440    0.306
       277 -13.2940     64.0176    121.5060   6.3547796905e+01   4.3931959317e+01    0.5603557    0.2028512 -56.23  0.001966236    2.572    0.611
       278 -13.0776     47.4720    130.0265   7.0736501587e+01   4.3942100274e+01    0.5533428    0.2287918  33.44  0.002033723    2.311    0.567
       279 -12.5142     52.9925    127.4973   6.8444021477e+01   4.3907047473e+01    0.3493422    0.2271204  -6.52  0.001151333    2.319    0.569
       280 -12.0492     64.8620    128.0954   6.4530241144e+01   4.2116038192e+01    0.2688418    0.2267911  79.37 0.0007539848    1.238    0.192
       281 -13.2706     58.9686    125.5161   6.6049394848e+01   4.3619497545e+01    0.4217737    0.2978838  12.77  0.001110408    1.718    0.418
       282 -11.2536    130.4702    128.3841   4.4604091992e+01   2.9987879666e+01    0.1947772    0.1540759 -59.27 0.0009126992    1.383    0.277
       283 -12.9774     72.5025    111.4653   5.8437048309e+01   4.5172374112e+01       0.2907     0.214506 -35.40  0.001026047    1.519    0.342
       284 -13.5474     81.5525    127.4505   5.8891924182e+01   3.9646683850e+01    0.5816141    0.2976265  38.48  0.001794347    1.887    0.470
       285 -12.7746     75.0846    124.9223   6.0488158127e+01   4.1352692590e+01    0.3482267    0.3164985 -55.98 0.0009395282    1.110    0.099
       286 -14.7054     75.9129    119.3245   5.9021431097e+01   4.2633135694e+01     1.029624    0.4802517  35.82  0.002834934    2.103    0.525
       287 -11.5761    189.7003    121.5887   2.9558842569e+01   1.8766301044e+01      0.28169    0.1436422  48.93 0.0008584579    2.063    0.515
       288 -11.7846    125.7011    124.4048   4.4931831034e+01   3.1878749529e+01    0.3575414    0.2378102 -10.53  0.001332772    2.583    0.613
       289 -12.0133      5.1157    123.8015   8.4395906369e+01   4.9389244779e+01    0.3484599    0.1365554  80.56   0.00133129    2.975    0.664
       290 -13.2203     20.8050    122.9886   7.8942349188e+01   4.8479291772e+01    0.2832132    0.2693958  18.48 0.0005918657    1.190    0.159
       291 -12.6365     26.6000    124.9959   7.7178418468e+01   4.7459470837e+01    0.3826175    0.2544212  79.66  0.001933004    1.561    0.359
       292 -13.2435    105.7551    121.4342   4.9939911967e+01   3.6657777226e+01     0.567495    0.3234859  50.21  0.002258918    1.850    0.459
       293 -12.5584    100.3764    119.2303   5.1053058346e+01   3.8241133405e+01    0.2854967    0.2446857 -82.72 0.0008330435    1.310    0.237
       294 -11.9679    194.9467    122.7166   2.8848211867e+01   1.7498157333e+01    0.1894615    0.1839641  22.23  0.000325604    1.085    0.078
       295 -11.5089    224.1013    120.4793   2.3483213223e+01   1.2267256361e+01    0.1749005    0.1324276  48.70 0.0004498469    1.497    0.332
       296 -10.8337     36.0306    119.2098   7.3039918231e+01   4.8046699837e+01    0.1769141    0.1143786  24.06  0.000387013    1.663    0.399
       297 -11.7937    169.4168    126.0315   3.4692347019e+01   2.2179946792e+01    0.2514943    0.2008568  30.64 0.0004897213    1.309    0.236
       298 -13.0712     18.0769    114.3131   7.8860877072e+01   5.0938241037e+01    0.4523161    0.3040597  51.05   0.00132191    1.551    0.355
       299 -12.2637     22.3516    117.7307   7.7746916085e+01   4.9712719217e+01    0.2703656     0.196719  37.59  0.000415883    1.428    0.300
       300 -11.6457     24.2541    115.0080   7.6696162651e+01   5.0257921947e+01    0.2525859    0.1993604 -75.92 0.0002971043    1.155    0.134
       301 -12.9080      9.1782    117.4725   8.2407225319e+01   5.0749968461e+01    0.2468224    0.2237194  42.86  0.000755445    1.196    0.164
       302 -12.1329     57.2551    117.5897   6.5147682154e+01   4.5902240255e+01    0.2031009    0.1451531  12.56 0.0009478335    1.676    0.403
       303 -12.0147    241.5534    115.9876   2.0032135246e+01   9.8792060007e+00    0.1969096    0.1854584  38.19 0.0002002144    1.250    0.200
       304 -10.5520     29.4935    116.4726   7.4992088028e+01   4.9406770900e+01    0.1384492     0.127044 -77.15 9.640931e-05    1.012    0.012
       305 -11.1566    196.8857    115.4989   2.6817230339e+01   1.8364584237e+01     0.202073    0.1408914  48.98 0.0008438318    1.527    0.345
       306 -13.2479     83.2607    111.4211   5.4710989528e+01   4.3344681549e+01    0.5936869    0.2600478 -51.92 0.0006090805    2.254    0.556
       307 -12.6215    116.0864    113.1716   4.4822429139e+01   3.6456322280e+01      0.37688    0.2746955  17.18  0.001620181    1.768    0.435
       308 -13.4201    108.1056    111.8160   4.6834303482e+01   3.8440912402e+01    0.5471743    0.3945993  19.75  0.002371487    1.723    0.420
       309 -11.9584    186.2854    124.1871   3.0818668785e+01   1.8999784871e+01    0.3097914    0.2152616 -36.24   0.00103864    1.382    0.277
       310 -12.9612     63.0108    112.0368   6.1945095074e+01   4.6505234595e+01    0.4143186    0.2525214 -69.82   0.00125798    1.783    0.439
       311 -12.6705     63.4891    105.8060   6.0382438230e+01   4.8016180164e+01    0.4623443    0.2594196 -42.27  0.001348448    1.935    0.483
       312 -11.9271     58.5336    114.0225   6.3976545678e+01   4.6642968318e+01     0.221506    0.1973161  33.80 0.0002206114    1.152    0.132
       313 -10.4733    229.3242    112.2720   2.0925203940e+01   1.2597542482e+01    0.1257195   0.09718344   4.88 0.0002349057    1.576    0.365
       314 -12.9542     11.7611    111.9069   8.0882402143e+01   5.2009127235e+01    0.2397166    0.1911419  55.17   0.00135926    1.294    0.227
       315 -11.4128     90.2248    110.9780   5.2274418363e+01   4.2176929203e+01    0.2105027    0.2084225  85.16 0.0003015215    1.012    0.012
       316 -11.9061     52.9542    110.2921   6.5256459324e+01   4.8363807460e+01    0.2682482    0.2235391  13.90 0.0005935219    1.327    0.247
       317 -12.0936    218.0073    109.9911   2.2081801973e+01   1.5077672985e+01      0.26786    0.2003139  68.20 0.0007446951    1.674    0.402
       318 -11.5974    210.2205    108.6667   2.2987486854e+01   1.6819073436e+01    0.2555541    0.1945651 -55.65 0.0006754952    1.411    0.291
       319 -11.6478    113.6257    109.1039   4.4477988034e+01   3.7905345010e+01    0.2699183    0.2078633  52.77 0.0005923597    1.321    0.243
       320 -11.0162    237.0798    108.2832   1.8993338926e+01   1.1807510491e+01      0.16609    0.1578229 -25.96 0.0005913337    1.117    0.105
       321 -10.7190    121.6804    108.2964   4.1944654141e+01   3.6344130967e+01     0.159689    0.1262837  82.96 0.0004792758    1.614    0.380
       322 -11.9665      9.7074     97.9549   7.9974633219e+01   5.5712544042e+01     0.441852    0.2917347 -16.00  0.002159039    1.812    0.448
       323 -13.1372      2.9592    106.8402   8.3587225891e+01   5.3827486803e+01    0.3920546    0.3141156 -37.16 0.0008595263    1.349    0.259
       324 -13.1238     10.6025    104.8904   8.0492974848e+01   5.3884678015e+01    0.4607201    0.3682068  62.88  0.001867605    1.295    0.228
       325 -11.9588    159.0067    106.4954   3.2096863913e+01   2.8279269392e+01    0.2218144     0.213437 -47.02 0.0005326013    1.037    0.036
       326 -11.3406     93.0453    105.5439   4.9954584692e+01   4.2944736811e+01    0.2369364    0.2159332 -53.76 0.0006740032    1.112    0.100
       327 -11.1390    219.9973    104.4568   2.0534158464e+01   1.5572810492e+01    0.1774508    0.1342154  54.48 5.502673e-05    1.490    0.329
       328 -11.5427    105.5539    102.7763   4.5212328645e+01   4.1058267530e+01    0.2280635    0.1529866 -61.79 0.0009518781    1.737    0.424
       329 -13.1834    163.2201    100.5023   2.9608807972e+01   2.8464517005e+01     0.533595    0.2989205 -66.20  0.001642127    3.312    0.698
       330 -13.7898     78.3086     92.2848   5.1459916655e+01   4.8876392983e+01    0.5355925    0.3836677  57.43   0.00201287    1.616    0.381
       331 -12.4797     79.0172    101.8218   5.3777466526e+01   4.6454304631e+01    0.3785688    0.2703287  55.67 0.0007017999    1.565    0.361
       332 -11.9563     55.5815    101.5729   6.2391618956e+01   5.0235656358e+01    0.2463789    0.2301801 -86.80 0.0002279119    1.093    0.085
       333 -11.5269     57.7145     97.3245   6.0572421978e+01   5.1003974695e+01    0.4089758    0.2419997  38.95  0.001252793    1.716    0.417
       334 -12.6804     76.9330     97.0186   5.3259168660e+01   4.7989001042e+01    0.3275977    0.2808938 -29.06 0.0003194081    1.247    0.198
       335 -11.3438    191.5187    100.4717   2.4143597947e+01   2.2100158759e+01    0.1426375    0.1352914 -35.37 0.0002409906    1.021    0.021
       336 -11.6958    168.4311     99.1962   2.8179557625e+01   2.7507786581e+01    0.2159884    0.1372991 -49.70 0.0009028993    1.632    0.387
       337 -12.0303     93.9297     98.6012   4.7788425063e+01   4.4407474066e+01    0.3757313    0.2536882  64.66  0.001553478    1.937    0.484
       338 -11.6730     33.0533     98.1684   7.0586261317e+01   5.3799827436e+01    0.3276318    0.2312361 -12.29 0.0006641061    1.730    0.422
       339 -11.2854     25.6489     98.5027   7.3641044144e+01   5.4404461543e+01    0.2887167    0.1889216  69.35  0.001320391    1.810    0.447
       340 -11.8806    153.3256    100.1684   3.1695080574e+01   3.0824779832e+01    0.4297115    0.3363557 -84.35  0.001991298    1.635    0.388
       341 -11.6147     66.0338     94.5080   5.6653466321e+01   5.0436401714e+01    0.2303062    0.1481064  33.02  0.001029833    1.581    0.367
       342 -11.1070    104.9417     97.0880   4.3815175055e+01   4.2479131629e+01    0.2449362    0.1928359 -11.81 0.0006888723    1.624    0.384
       343 -11.0889    243.7810     90.7858   1.4399613033e+01   1.3174993294e+01    0.1781714    0.1513018 -28.39 0.0005062458    1.130    0.115
       344 -12.2630    189.2463     90.7917   2.2114756742e+01   2.4254627205e+01    0.3714014    0.1820204  46.66  0.001293127    2.216    0.549
       345 -10.7766     41.4516     91.5686   6.5776447278e+01   5.4573377335e+01    0.1398519    0.1337627 -81.93 0.0002211709    1.072    0.067
       346 -11.0778      3.4240     88.2032   8.1294648313e+01   5.8520797349e+01     0.262823    0.1032991 -69.74  0.001142108    2.080    0.519
       347 -12.0313    149.0115     87.7638   2.9236409422e+01   3.4236250118e+01    0.2433339    0.2134565 -81.64 0.0008088947    1.243    0.195
       348 -12.3392    149.9562     83.4677   2.7791548685e+01   3.4811560462e+01    0.3706655    0.2279985 -33.60 0.0006210962    1.728    0.421
       349 -11.6457    125.7986     86.4493   3.4606550207e+01   4.0051072445e+01    0.4591715    0.2460882 -32.20  0.001717689    2.227    0.551
       350 -10.5610     38.9853     88.0443   6.6016853857e+01   5.5741094008e+01    0.1600551    0.1512127 -49.61            0    1.010    0.010
       351 -12.4879     54.7398     85.8042   5.8838947074e+01   5.4279780031e+01    0.5215121    0.4052946   1.22  0.002624594    1.494    0.331
       352 -10.7234     11.9937     87.2297   7.7499584054e+01   5.8294183159e+01    0.1565995    0.1113191  13.55 0.0003676414    1.580    0.367
       353 -11.1506      7.1829     87.1788   7.9558964927e+01   5.8586663164e+01    0.1756723    0.1420799  60.40 0.0003322045    1.353    0.261
       354 -10.4567    100.5018     86.4608   4.2093408107e+01   4.5787715874e+01    0.1558867    0.1515364  27.52 0.0001034668    1.023    0.023
       355 -12.9450     62.9618     83.0042   5.4702142702e+01   5.3704799745e+01    0.3910043    0.2664294  -5.45  0.001675596    2.082    0.520
       356 -11.1149    177.3166     85.7068   2.2897535834e+01   2.7856278809e+01    0.1502031    0.1122994 -72.97 0.0002376695    1.601    0.375
       357 -12.4878    161.5927     84.1154   2.5495171718e+01   3.1873957914e+01    0.3522009    0.2559256  -4.51  0.001023149    1.986    0.496
       358 -10.5992    141.4718     85.5580   3.0357764231e+01   3.6475902173e+01    0.1544938    0.1501051  72.40 0.0001980017    1.008    0.008
       359 -11.0234    133.9269     84.2767   3.1833723724e+01   3.8544012503e+01    0.2279289    0.1896493  51.86  0.001110211    1.175    0.149
       360 -12.6725     78.6349     82.0881   4.8341626385e+01   5.1186285304e+01    0.2852355    0.2667793 -42.45 0.0003742077    1.073    0.068
       361 -11.1118    224.8490     80.0740   1.4308774352e+01   1.8344638058e+01    0.1916118    0.1547557 -56.14  0.000315022    1.168    0.144
       362 -11.0424    215.8573     80.1923   1.5493625689e+01   2.0170611918e+01    0.1735731    0.1541746 -10.63 0.0003716661    1.286    0.222
       363 -14.1782      6.8931     77.7475   7.8264465950e+01   6.0957701495e+01    0.4660628    0.3564931 -32.89  0.001790984    1.310    0.237
       364 -11.2837     10.3952     71.3108   7.5489797738e+01   6.2348281157e+01    0.3303329    0.1744973   9.44  0.001528166    2.144    0.533
       365 -11.6154    112.5025     78.5203   3.5903135680e+01   4.4769454914e+01    0.3603432    0.2468123 -85.91  0.001388478    2.443    0.591
       366 -11.4872     88.5192     79.0088   4.3796788820e+01   4.9930408280e+01     0.245391    0.2072476  40.40 0.0008004934    1.163    0.140
       367 -10.8191     51.5518     79.4786   5.8447900922e+01   5.6259704502e+01    0.1420198    0.1381179 -49.47 0.0002558777    1.052    0.049
       368 -12.0378    161.6687     77.0605   2.3492441894e+01   3.3098591275e+01    0.2189713     0.195185 -38.72  0.001152993    1.137    0.120
       369 -11.0210     70.6174     77.2013   4.9893421674e+01   5.3759752032e+01    0.2148377    0.1352307 -40.07 0.0005180293    1.636    0.389
       370 -11.7455     75.3716     75.8034   4.7597120203e+01   5.3209047082e+01    0.2150899    0.1375636 -39.14 0.0009436273    1.623    0.384
       371 -11.4387    115.4128     74.8657   3.3885161901e+01   4.4813956968e+01     0.298166    0.2006565 -25.92  0.001268504    1.796    0.443
       372 -12.7512    106.3529     73.3753   3.6083060323e+01   4.7221065183e+01    0.5027584    0.3385786  71.63  0.002065347    2.046    0.511
       373 -12.3287     86.0280     73.0926   4.2745489239e+01   5.1711035744e+01     0.476464    0.2257271 -44.71 0.0009601908    2.150    0.535
       374 -11.5775     52.1283     73.3619   5.6416549684e+01   5.7623164207e+01    0.4482364    0.2087582  43.08  0.001078982    2.373    0.579
       375 -11.4486     71.7510     69.2541   4.6845873789e+01   5.5315185348e+01    0.3182496    0.2134295   0.33  0.001146305    2.266    0.559
       376 -12.2658      2.9887     71.9414   7.9156109528e+01   6.2577037237e+01    0.1973688    0.1713602 -59.56 0.0004698955    1.015    0.015
       377 -11.2569    132.9731     70.3250   2.7778446310e+01   4.1399076244e+01    0.2115129    0.1899867  56.67 0.0003075824    1.076    0.070
       378 -11.3979    178.5357     69.0173   1.8190174908e+01   3.0331583942e+01    0.2220381    0.1372891 -38.19 0.0004592109    1.563    0.360
       379 -11.5997     54.6572     68.6395   5.3827091235e+01   5.8332955153e+01    0.2288269    0.1626419 -18.70 0.0006467752    1.670    0.401
       380 -11.5988    154.4278     68.0971   2.2330792822e+01   3.6419796678e+01    0.3097725    0.2121101  71.03 0.0004532159    1.571    0.363
       381 -11.1827    189.0639     70.5087   1.6910762241e+01   2.7598912311e+01    0.2020579    0.1393951  63.86   0.00037634    1.496    0.331
       382 -12.0530     60.0187     66.9502   5.0928907655e+01   5.7863168635e+01    0.2218605    0.2055807 -22.30 0.0005433332    1.038    0.037
       383 -10.6685     67.7995     65.5952   4.7186054897e+01   5.6820548836e+01    0.1966638    0.1368562  46.87  0.000317896    1.522    0.343
       384 -10.8956    188.6466     64.2700   1.5332320840e+01   2.8655366829e+01    0.1473534     0.102326 -72.03 0.0005180407    1.633    0.388
       385 -11.4032    164.8992     64.1035   1.9164566407e+01   3.4455865564e+01    0.2202523       0.1884 -69.15 0.0003576766    1.176    0.149
       386 -12.0095     92.0580     63.8282   3.7428853375e+01   5.2316845782e+01    0.2382593    0.2172382 -41.54 0.0003247502    1.140    0.123
       387 -10.6842     39.3405     64.5046   5.9610985413e+01   6.1379958331e+01      0.13796    0.1224578 -40.99 6.439519e-05    1.055    0.052
       388 -11.8895     10.0939     63.1080   7.3987512453e+01   6.4350010197e+01    0.3558921    0.1884465  -4.12  0.001442031    2.231    0.552
       389 -10.8485     12.2230     59.6075   7.2090090362e+01   6.5050920966e+01    0.2350007    0.2135878  38.59 0.0008056419    1.277    0.217
       390 -11.0607    124.5518     62.3797   2.7295031006e+01   4.4902670727e+01    0.3176606    0.1434638  68.08 0.0009457095    3.608    0.723
       391 -11.4764     45.1534     62.0858   5.6048525367e+01   6.1178570054e+01    0.2325763    0.1793677 -25.72   0.00123293    1.315    0.240
       392 -12.2424    109.0173     59.4963   3.0531683568e+01   4.9216824408e+01    0.3346208    0.2449358  49.11   0.00158672    1.299    0.230
       393 -13.1159    110.1039     55.4670   2.8782899505e+01   4.9658170139e+01    0.4561754    0.3020088  19.90  0.001875377    2.196    0.545
       394 -12.5495    113.6645     51.6419   2.6420522795e+01   4.9424276637e+01    0.3453795    0.2558558   6.35  0.001107828    1.834    0.455
       395 -11.9535     41.5062     59.3850   5.6916596991e+01   6.2266705993e+01    0.2547205    0.2223408  26.58  0.001097173    1.191    0.160
       396 -11.0680     18.4900     58.4453   6.8471724675e+01   6.4877839671e+01    0.2829286    0.1183786 -62.99  0.001215546    2.181    0.542
       397 -12.1417    199.0350     57.4632   1.2125290450e+01   2.7230978965e+01     0.271425    0.2131935  41.98 0.0009999922    1.536    0.349
       398 -12.6504    100.4673     57.7953   3.2499193557e+01   5.1545441117e+01    0.2783556    0.2361295 -25.97 0.0006863563    1.261    0.207
       399 -12.4470     20.4790     44.5133   6.3174123599e+01   6.7855026885e+01    0.2222568    0.1185636 -57.44  0.001089022    1.765    0.433
       400 -12.7734     23.8945     55.7603   6.4830111429e+01   6.5038600931e+01    0.3391341     0.268094 -35.26 0.0002781641    1.143    0.125
       401 -12.3979     19.9084     53.0325   6.6191459450e+01   6.6009785284e+01     0.240308    0.1842848 -50.32 0.0003518616    1.167    0.143
       402 -11.6725    192.5180     57.5164   1.3005900813e+01   2.8741489217e+01    0.1402378    0.1267262 -66.06 -1.354657e-05    1.004    0.004
       403 -11.1970    182.3023     57.3083   1.4405227728e+01   3.1212963573e+01    0.1377982    0.1112129  26.39 0.0003455956    1.603    0.376
       404 -11.9793    160.0019     57.2948   1.8049413720e+01   3.6751853080e+01    0.2139216     0.185691  69.78  0.000831117    1.112    0.101
       405 -10.8834     54.1489     56.9339   5.0030360456e+01   6.0972102905e+01    0.2724947    0.1598509  35.84  0.001254704    1.704    0.413
       406 -12.5921     36.5226     55.0244   5.7951404521e+01   6.3858500440e+01    0.4881586    0.2504961 -44.75  0.001779647    1.805    0.446
       407 -12.6362    120.7746     52.6913   2.4938140263e+01   4.7477799721e+01    0.3502408    0.2657481 -46.62 0.0008342795    1.397    0.284
       408 -10.8302    195.4821     52.4668   1.1298965755e+01   2.8762845013e+01    0.1378931    0.1244317 -66.89 0.0001036354    1.012    0.011
       409 -12.3260    162.1584     50.5873   1.5675760771e+01   3.7208736385e+01    0.3628802    0.2042106 -21.28  0.001452878    2.284    0.562
       410 -11.6473    130.9787     50.9941   2.1909995145e+01   4.5154344677e+01    0.2870297    0.1366882  40.16    0.0010218    2.597    0.615
       411 -13.1040     30.5256     50.0432   5.9407555782e+01   6.5644934665e+01    0.2976679    0.2844919  89.97 0.0008068516    1.281    0.220
       412 -12.0809    174.1095     49.3302   1.3410743615e+01   3.4379533021e+01    0.3196343    0.1608661 -36.27  0.001372921    1.928    0.481
       413 -11.5908     99.5673     49.7497   2.9779393230e+01   5.3157125950e+01    0.2082007    0.1413027 -47.77 0.0009511239    1.635    0.388
       414 -11.3665    152.9779     48.8622   1.6754511171e+01   3.9808645203e+01    0.3226583    0.2012291  13.46  0.001212005    3.045    0.672
       415 -10.8280    204.7038     47.3215   8.8760762601e+00   2.7332094225e+01    0.1430392   0.08890079 -61.75 0.0002558816    1.618    0.382
       416 -11.5227     41.7678     46.9772   5.2301593004e+01   6.4888872631e+01    0.2396771    0.1932772  25.61 0.0007334995    1.241    0.194
       417 -11.5973     95.2109     45.0255   2.9303889772e+01   5.4962036195e+01    0.2385252    0.1949553  20.09  0.001219132    1.337    0.252
       418 -11.5055    197.0155     44.2315   8.9822475543e+00   2.9523746569e+01    0.1894373    0.1655765 -82.28 0.0003155716    1.069    0.064
       419 -12.6724    158.3459     41.4607   1.3553264945e+01   3.9467766254e+01    0.2639602    0.2456516 -83.74 0.0002314819    1.026    0.025
       420 -13.8662     28.8058     36.4749   5.5218111849e+01   6.8673871591e+01    0.4319701    0.3113545 -23.26  0.001409399    1.326    0.246
       421 -13.3230     30.8325     31.8818   5.2018852416e+01   6.9321434658e+01    0.3354246    0.2717364  -2.73  0.001588482    1.139    0.122
       422 -11.4429    205.9823     38.4931   6.5408617529e+00   2.8188744790e+01    0.2051015    0.1767691 -28.56 0.0003326259    1.299    0.230
       423 -12.3426     34.0813     40.7142   5.3934827812e+01   6.7182588045e+01    0.3046614    0.1713457  30.42  0.001106414    1.787    0.440
       424 -12.0137    124.3662     39.6954   1.9468847423e+01   4.8527483773e+01    0.2604464     0.223099  48.10 0.0002995329    1.140    0.123
       425 -11.6647    119.3630     39.1287   2.0416761332e+01   4.9892841528e+01    0.3323379    0.2324969 -55.18  0.001573199    1.638    0.390
       426 -11.7418     80.5995     36.3187   3.0602987449e+01   5.9676126902e+01    0.3210763    0.2370926 -52.41  0.001260027    1.651    0.394
       427 -12.6679      8.3834     35.8546   6.7722212696e+01   7.0659109510e+01    0.3757865    0.2341721 -74.23  0.001546264    1.934    0.483
       428 -12.0016    158.2577     34.7007   1.1497220730e+01   4.0378739126e+01    0.3400743    0.2466523   3.82 0.0008101558    1.978    0.495
       429 -11.4983     53.1339     34.1224   4.1057024219e+01   6.5529552739e+01    0.2057084    0.1940919   7.55  0.001258019    1.113    0.101
       430 -11.8670    106.8201     32.3072   2.0915209502e+01   5.4012558706e+01    0.2474344    0.1946652 -45.56 0.0008360404    1.397    0.284
       431 -11.4855     96.3150     31.9982   2.3672615262e+01   5.6648628278e+01    0.4068495    0.2311145 -11.00  0.001181548    2.606    0.616
       432 -11.1639     96.5232     27.5289   2.1737275526e+01   5.7192579751e+01    0.1434199    0.1316686  54.57 3.963538e-05    1.040    0.038
       433 -11.4300     42.5103     33.0270   4.5944434598e+01   6.7472938979e+01    0.1979937    0.1267684 -41.50 0.0005588171    1.560    0.359
       434 -12.3237     46.6893     31.2092   4.2889910842e+01   6.7128532781e+01    0.2585857    0.2019827 -38.76   0.00105708    1.334    0.250
       435 -12.4043     45.7716     25.8201   4.0708448471e+01   6.8183959873e+01    0.3643069    0.2685664 -51.73  0.001215309    1.740    0.425
       436 -11.0887    203.0278     40.9777   7.4740153259e+00   2.8549632205e+01    0.1834799    0.1659067 -71.36  0.001140584    1.059    0.056
       437 -11.6577     84.8728     29.8126   2.6278967764e+01   5.9662858536e+01    0.1840757    0.1685502 -80.22 0.0003634033    1.301    0.231
       438 -11.4794     67.5254     29.1077   3.2304456097e+01   6.3574529327e+01    0.1949985    0.1356429 -33.04 0.0005930051    1.513    0.339
       439 -11.0313     19.5303     29.0307   5.7810354017e+01   7.1151030490e+01    0.1615805    0.1148848 -84.19 0.0008096361    2.533    0.605
       440 -10.7273    196.7287     27.3426   4.6701597008e+00   3.1704569995e+01    0.1418995   0.08379167 -59.49 0.0006992599    1.612    0.380
       441 -12.4297     84.4429     24.4268   2.4004444856e+01   6.0482916642e+01    0.2929521    0.2031056 -71.91   0.00108211    2.271    0.560
       442 -12.3312     67.3376     24.1258   2.9976500469e+01   6.4331987065e+01    0.3120787    0.2137206  89.28  0.001305496    3.066    0.674
       443 -10.7197    198.2013    249.1809   5.1638642084e+01  -2.8390267434e+00    0.1390802    0.1117015  23.91 0.0002200091    1.303    0.233
       444 -10.7587    128.7847     24.5955   1.3136217361e+01   4.9310630392e+01    0.1932731    0.1288799  80.06 0.0002322945    1.522    0.343
       445 -10.5243     84.3093     18.6946   2.1414143729e+01   6.1216986698e+01    0.1340367    0.1080743 -75.64 0.0003820828    1.611    0.379
       446 -11.5283     80.6285     18.1812   2.2328115795e+01   6.2140475414e+01    0.1833201    0.1300828  -6.70 0.0005048025    1.635    0.388
       447 -10.3027    149.7254     17.3043   7.2814603813e+00   4.4620090268e+01    0.1418297   0.09565265 -65.44 0.0001909641    1.542    0.351
       448 -12.1265    114.9077    247.3231   6.7994512224e+01   8.6639762476e+00    0.3134339    0.1847628 -52.33  0.001824417    2.150    0.535
       449 -11.0353    103.1261     15.2845   1.4876746703e+01   5.6966956506e+01    0.2499181    0.1196897  32.86 0.0008903007    2.794    0.642
       450 -14.8380     69.8998    225.8607   7.5755208951e+01   1.8629703614e+01     2.410784     1.168534  74.19   0.01037229    3.156    0.683
       451 -11.3701    214.9489    247.1006   4.8331679688e+01  -4.6347868757e+00    0.1671084    0.1235135   8.29 0.0004178655    1.040    0.038
       452 -10.6985    162.0661    246.2154   5.8155422251e+01   2.2985354402e+00    0.1675629   0.07833686  31.21  0.000867004    1.687    0.407
       453 -10.8030    168.6266    244.8142   5.6668216970e+01   1.6010871423e+00    0.1273085    0.1156347 -39.43 0.0001921324    1.512    0.339
       454 -11.0922    205.0803    244.0276   4.9646987651e+01  -3.0622922877e+00    0.1596106    0.1314096  39.13  0.001128496    1.703    0.413
