#   1 NUMBER                 Running object number                                     
#   2 MAG_AUTO               Kron-like elliptical aperture magnitude                    [mag]
#   3 X_IMAGE                Object position along x                                    [pixel]
#   4 Y_IMAGE                Object position along y                                    [pixel]
#   5 X_WORLD                Barycenter position along world x axis                     [deg]
#   6 Y_WORLD                Barycenter position along world y axis                     [deg]
#   7 A_WORLD                Profile RMS along major axis (world units)                 [deg]
#   8 B_WORLD                Profile RMS along minor axis (world units)                 [deg]
#   9 THETA_WORLD            Position angle (CCW/world-x)                               [deg]
#  10 FWHM_WORLD             FWHM assuming a gaussian core                              [deg]
#  11 ELONGATION             A_IMAGE/B_IMAGE                                           
#  12 ELLIPTICITY            1 - B_IMAGE/A_IMAGE                                       
         1 -12.7679    198.2258     33.1909   6.0992399848e+01   3.1209962320e+01    0.9778585    0.7007318  44.82  0.004861192    1.475    0.322
         2 -13.5184    214.6361     15.0868   5.3871344292e+01   2.9122082967e+01     1.252762    0.9249072  28.54  0.006578577    1.686    0.407
         3 -11.9295      2.8759      4.1794   1.0852724281e+02   7.3319430317e+01    0.5303853    0.2920049 -41.03  0.003502311    1.327    0.246
         4 -11.6145    143.4142    241.8396   1.1722824566e+02   8.0323436911e+00    0.3662538    0.3174974 -22.58  0.002749979    1.603    0.376
         5 -11.6376    199.3963    246.3684   1.0829186906e+02  -1.2105141746e+00    0.4126085    0.2094885  45.35  0.002435114    1.671    0.402
         6 -11.2287    205.1797    245.0114   1.0714930255e+02  -1.9412701010e+00    0.3078078    0.1675609  21.36  0.001745341    2.064    0.516
         7 -11.1010    185.0547    250.0643   1.1115679847e+02   5.5936188253e-01    0.3806314    0.1453882  42.08   0.00174601    1.977    0.494
         8 -10.6385    169.3015    248.9896   1.1365796986e+02   3.1029155116e+00    0.2540898    0.1760306  18.72 0.0008243014    1.707    0.414
         9  -9.5639    163.4023    250.2544   1.1479844305e+02   3.8502612705e+00    0.1265911    0.1076313 -74.12 0.0009545797    1.631    0.387
        10 -11.1374    149.8841    248.1025   1.1682878058e+02   6.1927378373e+00    0.3180821    0.2426111 -67.33   0.00230338    1.774    0.436
        11 -10.3410    143.7105    249.6165   1.1803666298e+02   6.9288813446e+00    0.2551089    0.1490376  57.75  0.001583923    1.694    0.410
        12 -12.2938    124.9044    240.8490   1.2030885742e+02   1.0988067546e+01    0.6644737    0.3875501  33.79  0.004015238    1.774    0.436
        13 -10.2746    121.6628    244.9894   1.2128372007e+02   1.0867652775e+01    0.2721487     0.149373  56.30 0.0009269641    1.607    0.378
        14 -10.5060    114.9101    250.2616   1.2292492867e+02   1.1092694681e+01    0.4281678    0.2309045  38.03  0.002156304    1.683    0.406
        15 -11.4158    109.2140    246.3141   1.2351182019e+02   1.2482032123e+01    0.4071443    0.3142222  73.69  0.002066884    1.267    0.211
        16  -9.5830    102.8006    247.3986   1.2468132628e+02   1.3229740682e+01    0.2061018    0.1757733  49.79 0.0007373504    1.249    0.200
        17  -9.3993     99.6514    250.6621   1.2548304991e+02   1.3186409034e+01    0.2466575   0.08360103  42.60 0.0009493143    2.268    0.559
        18 -10.6433     98.9068    247.1711   1.2530899753e+02   1.3807006920e+01     0.275514    0.1645387  61.21  0.001028085    1.437    0.304
        19 -10.4697     84.9231    241.2369   1.2714464839e+02   1.6626734696e+01    0.2996513    0.2655391 -75.99  0.002451774    1.444    0.307
        20  -9.7817     91.0015    250.0355   1.2684842884e+02   1.4461085932e+01     0.203715    0.1553964  42.48  0.001559196    1.352    0.260
        21 -10.8996     86.5783    248.3744   1.2743969228e+02   1.5304745321e+01    0.3232063    0.2261144  33.19  0.000957293    1.736    0.424
        22  -9.3691     81.5073    247.0904   1.2816914690e+02   1.6172420102e+01    0.2236652     0.131715 -80.79   0.00136325    1.894    0.472
        23 -10.9176     60.5516    246.3239   1.3149870113e+02   1.8947202248e+01    0.4142269    0.2281153  70.91  0.002338361    1.599    0.374
        24  -9.4779     67.2981    243.8851   1.3024935349e+02   1.8497326658e+01    0.2444944    0.1295198  35.08   0.00150947    2.140    0.533
        25  -9.8940     49.8538    249.9559   1.3340254223e+02   1.9653213702e+01    0.2409239    0.1279484  48.42  0.001203112    1.440    0.306
        26 -11.9808      3.5007    187.8134   1.3768626096e+02   3.5288097448e+01    0.9298094     0.257349 -75.85  0.004689296    2.877    0.652
        27 -11.6087     16.1339    218.2901   1.3706936875e+02   2.8539076081e+01    0.6839156    0.2215619  53.99  0.003926062    2.289    0.563
        28 -12.9049     10.1955    209.4653   1.3761755657e+02   3.0672699617e+01     1.030956    0.9303477 -74.40  0.009095106    1.591    0.372
        29 -12.4949      6.6740    226.5473   1.3895034002e+02   2.8018209594e+01     1.007996    0.4891006  54.31  0.007329956    1.518    0.341
        30 -12.1129     43.4261    207.5953   1.3174628432e+02   2.7588693961e+01     1.049089    0.4218594  65.93  0.004491887    2.584    0.613
        31 -12.9855     40.1649    243.8293   1.3456447976e+02   2.1724302149e+01    0.8235955    0.6403252  83.44  0.005425056    1.262    0.208
        32 -11.8999     20.3281    237.8066   1.3733113071e+02   2.4814169265e+01    0.5124544     0.257267  70.07  0.001660231    1.521    0.343
        33 -13.2465      4.9270    244.9177   1.3991720088e+02   2.5174395265e+01    0.9458995    0.4153283  69.92            0    1.685    0.406
        34 -12.2504     13.7788    239.2778   1.3839105552e+02   2.5227692115e+01    0.4904332    0.2734413  80.60  0.001221879    1.393    0.282
        35 -10.9862     51.7294    219.0440   1.3110510831e+02   2.4558300088e+01    0.2562769    0.1843752  64.60 0.0003062034    1.053    0.050
        36 -12.6593     30.2214    226.7793   1.3521432731e+02   2.5631791031e+01    0.4626763     0.241057 -78.47 0.0007650419    1.788    0.441
        37 -13.7325     36.4376    218.6581   1.3370623668e+02   2.6372516291e+01     0.888963    0.6612438  59.56  0.007009951    1.166    0.142
        38 -10.4372    142.0068    221.5315   1.1504836104e+02   1.1224450536e+01    0.2521202    0.2106773  32.98 0.0003293993    1.227    0.185
        39  -9.3066    132.4254    223.7592   1.1707048175e+02   1.2413557410e+01    0.1642952     0.153096  21.54 0.0008630693    1.319    0.242
        40 -11.1149    136.0811    224.6808   1.1651766943e+02   1.1690766932e+01    0.2972575    0.2528379 -50.19  0.001156825    1.471    0.320
        41 -11.8217    135.3113    236.2617   1.1800624269e+02   1.0075755971e+01    0.3786773    0.3022252  19.31  0.001242414    1.605    0.377
        42 -11.2745    134.7923    231.4441   1.1754878888e+02   1.0867782606e+01    0.3073941     0.240499 -23.57  0.001496222    1.959    0.489
        43 -10.2780     73.7763    244.2875   1.2922296185e+02   1.7611944790e+01    0.2764853    0.2178817 -87.60  0.002228413    1.341    0.254
        44 -11.7555    177.3263    242.9106   1.1154624370e+02   2.6098962224e+00    0.4691041     0.206994  49.74  0.002439232    2.127    0.530
        45 -10.8237    158.3576    242.2261   1.1470342698e+02   5.6625551065e+00    0.2818791    0.1944653 -76.54  0.001749634    2.369    0.578
        46 -11.0149     98.8258    232.5941   1.2401310482e+02   1.6074798686e+01    0.4320939    0.2258618 -75.26  0.002286271    2.410    0.585
        47 -10.4898     97.0923    238.8911   1.2488937579e+02   1.5324674906e+01    0.3247043    0.1693647  62.26   0.00177114    1.844    0.458
        48  -9.9688     85.1731    234.7889   1.2656840026e+02   1.7619395148e+01    0.3039942    0.1598715  65.98  0.001810327    1.874    0.467
        49 -10.5903     84.6551    229.5996   1.2621196579e+02   1.8537777707e+01     0.230004    0.1804384 -57.49 0.0006456719    1.678    0.404
        50 -10.3087     89.9823    238.0648   1.2602735855e+02   1.6440159891e+01    0.2339429    0.1938027 -87.21  0.001121529    1.313    0.238
        51 -11.3820    167.2961    242.5401   1.1321004533e+02   4.2252430869e+00    0.4743797    0.1589577  47.56   0.00217106    2.569    0.611
        52 -11.1230    244.9474    240.7572   1.0008921508e+02  -7.3792284342e+00    0.2269768    0.1202082  23.85  0.001396436    1.620    0.383
        53 -10.9922    116.5531    238.6681   1.2152625121e+02   1.2554928405e+01     0.331523    0.2535012 -26.84  0.002028984    2.261    0.558
        54 -11.4213    124.2391    249.3298   1.2127844885e+02   9.8700073568e+00    0.6141397     0.236826  41.41  0.003254332    2.045    0.511
        55 -11.4265    122.7054    233.7324   1.1994078877e+02   1.2381737795e+01    0.3859173    0.2301932  48.78  0.001151626    1.317    0.240
        56 -10.7315    104.6137    238.1133   1.2353020857e+02   1.4378960168e+01    0.2216492    0.1816162  19.81  0.001451232    1.774    0.436
        57  -8.9021     61.4446    239.0209   1.3086779168e+02   2.0001904502e+01    0.1626207    0.1056999  52.40 0.0006661938    1.208    0.172
        58  -9.4504    173.0769    235.9159   1.1136946109e+02   4.1681741038e+00    0.1657769    0.1310605  50.11 0.0002802269    1.213    0.175
        59 -10.0717    165.6819    235.4689   1.1259767329e+02   5.4066855569e+00    0.1746126    0.1097171 -45.48  0.001090067    2.033    0.508
        60  -9.7633     54.7107    235.8047   1.3175565555e+02   2.1344261632e+01    0.2480061    0.1170835  53.15  0.001013956    1.595    0.373
        61  -8.3906     70.6994    235.2983   1.2906394664e+02   1.9445418729e+01    0.1117255   0.06133197  64.89 0.0005968413    1.579    0.367
        62 -11.0085    113.2888    231.1698   1.2133167245e+02   1.4193229718e+01    0.3234103    0.2555516 -44.10  0.002071483    1.771    0.435
        63 -10.4452    109.1765    230.8639   1.2202701721e+02   1.4850712789e+01    0.2151406    0.1812256 -83.88  0.001606047    1.319    0.242
        64 -11.1160    105.0903    227.6400   1.2242579513e+02   1.5968112720e+01    0.4091399    0.2755926  74.24  0.002112438    1.536    0.349
        65  -9.3923    169.5330    232.9745   1.1160049463e+02   5.1235565831e+00    0.1431365    0.1182623 -43.03 0.0004089943    1.536    0.349
        66 -10.2331    156.6656    232.1330   1.1375548554e+02   7.3044620021e+00    0.2005115    0.1847863  11.61 0.0006626864    1.285    0.222
        67  -9.4675     93.4981    233.0137   1.2497862088e+02   1.6759368283e+01    0.2676056   0.09272126  52.21  0.001287592    2.469    0.595
        68 -10.2478    141.5886    231.2753   1.1632170518e+02   9.8262083777e+00    0.1915182    0.1711121  32.13 0.0009259186    1.234    0.190
        69 -12.9533     28.3011    246.8187   1.3653582829e+02   2.2538673732e+01     1.014643    0.5568014  42.91  0.007000325    1.665    0.400
        70 -10.1362     79.3311    225.6820   1.2680345756e+02   1.9912816730e+01    0.3956055      0.22213 -85.61   0.00169109    1.995    0.499
        71  -8.9321     77.4148    220.5640   1.2669738890e+02   2.1045429055e+01    0.1730485   0.09121197  44.13 0.0004314904    1.614    0.380
        72  -9.4527     54.1350    240.9620   1.3218276644e+02   2.0572874111e+01    0.1754978    0.1134912  54.24  0.000567004    1.185    0.156
        73 -10.4473    117.2124    224.4443   1.1991060080e+02   1.4671173625e+01    0.2373412    0.1961808  52.89 0.0003156239    1.070    0.065
        74  -9.6582     92.5816    225.9907   1.2449025386e+02   1.8037889503e+01    0.2109436     0.131268  53.48 0.0006584155    1.274    0.215
        75  -9.0630     64.9951    224.5589   1.2921433729e+02   2.1971407930e+01    0.1650248    0.1331757 -57.97  0.001102642    1.700    0.412
        76  -8.5880     51.4831    225.5349   1.3160323575e+02   2.3457042621e+01    0.1041904   0.08203102  68.32  0.000806874    1.115    0.103
        77 -10.0383     98.5455    223.2308   1.2315557665e+02   1.7646630084e+01    0.2990583    0.2233703  34.81  0.001364031    1.508    0.337
        78  -8.9452     94.3090    219.3107   1.2353177832e+02   1.8919162642e+01    0.2309217    0.1413254  61.29 0.0008649888    1.446    0.308
        79 -11.3188     91.9904    241.1942   1.2595486154e+02   1.5673862198e+01     0.352328    0.2567459  66.91  0.002117932    1.155    0.134
        80  -8.3054     54.7081    223.2565   1.3089298192e+02   2.3465250172e+01    0.1088305   0.06023255  64.17  0.000688153    1.490    0.329
        81  -9.8299    110.3265    219.3853   1.2060910475e+02   1.6546196632e+01     0.394034    0.1700165 -74.19  0.001617117    4.295    0.767
        82 -10.6193    246.1250    219.8887   9.6599447798e+01  -5.4536846379e+00    0.3100985    0.1170543 -20.85  0.001351955    3.658    0.727
        83 -10.1339     70.4250    218.7555   1.2778917510e+02   2.2282813733e+01    0.3554849    0.2178476 -88.40  0.002303305    1.638    0.390
        84  -8.5900     89.0084    218.4963   1.2441643131e+02   1.9811807443e+01    0.1671762   0.07078468  57.86 0.0006711422    2.350    0.575
        85 -10.1799     22.8497    215.1776   1.3579548333e+02   2.8421743406e+01    0.2389008    0.1587875 -87.01  0.001496806    1.306    0.234
        86  -8.5133     99.2869    218.3029   1.2251975506e+02   1.8370747234e+01   0.09898558   0.09080004  13.98 0.0003506992    1.562    0.360
        87 -11.4271    135.8466    240.9099   1.1842922413e+02   9.3237015250e+00    0.2839999    0.2497939  28.70  0.001286466    1.321    0.243
        88  -9.3008     88.1655    212.8518   1.2401584704e+02   2.0917587367e+01    0.2130706    0.1389785  89.27 0.0009869448    1.628    0.386
        89 -10.6374     63.1392    209.5142   1.2832356449e+02   2.4871330109e+01    0.6320776    0.4555627  13.28  0.003770693    2.687    0.628
        90 -10.0954     54.4781    205.5161   1.2958059691e+02   2.6678304471e+01    0.3456512    0.1851942  30.79  0.001357846    2.418    0.586
        91  -8.6562    130.9570    211.3168   1.1579876683e+02   1.4650079777e+01    0.1706902    0.1299647  49.31 0.0002585963    1.091    0.083
        92  -9.2096    106.8337    209.8492   1.2019067605e+02   1.8705148248e+01    0.1674972    0.1569616  54.61 0.0005694013    1.236    0.191
        93  -9.8405    156.2075    208.0761   1.1057890032e+02   1.0952336453e+01    0.1958818    0.1514873  43.19 0.0002784912    1.085    0.079
        94  -8.6068    134.3531    208.3245   1.1476243946e+02   1.4590887585e+01     0.119911   0.09413511  12.92 0.0004177761    1.761    0.432
        95  -9.3705    112.3368    208.1577   1.1894572191e+02   1.8153626305e+01     0.160446    0.1371688  73.84  0.000400954    1.113    0.101
        96  -8.8231     74.4453    208.4862   1.2614385181e+02   2.3589360465e+01    0.1172058    0.0899045  68.00   7.4139e-05    1.041    0.040
        97 -10.3482     55.5655    208.4480   1.2961813914e+02   2.6005067734e+01    0.2800721    0.1785163 -82.03  0.001882493    1.469    0.319
        98  -9.0474    125.6487    206.8146   1.1622971398e+02   1.6269997098e+01    0.1611856    0.1118987 -75.04 0.0009421604    1.751    0.429
        99  -8.7748     32.9783    206.9661   1.3356175000e+02   2.8855573502e+01    0.1367276    0.1182035 -65.42 0.0004972406    1.578    0.366
       100  -9.3896     91.1650    204.9577   1.2263099185e+02   2.1906951191e+01    0.2622221    0.1340546  39.48 0.0008602731    1.851    0.460
       101  -8.8056    103.1140    202.7877   1.2008338823e+02   2.0528193143e+01    0.3148796    0.1753599  53.74  0.001737216    1.583    0.368
       102  -9.4069     83.8530    201.6924   1.2368768191e+02   2.3550932939e+01    0.1993413    0.1458456  88.99 0.0002583163    1.319    0.242
       103 -10.0866    250.2980    200.6886   9.2617150528e+01  -3.9879377910e+00     0.239469    0.1256866  -5.53  0.001173088    2.473    0.596
       104  -9.2866     43.4323    199.6032   1.3115211014e+02   2.9081487468e+01     0.231466    0.1559116 -41.44    0.0014036    2.644    0.622
       105 -11.6397    103.0944    196.0434   1.1927444719e+02   2.1769087613e+01    0.2755187     0.211531  43.27 0.0003312548    1.262    0.208
       106  -8.8325     97.6915    196.2726   1.2037447932e+02   2.2548616064e+01    0.1973521    0.1256739  52.79 0.0004313925    1.357    0.263
       107  -9.0070     52.9757    198.5050   1.2928092490e+02   2.8177997401e+01    0.2594755    0.1259002  37.28  0.001456896    2.107    0.525
       108 -11.5692     58.0351    194.1580   1.2793459539e+02   2.8397154693e+01    0.2852196    0.2508305 -64.39 0.0006410921    1.440    0.306
       109 -11.0255     27.6346    195.1989   1.3374624345e+02   3.1621207035e+01    0.3732847    0.1988632  81.28 0.0002461434    1.635    0.388
       110 -10.4592    249.5132    194.1163   9.1553284015e+01  -3.1043884985e+00    0.3163759    0.2166973  22.41  0.001971364    1.249    0.199
       111  -9.8579     20.7364    193.9080   1.3492155318e+02   3.2555107217e+01     0.363579    0.1437334 -85.39  0.001434212    2.313    0.568
       112  -9.5159    113.1321    191.7305   1.1670777578e+02   2.0991060007e+01    0.4301216    0.1793902 -43.78  0.001752601    3.576    0.720
       113  -8.8133    118.9797    194.0000   1.1583851791e+02   1.9623043689e+01    0.2040289   0.06387786  41.63 0.0007856315    2.827    0.646
       114  -9.4116    191.4762    191.4654   1.0125502924e+02   7.2646116702e+00    0.2252072    0.1902712  32.49 0.0006263554    1.026    0.025
       115  -8.8219     38.5207    192.4341   1.3152157744e+02   3.1002809577e+01    0.1121005   0.08518642  74.98 6.356768e-05    1.008    0.008
       116 -10.5777     15.5186    191.9217   1.3574753141e+02   3.3431962332e+01    0.1816651    0.1336121  72.92 0.0003740539    1.053    0.050
       117  -9.2213     32.1844    189.9732   1.3253408404e+02   3.2158974679e+01    0.3021578   0.09375182  45.26  0.001520239    2.608    0.617
       118 -10.3770    250.0968    187.8091   9.0286639465e+01  -2.4494223618e+00    0.3290135    0.1660093 -18.37  0.001648487    2.160    0.537
       119  -9.0904     40.7185    188.3366   1.3077881734e+02   3.1561039011e+01     0.209448    0.1318455  68.33  0.001010765    1.338    0.252
       120  -8.9532     76.9920    188.4983   1.2362155085e+02   2.7027456403e+01    0.1650878    0.1056768  45.88  0.000979636    1.435    0.303
       121 -10.6390     71.8422    187.1344   1.2451222361e+02   2.7995115857e+01    0.2455158     0.217841 -62.09 0.0003954128    1.384    0.277
       122 -11.3808     64.7149    186.5975   1.2589105933e+02   2.9036772265e+01    0.2346286    0.2126487 -78.63 0.0007609238    1.287    0.223
       123  -9.7029      9.9726    187.5879   1.3650327255e+02   3.4769333626e+01     0.214351    0.1237579 -86.78 0.0007204423    1.378    0.274
       124  -9.9174     83.6197    186.7277   1.2207660446e+02   2.6446330097e+01    0.2084108    0.1628625  70.84 0.0002750523    1.111    0.100
       125  -9.4161     25.1585    184.3302   1.3346173551e+02   3.3979918481e+01    0.3709005    0.1206771  41.37  0.001928025    2.634    0.620
       126  -8.8658     30.4911    183.5405   1.3237943283e+02   3.3599151703e+01    0.1127772   0.08478656  77.69 -2.325384e-05    1.014    0.014
       127  -9.0685    127.8078    182.8479   1.1243093173e+02   2.0203547279e+01    0.1763558    0.1687815  64.30  0.000411954    1.107    0.096
       128  -8.6117    107.9829    182.9978   1.1657138411e+02   2.3479039635e+01    0.2060143    0.1384426  73.46  0.000844328    1.664    0.399
       129  -8.8824     36.4971    182.4935   1.3112680687e+02   3.3178571158e+01    0.1768204   0.08524658 -63.88  0.001003601    2.009    0.502
       130  -9.0147     86.1111    180.1897   1.2077258264e+02   2.7385494691e+01    0.1714208    0.1235357  68.46  0.000265823    1.290    0.225
       131  -8.8620     27.2507    180.0344   1.3274531986e+02   3.4625414299e+01    0.1554974    0.1144628  88.21 0.0003605411    1.091    0.084
       132  -8.7556     47.2763    179.6489   1.2873175974e+02   3.2555506828e+01    0.1415242    0.1056769  34.37 0.0006679365    1.618    0.382
       133 -11.5471    248.3691    172.5086   8.7612764213e+01  -2.5903547021e-01    0.4845552    0.3455003  15.73  0.002880111    1.299    0.230
       134  -8.0470     92.6901    178.2724   1.1914175004e+02   2.6795235044e+01    0.1289257   0.08520692  68.84 0.0001934646    1.549    0.354
       135  -8.4876     12.4788    178.4646   1.3548718275e+02   3.6329035907e+01    0.1078473   0.08081559  82.49 0.0002313843    1.040    0.039
       136  -8.3619    125.7184    177.3080   1.1200928749e+02   2.1613845234e+01    0.1315924   0.09629717  75.03 0.0001720753    1.562    0.360
       137 -11.1260     65.1597    175.6585   1.2463704556e+02   3.1187638444e+01    0.2759124    0.2071632  47.94 0.0003932589    1.309    0.236
       138 -10.9608     61.2152    172.6859   1.2514076956e+02   3.2304346895e+01    0.2736188    0.2272257 -57.94   0.00090868    1.421    0.296
       139  -9.4908    102.9865    175.9977   1.1664129758e+02   2.5655521897e+01    0.1880787    0.1656696  71.93  0.001198665    1.014    0.013
       140 -10.6079     75.0871    174.6157   1.2241644896e+02   3.0078122565e+01    0.2316808    0.1959012  74.26 0.0004052087    1.021    0.021
       141 -10.2312     19.1035    173.5369   1.3386888564e+02   3.6715215562e+01    0.4209201    0.1802582  77.42  0.001639996    2.394    0.582
       142  -9.8283     12.1877    173.1339   1.3519879931e+02   3.7418117832e+01    0.2868089    0.1246843 -62.83  0.001643227    2.226    0.551
       143 -11.0562     14.0688    167.1377   1.3441612411e+02   3.8468749650e+01    0.3025461    0.2611592  49.23  0.001589363    1.397    0.284
       144 -11.0436      7.3843    166.2516   1.3569314759e+02   3.9215847617e+01    0.3073461    0.2128677 -50.73  0.002146821    1.919    0.479
       145  -8.1924    107.6807    173.3205   1.1524530807e+02   2.5435077167e+01    0.1368309   0.09266926  73.00 0.0002992027    1.666    0.400
       146  -9.1475     46.0069    172.4562   1.2831323420e+02   3.4172137693e+01    0.1742823    0.1301478  89.77  0.000378336    1.118    0.106
       147  -9.2420     48.1015    168.8363   1.2751483725e+02   3.4685344107e+01    0.2113194    0.1763893  83.11  0.001486972    1.062    0.058
       148 -11.7985      2.3459    169.8134   1.3690311425e+02   3.8905210922e+01    0.7153837    0.2191479 -85.49  0.002284748    2.947    0.661
       149  -9.2035     27.8360    171.1204   1.3193444730e+02   3.6373044792e+01    0.3064036    0.1365915 -56.93  0.001484458    2.457    0.593
       150  -8.2805    166.7446    170.6336   1.0231541471e+02   1.5288341791e+01    0.1345137    0.1050332  -0.91 0.0003110796    1.632    0.387
       151 -11.4839     83.1577    165.9982   1.1955890085e+02   3.0727941536e+01    0.5187294    0.4666688  44.71  0.003406923    1.254    0.203
       152  -9.3148     64.9542    167.0681   1.2369489245e+02   3.3000468929e+01    0.1786899    0.1489294  80.71            0    1.003    0.003
       153 -10.4295     44.8594    165.0990   1.2782770655e+02   3.5836858798e+01    0.3646553    0.1558099 -56.92  0.001722544    2.396    0.583
       154  -9.6484     43.5466    161.1630   1.2770849501e+02   3.6815655027e+01    0.2072848    0.1518964  67.55 0.0003316842    1.214    0.176
       155 -11.0497    240.6730    150.5475   8.4352309918e+01   4.0836937623e+00    0.4578071    0.2882162  33.24  0.002286122    1.562    0.360
       156 -11.0043    245.4538    156.4422   8.4811726503e+01   2.3837100020e+00    0.7237957    0.3696207  61.27  0.002788106    3.850    0.740
       157 -10.9877    249.2698    161.1416   8.5165403584e+01   1.0681388727e+00    0.4118734     0.286171 -30.16   0.00236969    1.419    0.295
       158 -11.7722    245.1134    162.1349   8.6050780571e+01   1.6735237882e+00    0.5448722    0.2701933 -38.16   0.00259701    2.131    0.531
       159  -8.9690     61.0170    164.7060   1.2427675452e+02   3.4001361758e+01    0.1663472    0.1361643  62.36 0.0003593808    1.142    0.124
       160  -9.1243     68.7296    163.7609   1.2246180534e+02   3.3205121925e+01    0.2746247   0.09499467  38.61  0.001041114    2.813    0.644
       161 -11.4528     10.0155    157.0274   1.3451804612e+02   4.0897090976e+01     0.569968    0.2071926  72.09  0.002522303    3.347    0.701
       162 -10.9059     12.4803    154.0418   1.3377266724e+02   4.1318489936e+01    0.2780227    0.1530392 -87.59   0.00117898    1.476    0.322
       163 -11.0081     10.8676    150.1218   1.3381228076e+02   4.2276054616e+01    0.2220763    0.1926043  -1.53 0.0002713988    1.779    0.438
       164  -8.5797     52.4201    158.4943   1.2545830548e+02   3.6374473283e+01    0.1223391   0.09981076  86.67 0.0004155543    1.014    0.014
       165  -9.8863     16.0989    158.2060   1.3333150027e+02   4.0138760324e+01     0.155609     0.126727 -84.68  0.000402787    1.156    0.135
       166 -10.3553     84.4779    156.2201   1.1787045318e+02   3.2611461803e+01    0.2889713    0.1175827 -59.16  0.001249494    2.355    0.575
       167  -8.2553     81.3105    156.3019   1.1861103724e+02   3.3056777071e+01    0.1194746    0.1014715 -30.57 0.0007015943    1.606    0.377
       168 -10.6529     31.9370    154.9322   1.2962965281e+02   3.9361003476e+01    0.3487588    0.2011607 -45.09  0.001244765    2.419    0.587
       169  -8.7742    228.3455    155.2393   8.7454916294e+01   5.7432607592e+00    0.1833527    0.1185419 -38.68 0.0005174595    1.642    0.391
       170 -10.1837     25.9649    154.5295   1.3090273733e+02   4.0023757788e+01    0.1543384    0.1062995  41.97 0.0004735123    1.566    0.361
       171  -9.4833     89.9621    153.4923   1.1618551488e+02   3.2373794418e+01     0.193863    0.1640155 -79.42 0.0005005423    1.110    0.099
       172 -10.9568    249.6891    150.8943   8.2950708757e+01   2.3719782866e+00    0.5909799    0.2856548 -35.93     0.002776    2.029    0.507
       173 -12.6938    248.5121    134.0988   7.9475168507e+01   4.9306637766e+00     1.326696    0.6997094 -20.57  0.006039984    1.993    0.498
       174 -10.9281    249.2700    140.9945   8.0880105576e+01   3.8161865325e+00    0.5599166    0.2459516  36.96  0.002384471    2.456    0.593
       175 -10.0804     96.1029    150.6600   1.1429391798e+02   3.2024694839e+01    0.3213696    0.2234571 -49.47  0.001307655    1.541    0.351
       176  -9.0244     99.2601    146.5862   1.1285631479e+02   3.2395375306e+01    0.2647647    0.1307297  32.62  0.001110522    2.470    0.595
       177  -8.8074     61.2007    151.4273   1.2258911313e+02   3.6836936537e+01    0.1880065    0.0989184  51.25 0.0009570089    1.883    0.469
       178 -10.9886     22.0443    149.0023   1.3126270634e+02   4.1565124045e+01     0.364139    0.1255728  39.17  0.001822174    2.770    0.639
       179 -11.9050     68.3215    144.3704   1.1992401887e+02   3.7469478942e+01    0.6373684    0.4050731  79.98  0.002407134    1.785    0.440
       180 -12.1662      8.8747    143.1220   1.3368869449e+02   4.3919481496e+01    0.4391646    0.2560662 -83.12  0.002824141    1.342    0.255
       181  -9.8023    235.9562    145.9836   8.4155882156e+01   5.6335901183e+00    0.2200855      0.14993  11.62 0.0005661404    1.647    0.393
       182  -9.5933    133.4456    141.1712   1.0376504577e+02   2.7424482515e+01    0.5075292    0.2404384 -54.59  0.002029601    2.318    0.569
       183  -8.9345     33.3222    141.2753   1.2789425974e+02   4.2188448546e+01    0.1100212   0.08381245 -47.97 0.0003103388    1.578    0.366
       184 -11.9887      3.2933    143.9067   1.3498374819e+02   4.4170535491e+01    0.4554295    0.2560624 -72.32  0.002960346    1.433    0.302
       185 -11.9463     16.9552    139.6021   1.3154644358e+02   4.4031765929e+01    0.4274805    0.2100161  53.34  0.002434197    2.039    0.510
       186 -10.9899     13.0712    137.1804   1.3222141329e+02   4.4870421506e+01    0.2190404    0.1468019  84.48  0.000345773    1.246    0.197
       187  -9.7868     41.3705    147.5221   1.2671594107e+02   3.9995014401e+01     0.204523    0.1721089  84.94 0.0005491626    1.055    0.052
       188 -10.1512    247.5457    144.5077   8.1922697001e+01   3.6475790630e+00    0.2622319    0.2024639   3.93 0.0008063705    1.243    0.195
       189 -11.3791     59.8612    136.3715   1.2081580508e+02   4.0340871127e+01    0.2636131    0.2103171 -82.60 0.0003176795    1.104    0.095
       190  -9.4011    108.5855    136.1185   1.0866848223e+02   3.3091340621e+01    0.2909898     0.221118  -9.63   0.00141117    2.059    0.514
       191 -10.3994     47.6867    136.1671   1.2380201259e+02   4.1820005105e+01    0.2413171    0.1938271 -39.94  0.001374833    1.572    0.364
       192 -11.7265      2.3240    131.6968   1.3424076873e+02   4.6843789130e+01    0.3654544    0.1745338 -75.41  0.001833113    1.596    0.373
       193 -10.0156     44.7791    130.3966   1.2374511560e+02   4.3433255617e+01    0.2557545    0.1422624 -87.85 0.0008366561    1.937    0.484
       194  -9.7635     59.1684    128.1048   1.1972696498e+02   4.2290343291e+01    0.1874768    0.1607258 -58.45 0.0003197777    1.190    0.160
       195 -12.4916     18.0931    122.2873   1.2949517383e+02   4.7741900169e+01    0.4174855    0.2998668 -36.48  0.002707822    1.829    0.453
       196 -10.4064     33.4728    127.9752   1.2628234099e+02   4.5127164581e+01    0.2387238    0.1390677 -84.14  0.001330063    1.585    0.369
       197  -9.5002    210.0074    125.7868   8.4126612776e+01   1.4089368950e+01    0.2442667    0.1993071 -29.34 0.0005477983    1.200    0.167
       198 -11.2130    244.0859    121.1069   7.7215098789e+01   7.6737832159e+00    0.4426292     0.375146  81.25  0.002490652    1.625    0.385
       199 -11.7809    248.5834    112.8967   7.4606991543e+01   7.9644981282e+00    0.5656103    0.4742458  -9.52  0.003289953    1.114    0.102
       200  -9.9999    249.6135    117.7581   7.5584240480e+01   7.0553896015e+00     0.238953    0.2250017  -7.14 0.0006792445    1.098    0.090
       201  -9.8951    231.8243    116.1908   7.8028714297e+01   1.0939891510e+01    0.2142755    0.1913339 -42.24 0.0007252237    1.202    0.168
       202 -12.6067     10.1994    107.2797   1.2983438381e+02   5.1656932273e+01    0.7268468    0.4465889 -12.91  0.004215057    2.670    0.625
       203 -12.3959      8.9006    112.7436   1.3080398971e+02   5.0534670132e+01    0.4848104    0.1813878 -54.69   0.00202505    2.375    0.579
       204  -8.6973    203.4973    111.5323   8.1845684558e+01   1.7918245137e+01     0.149838    0.1398324   4.23 0.0001076566    1.043    0.042
       205  -9.7228     35.3257    107.1292   1.2284267009e+02   4.9659819244e+01    0.1925156    0.1685089  60.93 0.0003456164    1.260    0.206
       206 -12.4921    247.5624    100.7801   7.1882823685e+01   9.9345323605e+00    0.8236267    0.5785748 -31.03  0.004350823    1.289    0.224
       207 -10.3820     16.9778     99.0192   1.2686793192e+02   5.3022998397e+01    0.1799562      0.14394 -73.27 0.0003272983    1.019    0.018
       208 -10.1053     21.6563     93.3213   1.2463619900e+02   5.3949904486e+01    0.2442136    0.1302479 -41.78  0.001157667    2.050    0.512
       209  -9.7456    167.8982    113.1121   8.9426994840e+01   2.5759648314e+01     0.327729    0.2670178 -80.45  0.001087055    1.569    0.362
       210 -10.0108    250.1840     86.8278   6.8138947162e+01   1.1392259535e+01    0.1925215    0.1560522   0.55 0.0005528355    1.333    0.250
       211 -10.4144    192.7815    248.8847   1.0972210112e+02  -4.8458177206e-01    0.2100537     0.137436  44.15  0.001126845    1.286    0.222
       212 -10.4994     17.9529     26.1568   1.0974149787e+02   6.8355082575e+01    0.2601385    0.1602406  48.31  0.001324163    2.689    0.628
       213 -11.7056    134.2850    248.6637   1.1952290269e+02   8.4744183697e+00    0.5225604    0.3673029  37.00  0.003675172    1.308    0.236
