#   1 NUMBER                 Running object number                                     
#   2 MAG_AUTO               Kron-like elliptical aperture magnitude                    [mag]
#   3 X_IMAGE                Object position along x                                    [pixel]
#   4 Y_IMAGE                Object position along y                                    [pixel]
#   5 X_WORLD                Barycenter position along world x axis                     [deg]
#   6 Y_WORLD                Barycenter position along world y axis                     [deg]
#   7 A_WORLD                Profile RMS along major axis (world units)                 [deg]
#   8 B_WORLD                Profile RMS along minor axis (world units)                 [deg]
#   9 THETA_WORLD            Position angle (CCW/world-x)                               [deg]
#  10 FWHM_WORLD             FWHM assuming a gaussian core                              [deg]
#  11 ELONGATION             A_IMAGE/B_IMAGE                                           
#  12 ELLIPTICITY            1 - B_IMAGE/A_IMAGE                                       
         1 -14.5630    157.3519     57.4780   7.7734203937e+01   3.8366023138e+01     1.446002     1.119588  53.23  0.001045133    1.202    0.168
         2 -14.9374    169.7531     42.7525   7.1367290686e+01   3.7415596162e+01     1.169974      1.06765  12.81  0.004137809    1.343    0.256
         3 -15.1610    191.2040      9.2695   5.9941075480e+01   3.6123919652e+01     2.702554    0.9057995  65.68  0.008629855    2.374    0.579
         4 -11.8097    125.0225    244.0779   1.2623148721e+02   6.1275172599e+00    0.2107807    0.1704955 -63.38 0.0005770427    1.414    0.293
         5 -18.8003     73.2631    230.1435   1.3518357645e+02   1.7236225632e+01     9.734989     7.296675 -80.29   0.05531389    1.287    0.223
         6 -11.2538    152.0660    197.0530   1.1292057536e+02   1.0699138443e+01       0.4045    0.3495493 -20.32  0.001295225    1.347    0.258
         7 -11.3041    153.2886    192.6593   1.1182041575e+02   1.1401976914e+01    0.3505179    0.2392772  59.80 0.0007613713    1.665    0.399
         8 -11.8946    150.1906    189.4333   1.1192393835e+02   1.2716022222e+01    0.4199377    0.2921505  63.06  0.001488613    1.691    0.409
         9 -19.2272     55.3254    102.5371   1.1946937200e+02   4.9692905364e+01     17.80018    0.9463229 -55.98   0.02675118   16.783    0.940
        10 -10.8282    121.1341    197.5204   1.2017218110e+02   1.6489186643e+01    0.2212861     0.193727 -67.03  0.001204868    1.179    0.152
        11 -10.9249    113.0017    195.8593   1.2180648583e+02   1.8344327473e+01    0.5062605    0.3416637  -9.38  0.001952725    3.193    0.687
        12 -10.3144    108.9805    240.6883   1.2909178901e+02   9.4699036522e+00    0.2268668    0.1652086 -31.28     0.001198    2.165    0.538
        13  99.0000     25.0024    225.2163   1.4418448904e+02   2.4546196297e+01    0.3423178   0.08326481 -62.24   0.00138122    3.698    0.730
        14 -12.0039    180.6068    193.5683   1.0587212079e+02   5.8144473717e+00     0.334989    0.2685266 -71.36  0.001679587    1.602    0.376
        15 -12.3156    164.1400    187.1570   1.0827512593e+02   1.0418142079e+01    0.4010922    0.2478865  45.59  0.001773733    1.564    0.361
        16 -12.2359    175.4206    186.0201   1.0551248085e+02   8.3873275127e+00    0.3536601     0.270133 -70.24  0.001680744    1.682    0.406
        17 -12.6429    170.7659    179.5575   1.0524074607e+02   1.0693563095e+01    0.5732771    0.3834481  70.80  0.002343361    2.254    0.556
        18 -11.0623    108.6031    183.7961   1.2083319015e+02   2.1941604439e+01    0.5562364    0.2686173  45.38 0.0007162304    1.996    0.499
        19 -10.8917     27.5984    184.0939   1.4006865615e+02   3.3402668112e+01    0.1641359    0.1397981 -89.85 0.0003357472    1.090    0.082
        20 -12.5689    204.4440    175.5689   9.7136647529e+01   4.6935693491e+00    0.4760711    0.4387299 -72.24  0.001051265    1.271    0.213
        21 -11.7032    196.7583    176.3853   9.8903740025e+01   6.0611222174e+00    0.3700862    0.3406644  64.89 0.0009811914    1.224    0.183
        22 -12.7438    192.1298    163.9107   9.7208645540e+01   9.5498725748e+00    0.8002087    0.4534211 -60.86  0.001935765    2.532    0.605
        23 -12.3395    189.2460    155.2960   9.5917459186e+01   1.1955069911e+01    0.5268649    0.4855121  22.19  0.001602462    1.127    0.113
        24 -11.5404    188.1259    175.4906   1.0055454940e+02   7.9891567305e+00    0.4987583      0.21606 -55.08  0.001641985    3.218    0.689
        25 -10.6999    185.0063    169.9881   1.0006156718e+02   9.7723097939e+00    0.3502676    0.2083564 -61.07  0.001109535    2.282    0.562
        26 -10.6760    131.1496    236.8341   1.2397672191e+02   6.4511846080e+00    0.1857299    0.1635048 -85.73 0.0003424461    1.245    0.197
        27 -11.2780    106.1096    206.3382   1.2504294690e+02   1.7183057735e+01    0.4236108    0.3071666 -40.00  0.002136082    1.757    0.431
        28 -11.9747    230.1728    166.8959   9.0286165528e+01   1.3965085937e+00    0.3776902    0.1761594 -49.26   0.00150464    2.359    0.576
        29 -11.2787    162.6270    168.0600   1.0469832351e+02   1.4887212134e+01    0.3529951    0.1906409  58.99  0.001271364    2.472    0.595
        30 -11.0428     22.7802    166.3784   1.3929162506e+02   3.8027952678e+01    0.2758039    0.1946125  -5.76  0.001193772    2.297    0.565
        31 -11.7807    103.6234    201.8150   1.2493350531e+02   1.8631691004e+01    0.2871574    0.2710364   3.15 0.0006988202    1.334    0.251
        32 -12.7443    103.3581    195.7268   1.2405646117e+02   2.0073732343e+01    0.5013267    0.3340434  76.51  0.001767116    1.810    0.448
        33 -10.2700     14.1539    157.2212   1.4034001669e+02   4.0942636503e+01    0.1777039    0.1403276 -60.64 0.0007280788    1.229    0.187
        34 -12.2961    165.6098    153.8929   1.0088746104e+02   1.7390399175e+01     0.470486    0.3263277  60.70  0.001385318    1.655    0.396
        35 -10.8074     30.9641    204.9236   1.4134687088e+02   2.8285324792e+01    0.1582671    0.1484596 -62.87 0.0006149759    1.414    0.293
        36 -11.2063    174.3884    148.6674   9.7681006813e+01   1.6611064093e+01    0.3656706    0.2995708 -80.51  0.001214338    1.475    0.322
        37 -11.6219    168.7325    200.1998   1.0975793333e+02   6.7922887305e+00    0.2575193     0.182801 -50.52  0.000872847    1.525    0.344
        38 -12.2087    160.5256    127.5641   9.5848480319e+01   2.4347109292e+01    0.5066059    0.3784983 -74.09  0.001612263    1.687    0.407
        39 -11.1389    168.0865    113.1464   9.0476332618e+01   2.5655084984e+01    0.4313821    0.3096394 -88.69  0.001389278    1.956    0.489
        40 -13.6554    118.8141    110.0282   1.0204116201e+02   3.7416310833e+01    0.7841639    0.4808719  54.12  0.003284444    1.824    0.452
        41 -10.8177    205.3856    110.1221   8.2123778761e+01   1.7517778600e+01    0.3209847      0.22648  49.87 0.0009196092    1.477    0.323
        42 -10.3516    139.1088    248.7515   1.2397664823e+02   2.8695106936e+00     0.406149    0.2203385 -58.02  0.002014598    2.250    0.556
        43 -12.8308    155.0568    187.4420   1.1041350914e+02   1.2180544082e+01    0.4649543     0.430433  76.31  0.001120758    1.137    0.121
        44 -11.7278    168.0184    242.9893   1.1722005510e+02  -1.1079516640e+00    0.2376162    0.1868574 -44.12 0.0009249322    1.479    0.324
        45 -10.7123    147.0854     81.1767   8.6710354710e+01   3.6902140656e+01    0.2320511    0.2033568  25.97 0.0004573817    1.240    0.194
        46 -10.4875     93.1515     79.1427   1.0084188363e+02   4.8816909535e+01     0.208245    0.2002173  -2.66 0.0006206073    1.064    0.060
        47  -9.8313    122.6627     76.7323   9.1551566226e+01   4.3299202637e+01    0.1501539    0.1125335  18.29 0.0002061068    1.595    0.373
        48 -11.7558    150.9979    182.7350   1.1043766765e+02   1.4030640453e+01    0.3414674    0.2776934  85.20 0.0004868964    1.483    0.326
        49 -10.3255    133.6512    246.4207   1.2477492953e+02   4.2230155502e+00    0.1280529     0.110352  52.95 0.0001662928    1.040    0.038
        50 -13.0429    174.3539     35.2519   6.8626320776e+01   3.7256328452e+01    0.3798164    0.3491499 -28.97 0.0008999279    1.293    0.226
        51 -10.8053     13.4643     59.6510   1.2372320628e+02   6.2515319022e+01    0.1996873    0.1544866 -35.33 0.0004170009    1.006    0.006
        52 -12.0032    188.3660     31.0750   6.5511714493e+01   3.4361526417e+01    0.3315821    0.1965002  58.39  0.001232146    1.546    0.353
