#   1 NUMBER                 Running object number                                     
#   2 MAG_AUTO               Kron-like elliptical aperture magnitude                    [mag]
#   3 X_IMAGE                Object position along x                                    [pixel]
#   4 Y_IMAGE                Object position along y                                    [pixel]
#   5 X_WORLD                Barycenter position along world x axis                     [deg]
#   6 Y_WORLD                Barycenter position along world y axis                     [deg]
#   7 A_WORLD                Profile RMS along major axis (world units)                 [deg]
#   8 B_WORLD                Profile RMS along minor axis (world units)                 [deg]
#   9 THETA_WORLD            Position angle (CCW/world-x)                               [deg]
#  10 FWHM_WORLD             FWHM assuming a gaussian core                              [deg]
#  11 ELONGATION             A_IMAGE/B_IMAGE                                           
#  12 ELLIPTICITY            1 - B_IMAGE/A_IMAGE                                       
         1 -11.6603     80.4383     23.3606   8.9212313856e+01   5.9683981590e+01    0.5279956    0.2402401  35.22 0.0001623393    2.148    0.534
         2  -8.2805    144.8017     23.4424   7.3735700373e+01   4.6034418581e+01    0.1970049    0.1858036 -30.19  0.000377412    1.190    0.160
         3  -9.0766     46.1845     21.0989   1.0014336677e+02   6.5280778292e+01    0.4127152    0.1820355 -28.05  0.001830287    2.171    0.539
         4  -8.7632    231.1262     16.7083   6.0513380796e+01   2.6114333499e+01     0.299895     0.166854 -39.47  0.001050215    1.788    0.441
         5  -9.4501     79.3042     12.9751   8.5488146233e+01   6.1008428736e+01    0.3784348    0.1960242  49.20  0.001351806    1.810    0.448
         6  -9.2566     74.4576     13.4985   8.7166114691e+01   6.1815274146e+01    0.4069685     0.222592   8.46  0.002032348    2.339    0.573
         7  -9.3870     64.1105     14.2821   9.0829130734e+01   6.3465639535e+01    0.3687717    0.1955215  17.64  0.001579486    2.214    0.548
         8  -8.2940     96.5108     12.8361   8.0681817572e+01   5.7746240066e+01    0.3814009    0.1857707  13.35  0.001544475    3.445    0.710
         9  -9.5332    134.3392     13.2468   7.2507602276e+01   4.9516498180e+01    0.3955403    0.2160352  33.45  0.001895932    2.096    0.523
        10  -9.2095     31.8601     10.9908   1.0162538376e+02   6.8304500551e+01    0.3294837    0.1739709  10.56 0.0004370131    2.116    0.527
        11  -9.1231     32.0244      6.1796   9.9415324169e+01   6.8847307990e+01    0.2073236    0.1419064   7.97 0.0003753182    1.203    0.169
        12  -9.6222     46.5710      6.5056   9.3756310682e+01   6.6926032943e+01    0.2643811    0.1703813  25.61 2.225754e-05    1.338    0.253
        13  -9.1197     41.1404      5.8433   9.5555199133e+01   6.7736711412e+01    0.4698542    0.2115601 -11.93  0.002262568    2.937    0.660
        14  -9.3590    130.9802      7.3814   7.1262411810e+01   5.0816663924e+01    0.3889798    0.2396462 -26.30 0.0009724502    1.846    0.458
        15  -7.8486    134.2015      3.1735   6.9355067571e+01   5.0433808431e+01     0.185228     0.144313  46.83 0.0002949382    1.146    0.127
        16  -8.5937     71.8116      8.4629   8.5936002848e+01   6.2772162682e+01    0.1815462    0.1254816  -6.19 0.0005010613    1.404    0.288
        17  -8.2009    156.1342      7.3856   6.7090221055e+01   4.4934845725e+01    0.1960385    0.1478078 -33.26  0.000569127    1.516    0.340
        18 -10.1243      7.7189      5.4146   1.1006334427e+02   7.1382325752e+01    0.4796303    0.2077522   8.62  0.002579743    2.930    0.659
        19  -8.0407    100.7912      6.6376   7.7331727833e+01   5.7438938273e+01    0.2237506    0.1360246  21.19 0.0008762245    1.776    0.437
        20  -9.1416     76.4210      5.7588   8.3440865644e+01   6.2209584031e+01    0.3256992    0.2252245 -21.58  0.001719273    1.520    0.342
        21  -7.9335     84.2191      5.2112   8.1013800603e+01   6.0823194019e+01    0.2679108    0.1560345 -14.29 0.0009224434    1.828    0.453
        22  -8.9386    111.0314      4.5292   7.4265662816e+01   5.5469004790e+01    0.2024794    0.1555812  21.02 0.0006581289    1.306    0.234
        23  -7.6124     91.9402      4.9747   7.8886781156e+01   5.9356861422e+01    0.2034472    0.1150884  31.17 0.0008792373    1.665    0.399
        24  -7.6655    175.6085      3.7206   6.3438188979e+01   4.0603275347e+01    0.1564256    0.1141896 -47.20 0.0003864829    1.482    0.325
        25  -7.9469    152.5526      3.5031   6.6510966515e+01   4.6127724168e+01    0.2480297   0.08331891  56.44   0.00103724    2.315    0.568
        26  -9.2344    119.2432      6.8433   7.3351555728e+01   5.3493672429e+01    0.2192817    0.1731371  40.93 0.0002165191    1.114    0.102
        27  -7.9624     56.5661      3.3049   8.8729390630e+01   6.5763421158e+01    0.2113222    0.1088086  27.26 0.0009674748    1.803    0.445
        28  -8.3193    143.1804      2.1929   6.7566146352e+01   4.8438483191e+01    0.1842203    0.1452993  52.65 0.0003189137    1.117    0.105
        29  -8.7040    105.2032      1.9336   7.4612805882e+01   5.6909577679e+01    0.3173381    0.1084884  44.90  0.001388758    2.408    0.585
        30  -8.2801    125.0501     10.3387   7.3354748848e+01   5.1897364162e+01    0.2124028    0.1512744  34.94 0.0004904337    1.360    0.265
        31  -8.0210      3.2509      1.5033   1.1050441977e+02   7.2236626574e+01    0.1646973   0.08551261  24.50 0.0006522918    2.001    0.500
        32  -8.8486      2.1521    109.7460   1.3948220958e+02   5.2438464102e+01    0.2777376   0.09982906 -45.99  0.001324436    2.571    0.611
        33  -7.8154    213.3544    250.3014   1.1340669250e+02  -9.0185163877e+00    0.1275968   0.08265783  12.95  0.000703831    1.705    0.413
        34  -8.0394    133.8925    106.1771   1.0087104649e+02   3.4993947011e+01    0.2821363    0.2036193 -14.29 0.0005903911    1.942    0.485
        35  -8.1203    109.6939    106.5532   1.0741412843e+02   3.9905856218e+01    0.2834136     0.148138  37.04  0.001131747    2.096    0.523
        36  -9.1716     14.4006    105.4897   1.3534539566e+02   5.2589196248e+01    0.3537856    0.1626073 -30.58  0.001634317    3.064    0.674
        37  -7.6769     93.8602    103.3704   1.1106652308e+02   4.3512492794e+01    0.2009322    0.1381927  25.45 0.0008061045    1.722    0.419
        38  -9.6355     15.9216     95.1206   1.3306971655e+02   5.4754609603e+01    0.3181901    0.2505776 -54.52  0.000970518    1.026    0.025
        39 -10.3501     11.9904     93.7943   1.3404031786e+02   5.5308338927e+01    0.6288984    0.2568221 -33.12    0.0028315    3.147    0.682
        40  -8.7232    243.5114     93.5241   7.6061937244e+01   1.1970044272e+01    0.1411156    0.1253842 -57.12  0.000810054    1.013    0.013
        41  -7.6527     83.7236     93.5646   1.1146178425e+02   4.7334796930e+01    0.2613963    0.1399065  31.39  0.001134061    2.135    0.532
        42  -8.6283     44.2824     92.0642   1.2346345825e+02   5.2932991941e+01    0.2831186    0.1723737 -22.49  0.001422873    2.096    0.523
        43  -8.5956      2.7429     91.0344   1.3640483449e+02   5.6457336157e+01    0.2364195     0.113789 -52.88  0.001358915    1.548    0.354
        44  -8.0289     96.8684     90.0358   1.0655240441e+02   4.5823816127e+01    0.3863263    0.2299507   9.65   0.00137965    3.402    0.706
        45  -7.7952     62.6130     88.2497   1.1662418402e+02   5.1566396106e+01    0.1989898    0.1070828 -41.97  0.000689495    1.697    0.411
        46 -10.2805     37.2632     81.2375   1.2316349985e+02   5.5938586435e+01    0.6526412     0.343146 -16.88  0.002895573    3.035    0.670
        47  -7.7405     66.1764     84.5951   1.1449601888e+02   5.1848088426e+01    0.1769824    0.1270381  14.39 0.0006233819    1.630    0.387
        48  -7.6139    129.9988     97.1540   9.9403216158e+01   3.7730642235e+01     0.255591    0.1768282  19.90  0.001076561    1.998    0.499
        49  -7.7152    126.4717     83.5021   9.6412401076e+01   4.1211887395e+01    0.1490474    0.1434047   4.55  8.74824e-06    1.046    0.044
        50  -8.8062     88.1074     79.0309   1.0597761729e+02   4.9576719218e+01    0.4681164    0.2699341  14.79  0.001838966    2.921    0.658
        51  -9.7352      7.5340     77.7850   1.3239392203e+02   5.8956976162e+01    0.4813739      0.20477 -30.02  0.002244459    2.799    0.643
        52  -8.0094    184.4456     77.9841   8.1900003616e+01   2.8493825929e+01    0.2179114    0.1476956 -37.06 0.0005909037    1.515    0.340
        53  -7.2934    147.2402     78.3407   8.9778604067e+01   3.7461493365e+01    0.1466223    0.1184394   1.76 0.0002907068    1.556    0.357
        54  -9.0169     49.0670     77.0313   1.1808080173e+02   5.5553764264e+01    0.3646486    0.2212089 -12.10  0.001790139    2.267    0.559
        55  -7.1751    120.3601     76.3018   9.5875941180e+01   4.3878650630e+01    0.1532924    0.1137214  11.86 0.0005429404    1.720    0.419
        56  -9.1250     28.3300     69.2779   1.2321524257e+02   5.9178601524e+01    0.2687396    0.1554731 -28.82  0.001248587    1.741    0.426
        57  -9.3830     23.8690     73.8087   1.2592388203e+02   5.8641606166e+01    0.5114555    0.1354841 -44.52  0.002058354    3.023    0.669
        58  -8.0778     23.3718     69.1946   1.2495651614e+02   5.9604755614e+01    0.2306715    0.1438793 -60.97  0.000558239    1.545    0.353
        59  -7.8655     74.8749     74.1216   1.0866673413e+02   5.2677235346e+01     0.187177    0.1849076 -28.31 0.0005008755    1.179    0.152
        60  -7.5663    129.6432     68.7438   9.1164943805e+01   4.3200772121e+01    0.1496514     0.109973  22.95 0.0006965779    1.614    0.380
        61  -8.6443     83.0699     64.9955   1.0319435069e+02   5.3059280117e+01    0.5134842    0.2894109  -3.36  0.001789606    4.027    0.752
        62  -9.4803    239.7184     65.2152   7.0213789341e+01   1.7459855307e+01     0.248172    0.2206327  89.71 0.0003878643    1.111    0.100
        63  -9.0846     36.0000     61.0009   1.1814946251e+02   6.0066949860e+01    0.4493679    0.1337491 -49.64  0.001873072    2.745    0.636
        64  -8.2827     38.4921     57.5360   1.1619313693e+02   6.0457209844e+01    0.1922459    0.1459115  -2.03 0.0008402349    1.335    0.251
        65  -8.8188     32.4603     62.2122   1.1979575016e+02   6.0177890120e+01    0.3651278   0.09493257 -51.45  0.001436493    3.097    0.677
        66  -8.9283     16.4905     64.0153   1.2612284302e+02   6.1136840061e+01    0.2896988   0.08879544 -35.29  0.001106601    3.895    0.743
        67  -7.4044    148.3319     63.3308   8.5119528994e+01   3.9780732463e+01    0.1535398    0.1130545  21.46 0.0007052031    1.722    0.419
        68  -9.2854     62.7257     61.3976   1.0875361350e+02   5.6824781120e+01    0.3629818    0.2232834  20.77  0.001132728    1.831    0.454
        69  -8.2510     57.5658     62.3800   1.1085032431e+02   5.7341178383e+01    0.3100195    0.1467324  41.15  0.001449121    2.483    0.597
        70  -9.1680    244.5749     61.0721   6.8701923161e+01   1.7024184881e+01    0.2700438    0.1660215  48.78  0.001339243    2.011    0.503
        71  -9.4010     26.2627     60.1692   1.2150025663e+02   6.1116013086e+01    0.2702135    0.1798057   6.46  0.001693962    1.687    0.407
        72  -8.0087    110.9948     58.5742   9.2837351384e+01   4.8911958243e+01    0.2939154    0.1662774  30.19  0.001261288    2.116    0.527
        73  -8.2905     98.0195     57.1560   9.6049904321e+01   5.1718222999e+01    0.4088441    0.2370897  -4.85  0.001565204    3.167    0.684
        74 -10.2276     74.8714     50.3632   1.0095372197e+02   5.6887888462e+01    0.4401825    0.2806848 -12.85 0.0003958321    1.835    0.455
        75  -7.2461     88.3410     54.3098   9.8007622256e+01   5.3967110610e+01    0.1406008   0.09838382   5.89 0.0007044731    1.693    0.409
        76  -9.0729     45.3240     49.1298   1.1095040465e+02   6.1191305410e+01    0.3879597    0.2224596 -13.70  0.001678248    2.161    0.537
        77  -8.1400    118.3414     51.0172   8.8417696036e+01   4.8537627528e+01    0.2371247    0.1859942  46.51  0.000603082    1.214    0.177
        78  -7.8509    106.7835     48.8759   9.0775980080e+01   5.1280398616e+01    0.2940294    0.1529031  27.08  0.001167348    2.678    0.627
        79  -7.4628     40.3153     49.6939   1.1301818234e+02   6.1658447647e+01    0.1039372   0.09679098 -83.59 0.0002734253    1.625    0.385
        80  -9.8676     12.7044     45.2271   1.2240047687e+02   6.4889732875e+01    0.5946563    0.2592363 -26.29  0.003034946    2.517    0.603
        81  -9.2944     58.9321     40.3096   1.0285067900e+02   6.0859901740e+01    0.4999628    0.2602461 -12.97  0.001643002    2.952    0.661
        82  -8.0960     91.9799     37.0051   9.0838923337e+01   5.5860738396e+01    0.2944866    0.1674474 -48.36  0.001252904    2.410    0.585
        83 -10.6473     83.1360     40.1693   9.4666792329e+01   5.7037437574e+01    0.3991732    0.2478575 -10.47 0.0002567124    1.918    0.479
        84  -8.7655     87.8506     37.8643   9.2380342163e+01   5.6511893778e+01    0.2991887    0.2015673  16.82 0.0007581271    1.608    0.378
        85  -9.1006      1.9567     44.0559   1.2639029901e+02   6.5765064936e+01    0.2568921   0.08894108 -43.92  0.001369946    2.026    0.507
        86  -9.3856      6.7681     33.6062   1.2123602698e+02   6.7277500528e+01    0.3334597     0.183178  -1.19  0.001266958    1.991    0.498
        87  -8.7402      2.5251     31.5302   1.2238938744e+02   6.7885036505e+01    0.1841477    0.1622409  29.40  0.001055117    1.638    0.389
        88  -8.9357      1.3047     28.3558   1.2188397997e+02   6.8476748980e+01    0.3941326   0.07017391 -41.82  0.001662669    3.521    0.716
        89  -7.8180    112.9559     42.5096   8.6975297128e+01   5.0909176745e+01    0.2102315   0.09792779  33.59 0.0008095237    2.665    0.625
        90  -9.7809    136.7153     39.2764   8.0286151035e+01   4.6044845655e+01    0.2601863     0.216976  51.77 0.0002977447    1.099    0.090
        91  -7.3954    124.0362     39.9543   8.3374901961e+01   4.8845355027e+01    0.1605625    0.1516991  19.27  0.000538234    1.055    0.053
        92  -8.8236     35.7516     37.9974   1.1076371199e+02   6.4087647441e+01    0.2460171    0.1461235 -40.87 0.0009581986    1.509    0.337
        93  -8.8922     38.4856     35.5027   1.0877826644e+02   6.4179529585e+01    0.2792967    0.1648432  16.33  0.001359768    1.778    0.437
        94  -9.4510     69.9033     36.3676   9.7569868678e+01   5.9791192821e+01    0.6029786    0.2940436  18.15  0.002389799    3.456    0.711
        95  -7.8395     18.7331     35.6741   1.1687176262e+02   6.6061416448e+01    0.1940778    0.1200579 -30.65  0.000178768    1.282    0.220
        96  -9.0525     23.2818     35.8423   1.1504350010e+02   6.5647507230e+01    0.2527876    0.2141917  -7.28  0.001303176    1.196    0.164
        97  -9.0529     22.0861     32.1765   1.1424402081e+02   6.6337815682e+01    0.2823789    0.1908482  -3.55  0.001110955    1.400    0.286
        98  -7.8780    105.5456     36.5277   8.6868277562e+01   5.3252526941e+01    0.1335842    0.1184121  23.24 0.0008082095    1.015    0.015
        99  -8.8564     56.1397     34.8863   1.0184214384e+02   6.2054722655e+01    0.3107642    0.1806662 -18.19 0.0009477813    1.804    0.446
       100  -9.0617     41.9532     27.5672   1.0439199554e+02   6.4945231952e+01    0.2892103    0.1710227 -44.08  0.001293334    1.927    0.481
       101  -8.9004     61.6830     27.0399   9.6824639791e+01   6.2327110148e+01    0.2803595    0.1648091   9.53 0.0009273834    2.026    0.506
       102  -8.4920    174.5186    249.5001   1.2056725999e+02  -2.5005457861e+00    0.1275249    0.1060298  35.46 0.0008101501    1.035    0.034
       103  -8.7302     28.9571     21.0582   1.0709449667e+02   6.7320434609e+01    0.2378836    0.1478179   1.72 0.0007788195    1.569    0.363
       104  -8.8965     25.5874     25.2353   1.1017544377e+02   6.7067159538e+01    0.3382607    0.1325563 -27.36  0.001583438    2.823    0.646
       105  -9.3996    200.4615    247.3107   1.1532711765e+02  -6.5185202957e+00    0.2235072    0.1704451   2.57  0.001058612    1.437    0.304
       106  -8.2389    112.4659    245.9754   1.3194842015e+02   8.6016381390e+00     0.168941     0.120935 -65.73 0.0008004165    1.560    0.359
       107  -7.7905    128.6313     22.6170   7.6655448002e+01   4.9880835652e+01     0.205443    0.1356593  32.58  0.001075541    1.584    0.369
       108  -8.1634     92.1301     21.1413   8.4956731559e+01   5.7759944901e+01    0.2580517    0.1425447   8.30  0.001173588    2.587    0.613
       109  -8.3582    140.1343     19.9581   7.3530120327e+01   4.7504621169e+01    0.1982519    0.1707452  50.37 0.0004672821    1.046    0.044
       110  -8.3410      9.4686     19.8193   1.1516771146e+02   6.9252839758e+01    0.2179564    0.1263596   2.18  0.001062865    1.722    0.419
       111  -7.3574    118.3126     24.3267   7.9484301185e+01   5.2000058212e+01    0.1390502   0.08996642  27.94 0.0007041977    1.665    0.399
       112  -8.3077      5.2733     18.9059   1.1673876267e+02   6.9692146944e+01    0.1500031    0.1012206 -28.25 0.0003491965    1.085    0.078
       113  -7.7145    118.0000    240.8742   1.3027925760e+02   8.6247063561e+00    0.1845215   0.07242355 -58.04 0.0007946721    2.889    0.654
       114  -8.4366    127.5724     16.8399   7.4984844803e+01   5.0715395268e+01    0.2271729    0.1612329  54.30 0.0003701508    1.221    0.181
       115  -7.0765     37.2802    239.3205   1.4496643840e+02   2.0730279595e+01   0.09768391   0.08228131 -67.02 0.0002421517    1.584    0.369
       116  -7.5932    249.2923    237.6494   1.0480751618e+02  -1.2798701501e+01    0.1005104   0.09782752 -75.52 0.0007029517    1.674    0.403
       117  -9.4763    188.0586    234.0433   1.1556877879e+02  -2.3920393655e+00    0.3411033    0.1922411 -52.14  0.001684704    2.268    0.559
       118  -7.1152     20.3049    219.2883   1.4646829722e+02   2.6696803710e+01   0.09882385    0.0801131 -64.31 0.0002443164    1.568    0.362
       119  -7.2870    134.2576    218.3561   1.2394322987e+02   1.0117018385e+01    0.1262518      0.10812 -12.36 0.0003743529    1.615    0.381
       120  -6.9321    151.3009     13.2897   6.9556713425e+01   4.5533029057e+01    0.1328852   0.08803926  40.21 0.0002173403    1.563    0.360
       121 -10.0505    168.3477    208.9687   1.1529887718e+02   5.6020517067e+00    0.2405864    0.2188215  43.06 0.0002165224    1.008    0.007
       122  -7.6684     42.7814    210.2025   1.4155935039e+02   2.6021732005e+01    0.1511172    0.1247165 -75.10 0.0004466558    1.290    0.225
       123  -8.5192     11.8562    207.0599   1.4710602270e+02   3.0107661039e+01    0.1880062    0.1184455  76.08  0.001239518    1.261    0.207
       124  -7.6486    169.4905    194.2406   1.1238344951e+02   8.2480003303e+00     0.181205    0.1410853 -64.65 0.0003037683    1.498    0.332
       125  -8.6371    115.5974    153.0715   1.1671986722e+02   2.8028630210e+01    0.2428188     0.215016  37.02 0.0003387132    1.225    0.183
       126  -8.2947    181.0543    146.0339   9.9740932031e+01   1.5821047982e+01    0.2235053    0.2205844 -37.21  0.001199213    1.022    0.022
       127  -8.2280    121.2886     15.3462   7.5791711223e+01   5.2269827281e+01    0.1352512   0.08638915  29.70 0.0007024038    1.656    0.396
       128  -9.2184     67.2662    144.6759   1.2749956606e+02   3.7990144743e+01    0.4278942    0.2915289  72.44  0.002142242    1.742    0.426
       129  -8.2835    227.8100    140.3450   8.9210800608e+01   6.8232935298e+00    0.2488991    0.1833408 -46.49 0.0007216825    1.303    0.233
       130  -8.0657      5.1638    133.6181   1.4177344935e+02   4.6919861212e+01    0.1391567      0.11082 -14.88  0.000951998    1.748    0.428
       131  -7.0691    180.2948    130.2986   9.6175527125e+01   1.9299895092e+01    0.1535263    0.1258843   3.80            0    1.568    0.362
       132  -7.5003    143.3013    126.9572   1.0386745647e+02   2.8393032831e+01    0.2814932    0.1797242   8.92 0.0009094478    3.511    0.715
       133  -9.4490    245.3465    121.1012   8.1959118568e+01   6.7452727731e+00    0.2468309    0.2278018  35.98 0.0003520473    1.230    0.187
       134  -7.1079     85.3190    121.3615   1.1790195207e+02   4.0851175721e+01     0.151151    0.1084813 -25.79 0.0007042347    1.769    0.435
       135  -8.1337     12.5005    121.0062   1.3825532261e+02   4.9251212491e+01    0.1851909   0.06034045 -51.11 0.0008105339    2.562    0.610
       136  -6.9613    231.2939    120.3114   8.4054984331e+01   9.8170396480e+00    0.1412045    0.1145775  -0.06 0.0001825644    1.592    0.372
       137  -7.3932    180.8454    120.3751   9.3615800858e+01   2.1231514395e+01    0.2230504    0.1447855  40.03  0.000938481    1.683    0.406
       138  -7.1842    119.6620    118.6761   1.0783371232e+02   3.5238986419e+01    0.1567739    0.1230793  -7.25  0.000705109    1.720    0.419
       139  -7.2760    100.5237    118.5460   1.1299259034e+02   3.8919582643e+01    0.1479505    0.1399916 -48.68 0.0001013706    1.031    0.030
       140  -7.3667    203.3585    114.2989   8.7599665582e+01   1.7194537428e+01    0.1544443    0.1219258  14.08 0.0007035506    1.709    0.415
       141  -7.4091    142.6599    111.6599   1.0012828316e+02   3.1884725089e+01    0.1622355     0.126591   1.94 0.0007049883    1.768    0.434
       142  -7.4992     39.0000    110.0314   1.2892983517e+02   4.9485608268e+01    0.2182289   0.06252558 -60.97 0.0007978311    2.911    0.656
