#   1 NUMBER                 Running object number                                     
#   2 MAG_AUTO               Kron-like elliptical aperture magnitude                    [mag]
#   3 X_IMAGE                Object position along x                                    [pixel]
#   4 Y_IMAGE                Object position along y                                    [pixel]
#   5 X_WORLD                Barycenter position along world x axis                     [deg]
#   6 Y_WORLD                Barycenter position along world y axis                     [deg]
#   7 A_WORLD                Profile RMS along major axis (world units)                 [deg]
#   8 B_WORLD                Profile RMS along minor axis (world units)                 [deg]
#   9 THETA_WORLD            Position angle (CCW/world-x)                               [deg]
#  10 FWHM_WORLD             FWHM assuming a gaussian core                              [deg]
#  11 ELONGATION             A_IMAGE/B_IMAGE                                           
#  12 ELLIPTICITY            1 - B_IMAGE/A_IMAGE                                       
         1 -15.1446     13.4856     59.9840   9.7434684454e+01   6.5834294644e+01     1.192868    0.6518166 -38.86  0.003812982    2.042    0.510
         2 -15.4089    163.7858     62.3972   4.4847981699e+01   3.4964109817e+01      1.25335    0.8957806 -28.79  0.004588943    1.429    0.300
         3 -15.4782    176.2326     41.8229   3.6691941099e+01   3.4790865962e+01     1.031347    0.9218825 -65.24  0.003794004    1.041    0.040
         4 -12.9477    189.6741     14.7415   2.7131985903e+01   3.4581634695e+01    0.2259835    0.2183545  22.84 0.0009090165    1.255    0.203
         5 -14.9815    202.4040      6.4941   2.3898792784e+01   3.2305322343e+01    0.7856405    0.4528484  21.16  0.003391431    2.968    0.663
         6 -10.2785    131.6446      4.7496   2.9324374864e+01   5.0998884379e+01    0.1494606   0.09963886  48.81 0.0006950069    1.600    0.375
         7 -10.5923      5.9090    139.4233   1.0846834813e+02   4.6035005185e+01    0.1266827    0.1206467 -16.70 0.0003695055    1.375    0.273
         8 -13.2179    167.8964    212.5462   7.6404404955e+01   9.8014439670e+00    0.2934267    0.2059907  28.80 0.0007038254    1.139    0.122
         9 -15.8361    186.8608    242.4671   7.6968733311e+01   3.7670571817e+00     1.871922     1.085666  36.63   0.01302759    1.507    0.336
        10 -15.6291    174.4992    219.4401   7.6143544733e+01   8.0072382454e+00       1.3938    0.6915696  27.49  0.007972623    1.736    0.424
        11 -20.5977     78.4389    168.0261   9.0152229387e+01   3.1016680020e+01     12.07516       6.5681 -67.72    0.0586337    2.047    0.511
        12 -12.6645    160.3859    128.1460   6.2945821460e+01   2.4392451968e+01    0.3553281    0.2754566 -50.01  0.001821918    1.392    0.282
        13 -11.7841      7.7191    219.7251   1.1070367797e+02   2.8768619880e+01    0.1831651   0.09935709  65.68 0.0005668199    1.491    0.329
        14 -10.3400    218.4163    124.4988   5.1928560574e+01   1.3964078150e+01    0.1250867    0.1086994 -19.50 0.0001130885    1.051    0.049
        15 -12.5606    152.3276    210.6631   7.9098935458e+01   1.2265395668e+01    0.3565783    0.1833919 -56.47  0.001829289    3.041    0.671
        16 -11.9027     33.0000    222.9382   1.0543245476e+02   2.5736986197e+01    0.2714674    0.1319638 -82.00  0.001126918    2.311    0.567
        17 -11.9684    176.8664    121.1249   5.8093176683e+01   2.2290452924e+01    0.2762037    0.2269944 -65.99 0.0007454724    1.517    0.341
        18 -13.0896    151.8120    120.3526   6.2988407172e+01   2.7565256281e+01    0.3966008    0.2737994 -18.69  0.001448996    1.891    0.471
        19 -11.5739     30.3164    221.6693   1.0595175537e+02   2.6242274829e+01    0.2700697    0.1138438  45.34 0.0006895517    1.625    0.384
        20 -11.8072     38.6246    115.8188   9.5393637637e+01   4.8877771410e+01    0.2911527    0.2187306   1.46 0.0007405052    1.806    0.446
        21 -10.7455     20.2154    203.8118   1.0745704921e+02   3.0607774290e+01    0.1504066    0.1177731  55.26 0.0003604231    1.074    0.069
        22 -12.0318    167.1711    112.1767   5.7846286117e+01   2.5809466714e+01    0.3315112    0.2678398 -76.17  0.001098443    1.584    0.369
        23 -12.9692     11.4225    205.9964   1.0952665610e+02   3.1010955557e+01    0.3547835    0.2102664  29.82   0.00147535    1.549    0.354
        24 -11.2452     31.9600    109.0527   9.6917146246e+01   5.1368160533e+01    0.2030111    0.1872302  78.92  0.000460099    1.070    0.065
        25 -13.2521    146.1322    105.3676   6.0569215889e+01   3.1613921867e+01    0.3849535    0.3558165  -9.38 0.0004446423    1.177    0.150
        26 -10.4911     25.4374    108.4794   9.9306364067e+01   5.2177320825e+01    0.2091202    0.1723598  55.08 0.0009339025    1.143    0.125
        27 -12.0909     24.2397    104.8817   9.9330743270e+01   5.3226498149e+01    0.2565563    0.2467485 -55.89  0.000907818    1.204    0.169
        28 -10.3403    154.2722    102.3441   5.8013778588e+01   3.0370660778e+01    0.1470075    0.1165732   2.32 0.0005780411    1.617    0.382
        29 -11.1489     16.5027    205.8819   1.0837817599e+02   3.0561101775e+01    0.2633745        0.145 -81.67  0.001216209    1.926    0.481
        30 -10.3153      5.0160    203.1673   1.1089085775e+02   3.2130102547e+01    0.1985216   0.07564832  51.75  0.001071324    1.810    0.448
        31 -13.6163    192.3644    194.2009   6.9264675754e+01   8.7269055558e+00    0.7393956    0.4210896 -58.53    0.0031159    4.968    0.799
        32 -11.3460    188.4514     90.9873   4.8728160676e+01   2.4721488225e+01    0.4064661    0.2017022 -63.03  0.001236365    4.785    0.791
        33 -12.5360    210.9715    198.6057   6.6831012592e+01   5.6033450737e+00     0.218691    0.1626822  18.80 0.0005395711    1.101    0.091
        34 -10.9751    176.3237     91.1103   5.0799364969e+01   2.7375033770e+01    0.2000425    0.1715217 -41.45 0.0003884083    1.118    0.105
        35 -11.6354    181.6302    195.7488   7.1417221022e+01   1.0079316481e+01    0.1817618    0.1444628 -41.99 0.0005725418    1.579    0.367
        36 -12.7211     38.2982    243.5842   1.0523112883e+02   2.1670440194e+01    0.2810217    0.1089974  46.41  0.001645407    1.713    0.416
        37 -14.3459      6.9697     75.5132   1.0322776840e+02   6.2237116956e+01    0.5480411    0.4735038   1.94  0.001912861    1.367    0.268
        38 -11.6156    181.2910    192.0071   7.0891183806e+01   1.0635374357e+01    0.1911622    0.1723491 -12.24 0.0004733714    1.228    0.186
        39 -14.3133      7.4883     71.5251   1.0247293140e+02   6.3243444305e+01    0.4587692    0.4075865 -50.46  0.001698448    1.188    0.158
        40 -11.8397    184.5329     84.5062   4.7675111098e+01   2.6589229841e+01    0.2477103    0.2440935 -32.31 0.0008869458    1.049    0.047
        41 -12.6230    237.3385    188.6944   6.1174378055e+01   3.2618033751e+00    0.3954701     0.158895 -33.51  0.002179902    2.425    0.588
        42 -15.2604    151.0218     75.6937   5.1248731839e+01   3.5926533151e+01     1.492415     1.038962   5.88  0.004760373    2.319    0.569
        43 -10.9635      3.8717    223.3275   1.1158863402e+02   2.8457996184e+01    0.1419402   0.09821357  48.76 0.0004701311    1.047    0.045
        44 -12.0545    141.8695     75.3442   5.3069674601e+01   3.8233220310e+01    0.2773926     0.205337 -57.44 0.0006350767    1.423    0.297
        45 -14.5120    167.7429     56.5884   4.2428655078e+01   3.4859126196e+01    0.7281914    0.5933612 -27.11 0.0007190629    1.261    0.207
        46 -11.4383     25.5353    181.8172   1.0516279989e+02   3.4578595918e+01    0.3147769    0.1608352 -60.79  0.001644704    2.331    0.571
        47 -11.0577     29.2772    171.9260   1.0361244719e+02   3.6348553037e+01    0.1634991    0.1360608  69.87 0.0003916872    1.094    0.086
        48 -13.9608     45.2270     69.1556   8.3334578905e+01   6.0066784720e+01    0.8222938    0.2310457  30.83  0.002544307    3.908    0.744
        49 -13.2272    230.5978    165.6349   5.8197067287e+01   6.7750143396e+00    0.2378698      0.16142  19.05  0.001554852    1.383    0.277
        50 -11.0067    119.0220     65.3464   5.5267581220e+01   4.5749498029e+01    0.2211025    0.1897137  65.79 0.0004436313    1.152    0.132
        51 -11.6834    114.6941     63.8189   5.5882720649e+01   4.7111515225e+01    0.2678142    0.2310901  82.97 0.0003122283    1.197    0.165
        52 -11.5958     24.6464    164.0748   1.0437082136e+02   3.8584215283e+01     0.173296    0.1288492  90.00 0.0004976129    1.287    0.223
        53 -12.5249    125.4418     60.5695   5.2015342226e+01   4.5016228819e+01    0.4112949    0.2714594  73.20  0.001456548    1.728    0.421
        54 -12.3253    119.2609     58.1051   5.2668403898e+01   4.7030052216e+01    0.3891325    0.2532376  74.31 0.0007523674    1.809    0.447
        55 -13.5903    235.4799    158.1984   5.6130840669e+01   6.9595769140e+00    0.2404384    0.1984375  54.16  0.001667784    1.766    0.434
        56 -11.7784     36.9677     54.3136   8.2932643577e+01   6.4865671027e+01    0.1957352    0.1825294  25.92  0.001089353    1.155    0.134
        57 -11.6116     34.8039    228.1634   1.0528155954e+02   2.4625789888e+01    0.2049422   0.09277087  51.00  0.001080225    1.613    0.380
        58 -11.0970    163.2899    152.6671   6.7459414427e+01   1.9582818941e+01    0.2302369    0.1611461 -51.75 0.0007843064    1.694    0.410
        59 -12.4333    158.9910    230.6637   8.0397599197e+01   8.6623949050e+00    0.1734088    0.1508309  -0.50 0.0002809772    1.255    0.203
        60 -11.1251     98.6048     43.8204   5.2783464731e+01   5.4796614764e+01    0.2125184     0.194481 -58.76 0.0001978524    1.090    0.082
        61 -11.5010     95.0422     43.2445   5.3616428711e+01   5.5783495515e+01    0.3035706    0.2170361  62.63 0.0005608585    1.414    0.293
        62 -11.7464     27.9372    145.5735   1.0210231598e+02   4.2595535565e+01    0.3158064    0.2101858  84.45   0.00173932    1.386    0.279
        63 -14.2414      2.5763     86.9267   1.0640421219e+02   5.9517725445e+01      1.16099    0.4456519 -62.23  0.004980625    2.321    0.569
        64 -12.2405     31.0063    218.4604   1.0566383430e+02   2.6753508690e+01    0.2385835    0.2058143  21.72  0.001783279    1.447    0.309
        65 -13.0472    154.9830    227.0022   8.0690138476e+01   9.6658852730e+00    0.3631888     0.183166  48.57  0.001957846    2.335    0.572
        66 -13.4361    156.9186    221.4282   7.9631068709e+01   1.0139280262e+01    0.3536457    0.2075412 -32.11  0.001477895    2.106    0.525
