#   1 NUMBER                 Running object number                                     
#   2 MAG_AUTO               Kron-like elliptical aperture magnitude                    [mag]
#   3 X_IMAGE                Object position along x                                    [pixel]
#   4 Y_IMAGE                Object position along y                                    [pixel]
#   5 X_WORLD                Barycenter position along world x axis                     [deg]
#   6 Y_WORLD                Barycenter position along world y axis                     [deg]
#   7 A_WORLD                Profile RMS along major axis (world units)                 [deg]
#   8 B_WORLD                Profile RMS along minor axis (world units)                 [deg]
#   9 THETA_WORLD            Position angle (CCW/world-x)                               [deg]
#  10 FWHM_WORLD             FWHM assuming a gaussian core                              [deg]
#  11 ELONGATION             A_IMAGE/B_IMAGE                                           
#  12 ELLIPTICITY            1 - B_IMAGE/A_IMAGE                                       
         1 -15.2105    243.4172    139.8430   1.2469382086e+01   9.4237029956e+00     5.337538     1.683885 -37.57   0.01684861    2.462    0.594
         2 -12.6717    246.9370    105.1906   5.5281817794e+00   1.3882154029e+01     2.794594     1.192929 -60.41  0.008728068    7.434    0.865
         3 -13.6959    223.3045    125.5597   1.2368766716e+01   1.4389325504e+01     4.304721     1.503524 -28.86   0.01477089    4.347    0.770
         4 -13.0131     10.1575     95.4025   6.6386656415e+01   5.7067096268e+01     1.746901     1.106968 -67.54  0.008645569    1.425    0.298
         5 -11.7641      2.9849     58.8060   6.4190510625e+01   6.7077645254e+01    0.9632122    0.3340332 -66.49  0.003860822    2.436    0.590
         6 -10.2960    120.4595      8.9737   3.5604188325e+02   5.3305070713e+01    0.3012205     0.239896 -73.76  0.001284605    1.162    0.139
         7  -8.0169    220.6643      9.6600   3.4787952407e+02   3.0590024115e+01    0.0990132   0.08719943  34.14 0.0007051105    1.756    0.431
         8  -7.9102    210.5039      9.0757   3.4827867426e+02   3.2634943128e+01    0.1669878   0.09760563 -35.88 0.0006234015    1.525    0.344
         9  -9.2804    102.5033      9.4957   3.5906036083e+02   5.7766156246e+01    0.1349377    0.1188592  80.13 -6.618659e-05    1.010    0.010
        10  -8.6381     90.6708      5.3282   3.5949425117e+02   6.1115563667e+01    0.1402857   0.09192453 -67.09 0.0007051142    1.708    0.415
        11  -8.9129    105.5163      2.5016   3.5571744731e+02   5.7644028943e+01    0.1330434    0.1147581  87.55 6.378889e-05    1.017    0.017
        12 -10.3546      4.1725    197.6232   7.5962168621e+01   3.0680132315e+01    0.3660336    0.2002719   9.74  0.001815056    2.202    0.546
        13 -10.2441    128.5623    196.4223   4.3553507178e+01   1.6138303046e+01      0.29781    0.1806684 -55.42  0.001495615    1.850    0.459
        14  -9.4674     56.3776    232.0360   6.4938596361e+01   1.8108854648e+01    0.2127444    0.2067722 -17.70 0.0007293664    1.248    0.199
        15  -8.0869    180.7109    193.5315   3.2075297514e+01   9.4170390801e+00    0.2687471    0.1425482 -54.07   0.00127881    2.581    0.613
        16  -8.3405    200.8604    193.0385   2.8339576955e+01   6.9048532965e+00    0.1671938    0.1501977 -32.13 0.0005490012    1.325    0.245
        17  -8.4979     79.0893    191.0624   5.5205470500e+01   2.4205027778e+01    0.2150185    0.1774104 -20.01 0.0007968262    1.438    0.304
        18 -11.5815      3.1682    175.2689   7.5303474851e+01   3.6169873169e+01    0.8413147    0.4047141 -77.72  0.003962467    1.976    0.494
        19  -9.1598    190.5622    178.7799   2.7712983874e+01   1.0534774447e+01    0.3068249    0.2923351 -12.87  0.001889039    1.237    0.191
        20 -11.2143    179.5499    171.7589   2.8494557659e+01   1.3302587184e+01    0.9086653    0.6374459 -50.31  0.004578026    1.565    0.361
        21  -9.0893    171.0138    173.1407   3.0409218103e+01   1.4322674457e+01    0.3426213    0.2251429 -56.20  0.001227319    1.878    0.468
        22 -11.8578    121.8436    172.5694   4.1302197046e+01   2.2089615527e+01    0.8039498    0.5750324  89.37  0.003746929    2.161    0.537
        23 -11.5232    138.4526    169.0572   3.6680736779e+01   2.0185038811e+01    0.6286729    0.4143904   0.80  0.002847989    2.160    0.537
        24 -10.6989    152.5445    164.0031   3.2561167557e+01   1.8932555210e+01    0.6276451     0.281682  26.36  0.002363997    3.000    0.667
        25  -9.9574     17.1042    182.3451   7.1692610908e+01   3.3288135345e+01    0.2518304    0.1809321  79.08 0.0007684045    1.301    0.231
        26  -7.7617      1.5950    231.2932   7.7682716723e+01   2.3501904869e+01    0.1389989    0.1042367 -79.75 0.0004703402    1.495    0.331
        27 -12.2845    228.0646    168.8996   1.9812929857e+01   7.1522302089e+00    0.8650047    0.6959599 -19.48  0.004484147    1.037    0.036
        28  -8.8800      3.7225    155.1260   7.4119420190e+01   4.1300563449e+01    0.2418674    0.1624824  38.15  0.000449764    1.402    0.287
        29  -7.6303    156.9626    148.0572   2.8461739003e+01   2.1355878475e+01    0.1621913    0.1506374 -28.62            0    1.015    0.015
        30  -9.1982    143.7293    148.0529   3.1391504565e+01   2.3664370990e+01    0.2308778    0.2065957  28.49 0.0005053552    1.137    0.121
        31  -8.7054    175.8881    144.0369   2.3816418169e+01   1.8894336903e+01    0.3563579    0.1676399 -42.63  0.001084733    1.947    0.486
        32  -9.0868    133.5892    144.7614   3.3107380936e+01   2.6165113097e+01    0.2120331    0.1386045 -59.59 0.0007911109    1.713    0.416
        33  -8.0608    212.5014    204.9093   2.8305349646e+01   3.7657681054e+00    0.1632618   0.09667945 -37.13 0.0008508842    1.551    0.355
        34  -9.3250    198.5156    141.8568   1.9351989737e+01   1.5588608838e+01    0.3121929    0.2019204   9.23  0.001197166    2.347    0.574
        35  -7.8820    180.0956    135.9196   2.1341575292e+01   1.9668510115e+01    0.2127483    0.1587446  -4.76  0.001123081    1.686    0.407
        36  -9.8899    197.7204    132.8813   1.7659489661e+01   1.7241430249e+01    0.3600075    0.2349867 -55.70  0.001732304    1.748    0.428
        37  -8.3047    191.5252    132.0233   1.8509920472e+01   1.8418008486e+01    0.2079104    0.1156958 -40.17  0.000612977    1.577    0.366
        38  -9.1396    192.4531    127.9751   1.7503039667e+01   1.8964865326e+01    0.3223158    0.1626777 -33.82 0.0008589574    1.914    0.477
        39 -10.0120    193.7348    121.9109   1.6000628268e+01   1.9792185036e+01    0.4655032    0.3029652 -24.31  0.002410598    1.707    0.414
        40  -8.9912    188.7707    121.6005   1.6752316960e+01   2.0715463568e+01    0.2846729    0.2119826  65.18  0.001575796    1.712    0.416
        41  -7.8675    181.4351    129.9034   1.9819624806e+01   2.0528706789e+01    0.2036873     0.119831 -43.20 0.0005657683    1.531    0.347
        42  -7.8983     72.9350    127.3071   4.6970655660e+01   4.0999787852e+01    0.2051705    0.1934195  40.66 0.0002668556    1.071    0.067
        43  -8.2608    179.8768    119.9042   1.7912149741e+01   2.2618439451e+01    0.1994473    0.1741592 -17.57 0.0004006631    1.210    0.174
        44  -8.6591    173.7257    119.2776   1.8883989842e+01   2.3871664403e+01    0.2402727     0.202458 -61.16 0.0008065175    1.244    0.196
        45  -9.8087    170.5404    112.8401   1.7997961803e+01   2.5669510953e+01    0.3445691    0.2649336 -48.61 0.0009998498    1.206    0.171
        46 -10.0835    210.8578    112.3979   1.1392067371e+01   1.8447851038e+01    0.4864786    0.1596887 -35.40  0.001895086    2.839    0.648
        47 -10.1581    205.4980    110.3218   1.1710570410e+01   1.9694797578e+01     0.367673    0.2893717   4.46  0.002166198    1.690    0.408
        48  -9.0494    155.2477    112.1570   2.0832298714e+01   2.8810974382e+01    0.2565832     0.209446 -47.93 0.0005725935    1.149    0.130
        49  -7.9648    150.0168    227.3055   4.3302673151e+01   7.7409996928e+00    0.1656194    0.1317466  15.74 0.0002865984    1.065    0.061
        50 -11.9580     50.4314    101.8155   4.9898669189e+01   5.1124658261e+01      1.09748      0.78039 -59.27  0.005231068    1.360    0.265
        51 -10.6326     41.8035     98.7557   5.2829269284e+01   5.3092878654e+01    0.4900472    0.3329124  31.59  0.001193681    1.491    0.329
        52  -9.7305    192.3699    193.3325   2.9887572623e+01   7.9303791897e+00     0.694564    0.3801027 -58.22  0.003089493    3.491    0.714
        53  -8.3465    102.1606     99.0279   3.0719609775e+01   4.2608040235e+01    0.2273205    0.2192573 -77.73 0.0004096012    1.011    0.011
        54  -7.9653    215.9995     95.9272   7.2113436989e+00   2.0155005266e+01    0.1769592    0.1396928 -12.37 0.0005345103    1.560    0.359
        55  -8.0704     70.3190     96.6573   4.0825333500e+01   4.9301191424e+01    0.1623298    0.1189688  75.11 0.0007049487    1.719    0.418
        56  -8.5947    143.7479     89.4016   1.7443779868e+01   3.5649127960e+01    0.2461549     0.205952 -71.07 0.0003097632    1.229    0.187
        57  -8.0878    117.0000     89.9734   2.3972738834e+01   4.1431604688e+01    0.2516811   0.08528986 -44.85 0.0007978361    2.911    0.656
        58  -7.5650    140.3743    107.7455   2.2978526731e+01   3.2731025130e+01    0.1488319    0.1146242  85.88 0.0006624105    1.647    0.393
        59  -9.6211    241.5964    207.7579   2.4249394180e+01   3.0582249561e-01     0.256748    0.1290903 -14.78  0.001489582    2.139    0.533
        60  -8.2951    190.8386    107.8001   1.3365490739e+01   2.2731365309e+01    0.1805254    0.1443656 -61.04 0.0003091409    1.296    0.229
        61 -10.5707    233.5934     77.4715   1.3655527712e+00   1.9859164281e+01     0.385432    0.2593505 -29.49  0.002404181    1.449    0.310
        62  -8.2928    184.1387     78.1286   7.4067536710e+00   2.8978530733e+01    0.1991035    0.1808304  -3.94  0.001180357    1.380    0.276
        63 -10.7554     58.1949    104.8776   4.7498658785e+01   4.9181096822e+01    0.6068361    0.3939242 -65.73  0.001802311    1.558    0.358
        64 -11.9262    141.3455    204.5889   4.1905133880e+01   1.2801155277e+01     0.539454    0.4321201 -24.15  0.003299678    1.256    0.204
        65  -8.1263    187.0253     67.4704   4.3865365563e+00   3.0047649329e+01    0.1883189    0.1547471 -51.06 0.0003291657    1.051    0.049
        66  -9.4442    250.1227    224.3851   2.5528795285e+01  -2.5287501947e+00    0.2653256    0.1078534 -35.25   0.00163026    2.032    0.508
        67  -7.9755    195.8186     51.6145   3.5945900658e+02   3.0520515414e+01    0.1758727    0.1119169 -89.11 0.0009483228    1.738    0.425
        68  -9.0619      1.9390    203.0001   7.6732492257e+01   2.9611188385e+01    0.1867272    0.1532315  55.21 0.0003181006    1.019    0.019
        69  -9.1679    228.8029     61.8135   3.5853824829e+02   2.2823160854e+01     0.240771    0.1664673  22.64  0.001308313    2.803    0.643
        70  -7.4013     74.6801     42.7105   2.0744797788e+01   6.0071031267e+01    0.1433603    0.1108626  20.04  0.000388494    1.601    0.375
        71  -8.6159    249.8511     58.1689   3.5606503934e+02   1.9751612555e+01    0.1410098    0.1191377 -32.73 0.0004396531    1.309    0.236
        72  -7.4513     96.8741     33.8153   1.0225063660e+01   5.6266893196e+01    0.1825116     0.153374 -78.56 0.0003361063    1.241    0.194
        73  -8.3685     81.0319     31.9039   1.3924104483e+01   6.0337512408e+01    0.2021053     0.187804  69.03            0    1.030    0.029
        74  -9.2274    212.4065     26.5231   3.5210906323e+02   3.0342483905e+01     0.204575    0.1816679 -61.64 0.0006133113    1.195    0.163
        75  -8.9413     96.9408     17.0380   3.2935360265e+00   5.8374695696e+01    0.2019377     0.183942  69.39  0.001220964    1.049    0.046
        76  -9.8166    245.1899    220.2860   2.5629407750e+01  -1.5947127795e+00    0.1808171    0.1524682  -3.45 0.0004091333    1.385    0.278
        77  -7.4969    196.4692    221.4695   3.3593215623e+01   3.1983078737e+00    0.1135322   0.09075692  -4.07 0.0001208327    1.042    0.041
        78 -13.0462    206.9745    175.6405   2.4309903982e+01   8.8299848613e+00     1.824231       1.6969 -73.45  0.009803851    1.600    0.375
        79 -11.3523    238.1940    160.1275   1.6820561074e+01   7.1716039208e+00    0.4242124    0.2870115 -45.35  0.001395496    1.520    0.342
        80 -10.7523    249.2003    232.3719   2.6814716310e+01  -3.3770765109e+00    0.4751306    0.1560893 -35.92  0.002686688    2.534    0.605
