#   1 NUMBER                 Running object number                                     
#   2 MAG_AUTO               Kron-like elliptical aperture magnitude                    [mag]
#   3 X_IMAGE                Object position along x                                    [pixel]
#   4 Y_IMAGE                Object position along y                                    [pixel]
#   5 X_WORLD                Barycenter position along world x axis                     [deg]
#   6 Y_WORLD                Barycenter position along world y axis                     [deg]
#   7 A_WORLD                Profile RMS along major axis (world units)                 [deg]
#   8 B_WORLD                Profile RMS along minor axis (world units)                 [deg]
#   9 THETA_WORLD            Position angle (CCW/world-x)                               [deg]
#  10 FWHM_WORLD             FWHM assuming a gaussian core                              [deg]
#  11 ELONGATION             A_IMAGE/B_IMAGE                                           
#  12 ELLIPTICITY            1 - B_IMAGE/A_IMAGE                                       
         1 -11.0687     25.3448     56.2524   1.3496766312e+02   6.4477222092e+01      1.24299     0.789563   2.08  0.006552616    1.980    0.495
         2  -9.8547     58.0138     30.5363   1.0909884106e+02   6.6173392807e+01     1.049758    0.5387689 -28.59  0.004217018    2.561    0.610
         3 -12.3058     60.4587     45.6222   1.1442044767e+02   6.2689357474e+01     1.287881    0.5370495 -49.85   0.00509224    2.290    0.563
         4 -12.3183    131.3103     14.0689   7.7425926367e+01   5.1219109739e+01     1.795785    0.7409838  79.93   0.00570543    3.303    0.697
         5 -12.6392    104.9533     13.2391   8.2863566318e+01   5.8440815436e+01    0.8844293     0.436663 -26.97  0.003644037    2.083    0.520
         6 -12.5474    124.1999     26.1143   8.3952669292e+01   5.1717851601e+01     1.347457    0.8476759 -48.93  0.003634341    1.770    0.435
         7 -13.4866    118.9622     40.7801   9.1262745322e+01   5.0949956890e+01     1.384601     1.209935  18.43  0.002375653    1.248    0.199
         8 -12.8398    112.6945     24.8821   8.6240819604e+01   5.4941124721e+01     1.589639    0.6038338  52.00  0.005656094    2.385    0.581
         9 -12.0039    145.3977     47.8418   8.7564143152e+01   4.2868400445e+01     1.200712     0.590748 -22.97   0.00403317    2.465    0.594
        10 -11.6472    178.2055     21.1941   7.2896089364e+01   3.7387981821e+01    0.5474307    0.3866912  25.64  0.001718353    1.764    0.433
        11  -9.7255    147.9313     16.2356   7.5413257308e+01   4.6337708671e+01    0.8643255    0.5806982 -71.65  0.003893438    1.699    0.411
        12 -11.4587    163.9462     27.9298   7.7141266851e+01   4.0530539819e+01    0.5417053    0.4301186  67.51  0.001748326    1.209    0.173
        13 -11.5112     26.4137     27.8582   1.2583076172e+02   7.0958937332e+01    0.5525289    0.4838159  63.70  0.003484075    1.408    0.290
        14 -11.6144     22.7136     11.0450   1.2061376222e+02   7.4834284975e+01    0.5284437    0.3362787  -7.82  0.002875393    1.865    0.464
        15 -11.5301     19.9239     22.8561   1.2814125534e+02   7.2624262646e+01    0.5890936    0.2648893 -54.32  0.001775758    1.832    0.454
        16 -11.9663     15.0563     21.8191   1.3113960303e+02   7.3218189012e+01    0.8230529    0.5886772  72.50  0.002083531    1.923    0.480
        17 -11.5023     16.8554     13.7003   1.2642768967e+02   7.4827587573e+01    0.3771087    0.1853225 -45.70 0.0003190876    1.706    0.414
        18 -11.3221     14.3872      9.2320   1.2622042440e+02   7.5949317999e+01    0.4105955    0.2465997  16.94  0.002109601    1.818    0.450
        19  -9.8044     87.1691      7.0106   8.4679833847e+01   6.3658182108e+01    0.6939382    0.3682338  62.72  0.003023339    1.896    0.473
        20 -11.3982     90.5661     20.8455   9.0846022434e+01   6.1057641601e+01    0.6437783    0.4701918 -21.65  0.002349554    1.435    0.303
        21 -11.4259     85.7946     14.7847   8.9331271483e+01   6.3029641783e+01    0.6277841    0.3638502 -15.79  0.001753412    2.023    0.506
        22 -10.7257     42.5283      3.5541   1.0216101717e+02   7.3480242454e+01    0.5713429    0.3095696 -17.77  0.002563824    2.402    0.584
        23  -9.5386     32.2140     12.0422   1.1432916033e+02   7.3551507280e+01    0.2634623    0.1714559  40.72 0.0007381709    1.773    0.436
        24 -10.6757     47.7249     19.3446   1.0882263105e+02   6.9972171894e+01    0.3786168    0.3425632 -46.18  0.002117299    1.205    0.170
        25 -12.0783     49.0802     13.1416   1.0451749106e+02   7.0838729904e+01    0.7864619    0.4747126  34.28  0.003997467    1.704    0.413
        26 -11.5786     38.6382     18.7814   1.1388426320e+02   7.1420902305e+01    0.5595472    0.1819495 -49.61  0.001288908    2.955    0.662
        27 -11.3560     35.5619     18.6871   1.1576876473e+02   7.1847024587e+01    0.4438758    0.2279345 -47.59  0.001204313    1.777    0.437
        28 -11.8791     68.6973     18.2679   9.7806252929e+01   6.6318287777e+01    0.8822738    0.6091094  54.47  0.004473504    1.573    0.364
        29 -10.5294     71.5899      3.2920   8.7855746700e+01   6.7751292776e+01    0.4678038    0.3917849  31.01  0.002280226    1.108    0.098
        30 -10.4732     66.5051     10.6635   9.4410635999e+01   6.7906670141e+01    0.7151583    0.2554767  44.91  0.002698039    2.704    0.630
        31 -10.4395     63.1899      6.4388   9.3282317442e+01   6.9178178680e+01    0.4077322    0.2541395 -14.82  0.001584095    1.771    0.435
        32 -10.0755     77.0009      6.8058   8.7965186182e+01   6.6099940146e+01     0.307999    0.2549237  87.58  0.001671084    1.535    0.349
        33 -10.4008     77.1953      2.8320   8.5544235207e+01   6.6515150973e+01    0.3283154    0.2449916  27.56  0.001102872    1.328    0.247
        34 -10.1257    206.8984     19.3200   6.9219680748e+01   3.0021500448e+01    0.4665035    0.2223266 -39.60  0.002041267    1.878    0.468
        35 -12.1566    238.1713     15.4248   6.5656736310e+01   2.2917245994e+01    0.6174063    0.4794692  51.66  0.003270368    1.502    0.334
        36 -11.7420    243.1922     16.3912   6.5556712982e+01   2.1703409836e+01    0.4820196    0.2633702 -59.68  0.002450366    1.819    0.450
        37 -11.0427    165.1739     17.3687   7.3295501403e+01   4.1391977841e+01    0.4830951      0.28192  42.09  0.001333644    1.920    0.479
        38  -9.6792    200.2719      6.0555   6.5945205320e+01   3.3025658209e+01    0.5912538    0.2335429  84.29  0.002069921    2.752    0.637
        39 -10.7175    187.0624     14.6306   6.9780241090e+01   3.5683648531e+01    0.5695112     0.255283  50.26  0.001477787    2.387    0.581
        40 -11.5978    192.2809      7.5682   6.7083977341e+01   3.4980049677e+01    0.6360283    0.3863892   3.71  0.002835114    2.236    0.553
        41 -11.0525     40.2872     14.3516   1.1040723657e+02   7.2017787073e+01    0.6327071    0.2038599  38.34   0.00242645    3.247    0.692
        42  -9.9539    218.8583     12.7066   6.6351763977e+01   2.7714422062e+01    0.3328882    0.1933811  63.44  0.001569269    1.772    0.436
        43 -11.7461    211.4729      9.9854   6.6175827795e+01   2.9801518086e+01    0.5118144    0.3498155  15.76  0.001827245    1.970    0.492
        44  -9.2382     95.3503     11.6442   8.4693822009e+01   6.1089406630e+01    0.3161703    0.1807301  30.33  0.001322488    2.076    0.518
        45  -9.7243      4.1854     10.5806   1.3529309728e+02   7.6293797527e+01    0.3546188    0.1362112 -42.74  0.001508348    2.163    0.538
        46  -9.0972    158.0000     10.9627   7.1981914679e+01   4.4055502999e+01      0.23668   0.08543585 -21.22 0.0006641122    2.939    0.660
        47 -11.5880    239.5736      7.6264   6.3613226574e+01   2.3348183854e+01    0.4760195    0.2347341 -61.91 0.0007860367    2.040    0.510
        48 -11.4329    245.8475      8.0248   6.3340574350e+01   2.1921440347e+01    0.4311645    0.2940897 -16.59  0.001571397    1.533    0.348
        49 -11.1041    241.7200      4.4321   6.2697590964e+01   2.3163224501e+01    0.3625254    0.2114878 -84.79  0.001560464    1.789    0.441
        50 -10.3163    169.3452      9.6330   7.0100264143e+01   4.1018184106e+01    0.4112825    0.1863988  53.91  0.001446782    2.149    0.535
        51  -9.1384    162.8362     10.1577   7.1068283932e+01   4.2780124290e+01    0.2988389    0.1813626  26.64  0.001261543    2.152    0.535
        52  -9.7927    157.7001      2.6109   6.8984375126e+01   4.4915221447e+01     0.396697    0.2536805  60.32  0.001739712    1.464    0.317
        53  -9.7945    162.6286      5.8189   6.9557101507e+01   4.3247681527e+01    0.3090824    0.2386781 -10.72 0.0006743431    1.459    0.315
        54  -9.9588    162.6695      1.3157   6.7957312053e+01   4.3634035548e+01    0.4500117    0.2016877 -58.96  0.001478127    2.613    0.617
        55 -10.2882    150.9930      7.3670   7.1597846351e+01   4.6372515256e+01    0.4896931     0.268399  71.57  0.001141756    1.693    0.409
        56 -10.2140      1.3005      7.2373   1.3651295130e+02   7.7135854608e+01    0.1898516   0.08826923 -64.68 0.0002413351    1.780    0.438
        57 -10.7777    174.3676      4.4550   6.7804329580e+01   4.0111629870e+01    0.7677537    0.3083577  83.89  0.002759075    2.697    0.629
        58 -11.4907    225.1189      2.5402   6.3196555144e+01   2.7159630767e+01    0.7373753    0.3167214 -82.82  0.003062777    2.688    0.628
        59 -10.6517    218.6163      3.3552   6.3831309794e+01   2.8653519764e+01    0.2780391    0.2555812 -71.65 0.0009932898    1.070    0.066
        60 -10.4653    141.6172      3.7130   7.1494541488e+01   4.9349449146e+01    0.3954731    0.2794375  77.89  0.001333623    1.339    0.253
        61  -9.5265     55.8014      4.4657   9.5476849668e+01   7.0935554807e+01    0.2434644    0.2038783 -58.66   0.00140034    1.582    0.368
        62 -11.9502    133.7708      2.6819   7.2245439059e+01   5.1647557597e+01     0.448537    0.3010179  71.88  0.000715202    1.379    0.275
        63  -8.6632    126.6411      4.7267   7.4293059219e+01   5.3455919054e+01    0.1602826   0.09858999  42.47 0.0004110435    1.652    0.395
        64 -10.1495    122.8105      1.3681   7.3481545346e+01   5.4820014306e+01     1.076172    0.1344539  65.36   0.00275366    4.764    0.790
        65 -10.7909    105.3971      1.8533   7.7148097953e+01   5.9515193702e+01      1.03229    0.3534793  73.23  0.003269944    3.466    0.712
        66 -10.1268    113.0124      2.0000   7.5608250570e+01   5.7453703021e+01    0.4708053    0.2036707  73.68   0.00175505    2.399    0.583
        67 -10.0561     23.0814      2.5616   1.1521068897e+02   7.6406450336e+01    0.3169598    0.1762638 -33.36  0.001683731    1.692    0.409
        68 -10.4566    206.1178      2.3761   6.4427800919e+01   3.1857696084e+01    0.4701383    0.2267798 -82.44   0.00199413    2.266    0.559
        69 -10.8327      2.7880      1.8226   1.3286133536e+02   7.8216382960e+01     0.380684    0.1908911  -5.79  0.002031264    2.296    0.564
        70 -10.7699     71.2599    134.0663   1.3187468398e+02   4.0293360838e+01     0.559448    0.3846077  11.65   0.00272081    2.099    0.524
        71 -10.7505     79.7731    127.3261   1.2828463847e+02   4.0578790808e+01    0.6111644     0.388532 -24.59  0.001744317    2.906    0.656
        72 -10.7155     47.7122    134.8432   1.3890779097e+02   4.3155435243e+01    0.3568606    0.1829932 -67.95  0.001145681    1.878    0.467
        73  -9.8909     62.2256    132.3953   1.3429759685e+02   4.1928610097e+01    0.3196001    0.1842944 -59.22   0.00157659    1.775    0.437
        74  -8.9850    106.8561    131.1532   1.2122975526e+02   3.5125242112e+01    0.1801786    0.1683204   7.33   0.00031196    1.242    0.195
        75 -10.7479     45.6914    120.4428   1.3778440307e+02   4.6792439437e+01    0.5933114    0.2822562  52.79  0.002678921    2.101    0.524
        76  -9.6075     53.4803    124.9826   1.3593558172e+02   4.4792054097e+01    0.3337961    0.1918748 -88.05  0.001363147    1.891    0.471
        77 -10.5437     56.4887    122.1857   1.3460313596e+02   4.5082892784e+01    0.3965519    0.2828176  54.41  0.001311576    1.318    0.242
        78 -10.0508     18.6388    124.5243   1.4667458136e+02   4.8395872829e+01    0.3141004    0.1417292 -67.93  0.001083214    2.022    0.506
        79 -10.8431      2.8733    123.4504   1.5136778164e+02   4.9743059063e+01    0.3699189    0.3127929 -70.49  0.001672464    1.273    0.214
        80 -10.1828    240.0990    123.1328   9.1455758439e+01   9.7331529057e+00    0.3006787    0.1653469 -15.03  0.001479532    1.918    0.479
        81 -12.0281    105.0912    120.6520   1.1959846272e+02   3.7755382625e+01    0.5947455    0.5448533  68.59  0.002932796    1.055    0.052
        82 -10.5634     93.4017    123.7853   1.2361337873e+02   3.9153972882e+01    0.2581394    0.2325227  59.72 0.0002977444    1.023    0.023
        83 -10.8292     34.4948    120.0411   1.4130862245e+02   4.8064663623e+01    0.2890933    0.2481509  76.41 0.0008537204    1.008    0.008
        84  -9.2329    221.4502    120.5122   9.3741531461e+01   1.3577819091e+01      0.13374    0.1187271   0.55   3.4181e-05    1.010    0.010
        85  -9.5317    148.8466    119.6876   1.0790406722e+02   2.9033968983e+01    0.2482157    0.1821573  28.28  0.001182814    1.474    0.322
        86  -9.2092     81.4755    117.7473   1.2603942481e+02   4.2537574480e+01    0.1866503    0.1330154 -50.59 0.0002746807    1.506    0.336
        87 -11.2768     44.7354     85.0959   1.3248565859e+02   5.5544240450e+01    0.9851106    0.4524669  56.81  0.003839971    2.904    0.656
        88 -11.5740     34.5241     91.9221   1.3764025947e+02   5.4922006074e+01     1.940749    0.7491733 -88.16  0.006454268    3.992    0.749
        89 -10.9044     38.1275     86.5348   1.3535646041e+02   5.5897966587e+01     2.444479     1.074375  66.98  0.008396256    3.943    0.746
        90 -12.1848     10.2011     97.7834   1.4733475742e+02   5.5362922056e+01     1.017043    0.4893018  56.85  0.005098239    2.043    0.511
        91 -12.0535      7.3542     88.6897   1.4760538416e+02   5.7724477332e+01    0.5720807    0.4302452 -67.66  0.001221331    1.219    0.180
        92 -11.4387     23.9105     98.8941   1.4251776735e+02   5.4134430011e+01    0.5505822    0.2735409 -85.07  0.001643452    1.913    0.477
        93 -12.6054     19.4163     92.6242   1.4345068817e+02   5.6010584431e+01     1.250488    0.7195047 -69.27   0.00471561    1.515    0.340
        94 -11.8416      3.1685    111.2858   1.5064809215e+02   5.2553810905e+01    0.4849834    0.3997364 -72.13  0.003186278    1.220    0.180
        95 -11.6752      3.3328    104.9401   1.5022437656e+02   5.4042219305e+01    0.3882562    0.3313929 -13.93  0.001276509    1.513    0.339
        96 -11.9239     28.4316    113.0947   1.4252985811e+02   5.0299979306e+01    0.7042016     0.381098  17.58  0.003498469    2.256    0.557
        97 -12.6409     26.0228    107.0415   1.4269023575e+02   5.1974236003e+01     1.219193    0.6231491 -35.62  0.005403195    2.933    0.659
        98  -9.3709    113.8693    115.9189   1.1607872868e+02   3.7104564942e+01    0.2203038    0.2036091   5.59 0.0004081161    1.240    0.193
        99 -10.0458     88.1539    114.6636   1.2337096511e+02   4.2147803404e+01    0.3365581    0.2187302  48.59 0.0005745534    1.479    0.324
       100 -10.6351     67.0879    112.2498   1.2959166236e+02   4.6033007405e+01    0.5025996    0.3148934 -76.55  0.002406041    1.696    0.410
       101  -9.4784    126.9341    114.0362   1.1207402332e+02   3.4838857876e+01    0.2312392    0.2205368  48.58 0.0006717923    1.019    0.019
       102 -10.6379    107.7906    112.2108   1.1696371884e+02   3.9110508340e+01    0.4732498    0.3302148 -81.24  0.002113101    1.921    0.480
       103 -11.1639    103.9994    109.4804   1.1744476394e+02   4.0451381874e+01    0.6355323    0.4742343  28.68  0.002860488    1.492    0.330
       104 -11.1190    170.8726    110.0392   1.0060043735e+02   2.5925152680e+01    0.5199549    0.3851233  38.04  0.001706515    1.319    0.242
       105 -10.1578     49.8183    111.3418   1.3516194638e+02   4.8514605840e+01     0.484277    0.3064358 -40.89  0.002377859    1.987    0.497
       106 -11.0427     79.9979    108.6440   1.2469982771e+02   4.4917311722e+01    0.6831636    0.3987331  52.36  0.003061515    1.770    0.435
       107 -11.1822     85.9823    105.3276   1.2206291172e+02   4.4694751526e+01    0.4043895    0.3377695  24.18  0.001460142    1.354    0.262
       108  -9.7489    119.9771    109.0046   1.1274858087e+02   3.7352092979e+01    0.1820966    0.1779329  89.91 0.0005682897    1.054    0.052
       109 -10.7824    158.3930    104.6568   1.0196290183e+02   2.9722909871e+01    0.5578797    0.3637284  -9.53  0.002184259    2.387    0.581
       110 -10.4871    143.2922    105.9590   1.0587214109e+02   3.2910442912e+01    0.4137337    0.3532619   6.28  0.001676436    1.364    0.267
       111 -11.5003    145.4906    101.5044   1.0417129931e+02   3.3276430100e+01    0.5736318    0.4397028  11.94  0.002655155    1.683    0.406
       112  -9.8885    247.6831    104.3557   8.6255164006e+01   1.0671298833e+01    0.1278143   0.09229247 -51.74 0.0006294685    1.748    0.428
       113 -10.0754     14.8124    108.9740   1.4667245172e+02   5.2369752657e+01    0.3621275    0.1354662  52.34  0.001592155    2.582    0.613
       114  -9.7358     57.5241    102.5012   1.3104927873e+02   4.9706933628e+01    0.2779577    0.1663609 -70.01  0.001085685    1.633    0.388
       115 -10.4661     57.7331     97.5885   1.3004800302e+02   5.0878371347e+01    0.3746208    0.3126554 -88.76  0.001652051    1.163    0.140
       116 -11.1177     67.4794     97.4075   1.2655198291e+02   4.9553241265e+01    0.6209466    0.3880639 -56.34  0.001959189    1.560    0.359
       117  -9.6720    136.7108    100.3493   1.0606237313e+02   3.5502061651e+01    0.3495759    0.2416827  24.99  0.001511439    1.821    0.451
       118  -8.8495     78.4682    100.5520   1.2346610969e+02   4.7083883250e+01    0.1420085    0.1379059  85.04 5.671463e-05    1.055    0.052
       119 -10.4071    211.3697     97.4035   8.9907334502e+01   1.8897483948e+01    0.3844599    0.2756457  19.13  0.001175917    1.599    0.375
       120  -9.5904    140.6153     96.3302   1.0398669425e+02   3.5403462906e+01    0.3032715    0.2454488  18.54 0.0009515104    1.454    0.312
       121  -9.7145    138.4493     93.2816   1.0369220986e+02   3.6502806042e+01     0.403273    0.2332735  32.41  0.001348732    2.149    0.535
       122  -9.5115     66.1401     73.3221   1.2115482903e+02   5.5524150245e+01    0.3828498    0.2600104  87.22  0.001582559    2.071    0.517
       123 -12.1622     90.3841     59.4360   1.0744943371e+02   5.4205391784e+01    0.9308097    0.7711066 -68.28  0.004719981    1.364    0.267
       124 -10.3003     98.3555     62.4346   1.0574958020e+02   5.1893224086e+01    0.3499797    0.2867046  33.88  0.001002355    1.276    0.216
       125 -11.4665     80.4056     93.4006   1.2114300522e+02   4.8452626377e+01    0.9395322    0.5893557  43.06  0.004363956    1.572    0.364
       126 -11.1959     89.9265     89.2433   1.1685325219e+02   4.7722144876e+01    0.7385526    0.4505825 -32.18  0.003027615    2.251    0.556
       127 -12.4214     74.8262     50.1084   1.0992499808e+02   5.9224999099e+01     1.170986    0.8621224 -59.17  0.005799779    1.493    0.330
       128 -10.6035     93.7889     76.1181   1.1179407679e+02   4.9931677304e+01    0.5526344    0.4256234  23.34  0.001865913    1.537    0.350
       129 -11.4541     80.6134     82.8590   1.1835307765e+02   5.0886084584e+01    0.8304554    0.6056747  84.06  0.003874907    1.781    0.439
       130 -12.1105     85.1601     72.8426   1.1380550776e+02   5.2343200921e+01     0.841255    0.7432103  60.67    0.0020627    1.168    0.144
       131 -11.5071     78.7385     67.1435   1.1438520827e+02   5.4812721945e+01    0.7131906     0.522056 -89.97  0.002898075    1.902    0.474
       132 -11.3707     66.2692     82.0553   1.2343149801e+02   5.3430737756e+01    0.5650309    0.4794837 -67.17  0.002866007    1.140    0.123
       133 -11.7468     72.0636     79.2144   1.2049500706e+02   5.3190634222e+01    0.7315474    0.4642786 -37.68  0.003311533    1.841    0.457
       134  -9.9235     42.7517     94.9306   1.3503560133e+02   5.3339809287e+01    0.3053808    0.2401201  10.91  0.001720101    1.556    0.357
       135 -10.7559    120.0611     85.3446   1.0637660357e+02   4.2327059266e+01    0.5423113    0.2811745  47.44  0.001553109    1.871    0.465
       136 -10.7790    124.7623     93.6560   1.0742656325e+02   3.9550911484e+01    0.6857653      0.32367  43.75  0.002578934    2.070    0.517
       137 -10.6399    118.0974     92.1338   1.0888130671e+02   4.1342461806e+01    0.8438771    0.4946117  19.10  0.002764911    3.507    0.715
       138 -10.5746    127.1292     83.3599   1.0381252445e+02   4.1110219536e+01    0.4452528    0.3010764  49.42  0.001275914    1.433    0.302
       139 -10.7948    120.7481     79.8152   1.0452084237e+02   4.3304358555e+01    0.6456746     0.261113  52.96  0.002163813    2.614    0.617
       140 -10.2988    104.4663     88.1429   1.1184667676e+02   4.5106426259e+01    0.7005549    0.3576723 -50.86  0.002776298    2.025    0.506
       141 -10.2083    101.4959     90.5605   1.1344804829e+02   4.5178054594e+01    0.4756394    0.3245658  81.92  0.001964383    2.207    0.547
       142  -9.6044     98.3272     90.7344   1.1450201005e+02   4.5770753525e+01    0.2719009    0.2155999  74.08 0.0005109549    1.448    0.309
       143  -9.4809    160.5255     93.4940   9.8505972297e+01   3.1247474889e+01    0.2819862    0.1488134  62.80  0.001037779    2.369    0.578
       144 -10.4128    153.0093     91.7301   9.9719367138e+01   3.3361487330e+01    0.4452952    0.3433865  38.37  0.002139697    1.309    0.236
       145 -10.1104    104.9018     75.8787   1.0806776253e+02   4.7666166749e+01    0.4431611     0.385545 -32.44  0.001378015    1.228    0.186
       146 -11.3695    113.6444     83.3083   1.0764696309e+02   4.4184362272e+01    0.8566394    0.4110406 -40.90  0.003221591    2.221    0.550
       147 -10.7928    108.7104     80.9134   1.0842446511e+02   4.5771352423e+01    0.3952739    0.3550458 -15.08  0.001219258    1.265    0.209
       148 -10.2975    183.8132     85.5704   9.1586636823e+01   2.6996757287e+01    0.6699167    0.2136656 -39.80  0.002180512    3.074    0.675
       149  -9.8547    212.2574     87.0241   8.7156726953e+01   2.0178777837e+01    0.2225825    0.1993535  36.23 0.0003784938    1.137    0.121
       150 -10.7056    164.3193     83.1267   9.4766016871e+01   3.2149004969e+01    0.4783023    0.4216492 -78.49  0.001998151    1.287    0.223
       151 -11.5448    143.4010     83.4162   9.9616757513e+01   3.7223147987e+01    0.4852346     0.401445 -18.89  0.001538864    1.365    0.268
       152  -9.9269     46.6067     73.0354   1.2911192289e+02   5.8280953416e+01    0.3459068    0.1972372 -77.14  0.001555776    1.972    0.493
       153 -11.5159     52.8965     76.5526   1.2733778202e+02   5.6644020719e+01    0.7928819      0.49192 -66.85  0.003853468    1.568    0.362
       154 -10.8432     58.2805     78.1422   1.2555690200e+02   5.5534976246e+01    0.4584249    0.3385785  73.71  0.001239721    1.590    0.371
       155 -11.4717     40.2568     71.6864   1.3152422631e+02   5.9328063145e+01    0.5560455    0.3562606 -45.44  0.002849942    1.582    0.368
       156 -11.2256     33.2632     71.9305   1.3462287445e+02   5.9971212835e+01    0.4753792    0.2925155  27.75   0.00247777    1.764    0.433
       157  -9.7752     22.1920     72.1044   1.3950756036e+02   6.0853940498e+01    0.4200077    0.1760202  33.42  0.001920664    2.431    0.589
       158 -11.9181     13.6450     74.8385   1.4360344206e+02   6.0749018096e+01    0.5170683    0.4454916  53.60  0.003416164    1.228    0.186
       159 -10.6536     14.3931     67.2024   1.4222103588e+02   6.2572343896e+01    0.3464468     0.284712 -83.56  0.001237594    1.081    0.075
       160  -8.5816    156.6733     78.2967   9.5001746587e+01   3.4882575348e+01    0.1572348    0.1223929 -78.65 0.0007024813    1.630    0.386
       161  -9.7662      4.9232     77.7200   1.4756940155e+02   6.0505072359e+01    0.2291978    0.1372309 -58.29 0.0009683056    1.535    0.348
       162  -9.2441     13.3044     54.0352   1.4058983053e+02   6.5832466157e+01    0.4352633    0.2016857 -57.46   0.00100947    1.782    0.439
       163 -12.1690      2.2121     70.4773   1.4802049807e+02   6.2374977623e+01    0.7934424    0.1897671 -74.54  0.003027105    3.131    0.681
       164 -12.1503      6.5332     62.2177   1.4515643937e+02   6.4192422455e+01    0.9631874    0.2030812 -60.92  0.003646305    3.179    0.685
       165 -10.9782     11.5753     62.3526   1.4280432689e+02   6.3912728328e+01    0.3852453    0.2148643  -3.46  0.001982633    2.326    0.570
       166  -9.3154    134.7569     77.5694   1.0002151910e+02   4.0428575122e+01    0.2266393    0.1494048  63.31 0.0009500249    1.683    0.406
       167  -8.5892     46.6242     77.2741   1.3008162456e+02   5.7245703069e+01    0.1433155   0.09724327  62.70 0.0007001878    1.692    0.409
       168 -10.4100    242.1274     75.9043   8.0333345953e+01   1.5254169334e+01    0.2074225    0.1688739 -48.19  0.001238904    1.276    0.217
       169  -9.6538    192.3260     65.6255   8.4510422347e+01   2.7943501147e+01    0.2947176    0.2259064 -68.11  0.001221097    1.528    0.346
       170 -10.1955    183.9733     75.2252   8.8667493707e+01   2.8580197319e+01    0.3157378    0.2218738  59.91  0.001490994    1.455    0.313
       171 -12.0661    186.9392     69.7927   8.6596077206e+01   2.8670854976e+01    0.8452374    0.6436709 -47.15  0.003108976    1.349    0.258
       172  -9.0802    151.2175     73.5680   9.4786808165e+01   3.7080667725e+01    0.2273217    0.1401983  43.50 0.0009435022    1.651    0.394
       173  -9.1453     61.1507     72.7509   1.2299678179e+02   5.6414785328e+01    0.2227573    0.1647996  53.36 0.0005294223    1.458    0.314
       174 -10.1657    162.2019     70.5144   9.1463896285e+01   3.4813017060e+01    0.3745877    0.2822974  70.46   0.00174875    1.442    0.306
       175 -11.5375    122.5241     67.8863   1.0020003277e+02   4.5246752203e+01    0.7316405     0.432119  44.11  0.002214299    1.694    0.410
       176 -10.3352    129.6132     65.6096   9.7510692894e+01   4.3940717600e+01    0.6484383    0.3889484 -69.56  0.002246708    2.960    0.662
       177 -11.6663    219.3716     66.1809   8.0735682164e+01   2.1405978330e+01    0.6412151    0.4025833  60.24   0.00232893    1.689    0.408
       178 -10.5963    172.2181     67.7881   8.8652119812e+01   3.2694084025e+01    0.4417942    0.3221638 -47.98  0.001432306    1.432    0.302
       179  -9.7019    113.3418     68.2866   1.0299617957e+02   4.7339910823e+01    0.5076113    0.2707297  66.67  0.001709542    2.965    0.663
       180 -10.1927    143.0738    249.2111   1.2950035367e+02   9.2004719146e+00    0.2310152    0.1029421  25.07  0.001157892    2.634    0.620
       181 -10.4951     24.3861     47.7198   1.3339595395e+02   6.6593338485e+01    0.8207259    0.3553178  13.19  0.002310706    2.944    0.660
       182 -11.4076     32.6493     42.2037   1.2728547325e+02   6.7131769156e+01    0.6984088    0.4672229  40.89  0.002379568    1.682    0.406
       183 -11.1647     58.0435     61.7635   1.2111317314e+02   5.9451428206e+01    0.8607821    0.5085511 -77.74  0.003562308    2.475    0.596
       184 -10.6846     51.3302     46.1119   1.1894038332e+02   6.3972038334e+01     0.516252    0.3826211 -82.38  0.001101814    1.782    0.439
       185  -9.7124    174.6222    246.8509   1.2364929871e+02   5.1594073203e+00    0.2260744    0.1133557  23.20  0.001176278    1.954    0.488
       186 -11.6532     47.3559     30.6657   1.1467090033e+02   6.7833720314e+01    0.7605254    0.3816355  24.55  0.002363124    2.504    0.601
       187 -11.5491     51.4919     61.4841   1.2392113709e+02   6.0432681706e+01    0.4907336    0.3338961 -77.02 0.0006461353    1.701    0.412
       188 -10.9421    128.6482    242.3066   1.3146643758e+02   1.2050236654e+01    0.3443644    0.2779329  12.73  0.002610382    1.471    0.320
       189 -10.8039     60.9248     36.4842   1.1041374078e+02   6.4506135015e+01    0.3568954    0.2274326 -46.58 0.0008604071    1.522    0.343
       190 -11.3515     46.1554     58.1663   1.2538727040e+02   6.1898660639e+01    0.6569101    0.4161399 -65.86  0.003272943    1.562    0.360
       191 -11.3436     40.5562     56.3134   1.2750831408e+02   6.2997170934e+01    0.5803263    0.3910192  70.62  0.001987761    1.981    0.495
       192 -11.6674     46.2253     48.9740   1.2245917577e+02   6.4019969307e+01    0.4559615    0.3779866 -11.47  0.001227479    1.350    0.259
       193 -12.4995     41.8187     45.4800   1.2349559861e+02   6.5364364631e+01     0.344041    0.3116807  20.22 0.0003280552    1.189    0.159
       194 -10.7401     20.9779     65.1310   1.3886027988e+02   6.2650369916e+01    0.2218851    0.2001543  31.24 0.0007129845    1.250    0.200
       195  -9.9748    204.6308     63.8103   8.2127616961e+01   2.5184983728e+01    0.2572701    0.1982085  31.09  0.001312583    1.459    0.315
       196  -9.3215    198.5303     63.2182   8.2862125383e+01   2.6751813637e+01    0.2942297    0.1242196 -36.00  0.001126784    2.190    0.543
       197 -10.4533    105.9648     62.3646   1.0324096162e+02   5.0214558378e+01    0.4811644    0.3226324 -81.31  0.001854772    2.541    0.606
       198 -10.3142    167.5504     63.0673   8.8098009626e+01   3.4637083750e+01    0.2770538    0.2177952  60.00 0.0003820074    1.259    0.206
       199 -10.6813    159.5896     61.5784   8.9204538993e+01   3.6945559922e+01    0.9993948    0.5150141 -30.05  0.003892493    2.037    0.509
       200 -10.6273    157.4711     56.5376   8.8002086128e+01   3.8301343651e+01    0.3674136    0.2695191  39.09 0.0005827272    1.457    0.314
       201 -11.2247    156.6695     53.3169   8.7099036202e+01   3.9014340489e+01    0.7399258    0.4448514 -49.93   0.00302248    1.832    0.454
       202  -9.6418    198.9568    244.5232   1.1921376800e+02   2.1162171296e+00    0.1702508   0.07712943  36.05  0.001031491    1.597    0.374
       203 -10.1394    150.7610    237.7486   1.2689499315e+02   9.5455983595e+00    0.2175809    0.1361486 -36.70  0.001440069    2.206    0.547
       204  -9.4402     15.3106    233.3691   1.5232572834e+02   2.6924015037e+01    0.1557147    0.1076299 -82.44  0.001240007    1.675    0.403
       205 -11.0134    112.9067     50.4193   9.6730964315e+01   5.0835125330e+01    0.5649219    0.4354445   2.55  0.001904406    1.675    0.403
       206 -10.3024    242.4734    231.2109   1.1043173264e+02  -2.2903861804e+00    0.2041521     0.181863  50.21  0.001603283    2.249    0.555
       207 -10.1363    247.4977    231.0621   1.0964710980e+02  -2.9003556807e+00    0.1801555   0.08653067 -18.55  0.001159903    2.159    0.537
       208  -9.8470    147.7720     60.5219   9.1384894623e+01   4.0202807248e+01     0.421297    0.1526897  57.34  0.001357567    2.715    0.632
       209 -10.7705    139.6343     43.2725   8.7178344975e+01   4.5111767842e+01    0.6333511    0.2798124  39.05  0.002053607    3.004    0.667
       210  -9.7111    197.6603    231.6689   1.1777595839e+02   3.6123753898e+00    0.1166429   0.06754335  15.07 0.0007051717    1.743    0.426
       211 -10.2071    207.2352     68.4522   8.3020766000e+01   2.3926331775e+01    0.4312618    0.1916565  48.69  0.001718456    2.328    0.570
       212 -11.6123    105.6240     33.0024   9.1783886969e+01   5.5560539782e+01    0.6110534    0.3847457   8.50  0.001403188    2.561    0.610
       213  -9.5280      2.3913     56.1369   1.4637601244e+02   6.5825831460e+01    0.1823085    0.1747845 -19.64 0.0006305636    1.227    0.185
       214  -9.2999    187.9774     55.4418   8.2227047603e+01   3.0485096571e+01    0.2309971    0.1436137  61.23  0.001030686    1.610    0.379
       215  -9.6224     67.0715     54.9736   1.1496724543e+02   5.9565087073e+01    0.2156644    0.2073789 -60.09 0.0005944921    1.047    0.045
       216 -10.5114    231.7654     39.3503   7.2306884194e+01   2.1843065641e+01    0.6145529    0.2927921 -60.28  0.002270081    2.687    0.628
       217  -9.8997    249.3184     53.0120   7.4028923772e+01   1.6486071871e+01    0.3107845    0.2145772 -82.59  0.001393368    1.829    0.453
       218 -10.5022    234.2895     45.4254   7.3620988617e+01   2.0581152556e+01    0.3728559    0.2726824 -87.79  0.002058689    1.575    0.365
       219 -11.2021    239.9739     50.3649   7.4297966773e+01   1.8762388343e+01    0.3804596    0.3422595  88.76  0.001076107    1.224    0.183
       220 -10.3045    244.4985     50.5022   7.3884225960e+01   1.7778990483e+01    0.2697459    0.1950191 -32.28 0.0008683103    1.204    0.169
       221 -11.1841    201.7666     48.8941   7.8323792698e+01   2.7869904316e+01    0.9340579    0.4511157 -53.64   0.00359342    2.500    0.600
       222 -11.2549    173.6113     48.0001   8.2255096236e+01   3.5278471845e+01    0.5510678    0.3894419  74.57  0.001645728    1.493    0.330
       223 -10.7706    177.5608     44.1192   8.0380727501e+01   3.4759425238e+01    0.6254038    0.3555624 -50.29  0.002604722    1.898    0.473
       224 -10.5041    175.7423     29.6401   7.5983384649e+01   3.7090559255e+01    0.3802458    0.3263738  40.04  0.001184291    1.255    0.203
       225 -10.8645    176.7544     37.5540   7.8406582495e+01   3.5836527059e+01     0.466403     0.312091 -24.83  0.002050754    1.547    0.354
       226 -11.1271    172.7389     33.8375   7.7797975855e+01   3.7393053545e+01    0.5023665    0.2770309  63.13  0.002127441    1.734    0.423
       227 -11.5884    182.6245     25.1171   7.3609992661e+01   3.5753666466e+01    0.6222306    0.3302099  53.59  0.002338077    1.887    0.470
       228  -9.1211     23.4739    231.5403   1.5075990774e+02   2.6444692081e+01    0.1063798   0.07023741  53.60 0.0002087862    1.021    0.021
       229  -8.6018    101.0000     48.9434   9.9852269170e+01   5.3940665014e+01    0.2457613   0.08684037 -38.90 0.0007922809    2.873    0.652
       230 -10.1235     90.6500     47.9728   1.0301199598e+02   5.6445874047e+01    0.2704822    0.2507806 -65.42  0.000727844    1.160    0.138
       231  -9.5126      3.8245     48.7916   1.4464494125e+02   6.7533044335e+01    0.1891278    0.1467095   1.44  0.001219481    1.529    0.346
       232  -9.5347     14.2625     46.4046   1.3858123945e+02   6.7606550886e+01    0.3106419    0.1205977 -50.41   0.00140274    2.189    0.543
       233  -9.6888    193.2448     45.9520   7.8624193021e+01   3.0410547686e+01    0.2734315    0.1961735 -75.47 0.0009368876    1.611    0.379
       234 -11.3489    136.4203     56.1626   9.2546280018e+01   4.3887764881e+01     0.678188    0.4698429 -26.84  0.002043631    1.573    0.364
       235  -8.9196     94.1841     36.1880   9.6822077137e+01   5.7794998735e+01    0.2638674    0.1802346 -55.76 0.0009852231    1.772    0.436
       236 -10.3633    100.6260     43.5590   9.7812140427e+01   5.5006919143e+01    0.5375972    0.3581332 -76.51  0.002111713    2.545    0.607
       237 -11.2369     93.8177     41.2428   9.9128036018e+01   5.6994596992e+01    0.5425941    0.3506341  49.01  0.001609747    1.525    0.344
       238 -12.1458    156.3919     41.8528   8.3258022375e+01   4.0781888627e+01    0.7504262    0.4529188  76.41  0.001499283    1.881    0.468
       239 -11.1309    153.4534     36.2503   8.1837423697e+01   4.2359037762e+01    0.3626261    0.3253493 -89.60 0.0006902142    1.123    0.109
       240  -9.9356      4.6604     44.1752   1.4345697527e+02   6.8600534425e+01    0.3399229    0.1773513 -18.74  0.001754271    2.315    0.568
       241 -10.2571    189.0744     40.6316   7.7600338675e+01   3.2174358198e+01    0.5254347    0.2231295 -22.16  0.001517146    2.600    0.615
       242  -9.5143     18.1607     41.8734   1.3533598877e+02   6.8433175281e+01    0.2619204    0.1508244 -12.10  0.001294867    2.212    0.548
       243 -11.3491     81.7456     39.3926   1.0275589275e+02   5.9970538673e+01    0.5066472    0.3722256  72.17  0.001355287    1.844    0.458
       244 -10.8063     77.7792     34.4325   1.0210849283e+02   6.1707164021e+01    0.4528508    0.2888386  47.44  0.001328262    1.585    0.369
       245 -10.8913     82.3183     31.7461   9.9082763704e+01   6.1220602843e+01    0.4972437    0.4329865  63.15  0.002698707    1.268    0.211
       246  -9.4910    218.1264     38.8688   7.3562679651e+01   2.5084533284e+01    0.2231283    0.1752679 -55.05 0.0009386732    1.236    0.191
       247 -10.3198    206.6693     37.0121   7.4313754324e+01   2.8110466767e+01     0.317333    0.2372904 -46.37  0.000846391    1.268    0.212
       248  -9.0481    189.8485    229.8337   1.1888689736e+02   4.9103577667e+00    0.1450105    0.1072635  36.88 0.0004562337    1.265    0.209
       249 -10.3666    134.1819     37.2422   8.6133320534e+01   4.7474734655e+01     0.705155    0.3702945  65.70  0.002746898    1.963    0.491
       250 -10.4575    139.9012     31.2716   8.2620885138e+01   4.6753049850e+01    0.6290097     0.387973  -8.48  0.002566725    2.119    0.528
       251  -9.8757    133.7436     24.5268   8.1231136897e+01   4.9321433043e+01    0.4576089    0.3135577 -63.58  0.002032736    1.735    0.424
       252 -10.7261    143.9517     25.2281   7.9526673913e+01   4.6410436933e+01    0.8913036    0.3979692  78.56  0.002959643    2.935    0.659
       253 -10.8919    140.8456     20.3660   7.8213556330e+01   4.7856827222e+01    0.7248548     0.327529  52.92   0.00277522    2.057    0.514
       254  -9.8807    158.2216     20.5457   7.5411159601e+01   4.2981584065e+01    0.5460615     0.188214  58.00  0.001888484    2.540    0.606
       255 -10.4207    153.3703     25.8249   7.8094324840e+01   4.3718254797e+01    0.5014699    0.3208164  -9.34  0.001648807    1.912    0.477
       256 -10.3485    156.8336     25.1548   7.7282951032e+01   4.2835205533e+01    0.3325251    0.2414763  74.75  0.000575122    1.350    0.259
       257 -10.5800     22.9396     36.2642   1.3094457324e+02   6.9380504276e+01      0.38886    0.2701005  50.47  0.002069341    1.755    0.430
       258  -9.6845     17.9951     34.4528   1.3338752192e+02   7.0169740976e+01    0.2444729    0.1607594 -61.67   0.00110705    1.310    0.237
       259 -10.7764      4.9433     35.7741   1.4173250877e+02   7.0569405021e+01    0.4613577    0.2956558 -35.73  0.002745891    1.543    0.352
       260  -8.2982      6.4193     30.7567   1.3969758119e+02   7.1675191756e+01    0.3691911    0.1701456  -0.53   0.00179734    2.680    0.627
       261  -8.7512     13.4440     37.5717   1.3700403005e+02   6.9737500372e+01     0.122241    0.1079462 -68.15 0.0002049686    1.073    0.068
       262 -11.6254     70.1105     32.6005   1.0446946627e+02   6.3578107753e+01    0.5222989    0.3152639  36.70  0.002419596    1.729    0.421
       263 -10.5643    189.7279     32.6069   7.5057599180e+01   3.2989382509e+01    0.3556325    0.3009779 -88.30 0.0009730601    1.185    0.156
       264 -10.5327    189.1360     27.9584   7.3698817699e+01   3.3689401115e+01    0.4012726    0.3127206   8.84  0.001601231    1.560    0.359
       265  -9.5312      9.0511    227.4521   1.5333579914e+02   2.8464556252e+01    0.1460581   0.07585885  36.66 0.0003707334    1.540    0.351
       266  -9.9514    217.0517     31.9576   7.1782757845e+01   2.6133569986e+01    0.2095288    0.1920676 -47.88 0.0004862558    1.012    0.012
       267 -11.0230    197.8680     28.9159   7.2961591675e+01   3.1291971821e+01    0.4392817    0.3713387 -16.91  0.001526506    1.257    0.204
       268 -10.3736    199.5275     24.9756   7.1608519556e+01   3.1303502436e+01     0.323036    0.2576491 -24.90 0.0009131853    1.271    0.213
       269 -10.3242    160.4762     33.0399   7.9472697176e+01   4.0851015884e+01    0.4285698    0.2850005 -61.79  0.001532863    1.718    0.418
       270  -9.3959    230.5598     30.5176   7.0124471118e+01   2.3096485738e+01    0.2353348    0.1750396 -37.66 0.0004943049    1.194    0.162
       271  -9.5770    230.4895     26.9879   6.9210773625e+01   2.3491138350e+01    0.2087951    0.1187455 -28.73   0.00102901    1.586    0.370
       272 -11.5498    119.8842     57.2442   9.7252859568e+01   4.7887008719e+01     1.190766    0.6926175  54.64   0.00492616    1.698    0.411
       273  -9.6226    234.5025    222.5318   1.1041240980e+02  -4.8553900774e-01    0.1101512   0.07701607  17.31 8.504213e-05    1.004    0.004
       274  -9.7646      9.9653    217.9136   1.5293322432e+02   2.9995555262e+01    0.1639225    0.1114007  56.51  0.000681189    1.006    0.006
       275  -9.6539    166.6396    213.5058   1.2093749086e+02   1.0324820332e+01    0.2362954    0.1707768  74.76 0.0009703047    2.676    0.626
       276  -9.3717    152.9220    207.9590   1.2285265583e+02   1.3217848273e+01    0.1890147    0.1309953  56.73  0.001000659    1.698    0.411
       277 -10.6635      4.2786    204.6649   1.5373043964e+02   3.2828105067e+01    0.2179643    0.1482898 -86.59  0.001070345    1.511    0.338
       278  -9.6911    239.0103    205.0012   1.0701642105e+02   5.9656421955e-01    0.1623816     0.117287 -46.70  0.001025779    2.626    0.619
       279  -9.7876    250.5176     25.1948   6.7198610253e+01   1.9238279375e+01    0.2171616    0.1147685 -21.48 0.0004225688    1.810    0.448
       280 -10.2519    245.3081    200.9834   1.0538982720e+02   1.2917284475e-01    0.1550165    0.1141813   5.25 0.0005413945    1.086    0.079
       281 -10.2948    234.2945    196.9037   1.0645437700e+02   2.0826797974e+00    0.3188736    0.2074051   6.66  0.001494262    1.370    0.270
       282  -9.8150     80.7663     19.3949   9.3551171946e+01   6.3544656915e+01    0.3481856    0.2133879  40.67  0.001202659    1.621    0.383
       283 -10.1934     17.1281    192.6283   1.5068694711e+02   3.3942485700e+01    0.1970191    0.1399284  65.88 0.0005623791    1.093    0.085
       284  -9.5144    222.9539     22.4918   6.8663926262e+01   2.5736227717e+01    0.2518659    0.2000682  68.89 0.0008514755    1.325    0.245
       285 -10.1002    220.9728     19.0655   6.7907593472e+01   2.6565911814e+01    0.2427573    0.1750583 -38.95            0    1.247    0.198
       286  -9.9728    214.9294     22.0739   6.9256274614e+01   2.7726838555e+01    0.3238981    0.2538579 -22.38  0.001802081    1.293    0.227
       287 -10.7014    240.8497     31.0667   6.9385562743e+01   2.0717793926e+01    0.4963762    0.2830351 -19.88  0.001924133    1.744    0.427
       288 -12.2811      5.4466    185.4483   1.5299069978e+02   3.6334163747e+01    0.7412434    0.4026834  65.63   0.00484873    1.411    0.291
       289  -9.5636    170.1292    191.1721   1.1700544615e+02   1.2850235583e+01    0.3321429    0.1389068  28.07  0.001332551    2.914    0.657
       290  -8.6417    168.3244    188.3054   1.1691285159e+02   1.3568116628e+01    0.1292429    0.0880889  14.17 0.0007033739    1.644    0.392
       291  -9.0603     57.2271    175.2253   1.4037604812e+02   3.3145281719e+01    0.1744122    0.1136528  57.60 0.0004345838    1.292    0.226
       292 -10.0786     51.8894    174.4212   1.4160764292e+02   3.3953018951e+01    0.2398463    0.1450136  72.56  0.001226769    1.592    0.372
       293  -9.9199     39.4704    173.3009   1.4454507455e+02   3.5584489228e+01    0.2040845    0.1048174 -72.76 0.0008480593    1.980    0.495
       294 -10.9672     35.0851    170.6097   1.4543266229e+02   3.6606036110e+01     0.210248    0.1873153 -86.00  0.001069422    1.270    0.213
       295 -11.2184      9.3823    167.0839   1.5148567444e+02   3.9702135857e+01    0.4647483    0.3085383  61.65   0.00232979    1.158    0.136
       296 -11.7424     13.1060    158.7770   1.5022611971e+02   4.1148492185e+01    0.5692712    0.3337801  72.89  0.001934592    1.419    0.295
       297  -8.8709    198.0015    167.9639   1.0766239415e+02   1.1357032087e+01    0.1546339    0.1325096   5.67 0.0006636705    1.095    0.086
       298  -9.0006    149.0202    168.2536   1.1765548049e+02   2.0120427667e+01    0.1855431     0.101761  40.01 0.0008841915    1.558    0.358
       299  -9.3860     39.8030    166.7770   1.4399709768e+02   3.6915204379e+01    0.1836076    0.1163982 -34.64  0.000891962    2.736    0.634
       300 -10.2133     28.4826    164.1153   1.4665319461e+02   3.8636355305e+01    0.3816794    0.1598248  83.27  0.001806091    2.484    0.597
       301  -9.4486      1.6554     20.5901   1.4042204837e+02   7.4178195832e+01    0.1887194     0.104351 -39.49 0.0008854868    1.628    0.386
       302 -10.0054     18.4914    165.2939   1.4919792750e+02   3.9309238010e+01    0.2108566     0.199166 -49.16  0.001587028    1.453    0.312
       303  -9.5004    188.9600    164.0282   1.0863931425e+02   1.3525006398e+01    0.2136536    0.1452043  10.47  0.001082482    1.670    0.401
       304  -9.5684    205.0893    163.1499   1.0545925306e+02   1.0771916264e+01    0.2035205    0.1484019  17.51 0.0006707048    1.270    0.213
       305  -9.7915    225.3297     16.3139   6.6821872782e+01   2.5801197702e+01    0.2454285    0.1936774 -52.26  0.001431959    1.136    0.119
       306 -10.5818    246.5391    159.7238   9.7932957129e+01   4.2937985333e+00    0.4065238    0.1021835 -30.67  0.001583333    3.732    0.732
       307  -9.9202    191.6837     16.7605   6.9959070053e+01   3.4233564052e+01    0.2788285    0.2622361 -88.83  0.001418194    1.049    0.047
       308 -10.2337     80.7422    159.8577   1.3282135192e+02   3.3201244133e+01    0.3862445    0.2632633  41.81  0.002141013    1.287    0.223
       309  -9.2934    215.3738    157.8749   1.0262183527e+02   9.6737673193e+00    0.1826747    0.1095321 -15.69 0.0009453916    1.818    0.450
       310 -10.8094    104.8095    153.2842   1.2567130601e+02   3.0783340673e+01    0.4564001    0.3986318  84.66  0.002705867    1.206    0.171
       311  -9.1198     27.8000     15.5651   1.1932337881e+02   7.3394730585e+01    0.1642186    0.1158728  39.16 0.0009378098    1.653    0.395
       312 -11.7703     22.3379    149.7860   1.4735061006e+02   4.2318950411e+01    0.4847264    0.3542129 -22.89  0.002909734    2.129    0.530
       313 -10.7832     10.7794    127.0021   1.4920751751e+02   4.8405279760e+01    0.5087158    0.1848597 -63.18  0.001628132    2.624    0.619
       314 -11.7246     13.7629    141.9605   1.4921134212e+02   4.4777605586e+01     1.280069    0.3865569  80.02  0.004768153    3.843    0.740
       315 -10.6977     14.1097    132.5271   1.4856574607e+02   4.6889622856e+01    0.2784673    0.1755498  71.87  0.001661519    1.356    0.262
       316 -12.1525     23.2835    136.2764   1.4617279198e+02   4.5283025208e+01     0.848599    0.5490184  49.44  0.005085684    1.364    0.267
       317 -11.7025     29.8071    132.7696   1.4399063462e+02   4.5505606883e+01    0.5378244    0.3160059  84.99 0.0004806771    1.593    0.372
       318 -11.4067     30.7705    149.0131   1.4502876966e+02   4.1708510364e+01    0.8362545    0.3034025 -86.27  0.003231986    2.923    0.658
       319 -11.0970     33.3572    144.4333   1.4395924055e+02   4.2484583251e+01    0.3512315    0.2385424  89.86 0.0006405863    1.344    0.256
       320  -9.5672     22.6450    154.9415   1.4758502285e+02   4.1158655641e+01    0.2323088    0.1541398  -5.01   0.00128241    2.507    0.601
       321 -10.1230     72.3915    151.8174   1.3400072531e+02   3.6134453634e+01    0.4591802    0.2173103  52.54   0.00206193    2.028    0.507
       322 -11.9684      5.3120    147.3127   1.5173281831e+02   4.4224672379e+01     0.562219    0.4058194 -68.34  0.003095592    1.495    0.331
       323 -11.0129      2.6623    141.2590   1.5219661041e+02   4.5738693517e+01    0.3564273    0.2869274  48.44  0.002550815    1.206    0.171
       324 -11.8246      3.6550    136.4065   1.5172764221e+02   4.6752143368e+01    0.2301635    0.1902305  60.55 0.0004349672    1.111    0.100
       325  -9.6662    214.3104    151.7892   1.0160434004e+02   1.0667397107e+01    0.1866385    0.1616817 -35.51 0.0007190252    1.388    0.279
       326 -11.3087     62.9295    150.7436   1.3643148759e+02   3.7655855499e+01    0.4929793    0.3435791   4.98  0.002378725    2.252    0.556
       327  -9.9177     60.8066    147.3949   1.3662141736e+02   3.8679718741e+01    0.2554437    0.2175051  39.27 0.0007973328    1.208    0.172
       328 -10.2033     47.1731    151.6939   1.4081103935e+02   3.9376642517e+01    0.6637132    0.2590542  55.82  0.002830753    2.545    0.607
       329 -10.2216     48.3256    147.6874   1.4010443517e+02   4.0141183128e+01     0.234561    0.1687648  61.65 0.0007139088    1.214    0.176
       330 -10.3528     46.3738    144.8058   1.4035750378e+02   4.1016364413e+01    0.4056692    0.2085699 -55.21  0.001513278    2.192    0.544
       331  -9.6339     86.1297    150.1024   1.3007741874e+02   3.4483286625e+01      0.20103    0.1924759  17.26  0.001247327    1.250    0.200
       332  -9.8324     56.6208    149.4970   1.3801265681e+02   3.8739279077e+01    0.2130191    0.1179548 -74.09 0.0009641547    1.826    0.452
       333 -10.4539    249.6484    142.6198   9.4126891365e+01   5.7492240395e+00    0.4767351    0.1777861 -27.59  0.002174983    2.474    0.596
       334  -9.0805    239.5385    146.5449   9.6425149519e+01   6.9568309154e+00    0.1243157    0.1027496   4.04 0.0002298404    1.015    0.015
       335 -10.2528    133.2916    139.9800   1.1609732368e+02   2.8284437992e+01    0.3790958    0.3480305  14.01  0.002170808    1.176    0.149
       336  -9.9457     69.4157    140.6840   1.3335299298e+02   3.9039652766e+01    0.1746915    0.1219143 -58.09 0.0009316377    1.543    0.352
       337 -10.8386     81.4910    135.1982   1.2908751911e+02   3.8509055915e+01     0.551806    0.3943845 -13.13  0.002265332    2.384    0.581
       338 -11.6487     91.9125    131.0164   1.2539204016e+02   3.7773969043e+01     0.706413    0.5250065 -45.89  0.003673467    1.542    0.352
