#   1 NUMBER                 Running object number                                     
#   2 MAG_AUTO               Kron-like elliptical aperture magnitude                    [mag]
#   3 X_IMAGE                Object position along x                                    [pixel]
#   4 Y_IMAGE                Object position along y                                    [pixel]
#   5 X_WORLD                Barycenter position along world x axis                     [deg]
#   6 Y_WORLD                Barycenter position along world y axis                     [deg]
#   7 A_WORLD                Profile RMS along major axis (world units)                 [deg]
#   8 B_WORLD                Profile RMS along minor axis (world units)                 [deg]
#   9 THETA_WORLD            Position angle (CCW/world-x)                               [deg]
#  10 FWHM_WORLD             FWHM assuming a gaussian core                              [deg]
#  11 ELONGATION             A_IMAGE/B_IMAGE                                           
#  12 ELLIPTICITY            1 - B_IMAGE/A_IMAGE                                       
         1 -12.3041    204.9608     28.0387   2.5262014698e+01   3.0245783267e+01     2.731086    0.2519442 -31.18  0.008003306    4.639    0.784
         2 -13.4336    193.0815     49.1918   3.2271453646e+01   3.0381984191e+01     19.12596          nan -41.42   0.02829183   16.641    0.940
         3 -13.9179    248.0234     47.9255   2.6774729653e+01   1.9273440398e+01     1.513293     1.429304   3.07  0.005313486    1.302    0.232
         4 -14.6763    229.6782     93.5196   3.9001481371e+01   1.6949650933e+01     5.514149     1.212121 -42.35   0.01707943    4.634    0.784
         5 -13.6853    248.2049     80.6161   3.4067378928e+01   1.5390709594e+01     2.118087    0.5231598 -28.66  0.002226528    3.466    0.711
         6 -13.3435    243.2073     17.6850   2.0167255963e+01   2.3385119965e+01     1.966279    0.9960011  -5.77  0.002255488    3.249    0.692
         7 -14.1358    181.8147     84.9587   4.3704263907e+01   2.7697827252e+01     6.733449     1.806219 -39.41  0.004706588    3.250    0.692
         8 -12.8995    220.2825     35.9401   2.6071014371e+01   2.6033112325e+01      4.69895    0.5356045 -31.00   0.01430194    4.502    0.778
         9 -10.7840    132.9944     27.7583   3.3800154458e+01   4.8342237492e+01    0.7527985    0.2569925 -25.30  0.001622188    3.142    0.682
        10 -10.7778    133.4924     20.4779   3.0900147398e+01   4.9083634340e+01    0.7122862    0.3391798  -9.45  0.002525168    3.154    0.683
        11  -9.8658    178.6537     23.6735   2.6392825092e+01   3.6944775442e+01    0.5035874    0.4459309  74.51  0.002996044    1.193    0.162
        12 -12.0679    249.9895     33.6453   2.3414693608e+01   2.0477547599e+01    0.7435271    0.3496601 -30.66  0.004049141    1.646    0.393
        13  -9.8279     89.9882     15.2228   3.7355220490e+01   6.1372489570e+01    0.3267379    0.2091926 -25.45 0.0007615581    1.642    0.391
        14  -9.1403    156.0000     12.0967   2.4943535670e+01   4.3958682017e+01    0.4387526    0.2152021  -7.88  0.001704889    2.850    0.649
        15  -8.6563    157.1986      8.1940   2.3483546864e+01   4.4021739411e+01    0.2632317    0.1873319 -35.58 0.0005615284    1.342    0.255
        16 -10.0508    120.2142      9.3986   2.8430926941e+01   5.3865899622e+01    0.3835455    0.3205422 -40.05 0.0009969913    1.212    0.175
        17  -9.0146    230.3001      8.7125   1.8697302996e+01   2.6804784590e+01    0.2430324    0.1390289 -49.81  0.001040557    1.393    0.282
        18 -10.8006    224.4583      6.0304   1.8322845902e+01   2.8261907796e+01     0.482663    0.2890051   2.35  0.002446757    2.565    0.610
        19  -9.9150    228.8421      3.9376   1.7613262181e+01   2.7549237899e+01     0.293019    0.1974373 -28.36 0.0007459493    1.343    0.256
        20  -8.1986    146.5605      9.0332   2.4864405915e+01   4.6759352696e+01    0.2034795    0.1378686 -23.46 0.0005186955    1.540    0.351
        21  -9.4269    136.1638      7.7502   2.5577722245e+01   4.9679019278e+01    0.2573729    0.2206606 -23.26 0.0005082572    1.254    0.203
        22  -8.7247    191.0641      6.5221   2.0302665899e+01   3.5684057969e+01    0.2022997     0.189412  66.28  0.001303645    1.251    0.201
        23  -8.4255    238.6561      3.1488   1.7018672421e+01   2.5653745080e+01    0.2610864    0.1575014 -50.41  0.001618364    1.292    0.226
        24  -9.1448    182.2623      3.0866   1.9868825968e+01   3.8124936749e+01    0.2946427    0.1838986 -44.97  0.001562899    1.380    0.275
        25  -7.8526    142.9940      2.9967   2.3016931303e+01   4.8261673481e+01    0.1661247    0.1506574 -53.83 0.0003396783    1.081    0.075
        26  -8.3761    219.6657      6.1951   1.8596217846e+01   2.9257571480e+01    0.2008913    0.1551325 -19.82  0.001106531    1.377    0.274
        27  -9.8530    233.3223      5.8736   1.7880066684e+01   2.6461064844e+01    0.2774756    0.2546765 -83.14  0.001251431    1.266    0.210
        28  -8.8430    210.9910      1.7664   1.7888527391e+01   3.1547326322e+01     0.165529    0.1592158 -58.16 0.0005183798    1.217    0.179
        29 -11.9683    217.5615     21.8667   2.2695196889e+01   2.8150341035e+01     1.977897     0.755576  -9.60  0.005330535    7.458    0.866
        30  -8.7489    206.2690    179.2430   6.0071314517e+01   8.8951053812e+00    0.1633006    0.1452034 -88.79  0.001050197    2.155    0.536
        31  -9.0674    198.8161    178.5615   6.1240498068e+01   1.0047833924e+01    0.2299875    0.2032006 -28.21 0.0008636675    1.353    0.261
        32  -9.7866    250.0900    169.5394   5.1628169408e+01   4.2931701552e+00    0.3055684    0.1166334 -33.10  0.001620659    2.257    0.557
        33  -9.7107    154.4495    170.1470   6.8369101870e+01   1.8201542496e+01    0.2308927    0.1961434  22.16 0.0002322714    1.054    0.051
        34  -8.3878    160.1742    167.7798   6.6731833026e+01   1.7673072785e+01    0.1824626    0.1436971  -1.52   0.00105263    1.309    0.236
        35  -8.6600    134.7027    248.7542   8.3203488183e+01   8.8749485667e+00    0.1735599    0.1296298  76.86 0.0009867896    2.422    0.587
        36 -11.4030    160.5275     93.1318   4.9815878705e+01   3.1031629787e+01    0.5200643    0.3596978 -48.38 0.0006447597    1.462    0.316
        37  -9.3253    152.0122    247.7826   7.9839021604e+01   6.9464572441e+00     0.173265    0.1364496  -2.72 0.0002808746    1.298    0.230
        38  -8.5761    152.9181    243.1669   7.9149954359e+01   7.4211401498e+00    0.1570371    0.1177751  29.67  0.000241539    1.165    0.142
        39  -7.7616     71.7750    238.9422   9.5022143314e+01   1.7741970756e+01    0.1202861   0.09368187 -76.23   0.00052258    1.625    0.385
        40 -10.7956      2.1465    156.7390   1.0749229783e+02   4.1421216086e+01    0.6251371    0.2199826 -76.15  0.002717977    2.659    0.624
        41 -10.0684    119.9223    234.6624   8.4660920978e+01   1.2650750146e+01     0.186931    0.1746688  -8.22 0.0005994053    1.290    0.225
        42  -7.9351    227.0161    159.5490   5.3141586110e+01   8.5578592127e+00    0.1614062    0.1077124  33.06 0.0007667023    1.546    0.353
        43 -11.9923     15.6755    154.8728   1.0346311527e+02   4.0842082008e+01    0.7972704    0.4790657 -67.29  0.004276951    1.718    0.418
        44 -12.0552     12.3262    142.7849   1.0380611300e+02   4.4074098366e+01    0.8181992    0.5468795  42.01  0.004611379    1.349    0.259
        45  -9.3644    203.1644    151.4901   5.5424015805e+01   1.3249402495e+01    0.2956966    0.2499653  79.11  0.001770518    2.004    0.501
        46  -9.5627    166.0929    151.9295   6.2478036876e+01   1.9389362435e+01    0.3109108    0.2470834 -38.17  0.001345272    1.298    0.229
        47  -8.4221    183.0940    152.5497   5.9241313649e+01   1.6375719245e+01    0.2073364    0.1662977 -38.95 0.0003587426    1.326    0.246
        48 -13.5168    234.2842     77.6772   3.4844794221e+01   1.8190337240e+01     1.182563     1.000161 -39.31  0.002841009    1.086    0.079
        49 -10.8547     65.5196    142.0888   8.6855619969e+01   3.8485618614e+01     2.453766     1.035396  57.51  0.008396411    3.230    0.690
        50 -11.8865     30.8303    145.5438   9.8172991437e+01   4.1764126918e+01    0.5230566    0.4522664  49.43  0.001127795    1.094    0.086
        51 -12.9506     41.6822    142.2345   9.4405184309e+01   4.1451672132e+01     1.417385     0.932679  24.72  0.004493168    1.587    0.370
        52 -12.9778    172.4522     96.5402   4.8414918791e+01   2.7821573618e+01     3.021642     1.008421  44.21   0.01010845    3.403    0.706
        53 -10.6878    213.8420    141.2208   5.1601350698e+01   1.3019379633e+01    0.6617623    0.3436344 -44.37  0.001776953    2.177    0.541
        54  -9.2952    225.2524    146.9852   5.0994649275e+01   1.0461489304e+01    0.2542639    0.1772607 -30.93 0.0003997193    1.304    0.233
        55  -8.9860    222.6607    145.2591   5.1045337616e+01   1.1084257647e+01    0.1861124    0.1727105 -15.72   0.00034267    1.266    0.210
        56  -9.7373    133.9413    146.0809   6.8498542853e+01   2.6222093767e+01    0.8791367    0.2624594 -53.74  0.002557464    4.722    0.788
        57  -9.6883    186.0173    144.4887   5.7055600042e+01   1.7165211494e+01    0.3002461    0.2210255  56.22   0.00149156    1.764    0.433
        58  -9.2132    147.9733    143.8000   6.4743094630e+01   2.4105258070e+01    0.3714873    0.2004674 -67.72  0.001111428    5.286    0.811
        59  -8.5050    143.5796    144.7319   6.5942296482e+01   2.4731965203e+01    0.1953634    0.1365344 -55.79 0.0009576535    1.671    0.402
        60  -8.3170    204.2265    144.3884   5.3817050776e+01   1.4118236051e+01    0.1948122    0.1573229 -58.59  0.000621744    1.774    0.436
        61 -10.3310    201.5228    140.7625   5.3527946328e+01   1.5103481058e+01    0.3923323    0.3178096  37.12  0.001869204    1.323    0.244
        62  -9.9092    192.1972    143.8276   5.5790837219e+01   1.6210320525e+01    0.2631941    0.2152902  37.31 0.0006765418    1.291    0.226
        63  -7.9135    158.4964    143.4703   6.2349761018e+01   2.2239806748e+01    0.1393507    0.1273362   6.17 0.0008097636    1.029    0.028
        64  -9.5743    217.7155    144.8599   5.1727461423e+01   1.1899547820e+01    0.3129098    0.2231723 -13.06 0.0007865914    1.281    0.219
        65  -9.2430    142.2888    136.0823   6.4421756047e+01   2.6657731013e+01     0.256217    0.1937795  28.08 0.0007912298    1.354    0.261
        66 -10.0672    160.4217    128.1754   5.8598616645e+01   2.4667161900e+01    0.4054633    0.2959999 -26.33  0.001846122    1.429    0.300
        67  -9.7154    164.5611    124.7618   5.6945886692e+01   2.4478408056e+01    0.3513476    0.2442872 -23.47  0.001238964    1.563    0.360
        68  -9.3750    136.1963    129.1916   6.4360174771e+01   2.9209508370e+01    0.4254295    0.1671484 -48.33  0.001530082    2.679    0.627
        69  -7.8639    170.5379    129.5589   5.6822296447e+01   2.2472471982e+01    0.1361873    0.1301991 -11.04 0.0001552245    1.064    0.060
        70  -9.0361    202.0535    125.8747   5.0256994245e+01   1.7256997909e+01    0.1875779    0.1678432 -47.68 0.0005626572    1.297    0.229
        71  -7.6845     91.4679    125.4397   7.5852323480e+01   3.8461633438e+01    0.1485043    0.1426625  55.25 0.0001334912    1.025    0.025
        72  -9.0286     50.0407    125.0553   8.9421254780e+01   4.4854421439e+01    0.2150603    0.1938498  70.13  0.001212578    1.019    0.018
        73  -8.6130    205.6369    122.4503   4.8919622164e+01   1.7136650432e+01    0.3182139      0.10431 -38.52  0.001229307    2.752    0.637
        74  -8.8286    135.0145    120.1585   6.2554721410e+01   3.1290543491e+01    0.2617141    0.2113737 -42.86 0.0007062466    1.252    0.201
        75  -7.9843     87.4139    118.1957   7.5585808757e+01   4.0921799375e+01    0.2108167    0.1449174 -74.14 0.0009356928    1.683    0.406
        76  -9.8000    175.1145    115.4068   5.2636562620e+01   2.4033912235e+01    0.2985001    0.2344808 -52.28 0.0007934535    1.404    0.288
        77  -9.3547    200.5977    115.9080   4.8259179283e+01   1.9039333019e+01     0.287172    0.2379994  63.64   0.00169083    1.521    0.343
        78  -9.0547    128.3081    114.0919   6.2771864657e+01   3.3926352693e+01    0.2798103     0.254262   9.66 0.0009561497    1.193    0.162
        79  -9.8639    114.9528     97.4133   6.2005218287e+01   4.0337461267e+01     0.379251    0.2617207 -63.08   0.00043645    1.686    0.407
        80  -9.9058    120.2191     94.9712   5.9849948925e+01   3.9716084118e+01    0.6657177    0.3348838 -51.88  0.002275537    2.140    0.533
        81 -10.3419    125.5410    109.0125   6.2211023248e+01   3.5578867895e+01    0.4358617    0.3912927  86.11  0.002278284    1.234    0.189
        82 -12.0479    124.3618    103.5595   6.1095335072e+01   3.6988443917e+01     1.694562     1.016784  37.30  0.007140062    1.790    0.441
        83  -9.6132    209.6250    107.8424   4.5000448788e+01   1.8579187659e+01    0.3204277    0.1949504 -39.37 0.0009129146    1.503    0.335
        84 -10.7845    205.6845    109.7484   4.6037573551e+01   1.9026610693e+01    0.4624045    0.4318255  -9.68  0.001931689    1.082    0.076
        85  -9.4700    142.6924    108.7480   5.7868111046e+01   3.1993954069e+01    0.5418967    0.2593643 -27.13  0.001769078    3.373    0.704
        86 -10.0912    135.0000    111.0532   6.0315282670e+01   3.3161038048e+01    0.6616213    0.2042414 -44.39  0.002069623    3.246    0.692
        87 -10.2196     70.0885    109.1041   7.9452364627e+01   4.6112731911e+01    0.2419261    0.2188628  67.96  0.001289478    1.076    0.071
        88  -9.1104    150.5391    105.4087   5.5208686209e+01   3.0959435990e+01    0.2715685    0.2445288  21.38 0.0006461543    1.170    0.145
        89 -11.3897    135.8919    101.7706   5.7667918722e+01   3.4858002320e+01    0.8018018     0.673255 -84.62  0.002407539    1.427    0.299
        90 -10.6152    144.4375     96.1458   5.4105100609e+01   3.4074643864e+01     0.391781    0.3445514 -81.75 0.0009572526    1.287    0.223
        91  -8.5995     71.3386    225.5419   9.4142483150e+01   2.0056336448e+01    0.1796697    0.1598336  39.24 0.0002950421    1.159    0.137
        92  -7.2685     96.6718    223.3164   8.8407704311e+01   1.7363697608e+01    0.1244318   0.07445785  52.03 0.0007045504    1.677    0.404
        93  -8.3681    106.6358     93.3332   6.3288168335e+01   4.3024222852e+01    0.2852588    0.1471075 -51.21  0.000876195    1.991    0.498
        94 -10.0545    217.6456    110.9554   4.4537291246e+01   1.6682923418e+01    0.3603546    0.2157705 -45.26 0.0007106856    1.730    0.422
        95  -8.7051    134.0902     87.7120   5.4152325083e+01   3.8070495774e+01    0.2592872    0.1981076 -51.70  0.000274599    1.331    0.249
        96 -11.2020    156.1590     76.1110   4.5846801936e+01   3.5023597032e+01    0.8342749    0.2824822 -41.76  0.002600011    2.780    0.640
        97  -9.0880    151.1969     71.5061   4.5443675112e+01   3.7003236988e+01    0.3040212    0.2325497 -58.01 0.0005397673    1.374    0.272
        98 -12.8022    201.5578     87.8827   4.1398054688e+01   2.3087277994e+01     2.028281     0.606033  46.52  0.003035148    3.910    0.744
        99  -8.9929    133.0921     79.8701   5.2033778120e+01   3.9829925502e+01    0.3497442     0.209137 -49.37 0.0004629742    1.724    0.420
       100  -8.3119    131.8081     76.2190   5.1206038649e+01   4.0833898101e+01    0.2200451    0.1946269 -42.26 0.0006076812    1.118    0.105
       101  -8.6820    140.0396     78.6600   5.0029316419e+01   3.8407335654e+01    0.2715916    0.2195945   0.29  0.001035165    1.574    0.365
       102  -8.3434    126.1659     76.3306   5.2645436612e+01   4.2161253432e+01    0.2138778    0.1954643  70.80 0.0005560822    1.112    0.101
       103  -8.9900     84.6226     74.8883   6.4898667863e+01   5.1847947615e+01    0.4566208    0.2249137 -57.60  0.001653807    2.343    0.573
       104  -8.5653    131.2851     71.7101   4.9889978769e+01   4.1809239537e+01    0.2702418    0.2278774 -27.06 0.0003896334    1.264    0.209
       105  -8.8882    130.7665     68.6399   4.9010061574e+01   4.2504139449e+01    0.2786571    0.2219957 -30.04 0.0004014503    1.319    0.242
       106  -8.3094    163.6593     69.6290   4.2515643805e+01   3.4319401637e+01    0.3327279    0.1555218 -41.37  0.001316821    1.996    0.499
       107  -9.5616    144.2552     68.4953   4.5932980250e+01   3.9215243563e+01    0.3042408    0.2309131 -61.65 0.0005910282    1.430    0.301
       108  -9.6714    136.3984     67.6358   4.7371466215e+01   4.1300260249e+01    0.4534476    0.2646283  43.98  0.001876695    1.868    0.465
       109  -9.3416    126.0331     66.1614   4.9332633341e+01   4.4124611976e+01    0.3519838    0.2099792 -44.57  0.001260488    1.659    0.397
       110  -8.7117    212.0623     63.8816   3.3973313407e+01   2.4300200212e+01    0.1952581    0.1728148 -33.39 0.0004575831    1.053    0.051
       111  -8.9776    221.1749    161.1187   5.4337463718e+01   9.1859557199e+00    0.1985434    0.1647193 -34.07 0.0002463721    1.399    0.285
       112  -9.7931    135.7642     62.4590   4.5800072756e+01   4.2368968005e+01    0.3389555    0.2376941 -55.57  0.001538977    1.514    0.340
       113 -14.4686    242.9216     69.6711   3.2139924687e+01   1.7638402518e+01     3.036611    0.9475623  53.57   0.01310382    3.682    0.728
       114  -7.9926     97.9050    162.1189   8.0588304700e+01   2.8986178239e+01    0.1674994    0.1523923  10.27            0    1.195    0.163
       115  -9.4810    144.4723     59.4598   4.2963086716e+01   4.0689838095e+01    0.2862363    0.2455225 -64.42 0.0005886853    1.179    0.152
       116  -7.8562     72.6472     58.2381   6.3578188448e+01   5.8037719829e+01     0.204989    0.1397266 -39.78 0.0004167288    1.512    0.339
       117  -8.9939    108.3754     56.4795   5.0559674170e+01   5.0275939311e+01    0.2756127     0.243975 -80.66 0.0001480541    1.198    0.165
       118 -10.0966    194.6663    158.5094   5.8281543378e+01   1.3565204662e+01    0.4452636    0.3831998 -54.20  0.002718055    1.592    0.372
       119  -8.8595    143.8714    222.0905   7.8377186958e+01   1.1434181063e+01     0.171233    0.1352727  23.20 0.0002885661    1.009    0.009
       120  -8.4431    199.4816     47.1777   3.0988858141e+01   2.9191257078e+01    0.3360868    0.1109666 -31.84  0.001279876    2.516    0.603
       121  -8.0307    111.0165     47.4763   4.6352357530e+01   5.1218206886e+01    0.2210378    0.1496787  58.05 0.0003566892    1.457    0.314
       122  -8.3915    133.9382     52.9054   4.2913058087e+01   4.4440158184e+01    0.2287871    0.2073898  11.46  0.001039585    1.275    0.216
       123 -10.8279    146.3087     42.4097   3.6843556665e+01   4.2842261265e+01    0.5915123    0.2650968  65.64  0.002261296    2.264    0.558
       124  -8.6215    163.5034     42.8949   3.4268635217e+01   3.8362995692e+01    0.2370487    0.1959049 -24.80 0.0005852553    1.259    0.206
       125 -10.3969    164.5932     36.3255   3.2004567996e+01   3.8957311087e+01    0.5535129    0.3918332  -2.07  0.001857577    1.861    0.463
       126  -8.5661    247.8547    220.3107   6.0177766991e+01  -8.3735863496e-01    0.1728965   0.07691348  36.89 0.0006886458    2.492    0.599
       127  -8.5889    224.2895    218.3075   6.3422756401e+01   1.9114946591e+00    0.1691451    0.1488222  43.51  0.001298706    2.070    0.517
       128  -7.8593    104.6612     40.7364   4.5320271510e+01   5.3959440620e+01    0.1546668    0.1155561  30.57 0.0002629415    1.590    0.371
       129 -10.1681    122.7645     37.2891   3.9497580996e+01   4.9774862034e+01    0.5576392    0.2346315 -33.10  0.002055189    2.323    0.570
       130 -10.8692    139.6553     35.3213   3.5478940936e+01   4.5575480980e+01    0.4831145    0.2586427 -37.91  0.001398721    1.773    0.436
       131 -11.5970    132.6012     40.3566   3.8643120909e+01   4.6729884461e+01    0.9709726    0.4251372 -26.85  0.003530332    2.502    0.600
       132  -8.9942    159.5860     33.3483   3.1711575404e+01   4.0617981251e+01    0.2734558    0.1705391 -26.38 0.0007074315    1.627    0.385
       133  -9.5306     91.9831     30.7644   4.4520200223e+01   5.8752466035e+01    0.3273724    0.2155958 -29.31 0.0005418089    1.594    0.373
       134  -8.4993    155.6449     29.9693   3.1117030617e+01   4.2061174576e+01    0.2021264    0.1764508 -43.47  0.000398478    1.103    0.094
       135 -10.4100    140.8304     27.3242   3.2349434859e+01   4.6298497783e+01    0.4018455     0.243681 -27.26  0.001166782    1.683    0.406
       136  -9.3961     37.4329    214.5551   1.0104945982e+02   2.5797320466e+01    0.1994764     0.142319  28.90  0.001302943    1.307    0.235
       137  -9.5461    192.6857    153.3535   5.7629458445e+01   1.4661906419e+01    0.2122769     0.202097 -31.32  0.001099787    1.291    0.225
       138  -8.9500    189.8502    210.9536   6.8094587597e+01   6.9411611119e+00    0.2220084    0.1612309  54.50  0.001238603    2.414    0.586
       139  -7.9621     78.7094     18.3363   4.2363433336e+01   6.3855956743e+01    0.1481773    0.1098436 -64.19 0.0007022707    1.638    0.389
       140  -7.7394    228.7388    207.5374   6.1093521461e+01   2.5763427013e+00    0.1349279    0.0904711  34.54 0.0009397679    1.684    0.406
       141  -7.6296    190.3146     15.3003   2.2881290528e+01   3.5004075836e+01    0.1267968    0.1003456  35.90  0.000701853    1.612    0.380
       142  -8.8776    206.9889    206.0079   6.4368459591e+01   5.3793042239e+00    0.1500839    0.1330065  38.83 0.0006536574    1.687    0.407
       143  -9.1822      3.7946    205.1555   1.0841548833e+02   3.0713946864e+01    0.1792718     0.151372  37.61  0.001324246    1.235    0.190
       144  -8.5308    186.6798     13.1595   2.2538367974e+01   3.6093330679e+01    0.1838015    0.1547295 -30.01 0.0006616658    1.202    0.168
       145  -8.0854    249.0355    202.0145   5.7210925555e+01   8.7602401539e-01    0.1377152    0.1220248 -20.34  0.001128136    1.728    0.421
       146  -9.7616    194.0074    196.8518   6.5169193736e+01   8.2328856435e+00    0.4119413    0.3196981 -60.04  0.002533365    2.380    0.580
       147  -9.0897    191.1805    191.5828   6.4819151324e+01   9.3317980136e+00    0.2862168    0.2158313 -67.75  0.001574481    2.919    0.657
       148  -9.9387    223.3970    190.5896   5.9202537897e+01   5.1730805766e+00    0.3121622    0.2016905  56.07  0.001616161    3.670    0.728
       149  -8.6966      7.8062    189.6076   1.0704462417e+02   3.3591895484e+01     0.167278      0.14542  76.56 0.0006273546    1.198    0.166
       150  -9.9925    216.1434    189.1132   6.0119932587e+01   6.2849745333e+00    0.1860315    0.1446859   2.41  0.001247431    1.014    0.014
       151  -9.2925    172.1310    186.8109   6.7610778135e+01   1.2755514084e+01     0.223457    0.1848203  42.79 0.0005155129    1.408    0.290
       152  -9.8876    242.4886    182.2945   5.4914036768e+01   3.7727628182e+00    0.3990982    0.2260296   2.69  0.000959861    1.841    0.457
       153  -9.9934    238.4618    175.8023   5.4378969346e+01   5.0224795920e+00    0.3169252    0.2483726  65.43  0.001723761    2.947    0.661
       154 -10.2599    228.6028    171.8049   5.5145817207e+01   6.7889186741e+00    0.3442401    0.2241904 -41.38  0.001963102    1.877    0.467
       155 -10.3497    231.1342    168.6506   5.4194733516e+01   6.8408030698e+00    0.4430901    0.2043469 -40.88  0.002298417    2.461    0.594
       156 -10.2239    213.0395    177.8102   5.8685472593e+01   8.1415756938e+00    0.5213741    0.2838872 -17.15  0.002636981    1.935    0.483
       157 -10.5979    220.3896    174.0646   5.6830403609e+01   7.6152091365e+00    0.4383615    0.3084934 -52.80  0.002559487    2.457    0.593
