#   1 NUMBER                 Running object number                                     
#   2 MAG_AUTO               Kron-like elliptical aperture magnitude                    [mag]
#   3 X_IMAGE                Object position along x                                    [pixel]
#   4 Y_IMAGE                Object position along y                                    [pixel]
#   5 X_WORLD                Barycenter position along world x axis                     [deg]
#   6 Y_WORLD                Barycenter position along world y axis                     [deg]
#   7 A_WORLD                Profile RMS along major axis (world units)                 [deg]
#   8 B_WORLD                Profile RMS along minor axis (world units)                 [deg]
#   9 THETA_WORLD            Position angle (CCW/world-x)                               [deg]
#  10 FWHM_WORLD             FWHM assuming a gaussian core                              [deg]
#  11 ELONGATION             A_IMAGE/B_IMAGE                                           
#  12 ELLIPTICITY            1 - B_IMAGE/A_IMAGE                                       
         1 -11.1559    213.6349     37.6580   3.6498818167e+01   2.8167052553e+01    0.7964609    0.5530708 -63.33  0.004759412    1.271    0.213
         2 -10.4174    235.1605     21.2959   3.1150139815e+01   2.5734441538e+01    0.3492491    0.3232945 -44.27  0.001945576    1.412    0.292
         3 -10.9302    232.5850     18.5862   3.0807701174e+01   2.6568040116e+01    0.5378458    0.4917894 -55.07  0.002873075    1.337    0.252
         4  -8.0479    164.1703     10.8317   3.5513692125e+01   4.2447953622e+01    0.1820384    0.1474499 -81.44 0.0003301548    1.126    0.112
         5  -8.0125    250.4220      2.1908   2.6553264527e+01   2.4929981483e+01    0.1967864    0.1027342 -49.13  0.001258125    1.515    0.340
         6  -8.1320    175.4461    233.9488   8.5526400697e+01  -2.5317688663e-01    0.1944342    0.1546086  19.59 0.0003758171    1.107    0.096
         7 -12.8867     27.7662    204.0690   1.1527137351e+02   2.7253914463e+01     3.171592    0.8079658 -59.06   0.01168803    3.596    0.722
         8 -13.7641     36.6752    193.9042   1.1225333241e+02   2.8731503889e+01     7.670473     3.504973 -81.75   0.02230549    2.243    0.554
         9  -9.3299    208.3364    233.9826   7.8940099064e+01  -4.9456084319e+00    0.2353753    0.2010719 -27.50 0.0005535204    1.289    0.224
        10  -7.7638    177.2743    228.9960   8.4340713344e+01   3.3347424088e-01    0.1783544    0.1542546 -11.18 0.0002874805    1.103    0.093
        11 -10.0780    111.3371    224.4399   9.8177008713e+01   1.1469322339e+01    0.4210341    0.2894255 -10.17  0.001817898    2.291    0.564
        12  -9.8819     98.7994    234.4168   1.0228737237e+02   1.1280352502e+01    0.3588182    0.2134294  16.17 0.0008368277    2.365    0.577
        13  -6.8587     93.6613    222.6661   1.0200052659e+02   1.4516928226e+01    0.1342629    0.1055597 -16.74 0.0007051695    1.748    0.428
        14 -11.7899     19.9260    232.3263   1.1899230723e+02   2.1725211669e+01    0.4919659    0.3087328 -74.32 0.0002483201    1.528    0.346
        15  -7.7222    136.3677    220.2960   9.1860339060e+01   8.3842941778e+00    0.1425371    0.1046542  -2.24 0.0007029927    1.725    0.420
        16  -9.3164     54.2713    217.2093   1.1042411473e+02   2.1147674346e+01    0.5120366    0.2352104  20.85  0.002052956    3.220    0.689
        17  -9.0207    144.8202    217.2723   8.9468671880e+01   7.6326954759e+00    0.3276826       0.2608  67.61 0.0009186387    1.621    0.383
        18  -7.2733    113.2976    216.6614   9.6629491535e+01   1.2819481111e+01    0.1427716    0.1031157  67.71 0.0007032871    1.658    0.397
        19  -8.5701     96.8674    213.3231   1.0002877111e+02   1.6098063822e+01    0.4228404    0.3113039  83.09  0.002196822    1.589    0.371
        20  -9.5984     38.9892    214.0289   1.1358063561e+02   2.3707733745e+01     0.269425    0.2270937  27.45  0.001493487    1.407    0.289
        21 -13.0541     29.5411    248.1448   1.1808445220e+02   1.7414032951e+01     1.273534    0.7181713  40.31  0.005412987    1.557    0.358
        22  -7.5104    153.6385    213.6995   8.6896177547e+01   6.9127233155e+00    0.1458388    0.1044862  -2.44 0.0007035857    1.720    0.419
        23  -8.1684     75.7534    212.6260   1.0494122270e+02   1.9344092212e+01    0.2534734    0.2105969 -30.85  0.001240024    1.543    0.352
        24 -14.6535      3.1845    221.8537   1.2174448549e+02   2.5609892670e+01     1.532099    0.8847815 -81.19  0.005138468    1.500    0.333
        25  -7.0067     85.2612    211.2631   1.0251551400e+02   1.8295316902e+01    0.1232876    0.1068213 -22.20            0    1.450    0.310
        26 -13.6568     20.7314    249.0660   1.1982794733e+02   1.8181305261e+01    0.9935953    0.5444548  74.12  0.003714413    1.624    0.384
        27  -7.9149    189.1422    210.3736   7.8657564453e+01   1.8415062822e+00    0.1784209    0.1200837  42.44 0.0009184075    1.632    0.387
        28  -8.6785    118.3971    208.5387   9.4209979579e+01   1.3775909685e+01    0.2321931    0.2268381  71.06 0.0005119205    1.058    0.055
        29 -12.3770      1.9392    230.2005   1.2242235574e+02   2.3930913395e+01    0.2790839     0.194887  70.26 0.0007861232    1.106    0.096
        30  -7.3794    155.6999    205.3177   8.4986998296e+01   8.2620027867e+00    0.1368299    0.1130783  72.15 0.0001923141    1.618    0.382
        31  -7.8053     73.9476    203.9017   1.0430351902e+02   2.1630318836e+01    0.2172051    0.1461508  67.22  0.001078313    1.587    0.370
        32  -8.3177    115.7625    203.0898   9.3987723286e+01   1.5419413675e+01    0.1892545    0.1800463 -60.58 0.0003289311    1.099    0.090
        33  -9.4070     46.8810    206.9795   1.1111779423e+02   2.4423368347e+01    0.3232848    0.2552652 -48.19  0.001256863    1.515    0.340
        34  -8.2624     78.5799    201.4817   1.0285898037e+02   2.1546529504e+01     0.138114    0.1283711  76.28 -2.675544e-05    1.026    0.025
        35  -7.7644     15.4730    199.9629   1.1773952475e+02   2.9440948868e+01    0.1832889   0.08257391  74.68 0.0008074364    2.377    0.579
        36  -8.8696     88.6683    197.4228   9.9798455884e+01   2.1023882846e+01    0.4950066    0.3169366  -1.81  0.001987482    2.882    0.653
        37  -8.1447    193.0078    197.4187   7.5460937774e+01   3.6219052691e+00     0.303907    0.2361081 -81.91  0.001489589    2.298    0.565
        38  -7.9494    109.0260    198.2699   9.4869021649e+01   1.7620346535e+01    0.1969306     0.178158  48.90 0.0002859319    1.060    0.057
        39  -7.4463     97.7987    196.2184   9.7338312646e+01   1.9899559230e+01    0.1862408    0.1662689 -19.29 0.0003187165    1.314    0.239
        40  -7.6715     57.2116    193.9336   1.0720604840e+02   2.6279219040e+01    0.2696668    0.1631279 -60.74  0.001329134    1.604    0.377
        41 -10.3640     65.7320    190.2897   1.0460599355e+02   2.6054662681e+01    0.4361561    0.3291171  -8.35  0.001300863    1.925    0.480
        42 -14.7989      3.4125    238.3005   1.2253869943e+02   2.2102192602e+01     1.425878     0.579234  78.35  0.005989529    2.362    0.577
        43  -8.8811     16.3972    188.8234   1.1665803996e+02   3.2015388038e+01    0.1951811     0.177872 -73.83  0.001302797    1.215    0.177
        44  -8.7530     75.5558    188.2816   1.0181766181e+02   2.5181526978e+01    0.4290251    0.2003016 -48.60  0.001720974    2.343    0.573
        45  -7.1315     60.4564    190.4962   1.0597179301e+02   2.6704875509e+01    0.1392872    0.1258689  83.90 0.0001826228    1.013    0.013
        46  -8.2301     80.9114    187.9883   1.0039544474e+02   2.4473540728e+01    0.2139343    0.2014342 -88.51 0.0003605726    1.034    0.033
        47  -8.7155     11.4212    182.8962   1.1736538833e+02   3.3897522446e+01    0.2947108    0.2424971 -42.34  0.001364683    1.511    0.338
        48 -10.5259     49.1763    181.3385   1.0773317606e+02   3.0406304074e+01    0.5330579    0.3909056  43.64   0.00222998    1.366    0.268
        49 -13.5417     12.5537    232.2093   1.2045419220e+02   2.2494871840e+01    0.5364454    0.3381579  87.51  0.001608986    1.360    0.265
        50 -12.8954     11.1654    240.4441   1.2117590961e+02   2.0911358429e+01    0.3850213    0.2018918  28.98  0.001451149    2.126    0.530
        51  -9.8524     80.7016    179.8098   9.9217053954e+01   2.6537779523e+01    0.4279373    0.2983999 -24.51  0.001432746    2.039    0.510
        52  -7.3784     65.6759    182.3124   1.0355041104e+02   2.8049392605e+01    0.1515416    0.1007348  67.28 0.0007040274    1.659    0.397
        53  -7.7752      6.3308    181.3028   1.1846006174e+02   3.4709883805e+01    0.1233505   0.08535591 -49.80 0.0007035001    1.652    0.395
        54  -9.8840     57.0162    178.8492   1.0536172177e+02   3.0063671047e+01     0.408556    0.3382349 -25.88  0.001218435    1.527    0.345
        55  -9.6027     62.4476    173.1508   1.0311818970e+02   3.0806822202e+01    0.3112096     0.252685 -33.98 0.0006362273    1.463    0.317
        56  -8.1671     86.8193    177.9622   9.7297505421e+01   2.6071404090e+01     0.214743    0.1948501 -37.34 0.0004478163    1.211    0.174
        57  -9.1554      1.8603    176.0891   1.1914119868e+02   3.6327442987e+01    0.3142109     0.142834  88.47  0.001459913    2.054    0.513
        58  -9.9108     17.4091    171.7879   1.1490945278e+02   3.6121976944e+01    0.4848146    0.2632337  81.56  0.002084079    1.881    0.468
        59  -8.0983    241.4712    172.9701   6.1666247897e+01   4.5470605968e-01     0.183799    0.1022031 -55.55 0.0008099817    2.629    0.620
        60  -9.2818    175.4251    172.3775   7.4217712957e+01   1.1646846477e+01    0.2946261     0.271132  18.16 0.0008085732    1.092    0.085
        61  -7.3774     90.2645    173.3082   9.5598572054e+01   2.6699913509e+01    0.1461127    0.1139164 -30.47 0.0002275657    1.532    0.347
        62  -8.2267    128.7847    171.2061   8.5060098740e+01   2.0578493588e+01    0.4183471    0.2530955  39.81  0.001797592    1.647    0.393
        63  -8.6213     46.2354    170.6172   1.0716671231e+02   3.3479378469e+01    0.2980387    0.1885439  71.03 0.0002514703    1.759    0.431
        64  -7.7477     43.3089    168.7408   1.0771926809e+02   3.4296772002e+01    0.2484974    0.1618208 -36.61  0.001064619    1.942    0.485
        65  -8.5725     26.8106    156.1286   1.1071054716e+02   3.9248761087e+01    0.2400504    0.2056793  80.24 0.0002277201    1.116    0.104
        66 -10.2952     24.4199    170.0543   1.1292015990e+02   3.5919560827e+01    0.6402246    0.4186327  20.71  0.003426302    1.861    0.463
        67  -9.0140     26.4199    160.2745   1.1130831001e+02   3.8221125021e+01    0.4060513    0.2191061  56.33  0.001384219    2.034    0.508
        68  -8.4712     23.4761    156.9821   1.1174195367e+02   3.9335489824e+01    0.2810794    0.1985761  80.62  0.001139893    1.388    0.279
        69  -9.2437      6.8302    170.1073   1.1744466458e+02   3.7415855412e+01    0.2827554    0.1918544  46.75  0.001237178    1.513    0.339
        70  -8.0494      4.4915    166.4874   1.1773280898e+02   3.8490106087e+01    0.1933173    0.1249398  28.48 0.0006754416    1.785    0.440
        71  -7.5763     88.4301    165.1774   9.4678800431e+01   2.9049878205e+01      0.20806    0.1437053 -73.48 0.0002412435    1.565    0.361
        72 -13.2300      8.1856    233.8522   1.2139987621e+02   2.2573604405e+01    0.7123808    0.2233213  86.83  0.002767549    3.880    0.742
        73  -9.1280     73.0644    163.6950   9.8715504232e+01   3.1765550649e+01    0.2599292    0.2433118 -18.13 0.0004516809    1.217    0.178
        74  -8.6847    153.3352    163.0891   7.7313261761e+01   1.7833843037e+01    0.2467574    0.2151848  45.83   0.00033708    1.198    0.165
        75  -7.0687    106.5481    163.5431   8.9398323113e+01   2.6435202029e+01    0.1543353    0.1458159  82.70 8.161406e-05    1.079    0.073
        76  -8.1662     96.5265    163.1238   9.2061669540e+01   2.8251380136e+01    0.3327893    0.2045201  29.43  0.001130777    1.773    0.436
        77  -9.4244     58.9194    160.8152   1.0225524005e+02   3.4451848345e+01    0.5166369    0.3366465 -30.88  0.001905754    2.043    0.511
        78  -9.7326     36.0092    161.4306   1.0879605136e+02   3.6972797177e+01    0.6780357    0.3055675 -82.85  0.001367944    2.544    0.607
        79  -7.5256     32.3084    156.3035   1.0918304483e+02   3.8673446523e+01    0.1388625   0.09519112 -42.95 0.0001960813    1.605    0.377
        80  -7.9669     24.7282    165.6725   1.1237222237e+02   3.7001639115e+01    0.2751184    0.1756792 -33.42  0.001258803    2.082    0.520
        81  -8.3838     12.1640    160.8852   1.1523245596e+02   3.9301281268e+01    0.2213588    0.1629184  50.81 0.0008106627    1.412    0.292
        82  -7.8591     15.9975    159.9677   1.1411411108e+02   3.9221490967e+01    0.1816237    0.1400492 -52.14 0.0003705219    1.344    0.256
        83  -8.0110    172.0249    159.0560   7.2133409104e+01   1.5115764165e+01    0.2114542    0.1812257 -85.84  0.001060207    1.491    0.329
        84 -10.2860     80.8789    156.3064   9.5201854059e+01   3.2507333139e+01    0.6883173    0.4752578 -37.75  0.002392321    1.639    0.390
        85  -8.4378     51.6887    156.8124   1.0371290332e+02   3.6401019972e+01    0.2830507    0.2080935 -21.82   0.00139687    1.792    0.442
        86  -8.6035      8.8529    155.0074   1.1554879622e+02   4.1038611556e+01    0.1902183    0.1689407  85.31 0.0003218166    1.105    0.095
        87  -8.1637    248.4586    154.4998   5.6902539373e+01   2.5665188828e+00    0.1318833    0.1063374 -31.55 0.0001294713    1.012    0.012
        88  -7.9527    128.3231    153.4039   8.1475556103e+01   2.4923390087e+01    0.2434239     0.183595 -72.89 0.0005825463    1.599    0.375
        89  -9.0351     15.4410    152.3456   1.1345998951e+02   4.1204575630e+01    0.5025772    0.2329302  24.11  0.002091588    2.481    0.597
        90  -8.1689    175.0652    151.0645   6.9697970227e+01   1.6234618221e+01    0.2172875    0.2052638 -31.45  0.001179206    1.012    0.012
        91 -10.8486     68.6073    144.9863   9.6719670013e+01   3.7260379383e+01     0.792951    0.5196168  68.35  0.002989613    1.990    0.497
        92  -7.9062     50.8313    150.6284   1.0300874415e+02   3.8117123201e+01    0.2420157    0.1706152 -56.78 0.0003715167    1.305    0.234
        93  -7.8440     22.8053    148.2601   1.1089288797e+02   4.1634943091e+01    0.1779314    0.1363386 -51.69 0.0002652602    1.288    0.224
        94  -7.4159    118.6152    145.4543   8.2315516623e+01   2.8710541281e+01     0.156225    0.1485932 -45.12 -5.061653e-05    1.030    0.029
        95  -9.6068     83.6651    143.0078   9.1809489986e+01   3.5498867818e+01    0.4718361    0.3223683  87.48  0.001990665    2.022    0.505
        96  -7.9885    249.1865    143.6033   5.4614063953e+01   4.3212778067e+00    0.1653774    0.1206885  25.79 0.0007301482    1.735    0.423
        97  -9.0848     97.4301    142.5505   8.7653990427e+01   3.3312363178e+01    0.3781829      0.30968  -3.14   0.00114385    1.495    0.331
        98  -7.7660     16.4591    137.5463   1.1142902417e+02   4.4906608859e+01    0.1358719    0.1118821 -65.14  6.13483e-05    1.066    0.062
        99  -8.4584     28.9703    133.9094   1.0708419746e+02   4.4787367721e+01    0.2036686    0.1796604 -69.66  0.000358282    1.022    0.022
       100  -9.0653      9.8725    131.6958   1.1269943094e+02   4.6875163555e+01    0.3746437     0.187862 -85.67  0.001318218    2.020    0.505
       101  -7.7087    108.0083    131.7597   8.2136849795e+01   3.4082115218e+01     0.253777    0.1840652  -1.49   0.00105735    1.976    0.494
       102  -7.2138     54.3745    132.2831   9.8752596205e+01   4.2463808317e+01    0.1517754    0.1056521 -28.55 0.0006939789    1.710    0.415
       103  -8.4556     72.2319    131.3911   9.2902334721e+01   4.0250144923e+01    0.2107385    0.1373961  44.16 0.0008597493    1.651    0.394
       104  -8.5659    245.5851    130.2247   5.2424397353e+01   7.2108255598e+00    0.1922418     0.108084 -32.57 0.0007332751    1.660    0.397
       105  -9.5096     66.0924    124.8722   9.3477727758e+01   4.2808738835e+01    0.2474588    0.2220929 -67.36  0.001339104    1.091    0.083
       106  -7.0485     15.6102    128.7061   1.1053404436e+02   4.7227549194e+01    0.1425758   0.08444018 -40.10  0.000701097    1.777    0.437
       107  -7.8654     21.9624    122.4478   1.0758431328e+02   4.8329703444e+01    0.1758536    0.1367723  14.70 0.0003801123    1.522    0.343
       108  -9.0249     57.1513    233.3832   1.1131257510e+02   1.7214240450e+01    0.2306343     0.187287  23.70  0.001430276    1.463    0.317
       109  -8.8586      5.8300    119.8759   1.1247390947e+02   5.0112600339e+01    0.1974697    0.1448312 -56.49 0.0004555485    1.168    0.144
       110  -7.6596    108.9459    119.4776   7.8843246101e+01   3.6871368965e+01    0.2185886    0.1566155  37.27 -1.189292e-05    1.445    0.308
       111  -6.9581     86.7135    117.6784   8.5168910036e+01   4.1383647118e+01    0.1571112    0.1165208 -23.04 0.0003918972    1.598    0.374
       112  -8.4604    247.6619    116.6652   4.9352743250e+01   9.1836981000e+00    0.1278576    0.0971882 -10.31 -0.0003171696    1.748    0.428
       113  -7.3820     72.5348    116.5003   8.9474547533e+01   4.3969897336e+01    0.1505418    0.1409172 -49.21 0.0002014202    1.016    0.015
       114  -8.6070     67.3872    115.3007   9.0904223602e+01   4.5035389459e+01    0.3476404    0.2110918 -14.42  0.001333387    2.676    0.626
       115  -7.2368     32.5599    115.4387   1.0283397077e+02   4.9180906248e+01    0.1388477    0.1211398 -59.32  7.48671e-05    1.015    0.015
       116  -8.6351     59.4509    110.2469   9.2423855358e+01   4.7402559651e+01    0.2490284    0.2267416 -70.66 0.0002296317    1.145    0.127
       117  -8.7463     12.5931    107.3569   1.0837455819e+02   5.2804440278e+01    0.2185151    0.1621498   3.65 0.0008391633    1.603    0.376
       118  -8.2461    248.3295    103.7018   4.6604987854e+01   1.1242946682e+01    0.1309191   0.08776398 -64.82 0.0002255357    1.639    0.390
       119  -8.1961     58.6115    102.4410   9.0836266775e+01   4.9421651009e+01    0.2299204    0.2196549  29.95 0.0004267688    1.148    0.129
       120  -8.7831     86.4520     97.4697   7.9919803296e+01   4.6209026504e+01    0.2451981    0.2342048 -31.00  0.000134544    1.024    0.024
       121  -8.7751    100.0065     96.9639   7.5448494366e+01   4.3791195138e+01    0.2208825    0.2149383 -18.37  0.001198747    1.013    0.013
       122  -8.4504     41.7275     96.1340   9.5473534821e+01   5.3010140134e+01    0.2024223    0.1897753  37.67 0.0002386262    1.225    0.184
       123  -9.0269    121.6718    232.6610   9.6970923936e+01   8.2039692396e+00    0.2016644    0.1539408  -3.58 0.0005526859    1.676    0.404
       124  -7.5107     89.2185    233.5959   1.0431661395e+02   1.2836355474e+01    0.1770642    0.1194759  25.84 0.0006311717    1.586    0.369
       125  -7.8201      6.6800     68.6826   1.0319197720e+02   6.2247302760e+01    0.1365949   0.07141387 -36.78 0.0003617264    1.661    0.398
       126  -7.3533     88.3031     65.6978   6.9447079322e+01   5.2400380990e+01    0.1354032    0.1165162 -89.28  0.000288605    1.592    0.372
       127  -7.3683     58.0012     64.7675   8.0102768009e+01   5.7801188572e+01    0.1649663    0.1106481  29.78 0.0002176965    1.506    0.336
       128  -7.8926     15.2082     61.5804   9.7561446455e+01   6.3222401410e+01    0.1688295    0.1075851  -8.25 0.0004504157    1.646    0.392
       129 -11.1649    206.7471     42.5659   3.8352312120e+01   2.9013288563e+01     0.537102    0.4530039  83.49  0.002576254    1.142    0.124
       130  -7.6489    188.7744    240.3625   8.3834101343e+01  -3.2494262437e+00     0.177682     0.104377  22.76 0.0004554518    1.587    0.370
       131  -7.3740     85.9917     41.7111   6.1622344038e+01   5.6769254784e+01    0.1639576    0.1126078  44.08  0.000343828    1.355    0.262
       132 -10.7585    221.5547     30.3927   3.4151432023e+01   2.7411958397e+01     0.549908    0.3955374  46.66  0.001306411    1.921    0.479
       133  -7.6479     22.8797     30.8682   8.3241948294e+01   6.8342969411e+01    0.1479641    0.1326146   3.48 0.0003929666    1.295    0.228
       134  -8.8993     14.4034     26.0821   8.5742701261e+01   6.9962945610e+01    0.1997268    0.1499551  12.53 0.0005555215    1.297    0.229
       135  -8.6585     63.2730    237.0495   1.1033572117e+02   1.5653215464e+01    0.3245716    0.1737828 -58.46  0.001233663    2.039    0.510
       136  -7.7930    138.5001    236.9826   9.3871158116e+01   4.7946915041e+00    0.1735551    0.1187087 -89.37 0.0008104024    2.589    0.614
       137  -9.0038     49.5930    235.5372   1.1310886443e+02   1.7694218076e+01    0.3436461    0.2288481   2.38   0.00172276    2.745    0.636
