#   1 NUMBER                 Running object number                                     
#   2 MAG_AUTO               Kron-like elliptical aperture magnitude                    [mag]
#   3 X_IMAGE                Object position along x                                    [pixel]
#   4 Y_IMAGE                Object position along y                                    [pixel]
#   5 X_WORLD                Barycenter position along world x axis                     [deg]
#   6 Y_WORLD                Barycenter position along world y axis                     [deg]
#   7 A_WORLD                Profile RMS along major axis (world units)                 [deg]
#   8 B_WORLD                Profile RMS along minor axis (world units)                 [deg]
#   9 THETA_WORLD            Position angle (CCW/world-x)                               [deg]
#  10 FWHM_WORLD             FWHM assuming a gaussian core                              [deg]
#  11 ELONGATION             A_IMAGE/B_IMAGE                                           
#  12 ELLIPTICITY            1 - B_IMAGE/A_IMAGE                                       
         1 -11.7950    240.9878     18.9180   2.8915502728e+02   6.1091478882e+00   0.01975411   0.01539895 -61.80  0.001451832    1.280    0.219
         2 -10.1549    141.8329     19.9334   2.9030705953e+02   6.6950381123e+00   0.02378942   0.01084208 -36.12  0.001810567    3.046    0.672
         3  -9.9396    201.6172     11.9390   2.8956629431e+02   6.4268311373e+00   0.01436672  0.009599184   3.96 0.0008882691    1.860    0.462
         4 -10.1331    229.2595      9.2558   2.8923041236e+02   6.2908546078e+00   0.01156726  0.009812377 -27.95 0.0005180563    1.247    0.198
         5 -10.0412    211.5130      8.4751   2.8943048543e+02   6.4069110827e+00    0.0125774  0.008942781 -49.64 0.0007663943    1.388    0.279
         6 -11.0570    249.4334      4.6013   2.8896869022e+02   6.2224351509e+00     0.022085   0.01103336 -53.42  0.002015135    1.918    0.479
         7  -9.1675    139.4905      5.9369   2.9024739024e+02   6.8699034220e+00   0.01011721  0.006386452 -58.69 0.0006589055    1.552    0.356
         8  -9.4451    240.5191      2.4702   2.8905831857e+02   6.3007350733e+00  0.006533167  0.006446718 -28.38 0.0003850096    1.005    0.005
         9  -9.2313    201.5614    242.1473   2.9099053481e+02   3.7798162549e+00   0.01289489  0.006688409 -67.78  0.001141105    2.105    0.525
        10 -11.4423    224.6677    245.2922   2.9074362652e+02   3.6048848613e+00   0.03937728    0.0233981  80.09  0.003316415    2.769    0.639
        11 -11.3529    233.3807    246.9667   2.9065356770e+02   3.5332903028e+00   0.03074228   0.02467341  38.75   0.00263883    1.253    0.202
        12 -11.1766    232.2911    238.1061   2.9061149246e+02   3.6417576178e+00   0.03299747   0.02383475  72.36  0.003429122    1.736    0.424
        13 -11.4341    242.9404    246.8808   2.9054292233e+02   3.4768513905e+00   0.02843885   0.02172435 -82.35  0.002401866    1.486    0.327
        14 -12.0416    241.2817    239.6820   2.9051763854e+02   3.5696139965e+00   0.05547519   0.02785966 -72.54  0.004690005    2.463    0.594
        15 -12.0874    249.0223    242.1235   2.9044354110e+02   3.4950225422e+00   0.04110662   0.01899718 -64.12  0.003420027    2.240    0.554
        16 -12.0534    247.8468    233.4836   2.9040378698e+02   3.6014527872e+00   0.05080077   0.02189842 -67.19  0.004082232    2.620    0.618
        17  -9.7912    218.8735    248.8821   2.9083251307e+02   3.5983835623e+00   0.01383588   0.00976238 -70.23   0.00109575    1.503    0.335
        18  -9.0740    214.1966    241.1767   2.9083892274e+02   3.7151179547e+00  0.009244484  0.007705207  82.73 0.0008609456    1.358    0.263
        19  -9.4330    183.4448    239.7583   2.9118468405e+02   3.9160532965e+00   0.01914262   0.01038646  74.83  0.001380159    3.755    0.734
        20  -9.6214    159.9429    239.4481   2.9145381866e+02   4.0606204967e+00   0.01945581   0.00979639 -83.83  0.001405888    3.590    0.721
        21  -9.1868    138.3065    241.6824   2.9171717086e+02   4.1646194927e+00  0.006876904  0.005022293  64.11 0.0003613036    1.631    0.387
        22 -10.2417    204.1828    235.2773   2.9091798432e+02   3.8431289283e+00   0.02227787   0.01562136  88.26  0.002259019    1.817    0.450
        23  -9.1615    189.5395    237.0186   2.9109753374e+02   3.9110037893e+00  0.009911302  0.006531953 -64.18 0.0006523439    1.538    0.350
        24 -10.8166    215.8409    233.1591   2.9077055182e+02   3.7974881528e+00   0.02715552   0.01711249  72.27  0.002481979    2.303    0.566
        25  -9.8729    195.0920    232.9063   2.9100817770e+02   3.9249972386e+00   0.01760345    0.0112525 -75.52  0.001729653    1.812    0.448
        26  -9.6393    172.6268    233.8040   2.9127276892e+02   4.0495015224e+00  0.009578736  0.006384149 -76.22 0.0009521974    1.721    0.419
        27  -9.4511    157.5233    231.1906   2.9143089709e+02   4.1701927223e+00    0.0123564  0.006712404 -68.33 0.0007995216    2.008    0.502
        28  -9.9489    186.3817    229.9741   2.9109054544e+02   4.0110324483e+00   0.01682042   0.01145058  76.99  0.001645567    1.974    0.494
        29  -9.1857    132.3058    231.6757   2.9172485292e+02   4.3158005148e+00  0.006901382  0.005025425  64.64 0.0004648867    1.645    0.392
        30 -11.6807    239.9462    221.7508   2.9042241363e+02   3.7838862991e+00   0.04092079   0.03298435 -52.60  0.004709987    1.220    0.180
        31  -9.7230    223.2216    227.0346   2.9064772513e+02   3.8236118998e+00   0.01346825   0.01085604  89.67  0.001509748    1.416    0.294
        32  -9.9502    162.0881    225.6151   2.9134390180e+02   4.2069945943e+00   0.01614304   0.01088061 -53.36  0.001692907    1.447    0.309
        33  -9.9061    149.6592    226.1416   2.9149054517e+02   4.2754843621e+00   0.01737241   0.01105977  82.80  0.001589082    2.283    0.562
        34  -9.2285    206.6789    226.2179   2.9083336766e+02   3.9323835249e+00   0.00980907  0.005593418 -52.38 0.0006452762    1.699    0.411
        35 -10.1498    216.8654    223.1993   2.9069733066e+02   3.9059254883e+00   0.02054893   0.01099369 -67.11  0.001511495    2.005    0.501
        36  -9.6724    199.9281    224.8038   2.9090248002e+02   3.9891997945e+00   0.01200204  0.009668871 -65.84  0.001285654    1.258    0.205
        37  -9.7574    181.4639    224.7888   2.9111531081e+02   4.1002316363e+00   0.01487518   0.01018113  48.15  0.001449625    1.562    0.360
        38  -9.8703    229.3308    222.6639   2.9055036320e+02   3.8371837312e+00   0.01370596  0.009699377  42.01  0.001462299    1.438    0.305
        39 -10.6274    226.4420    219.8509   2.9056630139e+02   3.8869047644e+00   0.02051246   0.01445896  35.30  0.001609753    1.408    0.290
        40 -10.1241    192.4122    220.7713   2.9096428672e+02   4.0807400454e+00   0.01572491   0.01272849  79.30  0.001347888    1.429    0.300
        41 -11.2638    248.6984    216.2150   2.9028742060e+02   3.7949427039e+00   0.03328617   0.02008857 -82.62  0.002836642    2.221    0.550
        42  -9.7397    210.7290    219.3022   2.9074403360e+02   3.9876300759e+00   0.01396472   0.01257863 -48.11  0.001351305    1.099    0.090
        43 -10.3472    232.9642    214.4134   2.9045758849e+02   3.9102571419e+00   0.01950276   0.01426894 -78.66  0.001294035    1.543    0.352
        44  -8.7946    178.6388    216.6999   2.9109804789e+02   4.2102930505e+00  0.007080953  0.004964463 -23.36 0.0007035662    1.718    0.418
        45  -9.2200    168.9329    215.9880   2.9120562980e+02   4.2767448481e+00   0.01085057  0.007828903  63.99  0.001123803    1.664    0.399
        46 -10.3621    249.8414    177.6381   2.9003599756e+02   4.2317422286e+00   0.02362208  0.009611458 -52.52  0.001956248    2.320    0.569
        47 -10.5108    250.2484    202.3130   2.9018373558e+02   3.9455113940e+00   0.03405803  0.008823444 -58.97  0.002307786    3.484    0.713
        48  -9.7182    250.1665    183.6684   2.9006951363e+02   4.1604337936e+00   0.01289603  0.009551518 -52.94  0.001024345    1.323    0.244
        49 -10.1252    241.0345    213.9561   2.9036177316e+02   3.8670021318e+00   0.01739167   0.01445771 -48.83  0.001448503    1.190    0.159
        50 -10.3796    236.8109    208.0787   2.9037416440e+02   3.9600015342e+00   0.02530651   0.01494787 -75.24  0.002024396    2.032    0.508
        51 -10.6183    238.1961    188.9866   2.9024031714e+02   4.1712831399e+00   0.02693263    0.0138593 -59.25  0.002484067    1.890    0.471
        52 -11.6432    247.3827    192.8403   2.9015825176e+02   4.0716959393e+00   0.03052156   0.02451814 -89.68  0.003069065    1.421    0.296
        53 -10.2544    243.7743    182.6088   2.9013663002e+02   4.2110821744e+00   0.04342286   0.02297674  62.98  0.003387951    3.138    0.681
        54 -10.9473    237.0895    197.7764   2.9030735173e+02   4.0768317068e+00   0.03078744   0.02182295 -74.54  0.002480813    1.555    0.357
        55 -10.0965    231.6004    194.8619   2.9035262125e+02   4.1433671818e+00   0.01750974   0.01217855 -83.10  0.001362856    1.733    0.423
        56  -9.4959    246.4214    205.7527   2.9024906702e+02   3.9289666025e+00   0.01277614   0.01145787 -37.34 0.0007853674    1.125    0.111
        57 -10.1270    243.9725    201.9657   2.9025390104e+02   3.9872505827e+00   0.01469858   0.01353138  78.78 0.0009007336    1.156    0.135
        58 -10.1301    185.6594    213.2293   2.9099567437e+02   4.2080879816e+00   0.01836991   0.01246031 -68.37  0.001306146    1.547    0.354
        59 -10.5569    131.7271    213.0555   2.9161693720e+02   4.5336737232e+00   0.02368348   0.01060523 -66.66  0.001953617    2.453    0.592
        60 -10.9785    215.1699    209.8197   2.9063434577e+02   4.0700536400e+00   0.02494865   0.01939596 -57.59  0.002470533    1.267    0.211
        61  -9.5175    161.4118    211.6663   2.9126577894e+02   4.3716284842e+00    0.0150822  0.006474212 -62.81  0.001243247    2.359    0.576
        62 -10.4529    204.5880    206.7733   2.9073756078e+02   4.1686921500e+00   0.01876193   0.01122368 -56.66  0.001237687    1.621    0.383
        63  -8.6376    199.3007    210.9484   2.9082428362e+02   4.1524118333e+00   0.01075184  0.005480091 -89.10 0.0007038034    4.254    0.765
        64  -9.9137    175.5983    210.2858   2.9109358931e+02   4.3023736726e+00   0.02046474   0.01177718  69.02  0.001692162    2.809    0.644
        65 -11.1353    226.9104    207.2880   2.9048338720e+02   4.0286169898e+00   0.05721457   0.01044064 -61.79  0.003131729    5.430    0.816
        66 -10.2160    229.0535    200.4271   2.9041633754e+02   4.0946619892e+00   0.01914521   0.01179574 -55.44  0.001626075    1.574    0.365
        67 -10.4587    224.5066    194.5238   2.9043230769e+02   4.1899130747e+00   0.01514636   0.01352899  24.09  0.001282858    1.127    0.113
        68 -10.6040    223.5359    191.4857   2.9042474043e+02   4.2307016275e+00   0.02118631   0.01464208  32.65  0.002255231    1.433    0.302
        69  -9.5617    147.5163    209.0643   2.9141010820e+02   4.4849487937e+00   0.01785119  0.006606424 -62.82  0.001365406    2.751    0.637
        70  -9.2613    191.8387    208.6847   2.9089638226e+02   4.2232829730e+00   0.01207891  0.008541732 -50.42  0.001182116    1.391    0.281
        71 -10.7130    124.2718    206.0733   2.9166001886e+02   4.6587627894e+00   0.01356572  0.009140177  38.77  0.001415478    1.485    0.327
        72 -10.2352    196.5166    204.6137   2.9081732155e+02   4.2420353774e+00   0.02029576   0.01092861  46.64  0.001851873    2.036    0.509
        73  -9.3881    184.3134    202.3319   2.9094400869e+02   4.3415929615e+00   0.01786373  0.004791521 -56.17   0.00123697    3.255    0.693
        74  -9.0234    164.3175    203.3188   2.9118080610e+02   4.4502845705e+00   0.00701523  0.004941652 -27.18 0.0007040809    1.658    0.397
        75  -9.8936    139.5892    202.3187   2.9146005682e+02   4.6101601157e+00   0.01300956  0.006645611 -67.95  0.001139672    2.150    0.535
        76  -9.4439    203.2791    198.4374   2.9070122656e+02   4.2724787512e+00   0.01142234  0.008171846  85.97  0.001097518    1.767    0.434
        77  -9.2795    178.5203    199.5043   2.9099340526e+02   4.4089276478e+00  0.006575109  0.006429938  66.78 1.256871e-05    1.049    0.046
        78  -9.9386    148.5223    197.1736   2.9132523364e+02   4.6158145420e+00   0.01993764   0.01099969 -88.98  0.001565127    3.102    0.678
        79  -9.6087    210.8842    201.3186   2.9063130546e+02   4.1936238272e+00   0.01294632  0.009436755 -53.08  0.001368754    1.343    0.256
        80 -10.1467    216.2461    195.3106   2.9053240116e+02   4.2305229852e+00   0.01771856   0.01184786 -87.62    0.0016849    1.934    0.483
        81  -9.8682    209.9988    195.5795   2.9060609817e+02   4.2649806455e+00   0.01421742   0.01017253  66.40 0.0008233988    1.715    0.417
        82  -9.7665    185.4594    193.9436   2.9087904960e+02   4.4312531722e+00   0.02020046  0.007621401 -57.39  0.001615085    2.475    0.596
        83 -10.4999    231.4631    187.9877   2.9031175490e+02   4.2232700616e+00   0.01823096   0.01336823  44.50   0.00145448    1.407    0.289
        84  -9.1011    210.2256    190.0147   2.9056913381e+02   4.3276466901e+00   0.01113372  0.007535154  76.20  0.001073427    1.997    0.499
        85  -9.8860    231.3331    184.6791   2.9029281977e+02   4.2621119893e+00   0.01229425   0.01021928  34.92  0.001002023    1.203    0.169
        86  -9.8336    235.9314    181.7982   2.9022201776e+02   4.2675913582e+00   0.01416989   0.01056927  79.41  0.001495811    1.654    0.395
        87 -10.1221    147.6125    179.1962   2.9122491516e+02   4.8282429139e+00   0.01753465  0.008279099 -64.25  0.001512084    2.191    0.544
        88  -9.0710    218.3669    178.1074   2.9040172645e+02   4.4156955643e+00  0.009586278  0.006324915 -78.73 0.0005878221    1.801    0.445
        89  -8.6973    211.5430    176.5068   2.9047053947e+02   4.4751462691e+00  0.006538789  0.006448914 -38.72 0.0008090745    1.004    0.004
        90  -8.9891    166.6861    168.3284   2.9093765728e+02   4.8388371002e+00  0.006964011  0.005016542  64.32 0.0007043883    1.672    0.402
        91  -8.5163    184.6169    164.7122   2.9070836109e+02   4.7727290593e+00  0.007087569  0.004964569 -21.41 0.0007013478    1.743    0.426
        92  -8.6206    243.4372    155.5274   2.8997313117e+02   4.5245716558e+00  0.006501692  0.006447323 -68.72 0.0001635616    1.019    0.018
        93  -8.6216    229.4209    153.5081   2.9012225050e+02   4.6321660970e+00  0.006511085   0.00641705 -79.25 0.0001054941    1.030    0.029
        94  -9.3713    118.4047    152.7135   2.9139897535e+02   5.3083555737e+00  0.009388836   0.00592865 -50.81  0.000938943    1.550    0.355
        95  -8.7521     39.7006    153.6932   2.9231490730e+02   5.7681999426e+00  0.006867856   0.00494227 -27.82 0.0003769716    1.594    0.372
        96 -10.4061    133.8153    151.9948   2.9121648226e+02   5.2241881095e+00   0.01047307  0.006984586  49.05  0.001061678    1.625    0.384
        97  -9.9480    240.9464    149.3005   2.8996334135e+02   4.6111776739e+00    0.0118285  0.009737359 -80.59 0.0007063298    1.319    0.242
        98  -8.7931    241.5172    138.4204   2.8988946494e+02   4.7328548828e+00  0.006570279  0.006352311 -18.83  1.38855e-05    1.040    0.038
        99  -8.8846    162.5353    136.5238   2.9078920770e+02   5.2298139220e+00  0.006519342  0.006468977  76.06 8.625934e-05    1.027    0.026
       100  -9.2736     96.4230    135.1979   2.9154502601e+02   5.6417875305e+00  0.009195464  0.006483012 -77.79 0.0006708167    1.613    0.380
       101  -9.4583    235.8927    130.0834   2.8990274128e+02   4.8625957680e+00   0.01014238  0.008655755  63.76 0.0005904886    1.279    0.218
       102  -8.8451    231.1613    129.9035   2.8995619521e+02   4.8931575879e+00  0.009279816  0.007517232 -28.66 0.0004018314    1.328    0.247
       103  -8.9359    186.6341    128.1898   2.9045942124e+02   5.1808421319e+00  0.009677341  0.005720717 -50.61 0.0007704154    1.654    0.396
       104  -9.7271    200.9657    125.3266   2.9027627703e+02   5.1275652176e+00   0.01518104  0.009069986 -62.58  0.001488038    1.679    0.404
       105  -8.8471    212.6580    123.6805   2.9013115837e+02   5.0761279463e+00  0.007115668  0.004943117 -25.66 0.0007049697    1.719    0.418
       106  -8.9655    232.1853    121.1654   2.8989031549e+02   4.9874691797e+00  0.008933536  0.007689229  74.10 0.0004632557    1.287    0.223
       107  -9.8805    192.4015    118.4577   2.9033265717e+02   5.2581050540e+00   0.01331285   0.01095744  63.76 0.0009080353    1.350    0.259
       108 -10.2028    109.5549    115.0101   2.9126860739e+02   5.7954593970e+00   0.01368929   0.01055531  61.52  0.001498719    1.475    0.322
       109  -9.3962    153.0392    114.0174   2.9075983687e+02   5.5458530344e+00    0.0110006  0.007854808  65.19  0.000880822    1.708    0.414
       110  -9.2073    242.2172    112.9386   2.8972369656e+02   5.0216159337e+00   0.01462065  0.007048653  51.81  0.001175823    2.690    0.628
       111  -9.8988     25.7142    111.3551   2.9221606858e+02   6.3393164147e+00   0.01389587  0.008752356 -25.95   0.00130879    2.035    0.509
       112  -9.2236    237.0735    107.1862   2.8974740324e+02   5.1187406978e+00   0.01070225  0.008767111 -19.65  0.001210566    1.347    0.258
       113  -8.8294    197.2596    107.0157   2.9020578625e+02   5.3604741306e+00  0.008467777  0.005672785 -60.73 0.0004578046    1.479    0.324
       114  -9.2156    209.3308    113.9587   2.9010940839e+02   5.2079645532e+00  0.009387306  0.008298257 -63.87 0.0005008815    1.135    0.119
       115  -9.8533    228.6572    104.2197   2.8982612187e+02   5.2035548788e+00   0.01281882  0.009565121  52.53 0.0005999654    1.456    0.313
       116  -8.7566    214.1347    104.8053   2.8999731834e+02   5.2842985082e+00  0.009041115  0.007460624 -27.94 0.0004469317    1.297    0.229
       117 -10.2014    246.9745    102.5251   2.8960435459e+02   5.1126474500e+00   0.01249754  0.009875768 -63.52 0.0004282394    1.271    0.213
       118  -9.4535    205.4077     98.8041   2.9006090167e+02   5.4058540117e+00   0.01696981   0.01013058 -44.12  0.001652785    1.731    0.422
       119  -9.9365    234.3026     95.3078   2.8970580865e+02   5.2719849248e+00   0.01565798  0.009865036 -80.03  0.001492549    1.977    0.494
       120  -9.2199    171.7073     96.3570   2.9043494093e+02   5.6367991233e+00  0.006953384  0.005040724  67.85 0.0007030035    1.690    0.408
       121  -9.6115    245.1580     94.1474   2.8957341218e+02   5.2198865149e+00   0.00934562  0.007790177  70.53 0.0005463801    1.349    0.258
       122  -9.4170    150.9083     92.7021   2.9065267256e+02   5.8038845910e+00    0.0093009   0.00849044  32.47 0.0005763681    1.099    0.090
       123  -9.1552    250.4921     88.4404   2.8947654358e+02   5.2533092640e+00  0.006629771  0.006327587 -24.06 6.374851e-05    1.057    0.054
       124  -9.0377    245.3961     87.7229   2.8953086620e+02   5.2922844122e+00  0.009870267  0.005826081 -50.93 0.0007727554    1.654    0.396
       125  -8.8891    227.4887     88.4934   2.8974221523e+02   5.3913782195e+00  0.006554913   0.00645087 -30.89 4.957881e-06    1.008    0.007
       126  -9.6097    236.0982     86.8357   2.8963261666e+02   5.3585381636e+00   0.01003022  0.008869733  67.77 0.0005791978    1.222    0.182
       127  -9.3379    217.6807     86.3106   2.8984188039e+02   5.4755698111e+00  0.006916391  0.005002237  62.76 0.0005066019    1.644    0.392
       128  -9.2189    186.7197     83.7033   2.9018321130e+02   5.6919932242e+00   0.01511129   0.01140349 -25.62  0.001635284    1.501    0.334
       129  -9.4255    171.7416     84.0283   2.9035825434e+02   5.7783835559e+00   0.01480233  0.006876615  50.58  0.001172711    2.748    0.636
       130  -8.9298    167.4941     77.9885   2.9036995052e+02   5.8733892288e+00  0.009460504  0.005791898  83.62 0.0008102358    2.519    0.603
       131  -9.6684    240.3021     76.5460   2.8952036423e+02   5.4514387203e+00   0.01488265   0.01064314 -35.43  0.001105447    1.517    0.341
       132  -9.3872    189.7309     76.5234   2.9010397410e+02   5.7564182142e+00   0.01369454  0.008325691 -80.38  0.001045566    2.114    0.527
       133  -9.4734    245.0556     80.8708   2.8949233598e+02   5.3730770697e+00   0.01055728  0.008787706  61.26 0.0006655213    1.315    0.240
       134  -9.8920    139.5733     74.8483   2.9067326545e+02   6.0773558583e+00   0.01532174   0.00684783 -73.56    0.0011397    3.136    0.681
       135  -8.6885    208.2829     74.3267   2.8987613263e+02   5.6699412628e+00  0.006906535  0.004899303 -30.27 0.0003541376    1.602    0.376
       136 -10.6215    230.0693     71.1332   2.8960487859e+02   5.5753382610e+00    0.0122331  0.009010025 -63.03  0.001312452    1.362    0.266
       137  -8.7313    107.3431     71.7101   2.9102664580e+02   6.3069662991e+00  0.006956105  0.004938082  59.54 0.0007024846    1.652    0.395
       138  -9.7400    250.5404     69.9356   2.8936130059e+02   5.4656339275e+00   0.01006259  0.006464322 -61.45 0.0006775645    1.548    0.354
       139 -10.8666    234.6820     67.8486   2.8953129791e+02   5.5852656032e+00   0.02240307  0.008758024 -56.07  0.001826884    2.386    0.581
       140  -9.8138    239.3422     68.1903   2.8947964984e+02   5.5532346893e+00   0.01175399   0.01024295 -63.40 0.0006837822    1.150    0.130
       141  -8.9583    219.8119     69.1068   2.8971069978e+02   5.6604599299e+00  0.008973457  0.007546059 -22.45 0.0003826171    1.283    0.221
       142  -9.0945    188.3786     69.2320   2.9007443666e+02   5.8483818357e+00  0.009219227  0.006378942 -76.93 0.0006316214    1.646    0.393
       143 -10.1624     43.8845     67.6202   2.9173596429e+02   6.7341265005e+00   0.01377553  0.007482476  42.45  0.001279355    1.898    0.473
       144 -10.1862    245.2795     65.8131   2.8939642227e+02   5.5447317388e+00   0.01347122   0.01231524  58.90 0.0007801715    1.145    0.127
       145  -8.3385    176.6818     67.6385   2.9019970218e+02   5.9371112245e+00  0.007239101   0.00485363 -29.16 0.0007042321    1.767    0.434
       146  -9.4165    250.5349     64.5174   2.8932777335e+02   5.5279094431e+00  0.006594224  0.006389553 -30.29 1.915817e-05    1.030    0.029
       147  -9.7425    214.4818     61.9985   2.8972817587e+02   5.7742717283e+00   0.01010662   0.00905525  26.62 0.0004979495    1.121    0.108
       148  -8.9386    205.4532     61.5267   2.8982949674e+02   5.8341018328e+00  0.006590141  0.006377946 -30.94  0.000234202    1.031    0.030
       149  -8.7834    202.3028     61.6788   2.8986681971e+02   5.8513357765e+00  0.006865678  0.005031574  64.85 0.0004680349    1.631    0.387
       150  -9.0202    174.0811     59.4715   2.9017917220e+02   6.0466490475e+00   0.00978596  0.006466013  28.87 0.0007855656    1.509    0.338
       151  -9.0650    215.3989     69.8068   2.8976597689e+02   5.6790118494e+00  0.009796607  0.005785555 -50.07 0.0006787758    1.661    0.398
       152  -9.1415    140.2274     54.7268   2.9054116685e+02   6.3048070181e+00   0.01099568  0.004412607 -51.07 0.0007189321    2.381    0.580
       153  -9.0863    244.6237     51.8011   2.8931710341e+02   5.7096406132e+00  0.009574002  0.006386577 -76.34 0.0009519723    1.725    0.420
       154  -9.1438    149.4952     52.4908   2.9042014561e+02   6.2747980150e+00  0.006516865   0.00648747 -37.50 0.0008105885    1.009    0.009
       155  -8.7850    195.3385     50.1887   2.8987604790e+02   6.0253340018e+00  0.009343884  0.006252823 -75.07 0.0004861334    1.692    0.409
       156  -9.2337    220.9789     44.5379   2.8954492309e+02   5.9357051830e+00   0.01025186  0.006535578  25.99  0.001029287    1.591    0.371
       157  -8.6737    189.6858     44.6683   2.8990713277e+02   6.1228188309e+00   0.00706522  0.004918128 -28.04 0.0004056951    1.681    0.405
       158  -8.7832    164.0000     43.0301   2.9019383608e+02   6.2962906826e+00   0.01073501  0.003744278 -61.74 0.0004185181    2.852    0.649
       159  -8.8948    132.4591     43.5483   2.9056180546e+02   6.4800015903e+00  0.006509938  0.006442221 -28.05 0.0001142037    1.001    0.001
       160  -9.6630      5.1303     41.2640   2.9202226281e+02   7.2687886425e+00   0.01297592  0.008642545  77.23  0.001238416    2.070    0.517
       161  -9.3738    173.7417     40.1862   2.9006360263e+02   6.2703374743e+00    0.0095543  0.007516511 -31.39  0.001057331    1.367    0.268
       162 -10.0426     93.1590     40.3868   2.9099705600e+02   6.7522766207e+00   0.01190608  0.008373974  22.65  0.001172482    1.464    0.317
       163 -10.6646    248.6191     37.9845   2.8918530493e+02   5.8441901825e+00   0.01597058   0.01266174 -49.40 0.0005831085    1.247    0.198
       164 -10.4073    242.2260     37.9995   2.8925915265e+02   5.8826087374e+00   0.01061223  0.008638409 -30.46  0.001202287    1.310    0.237
       165  -9.8611    229.4732     37.2077   2.8940140736e+02   5.9686582769e+00   0.01229654   0.01052376  -3.83 0.0005928604    1.264    0.209
       166  -9.6892    218.3615     34.3858   2.8951217534e+02   6.0680953393e+00   0.01232727  0.008149738 -66.14 0.0006006084    1.561    0.360
       167  -9.2782    111.5896     34.8230   2.9074926763e+02   6.7056469303e+00  0.009462377  0.006457591 -77.97 0.0009515627    1.698    0.411
       168  -9.4616    104.6701     34.2647   2.9082590525e+02   6.7535981586e+00   0.01095854  0.007103888 -25.26 0.0007604482    1.946    0.486
       169  -9.1036    243.3176     33.6474   2.8921955645e+02   5.9259901624e+00  0.007073416  0.005002332  65.55 0.0005684482    1.741    0.426
       170  -9.2162    164.4695     32.4963   2.9012312706e+02   6.4145121282e+00  0.009412569  0.006517859 -76.10 0.0005607484    1.631    0.387
       171  -9.0818    162.7020     29.3316   2.9012394659e+02   6.4615112582e+00   0.01222598  0.006694366 -68.49 0.0008060857    2.000    0.500
       172  -8.6498    138.6928     32.3340   2.9042023127e+02   6.5714295159e+00  0.006941716  0.005025008  65.23 0.0007040856    1.670    0.401
       173  -9.9296    248.5141     31.0335   2.8914338555e+02   5.9246284498e+00   0.01021948  0.006512478 -62.51 0.0005819825    1.573    0.364
       174  -8.9093    193.9974     29.7519   2.8976483411e+02   6.2682059845e+00  0.008562346  0.005632112  27.18 0.0006148565    1.529    0.346
       175  -8.8480    170.3937     29.1674   2.9003400047e+02   6.4170967805e+00  0.009570097  0.006427143 -77.34 0.0009534293    1.728    0.421
       176  -9.7903    249.5021     22.5185   2.8907914016e+02   6.0164070811e+00   0.01244829   0.00862962 -27.96  0.001269055    1.695    0.410
       177 -10.3542    220.8274     23.6984   2.8941739985e+02   6.1759474233e+00   0.01268358  0.006266867  17.55  0.001053746    2.467    0.595
       178  -9.5536    191.5558    247.3321   2.9113781376e+02   3.7802125425e+00   0.01273823  0.006706245 -68.69  0.001130975    2.103    0.525
       179  -9.9335    206.2463     20.4655   2.8956572759e+02   6.3010165098e+00   0.01175501  0.009261525 -57.94 0.0006336754    1.252    0.202
       180  -8.5112    191.3010     21.6793   2.8974592126e+02   6.3771735964e+00  0.006849856  0.005032217  64.97 0.0005003152    1.626    0.385
       181 -10.0164    210.7796    246.3683   2.9091029435e+02   3.6759045236e+00   0.01630239  0.009150274 -68.55  0.001515321    1.939    0.484
       182 -10.1675     89.9956     18.9630   2.9090107503e+02   7.0175120239e+00  0.008136633  0.007696886 -56.76 0.0003872485    1.051    0.048
       183  -8.9519    227.6327     17.6789   2.8930147770e+02   6.2039910924e+00  0.007213987  0.004923396 -24.50 -1.424122e-05    1.791    0.442
       184  -8.9351    174.9901     17.5145   2.8990860590e+02   6.5232741142e+00  0.009375776  0.004948376  50.81 0.0005435604    2.271    0.560
       185  -9.2876    120.5431     16.4843   2.9053204666e+02   6.8626291735e+00  0.006515061  0.006457514 -42.21 0.0002665221    1.007    0.007
       186  -9.7656    233.1291     14.8523   2.8922048660e+02   6.2032607164e+00  0.009287804  0.007696218 -19.65 0.0005755944    1.323    0.244
       187  -9.5360    131.4914     13.9105   2.9038938619e+02   6.8264080244e+00    0.0101774   0.00640588 -59.23  0.001020004    1.560    0.359
       188  -9.2272    175.8150    246.8414   2.9131627816e+02   3.8803121508e+00  0.009490344  0.007839971  62.83  0.001053886    1.338    0.253
       189  -9.3215    131.4012    246.2019   2.9182463704e+02   4.1539616923e+00  0.009550125  0.006454134 -77.05  0.000956499    1.701    0.412
       190  -9.3954    113.0000    246.0112   2.9203579515e+02   4.2663787578e+00   0.01109267  0.003744715 -61.91 0.0007425771    2.946    0.661
       191  -9.1053    169.4803    243.4551   2.9136848325e+02   3.9572901457e+00   0.01201167  0.006641495 -77.69  0.001033103    2.376    0.579
       192  -9.9030    146.5363    242.7045   2.9162851114e+02   4.1035212325e+00   0.01623761  0.006751053 -65.05   0.00129363    2.569    0.611
