#   1 NUMBER                 Running object number                                     
#   2 MAG_AUTO               Kron-like elliptical aperture magnitude                    [mag]
#   3 X_IMAGE                Object position along x                                    [pixel]
#   4 Y_IMAGE                Object position along y                                    [pixel]
#   5 X_WORLD                Barycenter position along world x axis                     [deg]
#   6 Y_WORLD                Barycenter position along world y axis                     [deg]
#   7 A_WORLD                Profile RMS along major axis (world units)                 [deg]
#   8 B_WORLD                Profile RMS along minor axis (world units)                 [deg]
#   9 THETA_WORLD            Position angle (CCW/world-x)                               [deg]
#  10 FWHM_WORLD             FWHM assuming a gaussian core                              [deg]
#  11 ELONGATION             A_IMAGE/B_IMAGE                                           
#  12 ELLIPTICITY            1 - B_IMAGE/A_IMAGE                                       
         1 -14.4482    228.3428     70.9850   2.8962388387e+02   5.5874499794e+00    0.4322754   0.05319399 -55.58   0.02399033    5.192    0.807
         2 -13.2050    248.9943     74.3252   2.8940634229e+02   5.4245309916e+00    0.2545204   0.02138735 -61.15   0.01047694    9.611    0.896
         3 -13.2807    246.4772     46.4530   2.8926254962e+02   5.7598766099e+00    0.2006208          nan -56.88  0.009018706    7.925    0.874
         4 -11.2963     15.4342     11.4315   2.9171852440e+02   7.5502860384e+00   0.02140333   0.01483522  -6.87 0.0003449005    1.827    0.453
         5  -9.8568     12.0502      5.5395   2.9172134023e+02   7.6382019786e+00   0.01182693  0.009206721 -51.25 0.0003265855    1.263    0.208
         6 -10.6328     20.7175      6.9863   2.9162978135e+02   7.5698228618e+00   0.01950826   0.01255534  80.34  0.001514022    2.242    0.554
         7 -10.2233     16.0513      5.6592   2.9167568220e+02   7.6129386841e+00   0.01314099   0.01158346  17.08 0.0003682925    1.157    0.136
         8  -8.1297     96.3317      9.7116   2.9077040112e+02   7.0858074775e+00  0.006883614  0.004955201  59.96 0.0007016341    1.623    0.384
         9 -10.6378      4.0839      4.9629   2.9181016193e+02   7.6923687681e+00    0.0269454       0.0183 -36.18  0.002789694    1.609    0.378
        10  -9.7552    110.9841      5.0536   2.9057186979e+02   7.0513653100e+00  0.009649322  0.009191448 -26.53  0.001191994    1.056    0.053
        11  -9.5355     50.9236      3.7913   2.9125983797e+02   7.4259419777e+00     0.010219  0.009118278 -52.83 0.0003063328    1.107    0.096
        12  -9.2721    219.5078    217.1011   2.9062926084e+02   3.9602103659e+00   0.01069347  0.008946287  64.40  0.001225022    1.320    0.242
        13 -10.4153    218.4147    247.9322   2.9083194673e+02   3.6120664836e+00    0.0238158   0.01662311 -78.24  0.001772144    1.646    0.392
        14  -9.8368    224.6575    249.6047   2.9077032351e+02   3.5553364880e+00   0.01679443    0.0136519  51.48  0.001677703    1.301    0.232
        15  -9.7026    229.0439    249.2943   2.9071787457e+02   3.5325633309e+00   0.01309305  0.009396256  58.36 0.0008791733    1.609    0.378
        16  -9.9900    202.2737    242.8102   2.9098640799e+02   3.7679130773e+00   0.02282914   0.01326098 -82.32  0.001556953    2.382    0.580
        17 -10.2243    206.7426    237.3454   2.9090122321e+02   3.8039623636e+00   0.02358917    0.0151738  59.83  0.002111989    1.942    0.485
        18  -9.5157    202.8179    232.5461   2.9091688612e+02   3.8827530832e+00   0.01439398   0.01036254  68.83  0.001424444    1.720    0.419
        19 -10.6839    193.5819    247.8096   2.9111739748e+02   3.7625584035e+00   0.03099669   0.01741971 -63.93  0.002953748    1.813    0.448
        20  -9.3750    167.9170    250.0132   2.9142687677e+02   3.8911806940e+00   0.01209726  0.009597245   9.72 0.0003959101    1.363    0.266
        21 -10.1388    169.8340    242.9207   2.9136111412e+02   3.9613192051e+00   0.02800683   0.01315178 -67.83  0.002357368    2.384    0.580
        22 -10.2473    190.4565    235.3758   2.9107684030e+02   3.9244060990e+00   0.02994284   0.01884435  87.88  0.002744297    2.280    0.561
        23  -9.6354    190.5315    226.2378   2.9101966764e+02   4.0291197861e+00   0.02464378  0.009945121 -64.17  0.001958367    2.599    0.615
        24  -8.8885    243.5879    236.8713   2.9047373945e+02   3.5880831459e+00  0.009374111  0.006391077 -81.68 0.0009319197    1.767    0.434
        25  -9.5438    240.8285    232.4273   2.9047811548e+02   3.6557796874e+00   0.01767757   0.01133498  74.70  0.001424505    2.242    0.554
        26  -8.8122    237.4620    235.9838   2.9053883296e+02   3.6351013317e+00   0.00919053  0.005753134  82.36 0.0007027243    2.390    0.582
        27  -8.5703    229.9960    236.5157   2.9062812851e+02   3.6738396283e+00  0.009437941  0.004934137  50.57 0.0006553347    2.291    0.564
        28 -10.1757    215.9383    234.2978   2.9077644898e+02   3.7838010853e+00   0.01911695   0.01395583  71.99   0.00178375    1.700    0.412
        29  -9.3783    211.9630    228.3047   2.9078532048e+02   3.8766333303e+00     0.012468  0.009998819 -77.15 0.0006908655    1.344    0.256
        30  -8.8506    242.7504    248.5892   2.9055564468e+02   3.4583440859e+00  0.009616543  0.005913785  38.88 0.0009488292    1.624    0.384
        31  -8.7483    145.5432    230.0833   2.9156230222e+02   4.2547833749e+00  0.009822145  0.006495028 -62.78 0.0003545757    1.516    0.340
        32 -10.7634      2.9554    227.4197   2.9319231803e+02   5.1380883846e+00   0.01987007   0.01339338 -41.66  0.001396977    1.545    0.353
        33  -8.9795    235.9753    229.0575   2.9051324097e+02   3.7237063138e+00   0.01251958  0.008835391 -59.76  0.001335421    1.399    0.285
        34  -8.6350    138.6743    228.5185   2.9163193432e+02   4.3139811052e+00   0.01192369  0.006100627 -62.13  0.001074153    1.952    0.488
        35 -10.3927    176.7464    246.4923   2.9130338821e+02   3.8787422412e+00   0.02921835   0.01651946 -63.39  0.002796863    1.790    0.441
        36  -9.8530    216.9059    211.6114   2.9062538663e+02   4.0390063128e+00   0.02232704   0.01373276 -77.29  0.001965096    1.972    0.493
        37  -9.3484    210.8666    218.6792   2.9073860519e+02   3.9939730277e+00   0.01299662  0.009690464 -70.87 0.0009769322    1.415    0.293
        38  -9.2762    176.8076    210.7778   2.9108267103e+02   4.2894500603e+00   0.01869082  0.007698482 -63.07  0.001510961    2.476    0.596
        39  -9.7429    192.9886    209.9283   2.9089078847e+02   4.2020643824e+00   0.01578166  0.009977765 -74.49  0.001137263    1.816    0.449
        40  -9.2646    224.7437    207.9639   2.9051253174e+02   4.0338654376e+00   0.01641536   0.01029965 -83.15  0.001106001    2.077    0.518
        41 -10.9403      8.5272    207.4653   2.9300562804e+02   5.3347876597e+00   0.02262792   0.01420096  69.37  0.002078209    2.259    0.557
        42  -9.6577    206.1610    206.4732   2.9071757070e+02   4.1626940918e+00   0.02668105  0.008440265 -58.28  0.001973987    2.909    0.656
        43  -8.3745    183.2987    206.0591   2.9097869804e+02   4.3047892411e+00   0.01163764  0.003395431 -44.40 0.0007035526    4.267    0.766
        44  -9.6067    200.9281    214.7997   2.9082926843e+02   4.0983166371e+00   0.01829625  0.008934518 -67.89  0.001406264    2.274    0.560
        45  -8.8436    202.3795    204.7104   2.9075030257e+02   4.2056996900e+00   0.01234617    0.0065122 -67.04 0.0009872654    2.036    0.509
        46  -9.2472    197.2343    204.3424   2.9080737042e+02   4.2408452001e+00   0.01545702  0.008792404 -55.36   0.00127108    1.696    0.410
        47  -9.0508    223.7970    201.5380   2.9048378645e+02   4.1134845674e+00   0.01074972  0.007889231 -67.71 0.0007306303    1.408    0.290
        48  -9.2247    187.0285    203.0599   2.9091717781e+02   4.3169091024e+00   0.01564254  0.008939138 -82.32  0.001348404    2.465    0.594
        49  -8.8778    210.1828    200.5540   2.9063467456e+02   4.2066369425e+00   0.01245051  0.009300555 -64.02 0.0007705039    1.349    0.259
        50  -8.9738    215.4240    197.7179   2.9055673870e+02   4.2077666836e+00   0.01243502  0.006656053 -68.51  0.001115569    2.055    0.513
        51  -9.3168    202.1750    197.4417   2.9070781641e+02   4.2905713178e+00   0.01321964  0.009704573 -75.72  0.001228023    1.499    0.333
        52  -8.3649    176.2770    197.6570   2.9100789670e+02   4.4436609574e+00  0.006806927  0.005061053  68.89 0.0004591241    1.624    0.384
        53  -9.1240    184.4527    194.7907   2.9089588989e+02   4.4275514398e+00   0.01690513  0.004455412 -52.61  0.001151968    3.356    0.702
        54  -9.2221    209.1784    194.1276   2.9060659729e+02   4.2866176142e+00   0.01193322  0.009113124 -68.91 0.0009155588    1.357    0.263
        55  -9.5670    224.3495    192.3169   2.9042049343e+02   4.2162460395e+00   0.02053989     0.010063 -63.02  0.001821904    2.067    0.516
        56  -8.9485    215.0798    191.8774   2.9052465722e+02   4.2770348814e+00    0.0103599  0.008923897  70.94 0.0007955336    1.280    0.219
        57  -8.6974    198.6327    190.8573   2.9070804060e+02   4.3876272420e+00  0.009656314  0.006366331 -76.26 0.0009525894    1.750    0.429
        58  -9.0528    210.4035    188.7456   2.9055924809e+02   4.3411798767e+00   0.01250353  0.006596148 -67.50  0.001118391    2.053    0.513
        59  -8.7779    220.3132    187.5387   2.9043752625e+02   4.2954875523e+00   0.01152729  0.006018486 -61.66  0.000941588    1.905    0.475
        60  -8.7881    215.1863    187.1326   2.9049413587e+02   4.3309853526e+00  0.009327739    0.0077615  76.59 0.0006736887    1.363    0.266
        61 -12.1527    239.8952    219.6809   2.9041022914e+02   3.8080020183e+00     0.124587     0.064528  75.44  0.007963877    4.908    0.796
        62  -8.4944    157.3390    186.3363   2.9115665022e+02   4.6876693710e+00  0.007200409  0.004907231 -26.93 0.0007051243    1.755    0.430
        63  -9.3694    223.8462    183.6651   2.9037287080e+02   4.3188052858e+00    0.0148792  0.009463408 -67.32  0.001159842    1.648    0.393
        64  -9.4391    223.3229    173.0585   2.9031338973e+02   4.4439717166e+00   0.01748267   0.01064743 -76.60   0.00126668    1.982    0.495
        65  -9.3687    227.5994    171.3191   2.9025333294e+02   4.4382555682e+00   0.01581776  0.009900498 -73.55  0.001158866    1.819    0.450
        66  -9.4671    226.3534    178.7891   2.9031384763e+02   4.3598194889e+00   0.01414492   0.01067896 -61.56 0.0009338372    1.319    0.242
        67  -8.7992    227.4956    175.5264   2.9028052306e+02   4.3904813425e+00   0.01064066  0.009475085  69.12 0.0006275215    1.212    0.175
        68  -9.2399    203.4629    183.4780   2.9060677952e+02   4.4435122810e+00   0.01399119  0.006573695 -63.23  0.001204319    2.166    0.538
        69  -8.4447    173.3020    184.6609   2.9096206792e+02   4.6111135346e+00  0.006939413  0.005034401  65.98 0.0004694881    1.670    0.401
        70  -8.8378    217.6617    183.1736   2.9044114540e+02   4.3616510397e+00  0.009643728  0.007468123 -39.11   0.00106402    1.335    0.251
        71  -9.5681    219.0954    177.7339   2.9039101921e+02   4.4156128246e+00   0.01950173  0.009649513 -60.43  0.001754376    1.982    0.495
        72  -9.6896    210.9333    181.8280   2.9051042988e+02   4.4175888069e+00   0.01784056  0.008801322 -55.60  0.001497282    1.934    0.483
        73  -8.7355    183.5086    182.0018   2.9082787760e+02   4.5804117166e+00   0.01042726  0.006483828 -61.44 0.0008277989    1.598    0.374
        74  -8.8738    204.8661    176.5754   2.9054797540e+02   4.5145014889e+00   0.01125532  0.007791923 -67.65   0.00104428    1.502    0.334
        75  -8.9804    197.5656    176.6770   2.9063282146e+02   4.5572187749e+00   0.01264022  0.006073375 -56.97 0.0009930026    1.988    0.497
        76  -9.1824    210.5883    175.0054   2.9047227802e+02   4.4981607494e+00   0.01434506  0.006345489 -61.24   0.00114953    2.232    0.552
        77 -11.9122    241.9092    132.4307   2.8984788769e+02   4.7993672541e+00     0.072589   0.02544303 -70.77  0.004509518    4.537    0.780
        78  -8.9488    124.4891    174.5238   2.9146315622e+02   5.0207494783e+00  0.006590836  0.006412019 -28.32 4.247959e-05    1.025    0.024
        79  -8.8480    215.5137    172.9664   2.9040287672e+02   4.4920012628e+00   0.01015472  0.006475264 -61.16  0.001021147    1.556    0.357
        80  -9.7456    237.2711    169.2720   2.9012917804e+02   4.4036091138e+00   0.01735395  0.009328228 -64.81  0.001239302    1.924    0.480
        81 -10.5661    238.8324    160.4572   2.9005669519e+02   4.4955950396e+00    0.0371218   0.01896674 -78.27  0.002983654    2.837    0.648
        82  -9.0477    205.1633    168.8446   2.9049680454e+02   4.6016656258e+00   0.01401726  0.009408738 -78.92  0.001404378    1.758    0.431
        83  -9.9127    218.5686    167.6218   2.9033462783e+02   4.5351135195e+00   0.01890341   0.01283129 -59.46  0.001618691    1.451    0.311
        84  -9.4529    229.1049    165.8446   2.9020214579e+02   4.4921703263e+00   0.01489682  0.008883275 -55.06  0.001088823    1.622    0.384
        85  -9.1170    150.5666    166.4949   2.9111246109e+02   4.9567307173e+00  0.006557371  0.006397294 -39.51  4.74067e-05    1.015    0.015
        86  -9.1917    231.4140    159.2096   2.9013451286e+02   4.5545934690e+00   0.01487022  0.008580902 -54.35   0.00103102    1.673    0.402
        87  -9.7496    233.1977    153.4077   2.9007807808e+02   4.6105897076e+00   0.01822818   0.00941141 -64.67  0.001412114    2.006    0.501
        88  -8.8600    199.5410    164.7207   2.9053619691e+02   4.6829206163e+00   0.01292859  0.006062351 -56.71  0.001122235    2.031    0.508
        89  -9.0022    191.5739    164.7578   2.9062835664e+02   4.7303895863e+00   0.01328427  0.005954743 -56.54  0.001140774    2.114    0.527
        90  -9.8051    212.9640    162.4861   2.9036753959e+02   4.6279086277e+00   0.01975739  0.008992527 -55.95  0.001723164    2.082    0.520
        91  -9.3346    234.0194    163.8371   2.9013307599e+02   4.4856884544e+00   0.01630856  0.009695256 -66.30  0.001208449    1.757    0.431
        92  -9.0681    221.4944    161.4818   2.9026294662e+02   4.5881458118e+00   0.01351998  0.006526625 -62.27 0.0009618969    2.076    0.518
        93  -9.6871    205.6236    160.4249   2.9043948318e+02   4.6957716915e+00   0.02062192   0.01143439 -44.06  0.001931249    1.883    0.469
        94  -9.8528    226.5007    156.4143   2.9017389048e+02   4.6163131754e+00   0.03018893  0.008685194 -63.85  0.001983424    3.799    0.737
        95  -9.1965    228.2981    151.3530   2.9012187430e+02   4.6637122475e+00   0.01233091  0.008563242 -50.56 0.0009418168    1.415    0.293
        96  -9.1815    229.0000    147.9948   2.9009301630e+02   4.6981122375e+00    0.0109923  0.007410361 -33.73 0.0006421152    1.672    0.402
        97  -9.1102    221.6571    156.2517   2.9022874582e+02   4.6473305785e+00   0.01481804  0.006062056 -62.10 0.0009811812    2.448    0.591
        98  -9.0331    221.1252    152.0206   2.9020872689e+02   4.6992009152e+00   0.01058438  0.008785861 -32.49  0.001149147    1.263    0.208
        99  -9.2010    197.0094    156.5043   2.9051465366e+02   4.7926808357e+00   0.01388437  0.008414604 -46.70  0.001367162    1.659    0.397
       100  -9.1917    216.1395    155.5501   2.9028804926e+02   4.6885979960e+00   0.01265521  0.009247527 -64.07  0.001272016    1.381    0.276
       101 -10.6047    240.6155    208.7771   2.9033463479e+02   3.9290926201e+00   0.02797084    0.0168638  88.53  0.002262062    2.520    0.603
       102  -8.7916    205.6326    154.1175   2.9040040683e+02   4.7682833428e+00    0.0101116  0.005639412 -50.63 0.0009522486    1.750    0.428
       103  -9.0477    215.3230    148.4641   2.9025366919e+02   4.7750246390e+00   0.01315681  0.008339114 -67.52  0.001311868    1.658    0.397
       104 -10.2438    234.6289    146.1537   2.9001672142e+02   4.6854008302e+00   0.02211046    0.0123284 -57.88   0.00175845    1.739    0.425
       105 -10.1664    223.5458    145.8486   2.9014265039e+02   4.7556259340e+00   0.01990416   0.01263158 -48.02  0.001315602    1.566    0.362
       106  -9.6831    224.1220    139.7859   2.9009851474e+02   4.8218885520e+00   0.01568224  0.009277676 -58.96  0.001107703    1.652    0.395
       107 -12.3266    236.6135    192.1530   2.9027811271e+02   4.1443802258e+00   0.09655639   0.04814969 -66.43  0.008536012    2.151    0.535
       108  -8.8688    218.5123    144.0050   2.9018931188e+02   4.8071239410e+00   0.01226873  0.006115987 -56.57 0.0006771035    1.920    0.479
       109 -10.2554    218.6111    136.9608   2.9014461397e+02   4.8875521095e+00   0.02793225   0.01252734 -64.29  0.002352221    2.323    0.570
       110  -8.8011    194.5022    143.0466   2.9046042998e+02   4.9625973949e+00   0.01034789  0.006493168 -61.67  0.001031893    1.587    0.370
       111  -8.7610    155.3966    143.1945   2.9091286002e+02   5.1959266379e+00    0.0094316   0.00642683 -77.94   0.00073049    1.699    0.411
       112 -10.0210    229.9046    140.4878   2.9003616110e+02   4.7790045250e+00   0.02117207  0.009793117 -65.18  0.001647652    2.287    0.563
       113 -13.1327    246.6800    154.4664   2.8992919068e+02   4.5172495423e+00    0.1799531   0.03621869 -61.81   0.01033515    4.952    0.798
       114  -9.1144    238.9099    140.1402   2.8993016550e+02   4.7287808778e+00   0.01162124  0.009336091 -59.31 0.0008107413    1.232    0.188
       115  -9.3782    208.2160    137.5101   2.9026794499e+02   4.9437930638e+00   0.01276758   0.00922274 -60.71  0.001147058    1.373    0.272
       116 -10.2021    233.9675    134.8218   2.8995425893e+02   4.8197016044e+00    0.0339706   0.01870807  84.00  0.002536103    3.542    0.718
       117 -10.3210    233.5418    129.2034   2.8992440867e+02   4.8868721995e+00   0.01912795  0.009736433 -63.56  0.001414668    2.003    0.501
       118  -9.5896    200.8831    132.6606   2.9032258197e+02   5.0436984464e+00   0.02939469  0.007811837 -46.86  0.001855088    4.094    0.756
       119 -11.2025    248.6349    121.2815   2.8970134338e+02   4.8870338527e+00   0.04097678   0.01925728 -69.13  0.003239145    2.473    0.596
       120  -9.6796    225.5785    133.1079   2.9004041119e+02   4.8899232374e+00   0.01606372  0.009726617 -46.89 0.0009964297    1.658    0.397
       121  -9.8464    220.8666    128.2053   2.9006443959e+02   4.9746735968e+00   0.01498689  0.008967618 -55.80  0.001359546    1.618    0.382
       122 -12.0342    246.4345    210.3906   2.9027754818e+02   3.8755447642e+00    0.1092039   0.03996786 -74.15  0.006052221    5.876    0.830
       123  -9.6763    227.6059    124.6966   2.8996498905e+02   4.9744446050e+00   0.01605392   0.01075181 -54.97  0.001210151    1.455    0.313
       124  -8.9013    179.6123    123.1466   2.9050931888e+02   5.2810897527e+00   0.01016827  0.005611543 -49.54 0.0009507851    1.781    0.439
       125  -9.6531    231.2424    120.5064   2.8989711334e+02   5.0007253623e+00    0.0148629  0.008789312 -63.77 0.0009302751    1.717    0.418
       126 -10.8146    230.6668    115.0523   2.8986999800e+02   5.0669043945e+00   0.02168631   0.01047222 -68.60  0.001839848    2.351    0.575
       127 -12.1778    243.8587    186.6075   2.9016036072e+02   4.1645835874e+00    0.1083935    0.0464076 -80.02  0.006187366    5.781    0.827
       128 -12.1860    241.3754    114.2223   2.8974135126e+02   5.0119318097e+00   0.06027154   0.02744154 -54.93  0.005289977    2.080    0.519
       129 -10.2730    234.5795    111.6940   2.8980407731e+02   5.0819447430e+00   0.01603258  0.009277462  47.32  0.001517635    1.887    0.470
       130 -10.4467    213.5508    105.8084   2.9001026604e+02   5.2762800145e+00   0.03126152   0.01236288 -64.52  0.002450112    2.691    0.628
       131 -11.6515    248.3297    106.8628   2.8961559123e+02   5.0546199422e+00   0.05208033   0.02359577 -62.89  0.004460423    2.239    0.553
       132  -8.5217    157.3279    105.6821   2.9065875299e+02   5.6159820004e+00  0.006996228  0.004989757  62.64 0.0007046323    1.680    0.405
       133 -10.0272    229.7297    102.7434   2.8980460832e+02   5.2140662105e+00   0.01506579  0.009770539 -41.29  0.001248516    1.623    0.384
       134  -9.5080    186.9791    247.4210   2.9119112392e+02   3.8066559193e+00    0.0147657  0.009842618 -62.87   0.00105261    1.505    0.336
       135 -11.5112    209.8045    247.4942   2.9092846908e+02   3.6688050233e+00   0.03212199   0.02913727  44.92  0.003254114    1.124    0.110
       136  -9.3163    217.1588    224.0132   2.9069896816e+02   3.8947980508e+00   0.01452626  0.009505454  87.25  0.001372617    2.102    0.524
       137  -8.8624    187.5522     86.5083   2.9019096102e+02   5.6547307570e+00   0.00651126  0.006461666 -60.17 0.0001525558    1.015    0.014
       138  -9.8548    200.6660     77.5968   2.8998433508e+02   5.6782324833e+00   0.01559721   0.01206013 -79.96  0.001719054    1.438    0.305
       139  -9.9761    206.5453    226.0905   2.9083412175e+02   3.9346517596e+00   0.01986394   0.01259374 -73.61  0.001272037    1.788    0.441
       140  -9.4267      2.2250     80.8093   2.9229984164e+02   6.8311323611e+00  0.009317419  0.007536645 -31.01 0.0005473224    1.315    0.239
       141  -9.1958    119.3239     79.6588   2.9093719812e+02   6.1436310887e+00  0.007068326   0.00499523  64.33 0.0006507495    1.728    0.421
       142  -8.7430    183.6948     77.3578   2.9017886444e+02   5.7831597546e+00  0.007027723  0.005022191  66.72 0.0007040087    1.723    0.420
       143  -8.9600    201.5122    221.1519   2.9086170133e+02   4.0217108516e+00    0.0100782  0.006492784 -61.75  0.001017843    1.546    0.353
       144  -9.2098     33.8609     75.3067   2.9189949127e+02   6.7055980584e+00   0.01093146  0.008011024  45.70 0.0007331296    1.419    0.295
       145  -9.1849     28.5144     75.0579   2.9195987646e+02   6.7404048240e+00  0.009865045  0.006441129 -60.32 0.0003307968    1.512    0.339
       146 -10.0135    193.4366    218.4121   2.9093793056e+02   4.1017387649e+00   0.02696419   0.01229994 -66.01  0.002263129    2.364    0.577
       147 -10.0200    161.2406     69.1410   2.9038745413e+02   6.0127362173e+00   0.01910752   0.01340619  67.67  0.001760455    1.791    0.442
       148  -8.2914     70.7509     71.6434   2.9144972812e+02   6.5270695895e+00  0.006919936  0.004766994 -34.89 0.0006946977    1.601    0.375
       149  -8.3783    102.3013     70.3080   2.9107631253e+02   6.3533401190e+00   0.00688168  0.004946016 -27.59 0.0002286563    1.600    0.375
       150  -9.6808    198.1352    227.2377   2.9093815544e+02   3.9719576275e+00   0.02021987   0.01569232 -11.13  0.002220863    1.493    0.330
       151  -8.6509      9.4934     83.5731   2.9223268766e+02   6.7559641105e+00  0.006502329   0.00642369  -7.16 5.206585e-05    1.011    0.011
       152 -11.1500     13.4638     64.5689   2.9206950703e+02   6.9509706752e+00   0.01964036   0.01165186 -74.59  0.001844484    1.990    0.498
       153  -8.4307    205.3760    217.2806   2.9079328178e+02   4.0430497700e+00   0.01191951  0.008608578 -73.45   0.00126422    1.502    0.334
       154  -9.1183    206.5808     58.7178   2.8979906883e+02   5.8595878178e+00   0.01344006  0.005864434 -56.01  0.001141128    2.164    0.538
       155  -8.7776     32.8489     58.1274   2.9180517844e+02   6.9093081307e+00   0.00898694  0.007425981 -29.18            0    1.286    0.222
       156  -9.4784    100.0164     54.1855   2.9100304748e+02   6.5524797560e+00    0.0112716  0.009396251 -58.09 0.0002999532    1.186    0.157
       157 -10.9877    210.9893     52.4277   2.8970917535e+02   5.9052950536e+00   0.02502066  0.008423012 -59.24  0.001890777    2.800    0.643
       158  -9.0997    184.5657    227.7328   2.9109767761e+02   4.0477289962e+00     0.012923  0.006088426 -57.39  0.001134188    2.027    0.507
       159  -9.7077     95.7774     51.8037   2.9103737964e+02   6.6052958715e+00   0.01191702  0.006387271 -27.51 0.0009539261    2.802    0.643
       160  -8.6685     91.4798     52.5089   2.9109148803e+02   6.6229577300e+00  0.006617386  0.006378551 -28.78 -1.471459e-05    1.037    0.036
       161  -8.3308     64.5584     52.4409   2.9140277224e+02   6.7850447984e+00  0.006757976  0.006142144 -27.44 0.0001018596    1.128    0.114
       162  -8.3937     72.7736     47.9840   2.9128008464e+02   6.7871045262e+00   0.00865122  0.005411617 -61.02 0.0003437803    1.584    0.369
       163 -10.2738     14.7269     42.4174   2.9191815721e+02   7.1982542461e+00   0.01907017  0.004203274 -56.22  0.001230921    3.752    0.733
       164  -8.9127    227.7882    216.7727   2.9053179664e+02   3.9142263671e+00   0.01234859   0.00916639 -71.30 0.0006851089    1.427    0.299
       165  -8.0154    149.3104     34.3327   2.9030980196e+02   6.4846158646e+00  0.007055535  0.004912264 -28.38 0.0007043005    1.674    0.403
       166  -8.3172    127.9908     34.2242   2.9055575698e+02   6.6140252552e+00  0.008484741  0.005429122  27.52 0.0003376713    1.568    0.362
       167  -8.9012     54.9810     30.2340   2.9137641424e+02   7.0977391512e+00   0.01191437  0.008770563 -89.92  0.001249299    1.648    0.393
       168  -8.4806    225.6605    213.2391   2.9053451681e+02   3.9676663162e+00  0.009272987  0.008357892 -85.72 0.0005308626    1.176    0.150
       169  -8.7130     42.3135     28.0534   2.9150970923e+02   7.1985954301e+00  0.008914506  0.008154923 -63.58 0.0002844672    1.096    0.087
       170 -10.0001      8.9794     27.0197   2.9188968636e+02   7.4096230839e+00  0.009659471  0.009637606 -36.27            0    1.014    0.013
       171  -8.9911      4.5001     27.5008   2.9194458766e+02   7.4308183726e+00  0.006542529  0.006446819 -30.67 -0.0002171268    1.004    0.004
       172  -9.0852     83.8689     21.2575   2.9098623697e+02   7.0278806526e+00   0.01824877  0.008080129  47.56  0.001456082    2.680    0.627
       173  -9.0607    180.5274    222.2636   2.9111055104e+02   4.1349180743e+00   0.01706231  0.005940669 -58.26  0.001308252    2.676    0.626
       174  -9.4760     23.0755     15.9405   2.9165780472e+02   7.4528257546e+00   0.01014637  0.009677519 -12.49  0.000657095    1.062    0.059
       175  -9.3239      2.4753     15.9818   2.9189690905e+02   7.5753230077e+00  0.009836221  0.006433323 -60.35 0.0004021869    1.510    0.338
       176  -9.8829     29.5691     13.0193   2.9156446336e+02   7.4476036975e+00   0.01191221  0.009773232  20.43 0.0003206374    1.246    0.197
       177  -8.4650    238.0317    245.5000   2.9059094912e+02   3.5222206996e+00  0.009149184   0.00500976  51.57 0.0006821965    2.189    0.543
       178  -9.6498    225.4205    243.4025   2.9072330422e+02   3.6221026757e+00   0.01507952    0.0119746  85.89   0.00114183    1.466    0.318
       179  -9.1591    239.9125    240.6052   2.9053910275e+02   3.5672217154e+00   0.01306179  0.008003984  66.60  0.001168416    2.326    0.570
       180  -9.0942    219.9011    240.3059   2.9076781651e+02   3.6908767997e+00   0.01148548  0.009117291 -79.41 0.0007579004    1.380    0.276
       181  -8.3472     34.3025     10.3492   2.9149307841e+02   7.4499983794e+00  0.007108287   0.00486262 -29.84 0.0005197757    1.695    0.410
       182  -9.3060    214.3249    241.0314   2.9083654830e+02   3.7160189852e+00   0.01221153  0.008827152  54.80  0.001022531    1.546    0.353
       183  -9.3429    183.5570    240.5569   2.9118830926e+02   3.9061880661e+00   0.01546395  0.009269672  65.28  0.001365693    2.397    0.583
       184  -9.1674    248.3775    240.2626   2.9043948978e+02   3.5202981569e+00   0.01075828   0.00962373  39.45 0.0008702125    1.128    0.114
       185  -8.8990    159.3878    239.1895   2.9145862966e+02   4.0669270990e+00  0.009587574  0.006403179 -78.15 0.0007405626    1.754    0.430
