#   1 NUMBER                 Running object number                                     
#   2 MAG_AUTO               Kron-like elliptical aperture magnitude                    [mag]
#   3 X_IMAGE                Object position along x                                    [pixel]
#   4 Y_IMAGE                Object position along y                                    [pixel]
#   5 X_WORLD                Barycenter position along world x axis                     [deg]
#   6 Y_WORLD                Barycenter position along world y axis                     [deg]
#   7 A_WORLD                Profile RMS along major axis (world units)                 [deg]
#   8 B_WORLD                Profile RMS along minor axis (world units)                 [deg]
#   9 THETA_WORLD            Position angle (CCW/world-x)                               [deg]
#  10 FWHM_WORLD             FWHM assuming a gaussian core                              [deg]
#  11 ELONGATION             A_IMAGE/B_IMAGE                                           
#  12 ELLIPTICITY            1 - B_IMAGE/A_IMAGE                                       
         1 -11.6510    221.3335     37.7312   2.9634313824e+01   2.4600373888e+01     1.310992    0.7484621  35.08  0.005690228    2.308    0.567
         2 -11.1444    236.5795     24.6311   2.4576587742e+01   2.2497461802e+01    0.7390606    0.6130067 -36.67  0.002940198    1.048    0.046
         3  -8.8588    120.0533      9.4618   3.4068063981e+01   5.4175498020e+01    0.2997976     0.198627   8.89  0.001356355    1.709    0.415
         4  -8.8490      6.4883      9.4865   8.0421482408e+01   7.5027034993e+01    0.1869913    0.1055542  -1.75  0.001031938    2.274    0.560
         5 -10.3398    199.0321    241.7351   7.7391208279e+01   1.5674224450e+00    0.1804169     0.148384  17.33 0.0005228434    1.165    0.142
         6  -8.5541    248.9926    249.2707   7.0814848893e+01  -5.6192869835e+00    0.1470375    0.1293042   1.15  0.001314193    1.623    0.384
         7 -11.8029     10.0119    207.8272   1.0774937332e+02   3.1113675162e+01    0.6535996    0.5086524  42.88  0.004661662    1.433    0.302
         8 -11.2607     54.0760    238.4739   1.0155730713e+02   2.1408578043e+01     0.785199    0.3399698  29.71  0.004076479    2.977    0.664
         9  -7.2050    193.6805    240.2870   7.8062239356e+01   2.4591740340e+00   0.09756124   0.07324062  50.05  0.000253456    1.595    0.373
        10  -8.1781    249.4902    237.0096   6.9018395816e+01  -4.6891304910e+00    0.1424896   0.06899086   0.89 0.0008103693    2.540    0.606
        11  -8.8243    167.2138    236.7648   8.1980558083e+01   6.6031535927e+00    0.1823456    0.1449255  35.95 0.0004071106    1.068    0.064
        12 -12.8385     13.0329    246.7728   1.0858162049e+02   2.4393126173e+01     2.113392    0.8157213  27.59   0.01121394    4.025    0.752
        13  -7.8838    238.0000    233.9869   7.0283214851e+01  -2.9525264119e+00     0.146337   0.05443931 -28.79 0.0006853166    2.973    0.664
        14 -11.7147      4.6218    228.6806   1.0937791907e+02   2.8030710840e+01     1.111992    0.4708221  77.48    0.0074148    1.950    0.487
        15 -10.0759     22.9520    230.9246   1.0642190677e+02   2.5930153643e+01     0.340849    0.2008099  76.75  0.002026263    1.392    0.282
        16 -10.6522     26.5933    222.0971   1.0542264255e+02   2.7031212027e+01    0.4664589    0.4486177  18.76  0.004130739    1.690    0.408
        17  -7.3928    178.4751    233.4517   7.9682569528e+01   5.3722981814e+00    0.1113422   0.08365362  30.23 8.570599e-05    1.034    0.032
        18  -8.2179    168.0701    232.0693   8.1261436310e+01   7.0448232567e+00    0.1639663    0.1244131  32.72 0.0003252593    1.034    0.033
        19  -8.9814    165.5704    241.1956   8.2780752331e+01   6.3134925173e+00    0.1967484    0.1356751  43.68 0.0003251215    1.223    0.182
        20 -10.2955     89.1782    230.3200   9.4902060866e+01   1.8389402959e+01    0.3173755    0.1873802  41.26  0.001372129    1.378    0.275
        21  -9.6396    105.1305    228.4345   9.1892751322e+01   1.6545629710e+01    0.2551504    0.1791522  70.89  0.001783569    1.502    0.334
        22  -7.4546    196.3631    229.8046   7.6238654149e+01   3.2042681652e+00    0.1271059   0.09363523  -8.08 0.0001905193    1.495    0.331
        23 -10.1811    135.3619    224.7334   8.6092499595e+01   1.2799926859e+01    0.1997566     0.180913  48.14 0.0005200859    1.154    0.134
        24  -9.9483     86.7710    219.5007   9.4413892000e+01   2.0420966447e+01    0.4077512    0.2415427 -74.00  0.002622115    1.955    0.488
        25  -8.6908     74.1461    219.1076   9.6705145540e+01   2.2119112504e+01    0.1589041    0.1346853  51.88  0.001230015    1.201    0.168
        26  -8.8906     79.7905    222.6109   9.5955016178e+01   2.0824153192e+01     0.168721   0.07378016  47.65 0.0009563009    1.750    0.429
        27  -7.3402     46.2949    215.3520   1.0154872532e+02   2.6086916176e+01    0.0894098   0.08178413 -49.24 0.0003237346    1.683    0.406
        28 -10.6599     58.3907    212.2048   9.9101900247e+01   2.5234353811e+01    0.8318626    0.3020595  69.03  0.003276941    4.567    0.781
        29  -8.4838    158.4287    211.3419   8.0256951420e+01   1.1203295756e+01    0.1809546    0.1536064  34.37 0.0002566927    1.046    0.044
        30  -7.6796    144.1764    207.6288   8.2379608960e+01   1.3960806361e+01    0.1530855     0.134578  56.82  0.000748012    1.175    0.149
        31 -12.1318     20.5058    173.0348   1.0399749995e+02   3.6800892571e+01     2.302857    0.6660299  75.28  0.007212896    6.385    0.843
        32 -12.6300     34.9175    191.1628   1.0218444739e+02   3.1755568914e+01     1.271974    0.8310686  64.10  0.006733989    1.199    0.166
        33  -6.8051     91.5143    191.4552   9.0705936702e+01   2.4634551930e+01    0.1187599    0.1020499  57.00 8.550085e-05    1.071    0.066
        34  -9.5352     19.4583    201.4840   1.0574795345e+02   3.1377312929e+01    0.1981873    0.1494957  71.77 0.0005900497    1.078    0.072
        35  -7.4821     86.0440    194.5271   9.2152590122e+01   2.4840194334e+01    0.1656127    0.1016989  41.48 0.0003733636    1.443    0.307
        36  -7.4189    119.2057    178.6032   8.3297867520e+01   2.2777212087e+01     0.160197    0.1120379  34.34 0.0001709178    1.430    0.301
        37 -10.7383     23.5466    200.4321   1.0492815223e+02   3.1171965046e+01    0.3417833    0.2373099  66.93 0.0007719899    1.055    0.052
        38  -7.9493    238.6981    177.6570   6.0889324054e+01   2.6875029284e+00    0.1271591   0.07763274   8.77 0.0007038611    1.678    0.404
        39  -9.2294     54.1139    174.9728   9.6908309838e+01   3.2797343397e+01    0.2330701    0.2146774 -20.91  0.001128797    1.617    0.382
        40  -8.7340     99.5904    170.9457   8.6428913283e+01   2.7346251155e+01    0.2276402    0.1536235  58.51 0.0004200647    1.415    0.293
        41  -8.9531      7.1858    171.2082   1.0670281480e+02   3.8363012280e+01     0.166071   0.09482993  66.15 0.0005406802    1.368    0.269
        42  -9.3306     60.2669    169.5184   9.5012480814e+01   3.3163292130e+01     0.214535    0.1926805 -83.55 0.0007379406    1.214    0.176
        43  -9.2714     71.0875    160.5265   9.1517552195e+01   3.3639293647e+01    0.2381066    0.2001965  57.81 0.0004263245    1.114    0.103
        44  -9.5908    167.2834    158.8066   6.9964982626e+01   1.7815977685e+01    0.2280671    0.2152911  19.74 0.0002924942    1.039    0.038
        45 -10.1328     78.4716    154.9539   8.9048532121e+01   3.3800355060e+01    0.5201992    0.3418028 -40.69  0.001267679    2.095    0.523
        46 -11.1431     57.5378    156.4852   9.4222089710e+01   3.6272727048e+01     0.409438    0.2776457 -42.60  0.001549874    2.057    0.514
        47  -7.8979    172.7045    155.9729   6.8329857301e+01   1.7268980343e+01    0.1795738    0.1691509  -9.07 0.0001651994    1.088    0.081
        48  -8.8066    110.9314    153.3070   8.1152242777e+01   2.9058692679e+01    0.2104271    0.1885343 -57.63 0.0002705394    1.187    0.158
        49 -11.1512     68.2386    144.8195   9.0137987976e+01   3.7451808969e+01    0.7050276    0.4430405  70.61  0.002514907    1.701    0.412
        50  -8.1711     74.7036    142.0902   8.8116795838e+01   3.7161493345e+01    0.1824836    0.1575458 -84.04 0.0004585472    1.066    0.062
        51  -9.2726     22.2954    185.9870   1.0439316511e+02   3.4041046963e+01    0.2094172    0.1515771  41.94 0.0002588543    1.419    0.295
        52  -9.8168     82.3752    139.4105   8.5754583403e+01   3.6634597165e+01    0.2617716    0.2358536  85.51 0.0005727333    1.018    0.017
        53  -7.7817     97.8534    137.8705   8.1589623957e+01   3.4523469943e+01    0.2034147    0.1894374 -34.89 0.0007439528    1.267    0.210
        54  -7.9751     94.6717    141.0519   8.2945232348e+01   3.4349145410e+01    0.1965301    0.1720057 -73.92 0.0007123303    1.110    0.099
        55  -9.3884      5.1735    136.9480   1.0520719687e+02   4.5845939358e+01    0.2457191    0.1633158  26.15  0.001599796    1.868    0.465
        56  -9.5678      9.1515    131.4914   1.0381565591e+02   4.6774477244e+01    0.3287129    0.1456843  82.47  0.001645263    2.087    0.521
        57 -10.3588      2.2006    129.9492   1.0549221480e+02   4.7631852082e+01    0.5480003    0.1772134 -82.11  0.002492866    2.512    0.602
        58  -7.6343    117.5130    128.4189   7.4832109097e+01   3.3100636157e+01    0.1403361     0.135631  71.78 -7.075365e-05    1.026    0.025
        59  -8.4049    250.3014    126.9346   4.8705491808e+01   6.8906291044e+00    0.1842927    0.1516974 -22.77 0.0005386011    1.164    0.141
        60  -7.4933    107.0450    130.8049   7.7934824229e+01   3.4491131579e+01    0.1900928    0.1074343  43.01 0.0005625454    1.756    0.431
        61  -8.5421     60.9990    119.1642   8.8118601901e+01   4.4335947837e+01    0.2140487    0.1706739 -78.55 0.0003286864    1.119    0.106
        62  -8.8030    175.4913    112.6353   5.7958823666e+01   2.4182699383e+01     0.323296    0.2450734 -12.18 0.0008795837    1.488    0.328
        63  -9.0198     55.2592    126.2574   9.0854952858e+01   4.3400328729e+01    0.2641079    0.1436131  82.89  0.001166869    2.341    0.573
        64  -7.4550     95.0956    110.8851   7.6831629382e+01   4.1043841942e+01    0.1883256    0.1702686   3.71 0.0003794807    1.363    0.266
        65 -10.1559     80.1499    102.1345   7.9121096519e+01   4.5572168005e+01    0.2311517    0.2203237 -75.86 0.0002619869    1.065    0.061
        66  -7.4127    152.0136     99.7516   5.9530285861e+01   3.1805634622e+01    0.1840864    0.1305526  49.70 0.0002286105    1.443    0.307
        67  -7.3806    129.7921     83.5699   6.0129777190e+01   4.0008571283e+01    0.1915963    0.1510167  63.89 0.0004028208    1.418    0.295
        68  -7.6813    114.8439     59.8311   5.6171684136e+01   4.8027843845e+01    0.2011389     0.171892 -59.68 0.0002461178    1.262    0.208
        69  -7.5848    153.5836     58.2629   4.6380885118e+01   3.8903719818e+01    0.2154889    0.1490782 -18.09 0.0009367689    1.579    0.367
        70  -8.4805    146.0307     56.1812   4.7252081693e+01   4.1154683325e+01    0.2513459    0.2147038 -30.03 0.0003077779    1.132    0.117
        71  -9.1483    220.0539     49.2236   3.3035113168e+01   2.3494606875e+01       0.2407    0.2205849  21.95 0.0004261781    1.193    0.162
        72  -7.5046    200.3000     49.6162   3.5677307630e+01   2.8264027338e+01    0.1640434    0.1017393 -54.02 0.0006205583    1.777    0.437
        73 -10.7265    209.9284     46.5549   3.3501913585e+01   2.6279553728e+01    0.6407119    0.4186857  58.90  0.003050333    1.625    0.385
        74  -8.1810    237.0003    249.7242   7.2622816053e+01  -4.1752037127e+00    0.1284366   0.06540565  33.67 0.0004461163    1.462    0.316
        75  -8.4691    115.3659     47.3929   5.1338633368e+01   5.0145363914e+01    0.2518187    0.2324317 -26.48 0.0002452138    1.033    0.031
        76  -7.5929    232.2975     45.0765   3.0512249917e+01   2.1149572570e+01    0.1927059    0.1573294 -29.39 0.0002686887    1.083    0.077
        77  -7.6073    183.4187     32.4853   3.2599028741e+01   3.4797441165e+01     0.147573     0.140717 -30.93 9.436838e-05    1.024    0.023
        78  -7.0398    110.6556     31.7394   4.6122004700e+01   5.3762646600e+01    0.1532238     0.109297  25.40 0.0004556482    1.596    0.373
        79  -9.1368    177.9829    247.5211   8.1485870079e+01   3.8669318176e+00    0.2177598    0.1877677  67.63  0.001356375    1.690    0.408
        80  -8.3205    161.0549     18.1857   3.0771410803e+01   4.2401292510e+01    0.2405239    0.2029988 -14.67 0.0004733559    1.207    0.172
        81  -8.6085     42.2414    247.9159   1.0399809008e+02   2.1273986918e+01    0.1967789   0.08315617  55.57  0.001024707    1.698    0.411
