#   1 NUMBER                 Running object number                                     
#   2 MAG_AUTO               Kron-like elliptical aperture magnitude                    [mag]
#   3 X_IMAGE                Object position along x                                    [pixel]
#   4 Y_IMAGE                Object position along y                                    [pixel]
#   5 X_WORLD                Barycenter position along world x axis                     [deg]
#   6 Y_WORLD                Barycenter position along world y axis                     [deg]
#   7 A_WORLD                Profile RMS along major axis (world units)                 [deg]
#   8 B_WORLD                Profile RMS along minor axis (world units)                 [deg]
#   9 THETA_WORLD            Position angle (CCW/world-x)                               [deg]
#  10 FWHM_WORLD             FWHM assuming a gaussian core                              [deg]
#  11 ELONGATION             A_IMAGE/B_IMAGE                                           
#  12 ELLIPTICITY            1 - B_IMAGE/A_IMAGE                                       
         1 -10.1406      9.4060     19.6874   1.2269581197e+02   7.0269299318e+01    0.3844737    0.2118001 -13.55 0.0006210646    2.035    0.509
         2  -8.8452    230.8979     18.3094   5.7103455956e+01   2.4673950409e+01    0.3581263    0.1800319 -27.21 0.0009656698    1.853    0.460
         3 -10.0741     24.3057     16.5589   1.1339951177e+02   6.9948652923e+01    0.2832282    0.2686934 -20.51 0.0006723749    1.287    0.223
         4  -8.9480     31.4229     10.8074   1.0695836849e+02   7.0401237315e+01    0.5734427    0.2064364 -30.93  0.002135019    3.455    0.711
         5  -9.0994     74.5143     13.4166   8.7699537517e+01   6.3807762710e+01     0.380448    0.2429297 -13.88  0.001358548    1.574    0.365
         6  -8.7047     80.1119     12.7693   8.5223403243e+01   6.2846216987e+01    0.2829218    0.2349701 -30.15  0.001017948    1.294    0.227
         7  -9.6992     64.0206     14.2481   9.2472979081e+01   6.5501465735e+01    0.3778161    0.2466962  12.90 0.0008971238    1.664    0.399
         8  -8.2215    134.5311     13.4951   6.9815014257e+01   5.0261915976e+01    0.2523726     0.140231  -2.60 0.0007439076    2.196    0.545
         9  -8.8971     97.2322     12.1298   7.9025446775e+01   5.9388880324e+01    0.3134738    0.2010379  35.36 0.0007367253    1.463    0.317
        10  -8.0343    157.4059     11.2004   6.4498276597e+01   4.4477094674e+01    0.2184627    0.1264858 -35.43  0.000949449    1.822    0.451
        11  -8.1802    106.0619     10.5363   7.5637901103e+01   5.7586062295e+01    0.2165915    0.1844165   3.64 0.0005517887    1.094    0.086
        12 -10.6534     20.1089      8.8408   1.1254387576e+02   7.1769459463e+01    0.3096554    0.2043476  -0.07 0.0004312778    1.603    0.376
        13  -8.2168      2.1840      8.1380   1.2308925867e+02   7.2949910138e+01    0.1881325    0.1707498 -65.32  0.001445882    1.329    0.248
        14  -8.2279    128.4138      7.7022   6.8770283705e+01   5.2431886865e+01    0.1962787    0.1356948   1.28 0.0006879524    1.537    0.350
        15  -7.6846     39.0607      8.4958   1.0165763735e+02   6.9976235623e+01    0.1738808    0.1163913  20.61  0.001019023    1.556    0.357
        16  -8.0022     76.5303      6.9814   8.3643165443e+01   6.4318919393e+01    0.2174676    0.1634975  34.60 0.0007828602    1.276    0.216
        17  -8.2939     84.9307      6.0693   8.0116552883e+01   6.2757584656e+01    0.2985899    0.1357976  19.02 0.0009514126    4.070    0.754
        18  -8.7436     56.2298      4.9830   9.1156584158e+01   6.8157775320e+01    0.3284248    0.1791008   1.20  0.001400922    2.703    0.630
        19  -9.8540     49.0462      4.6339   9.4434207151e+01   6.9293092579e+01    0.2688903    0.1929737  -5.53 0.0003976006    1.267    0.211
        20  -8.9810    110.8508      4.2709   7.1453724119e+01   5.7134128702e+01    0.3803094    0.1955494 -33.31  0.001449414    2.073    0.518
        21  -7.6936     92.0011      5.4883   7.7466231660e+01   6.1328180811e+01    0.2063262    0.1290578  48.36 0.0008242736    1.535    0.348
        22  -8.0559     13.0352      5.0343   1.1516433141e+02   7.2995588467e+01     0.210895     0.101832 -30.97  0.001141656    1.838    0.456
        23  -7.2124    175.2896      4.4060   5.9381853100e+01   4.0304984619e+01    0.1599361   0.09730117  31.72 0.0004310424    1.810    0.447
        24  -7.8599    125.2471      3.7716   6.7799721711e+01   5.3619478427e+01    0.2066908    0.1485527  31.06 0.0006388474    1.309    0.236
        25  -8.2839     68.5166      4.5405   8.5523565988e+01   6.6136495315e+01    0.2684295    0.1208981 -27.04  0.001185135    2.104    0.525
        26  -7.4960    153.7930      3.3516   6.2207024751e+01   4.6176380369e+01     0.209084    0.1169999  54.80 0.0002231435    1.576    0.366
        27  -7.8193    182.2111      2.2259   5.7765345351e+01   3.8640035248e+01    0.1887016    0.1578557 -68.78 0.0003243381    1.281    0.219
        28  -7.8148    143.1911      2.1721   6.3572937849e+01   4.9103635277e+01    0.1865139    0.1678089 -65.12 0.0002893798    1.287    0.223
        29  -7.8041      2.9642      1.1593   1.1998588706e+02   7.4295975584e+01    0.1285925   0.07735094   6.79 0.0003504347    1.873    0.466
        30  -7.7729    194.9826    229.0246   1.1066808790e+02   3.9363836202e+00    0.1826163    0.1092218  18.58 0.0005977996    1.635    0.388
        31  -8.4205    249.0774    250.1585   1.0459982433e+02  -5.6549817491e+00    0.1737545   0.09890405  18.93  0.001026716    1.271    0.213
        32 -10.0709    210.3210    248.0620   1.1058574497e+02  -2.5699417397e-01    0.4006004    0.3116625  30.66  0.003056539    1.270    0.213
        33  -9.7639    200.4023    249.2372   1.1239303967e+02   1.0150225136e+00    0.3399297    0.1635809  26.21    0.0014094    1.792    0.442
        34  -8.2366    123.0657    250.5386   1.2575082421e+02   1.1627644772e+01    0.1672503   0.07744183  38.48 0.0005721123    1.580    0.367
        35  -7.4445     47.9953    250.3283   1.3818983756e+02   2.0612321214e+01    0.1335052    0.0756105  16.23 0.0007049394    4.304    0.768
        36  -7.4936    158.3454    229.2706   1.1728361348e+02   9.3952477091e+00    0.1142192   0.07415274  20.96 0.0002973442    1.617    0.382
        37  -7.5964    133.3347    229.3069   1.2186288564e+02   1.3044630267e+01    0.1086912   0.07807332  17.32 0.0007040793    1.670    0.401
        38  -7.8206    100.8331    229.3929   1.2780796429e+02   1.7496896465e+01    0.1510479   0.08617326  32.62 0.0005472979    1.644    0.392
        39  -7.5256    174.7367    228.5990   1.1422660557e+02   7.0272158307e+00     0.113077   0.07606743  10.20 0.0006969405    1.727    0.421
        40  -9.4789    247.4012    225.9291   1.0129978013e+02  -3.3627449557e+00    0.3287371    0.2202979  30.18  0.002333101    1.276    0.216
        41  -8.0561    230.1643    226.4821   1.0423114838e+02  -9.7980120251e-01    0.1933392    0.1386139  -8.64 0.0009281551    1.422    0.297
        42  -8.4237    186.5847    226.3313   1.1179348185e+02   5.5103900910e+00     0.266523    0.1356428  27.03  0.000941121    1.784    0.440
        43  -7.5876    111.6309    227.6640   1.2568029512e+02   1.6311620455e+01    0.1060485   0.08031171  11.53 0.0007028326    1.841    0.457
        44  -7.0171    142.2975    226.3318   1.1988356161e+02   1.2157034628e+01    0.1090616   0.07959336  14.30 0.0002911179    1.643    0.391
        45  -7.9565     70.0414    226.0008   1.3308749684e+02   2.1834673531e+01    0.1379848    0.1243862   6.95 0.0007611505    1.645    0.392
        46  -7.9493    223.5692    225.1572   1.0514700087e+02   1.0893347159e-01    0.1514791   0.09252795  -5.81 0.0009477126    1.775    0.436
        47  -7.3605    200.3153    223.3452   1.0892492049e+02   3.7728206743e+00    0.1215277   0.07316062  14.87 0.0003258488    1.716    0.417
        48  -7.8818    215.8120    221.5485   1.0593892313e+02   1.6325050374e+00    0.1906433    0.1215635  -1.97 0.0009169135    1.686    0.407
        49  -7.6212    206.4899    222.5010   1.0771091283e+02   2.9321472181e+00    0.1211854   0.08536542  22.97 0.0008092845    1.082    0.076
        50  -7.7990     51.7635    221.4318   1.3604148274e+02   2.4607899554e+01    0.1296597   0.08681822  32.45 0.0009373591    1.586    0.369
        51  -8.4188    182.4606    219.7083   1.1162744311e+02   6.9403787606e+00    0.2374838       0.1353  22.92 0.0009123207    1.733    0.423
        52  -7.8459    130.5093    220.4861   1.2142439950e+02   1.4706817523e+01     0.116465   0.09058741  39.80 -1.444367e-05    1.035    0.033
        53  -7.9109     40.2057    220.5951   1.3802294864e+02   2.5943423799e+01    0.1320839   0.08620154  29.79 0.0009563251    1.741    0.426
        54  -8.1848    240.3340    218.9032   1.0135905028e+02  -1.7054363922e+00    0.1930491    0.1321209  34.45  0.001314669    1.381    0.276
        55  -8.2628    226.7030    218.4763   1.0359062659e+02   3.3034052858e-01    0.2336601    0.1374832   6.41   0.00139627    1.754    0.430
        56  -7.8908    173.7183    219.0062   1.1313985388e+02   8.3815761361e+00    0.1747418      0.10281  24.59 0.0004964934    1.626    0.385
        57  -7.8566    203.4546    216.7113   1.0739025203e+02   4.0487609968e+00    0.1488954    0.1011173  -6.63 0.0009390665    1.634    0.388
        58  -7.7335    105.6551    217.6694   1.2583176714e+02   1.8639006541e+01    0.1055738   0.08394768   8.67 0.0007050374    1.756    0.430
        59  -8.4443    193.6560    215.5307   1.0898322032e+02   5.7098292906e+00     0.250966    0.1429129  19.57 0.0007157912    1.818    0.450
        60  -7.0652    219.3250    215.3162   1.0437196558e+02   1.7720415600e+00    0.1241911   0.07172175  15.58 0.0003165628    1.670    0.401
        61  -7.7531    210.7854    215.3761   1.0588223534e+02   3.0707074373e+00    0.1753756   0.08430771  30.96 0.0008895555    1.661    0.398
        62  -7.1984    179.6561    214.7339   1.1144361698e+02   8.0027573523e+00    0.1220569   0.07658997  19.88 0.0006982429    1.605    0.377
        63  -8.8922    249.4909    212.1821   9.8760564174e+01  -2.3719775227e+00    0.2415205    0.1921703  38.62  0.001709309    1.683    0.406
        64  -7.9411    122.0029    213.4573   1.2226376117e+02   1.6994526168e+01    0.1811735   0.09306528  38.90 0.0008547886    1.552    0.356
        65  -8.0945    232.9240    211.9166   1.0148589379e+02   8.1449179062e-02    0.1809128    0.1339774  19.86 0.0007185595    1.063    0.059
        66  -8.0597     54.0924    210.8133   1.3496033603e+02   2.6112073394e+01    0.1496823    0.1188663   8.56  0.001079382    1.969    0.492
        67  -7.7821     41.1694    211.1714   1.3734452201e+02   2.7407357935e+01    0.1407924   0.08749325  59.30  0.000264373    1.249    0.199
        68  -8.0357    186.7379    210.2601   1.0947490513e+02   7.4530260215e+00    0.1697405     0.113832  21.56 0.0004678387    1.340    0.254
        69  -7.4621    132.9966    209.7486   1.1969833831e+02   1.5939988620e+01    0.1589598   0.08300804  39.20 0.0003947067    1.523    0.344
        70  -7.8652    162.5505    208.2990   1.1377204434e+02   1.1569696437e+01    0.2138702    0.1217335  25.52 0.0008246463    1.789    0.441
        71  -7.6728    204.7541    205.9993   1.0549893867e+02   5.1049382455e+00    0.2309446    0.1061615  17.57 0.0009003978    3.619    0.724
        72  -9.2613    124.0670    205.9995   1.2100364580e+02   1.7856700218e+01    0.1802281    0.1347996  42.48  0.001190171    1.075    0.070
        73  -7.9310    247.0800    204.8902   9.7938611852e+01  -1.3055014488e+00    0.1930173    0.1074724  12.87 0.0008303536    1.658    0.397
        74  -8.3007    236.8938    204.1130   9.9519078527e+01   2.9829428874e-01    0.2290243    0.1399375  14.67 0.0004509331    1.411    0.291
        75  -7.8599    226.6194    204.8873   1.0141902958e+02   1.7902711626e+00    0.2175721    0.1022558 -19.41  0.001094373    2.548    0.608
        76  -7.6655     86.3179    204.3662   1.2829577214e+02   2.3379284803e+01    0.1031574   0.08743089 -11.35 0.0007038789    1.779    0.438
        77  -7.9199    196.2689    200.4252   1.0617158392e+02   7.1671521124e+00    0.2424751   0.09654869  36.18  0.001118782    2.049    0.512
        78  -7.6051    184.8333    200.3722   1.0832224177e+02   9.0505409162e+00    0.1883636    0.0934317  31.19  0.000939214    1.766    0.434
        79  -7.9850    250.5103    198.9735   9.6353522561e+01  -1.2163844362e+00    0.1672703    0.1009815 -16.20  0.001031476    1.597    0.374
        80  -7.9448    215.7904    205.4338   1.0341856619e+02   3.4208600102e+00    0.1790422   0.08836781  29.43 0.0009408664    1.686    0.407
        81  -7.6520    243.8458    197.2073   9.7155685374e+01  -3.1446410096e-02    0.1716683    0.1074563  12.84 0.0005236653    1.353    0.261
        82  -8.5042    192.8959    194.6066   1.0585888269e+02   8.4827127605e+00    0.3576565     0.177061 -28.31  0.001769319    2.479    0.597
        83  -8.4683    166.4989    197.1506   1.1138275122e+02   1.2523524738e+01    0.2986125    0.1514728  31.10  0.001239167    1.812    0.448
        84  -7.6150    149.5473    193.5211   1.1423770064e+02   1.5854498935e+01    0.1269081    0.1042762  33.03 0.0001431447    1.039    0.037
        85  -7.2969    124.3867    193.3005   1.1936598430e+02   1.9877950657e+01    0.1224385   0.09084695  10.39  0.000701679    1.787    0.440
        86  -7.4849     90.0407    192.2362   1.2635007381e+02   2.5004985866e+01    0.1552198   0.08520868  38.04 0.0008019249    1.590    0.371
        87  -7.6011    246.3708    190.2480   9.5495840040e+01   3.2022668872e-01    0.1282112   0.07122298  18.03 0.0006948614    1.628    0.386
        88  -8.1968    224.5006    189.5137   9.9149120948e+01   3.8811697826e+00    0.2062401    0.1069934 -15.31 0.0006568356    2.280    0.561
        89  -7.9850     64.7269    189.5449   1.3129717926e+02   2.8665820945e+01    0.1971304    0.1027606  31.11  0.001063478    1.984    0.496
        90  -7.5487    148.7026    185.6772   1.1324288142e+02   1.7241871937e+01    0.1255142   0.09368455   8.59 0.0004286158    1.623    0.384
        91  -7.7523    130.7495    182.9834   1.1662292976e+02   2.0632583891e+01    0.1816719    0.1271462  21.88 0.0006764982    1.602    0.376
        92  -7.5134    250.0181    182.0362   9.3380590658e+01   6.3972306000e-01    0.1513636      0.11282   9.62   0.00040254    1.025    0.025
        93  -7.3538    165.4969    182.4983   1.0926945395e+02   1.4894662432e+01    0.1326045    0.1094615  28.96 -0.0001910908    1.023    0.022
        94  -7.5894    183.4964    180.4621   1.0528517455e+02   1.2064541555e+01    0.1339018    0.1084608  24.94 0.0001402188    1.019    0.018
        95  -7.5343    156.6867    180.6495   1.1078857012e+02   1.6703719469e+01    0.1325796   0.09512584   7.52 0.0007046164    1.725    0.420
        96  -7.6783     96.5544    178.4424   1.2340948288e+02   2.6631723804e+01    0.1224549    0.1043079  55.26 0.0002111331    1.018    0.017
        97  -7.0776     68.6933    178.3048   1.2944020669e+02   3.0305309416e+01     0.121987   0.07404218  63.50 0.0004968986    1.604    0.377
        98  -7.3698    121.5067    177.5064   1.1783120824e+02   2.3067777797e+01    0.1275752    0.1110408  41.89 0.0008104618    1.028    0.027
        99  -8.1809    148.6058    174.6635   1.1152156629e+02   1.9081418239e+01    0.2723814    0.1404568  29.82 0.0007995688    2.031    0.508
       100  -7.8698     47.2439    175.5767   1.3377673461e+02   3.3238000650e+01    0.1413346     0.104919  23.61 0.0009466227    1.655    0.396
       101  -8.0663    183.6916    172.2065   1.0376786742e+02   1.3253865929e+01     0.255157    0.1516516 -11.13  0.001156937    2.455    0.593
       102  -7.7858     15.2804    170.7309   1.4009739182e+02   3.7106800768e+01    0.1391291   0.09108792   8.63 0.0009000667    2.405    0.584
       103  -7.2105    143.6285    169.6904   1.1177876607e+02   2.0794986336e+01    0.1370952   0.09887531   9.45 0.0007033814    1.771    0.435
       104  -7.7714    198.7039    167.0314   9.9803795329e+01   1.1289580021e+01    0.2441104    0.1210611  17.46 0.0008876147    3.355    0.702
       105  -7.9277    177.3523    167.3083   1.0415908649e+02   1.5158407364e+01    0.1427975   0.09573989  13.33 0.0007043331    1.717    0.417
       106  -7.2502    168.4951    163.5604   1.0531795086e+02   1.7386674906e+01    0.1385036    0.1181237  27.84 0.0001225478    1.007    0.007
       107  -7.4878    122.6152    162.7968   1.1536319077e+02   2.5601751586e+01    0.1684878    0.1271685 -69.45 0.0009395315    1.584    0.369
       108  -7.1990    152.4789    156.5281   1.0749426817e+02   2.1537876693e+01    0.1400832    0.1222021  24.95 0.0008088654    1.062    0.058
       109  -7.0034    157.6891    152.6693   1.0559516213e+02   2.1252466435e+01    0.1429149    0.1044504   6.42 0.0007042579    1.670    0.401
       110  -7.2232    146.3230    151.3189   1.0790454348e+02   2.3609955827e+01    0.1414231     0.105615   5.64  0.000409855    1.671    0.402
       111  -8.0433    133.3119    147.8981   1.1029240600e+02   2.6612850087e+01    0.1874195    0.1806671 -15.04 0.0008654598    1.113    0.101
       112  -9.4252     67.1474    144.6452   1.2605078105e+02   3.7325085519e+01    0.4834109    0.2425152  55.86  0.002329594    2.175    0.540
       113  -9.8106    225.9530    141.4605   8.9351994614e+01   9.7918403823e+00    0.2693161    0.2220964  26.15 0.0004069798    1.136    0.120
       114  -7.7769     42.9589    140.0000   1.3154065879e+02   4.0964297233e+01    0.1820369   0.06533638  28.64 0.0006828838    2.976    0.664
       115  -7.7573    139.3433    138.3146   1.0698459927e+02   2.7358523896e+01    0.1464638     0.109605   4.46 0.0007047674    1.710    0.415
       116  -8.3164      4.5285    134.3690   1.4041957292e+02   4.5206177276e+01    0.2561852     0.132272  -8.22  0.001302869    3.874    0.742
       117  -7.7278     68.3450    133.3409   1.2421909112e+02   3.9627313541e+01    0.1288639   0.09497389 -31.23 0.0007047307    1.784    0.440
       118  -8.2343     23.8815    130.0405   1.3537308271e+02   4.4786800529e+01    0.2862789    0.1525758 -28.48  0.001378909    3.430    0.708
       119  -7.6594     41.9974    129.2341   1.3062305311e+02   4.3404807033e+01    0.1460114   0.09838815  32.05 0.0005324205    1.609    0.378
       120  -7.8338     84.2963    121.8401   1.1805936639e+02   4.0052392396e+01    0.2770442    0.1604766   9.01  0.001081284    3.332    0.700
       121  -9.0225     12.0717    121.8065   1.3770320968e+02   4.7414030000e+01    0.2572398    0.1117178 -50.08  0.001324033    2.556    0.609
       122  -7.4288    118.5196    119.5195   1.0827953616e+02   3.5002972110e+01    0.1429486    0.1357742   7.36 0.0008088544    1.077    0.072
       123  -7.6036    100.5292    118.5636   1.1294539962e+02   3.8297682929e+01    0.1349564    0.1336869  55.09 9.625647e-05    1.018    0.018
       124  -7.3851     59.3145    114.3386   1.2384735017e+02   4.4946937863e+01    0.1314205   0.09203833 -36.57 0.0007047324    1.698    0.411
       125  -8.3302    133.9858    108.1586   1.0154306016e+02   3.4390609489e+01    0.6881496    0.1998823 -45.91  0.002103537    3.592    0.722
       126  -9.3247      2.8775    109.4059   1.3917816822e+02   5.0657979259e+01    0.3979614    0.1741264 -48.10  0.002115549    2.518    0.603
       127  -7.9968    123.3232    107.6772   1.0426088356e+02   3.6585562469e+01    0.2979757    0.1754822  20.47  0.001155747    2.488    0.598
       128  -9.4517     15.6815    104.5280   1.3519080130e+02   5.1005971091e+01    0.4803782    0.2128766 -37.33  0.002255477    3.179    0.685
       129  -7.7108    109.2354    106.5876   1.0789573643e+02   3.9417725519e+01    0.2077661    0.1369932  26.18 0.0009518309    1.728    0.421
       130  -7.7146    129.3509     97.3392   9.9997063936e+01   3.7521984803e+01     0.160408    0.1174781   1.53 0.0004645842    1.796    0.443
       131  -9.7129      9.4467     96.0400   1.3616792377e+02   5.3277351452e+01    0.2875015    0.1770818   6.32  0.001761759    2.184    0.542
       132  -8.9784     43.8280     92.0663   1.2489690098e+02   5.1673507482e+01    0.3820675    0.2385948 -15.69  0.001926839    2.361    0.577
       133  -7.8811     56.8904     92.1023   1.2067366358e+02   5.0319923863e+01    0.1806476    0.1419315 -39.13 0.0004248999    1.312    0.238
       134  -9.3072     20.1485     91.9926   1.3244405579e+02   5.3561013173e+01    0.2199354    0.1679351 -17.95  0.001176522    1.657    0.397
       135  -7.6668    109.3546     91.2918   1.0404177171e+02   4.2676677211e+01    0.1514049    0.1146786  -2.39 0.0004922336    1.682    0.406
       136  -8.0383     96.9990     89.8910   1.0739614507e+02   4.5170803085e+01    0.3513671    0.2003419  12.37  0.001247698    3.362    0.703
       137  -8.0514      1.5152     90.4871   1.3802226043e+02   5.4911562069e+01    0.1144959   0.08966251 -80.62 0.0008103327    1.011    0.011
       138  -8.1719     69.1457     85.6392   1.1527053049e+02   5.0315068931e+01    0.2567478     0.135544  27.30 0.0003850525    2.168    0.539
       139  -9.4799     35.6902     82.1637   1.2587952780e+02   5.4681419755e+01    0.5855941    0.2361579 -38.84  0.002400847    3.128    0.680
       140  -7.9626    126.5886     83.9239   9.7024912145e+01   4.0797421340e+01    0.3197018     0.186032  12.15  0.001032706    3.536    0.717
       141  -8.6771     88.5443     79.0513   1.0718621785e+02   4.8943530794e+01    0.4391983    0.2415982  17.32   0.00167839    2.904    0.656
       142  -9.9554      7.7775     77.6389   1.3468959539e+02   5.7519232826e+01    0.4589625    0.1904999 -43.47  0.002305362    2.455    0.593
       143  -8.9238    183.5399     78.1519   8.1546626955e+01   2.8674052629e+01    0.2815328    0.2620221  63.85 0.0003578668    1.213    0.175
       144  -8.8714     48.7231     76.6412   1.2025607707e+02   5.4752792305e+01     0.299188    0.2635611 -23.28  0.001432389    1.219    0.180
       145  -7.4022    119.7940     76.3859   9.6715954921e+01   4.3713597805e+01    0.2117113    0.1390908  31.70 0.0009327157    1.619    0.382
       146  -9.9985     23.9328     73.3608   1.2847353537e+02   5.7585349218e+01     0.863191    0.2848023 -38.16  0.003193432    4.134    0.758
       147  -8.4917     23.4721     69.4841   1.2797566723e+02   5.8504199649e+01    0.2073504    0.1789944 -58.70  0.000590716    1.064    0.060
       148  -7.8627     74.9887     74.5093   1.1050158048e+02   5.2017979753e+01    0.1956346    0.1385414  29.36 0.0004941418    1.530    0.346
       149  -7.7660    128.8253     69.7656   9.2070009993e+01   4.3068345649e+01    0.2720762    0.1666537   8.06 0.0009592485    2.851    0.649
       150  -9.2753    238.7699     67.2093   6.9162194199e+01   1.7201783206e+01    0.2586815     0.216563  29.11 0.0004613808    1.216    0.178
       151  -7.7813    105.6587     67.6433   9.8261940888e+01   4.8295914488e+01    0.2433813    0.1775514  -2.15   0.00112009    1.722    0.419
       152  -7.7141     80.4742     68.3977   1.0686834792e+02   5.2537803407e+01    0.2341005    0.1302888 -47.90 4.463513e-05    1.666    0.400
       153  -8.5691     83.7767     64.2592   1.0445811508e+02   5.2897573315e+01    0.3861836    0.2577554  -2.83   0.00144869    2.140    0.533
       154  -9.0811     61.9798     66.5877   1.1299421005e+02   5.5527835899e+01    0.4238023    0.1355045 -47.08  0.001200681    2.751    0.637
       155  -9.4869     65.4894     60.9962   1.1009617846e+02   5.6304546135e+01    0.3654393    0.3202292 -22.12  0.002187744    1.109    0.099
       156  -8.4600     43.6554     67.8916   1.2014973677e+02   5.7253142759e+01    0.2685599    0.1798179  -9.31    0.0014397    1.922    0.480
       157  -9.4968     17.5452     62.3250   1.2893680672e+02   6.0499374889e+01    0.4393649    0.1888776 -53.91   0.00175711    1.807    0.447
       158  -8.6307     52.0266     61.5428   1.1538401599e+02   5.7824987417e+01    0.3995957    0.1921214 -33.92  0.001695581    2.493    0.599
       159 -10.8115     38.4606     57.4809   1.1967133013e+02   6.0085389530e+01    0.4682033    0.2794728 -16.08 0.0005003252    2.197    0.545
       160  -9.4819      2.6461     55.3826   1.3357821000e+02   6.2756032009e+01    0.5021654    0.1837972 -57.45   0.00257024    1.945    0.486
       161 -10.0620      9.7420     47.8690   1.2941818733e+02   6.4152338662e+01    0.6092553    0.2413196 -36.71  0.001997745    2.553    0.608
       162  -9.6831     17.1909     39.0565   1.2419027970e+02   6.5723989929e+01    0.6012743    0.1210154 -44.54  0.002175095    3.786    0.736
       163  -8.4605     98.5959     55.8580   9.6608188292e+01   5.1985737193e+01    0.5324075    0.2439336 -23.61  0.001578748    4.213    0.763
       164  -7.2963    247.4917     56.5671   6.5286926098e+01   1.6589017487e+01    0.1357904    0.1228241  -6.02 0.0001053978    1.049    0.047
       165  -7.3996    240.2947     56.3235   6.6124603895e+01   1.8214338267e+01    0.1424035    0.1008644  17.71 0.0007019376    1.619    0.382
       166  -7.9729    118.7822     51.3105   8.8661205130e+01   4.8656413716e+01    0.2222634    0.1945467  63.24 0.0005869486    1.357    0.263
       167  -7.8363     81.5901     51.5804   1.0103983246e+02   5.5867886989e+01    0.2470496    0.1293467  49.07  0.001020734    2.438    0.590
       168  -9.0591     74.9939     50.3495   1.0306387952e+02   5.7176925677e+01     0.303356    0.2206568  -4.31 0.0004368517    1.607    0.378
       169 -10.3190     45.2590     49.1006   1.1458724485e+02   6.1286465150e+01    0.3003359    0.2267285 -15.97  0.000694971    1.413    0.292
       170  -8.3150    106.9919     48.0835   9.1073698287e+01   5.1762477070e+01    0.2178599    0.2031087  -2.29 0.0002831974    1.039    0.038
       171  -9.8276     42.0141     41.6912   1.1369366686e+02   6.3208185473e+01     0.527934    0.4373424  19.24   0.00335262    1.361    0.265
       172  -9.7144     24.4595     47.3141   1.2299002417e+02   6.3450988041e+01    0.4994114    0.2489824  -6.88  0.002207444    2.885    0.653
       173  -9.2573     31.2368     44.5405   1.1930906198e+02   6.3562637806e+01    0.3606804    0.2050054  -5.59  0.001667608    2.325    0.570
       174  -9.2765      2.1195     45.6513   1.3224521124e+02   6.4945498697e+01    0.2902503     0.174897 -55.65  0.001837391    1.270    0.212
       175  -8.9724      3.8785     40.3959   1.3052651299e+02   6.6046430491e+01    0.2665721    0.1370076 -76.35  0.001164069    1.760    0.432
       176  -7.9615     92.9020     42.8569   9.3767616590e+01   5.5517991026e+01    0.2463276    0.1584457  11.81 0.0009031551    2.059    0.514
       177 -10.2423     83.3273     40.0107   9.6093833461e+01   5.7799553374e+01     0.325648    0.2399567  18.60  0.001684316    1.433    0.302
       178  -8.8818    106.3822     36.9103   8.6947459303e+01   5.3806407294e+01    0.3485093    0.2211494  14.45  0.001480184    2.031    0.508
       179  -8.4185     92.4841     36.5957   9.1430109393e+01   5.6708326388e+01    0.2776121    0.2026013  19.74 0.0006387672    1.435    0.303
       180  -9.5025     96.0638     33.2939   8.8840039493e+01   5.6554859064e+01    0.3002465    0.2338845   3.15 0.0002893226    1.302    0.232
       181  -9.4297     54.7560     36.6128   1.0631586802e+02   6.2810441140e+01    0.2962946     0.216919  -9.97  0.000843101    1.445    0.308
       182  -9.4859     38.2096     35.4300   1.1334983293e+02   6.4900173252e+01    0.3079198    0.2185722  -9.94   0.00101546    1.526    0.345
       183  -8.6185     69.6765     35.7481   9.9693731093e+01   6.0866877489e+01    0.3175634     0.185528  32.16  0.001539825    1.814    0.449
       184  -9.1567      7.4245     34.2223   1.2759281414e+02   6.7261247807e+01    0.3507664    0.2389605 -33.70  0.001768785    1.383    0.277
       185  -8.4350     76.8776     34.1413   9.6178808763e+01   5.9990188815e+01    0.2679283    0.1928758 -23.61   0.00140645    1.310    0.237
       186  -7.2982    144.0104     33.7866   7.5558805067e+01   4.5341226684e+01    0.1944434    0.1202367  55.44 0.0008346887    1.574    0.365
       187  -8.0574    104.7288     31.9720   8.5453985039e+01   5.4952384912e+01    0.2184779     0.178303 -16.84 0.0008403962    1.169    0.145
       188  -7.7830     81.9567     32.2783   9.3457989547e+01   5.9430572515e+01    0.1951753    0.1634583  17.42 0.0003121392    1.157    0.136
       189  -7.1969    111.5038     58.4805   9.3388998657e+01   4.8911778398e+01    0.1543702    0.1377711  -0.00 0.0008090411    1.082    0.076
       190  -8.6154    127.8985     30.2655   7.8127425402e+01   4.9851837246e+01    0.2504593    0.2054656  -5.75 0.0001967238    1.212    0.175
       191  -8.3096    112.8129     29.9599   8.2158712955e+01   5.3462193910e+01     0.373372    0.2035064  27.38  0.001467893    2.249    0.555
       192  -7.5034     88.3163     31.3218   9.0714468475e+01   5.8410269253e+01    0.1502691    0.1041201   3.95 0.0007041974    1.662    0.398
       193  -8.9319      1.6541     29.7873   1.2937004655e+02   6.8437810468e+01    0.2875726    0.1109383 -62.15  0.001337813    1.825    0.452
       194  -9.7954     71.6399     26.1412   9.4844094785e+01   6.2283918882e+01    0.3837843    0.2810867  21.89  0.001519286    1.377    0.274
       195  -7.5191    123.7702     26.9224   7.7865380247e+01   5.1315221285e+01    0.1897206    0.1225531 -21.73    0.0005278    1.569    0.363
       196  -8.7794     61.8805     26.8931   9.9282047824e+01   6.3688648593e+01    0.2098358    0.1593506 -11.27  0.000475358    1.259    0.205
       197  -8.9577     57.4964     25.0935   1.0043609595e+02   6.4649220126e+01    0.2828169    0.2077702  31.24 0.0008696981    1.476    0.323
       198  -8.9556     48.2237     25.9011   1.0504920414e+02   6.5718183174e+01    0.3645496    0.1831909  19.06  0.001556635    2.472    0.595
       199  -7.8071    153.2866     27.3191   7.1171825879e+01   4.3780572649e+01    0.1598801    0.1086371  25.91 0.0003572153    1.593    0.372
       200  -8.1627     27.5285     22.4715   1.1397128577e+02   6.8510834594e+01     0.418581    0.1476512 -31.90  0.001565801    3.657    0.727
       201  -8.4026     32.0112     20.0000   1.1066528373e+02   6.8605762016e+01    0.2308835    0.1265018  14.06  0.001215635    2.119    0.528
       202  -9.3402     83.6488     22.0712   8.8335263028e+01   6.0795590071e+01    0.5120952    0.2499873  35.46  0.001727414    2.121    0.529
       203  -8.4958     92.1292     20.7145   8.4696887265e+01   5.9313686782e+01    0.3419324    0.2537572 -17.52  0.001622404    1.279    0.218
       204  -8.8436    150.5396    249.3853   1.2091824526e+02   8.0237749540e+00    0.2150529   0.09717873  36.73 0.0006989212    1.621    0.383
       205  -8.8544    218.0000    247.9899   1.0930456820e+02  -1.3146513585e+00    0.1716306    0.1294657  -8.19    0.0010256    1.476    0.323
       206  -7.7784    117.0386     19.9874   7.6778594570e+01   5.3848480840e+01     0.177304    0.1586771  14.10 0.0003159673    1.021    0.021
       207  -7.7799     45.6787     20.2283   1.0383492270e+02   6.7092742970e+01    0.1685524    0.1483049 -14.01 0.0005079703    1.125    0.111
       208  -7.1944    165.3354     18.6710   6.5817419018e+01   4.1583312660e+01    0.1561292    0.1119112 -61.84 0.0007052002    1.726    0.421
       209  -8.0146     74.1462    247.6242   1.3379918066e+02   1.8131703634e+01    0.1407694   0.07795314  32.46 0.0009491131    1.781    0.438
       210  -9.8133    157.6008    244.9839   1.1922544403e+02   7.5558073191e+00    0.3927977    0.2007256  19.50  0.001969055    3.033    0.670
       211  -7.8951    127.6353     16.9607   7.2809392790e+01   5.1622843697e+01    0.2025455    0.1782026   6.70 0.0004006821    1.093    0.085
       212  -7.9155    104.3379     16.9444   7.9063055981e+01   5.7193112711e+01    0.2347493    0.1120391  -0.78 0.0007010647    4.179    0.761
       213  -7.7445     81.4605    246.4694   1.3250325667e+02   1.7437614235e+01    0.1021084   0.07355631  50.56  6.33193e-05    1.015    0.014
       214  -8.7147    243.0541    244.4276   1.0474582084e+02  -4.3958217649e+00    0.2014167    0.1162198   4.64   0.00136557    1.642    0.391
       215  -9.4816    224.7532    244.2027   1.0768167969e+02  -1.8968916136e+00    0.1916538    0.1611688  29.70 0.0009497051    1.487    0.327
       216  -8.4049    146.5769     14.2144   6.7610805303e+01   4.7047140466e+01    0.2547019    0.1909329  56.09 0.0002574407    1.249    0.199
       217  -9.7756    192.9382    244.2903   1.1303416452e+02   2.5772544372e+00    0.3043085    0.1417264  34.61  0.001270732    1.545    0.353
       218  -9.4535    176.2227    244.1657   1.1589510738e+02   4.9885445307e+00    0.2315646    0.1549134   1.34  0.001535588    1.955    0.489
       219  -8.5191     88.7447     13.1462   8.2306453787e+01   6.1067711600e+01    0.2904153    0.1547791  26.38  0.001225382    2.165    0.538
       220  -8.0772    233.9476    243.4854   1.0607940890e+02  -3.0910552634e+00    0.1689046   0.07698374  34.27 0.0006548284    1.572    0.364
       221  -7.5262     95.5364    243.5103   1.2989717749e+02   1.6135233212e+01    0.1048062   0.07701769  47.78 3.640539e-05    1.025    0.025
       222  -9.2017    170.5602    239.6922   1.1634971597e+02   6.3191606111e+00    0.2359946    0.1570149   3.23  0.001512424    2.017    0.504
       223  -8.6687     50.5314     15.0159   9.9052674307e+01   6.7396938433e+01    0.2319721    0.1616868   5.22 0.0005364576    1.484    0.326
       224  -8.1216     25.3470    241.4155   1.4139152534e+02   2.4143305145e+01    0.1570841   0.07532016  34.35 0.0007676531    1.960    0.490
       225  -8.7819    248.6938    238.8019   1.0303398737e+02  -4.6690484797e+00    0.1988772    0.1032363  24.77  0.001295973    1.388    0.280
       226  -8.0316    121.8987    239.4754   1.2494574453e+02   1.3244122016e+01    0.1655717   0.08093627  40.08 0.0004046332    1.506    0.336
       227  -9.5766    241.9704    236.8935   1.0383348451e+02  -3.5994241595e+00    0.2984899    0.1516057   7.90  0.001315138    2.156    0.536
       228  -8.2887     80.0467    238.3756   1.3219151795e+02   1.8771721518e+01    0.2414253   0.07674379  37.29  0.001250765    2.460    0.593
       229  -8.2126    231.5093    236.5429   1.0549119663e+02  -2.1275712926e+00    0.1448883    0.1008811 -34.43 0.0005671562    2.100    0.524
       230  -7.5718    148.5012    237.5282   1.2001147018e+02   9.7749985231e+00    0.1135315   0.08329974  37.39 0.0001670174    1.012    0.012
       231  -7.5627    112.4991    237.5071   1.2643215033e+02   1.4782212571e+01    0.1081139   0.08243201  40.82 0.0008086649    1.101    0.092
       232  -8.0699    195.5408    236.1526   1.1153355813e+02   3.0679320117e+00    0.1927338    0.1137948  26.20 0.0006325792    1.357    0.263
       233  -9.9894    188.6787    234.5864   1.1252485656e+02   4.2488901046e+00    0.2671793     0.218407  36.01  0.001520368    1.260    0.207
       234  -8.1142    162.0381    234.1749   1.1720460750e+02   8.2298905653e+00    0.1753273    0.1185025  26.88 0.0005090555    1.292    0.226
       235  -7.4344    138.0565    235.0000   1.2161123530e+02   1.1597326236e+01    0.1872717   0.04859108  38.97 0.0007907696    2.862    0.651
       236  -9.0414    248.5302    232.9541   1.0219080924e+02  -4.1434920953e+00    0.2174925    0.1198137  29.81 0.0005801562    1.316    0.240
       237  -7.7652    205.1859    230.5871   1.0909907253e+02   2.2482642539e+00    0.1700203    0.0795312  30.28 0.0008683363    1.691    0.409
       238  -8.0538    237.5191    228.5490   1.0331884986e+02  -2.2245389508e+00    0.1462617    0.1199257  29.56 0.0007862717    1.476    0.323
       239  -8.2746    236.7182    225.6570   1.0301161082e+02  -1.8377462655e+00    0.1756811    0.1137333  26.14 0.0007557211    1.118    0.106
