#   1 NUMBER                 Running object number                                     
#   2 MAG_AUTO               Kron-like elliptical aperture magnitude                    [mag]
#   3 X_IMAGE                Object position along x                                    [pixel]
#   4 Y_IMAGE                Object position along y                                    [pixel]
#   5 X_WORLD                Barycenter position along world x axis                     [deg]
#   6 Y_WORLD                Barycenter position along world y axis                     [deg]
#   7 A_WORLD                Profile RMS along major axis (world units)                 [deg]
#   8 B_WORLD                Profile RMS along minor axis (world units)                 [deg]
#   9 THETA_WORLD            Position angle (CCW/world-x)                               [deg]
#  10 FWHM_WORLD             FWHM assuming a gaussian core                              [deg]
#  11 ELONGATION             A_IMAGE/B_IMAGE                                           
#  12 ELLIPTICITY            1 - B_IMAGE/A_IMAGE                                       
         1 -14.6141     68.3837    144.1913   1.0890279567e+02   3.7229218449e+01      5.36771     2.636395  68.53  0.003744484    3.619    0.724
         2 -14.5681    198.1439     36.6946   4.8729786188e+01   3.0878133947e+01     2.226953     1.526977  30.39  0.007257158    1.944    0.486
         3 -14.5565    209.2314     24.8025   4.4128205692e+01   2.9594821659e+01     1.613758     1.169823   4.22  0.003253552    1.992    0.498
         4  -9.0201    121.6810      9.3397   5.2865266149e+01   5.3393184235e+01    0.1354671    0.1031107 -65.33 0.0007049561    1.712    0.416
         5 -10.4839     61.0099      7.5136   6.9621873252e+01   6.6271527820e+01    0.1811315    0.1113408  40.51 0.0004230832    1.554    0.357
         6 -12.2083    233.4189      2.2370   3.6333643797e+01   2.6336775173e+01    0.7125944    0.2521797  75.61  0.003024886    2.672    0.626
         7 -11.8761     60.0416      1.9354   6.7165916270e+01   6.7039431915e+01    0.6401041    0.1111071  44.94  0.002143975    4.537    0.780
         8 -16.6834      6.4931    209.9717   1.2901062691e+02   2.9409609696e+01     4.577439    0.9068213 -68.86    0.0196475    3.948    0.747
         9 -10.4509    139.7871    249.6841   1.0756313791e+02   4.5727799543e+00     0.216715    0.1813272  54.38  0.001149369    1.146    0.127
        10 -12.9811     71.8128    174.9567   1.1249941657e+02   2.9511113196e+01     1.044552    0.5449426 -33.70  0.003595367    4.864    0.794
        11 -15.0273     85.7812    229.0836   1.1560831328e+02   1.6277204827e+01      2.78152     1.538368  51.88   0.01569451    1.491    0.329
        12 -14.7343     46.8000    222.4038   1.2243249887e+02   2.2698771569e+01     1.427885     1.055874  74.87  0.006563042    1.071    0.067
        13 -16.4638     49.8292    199.5508   1.1998587838e+02   2.6957445578e+01     15.28957     5.854698 -87.29   0.01525426    3.684    0.729
        14 -10.1257    146.8667    184.3228   9.6603937582e+01   1.4895085586e+01    0.2299219    0.1674554  55.42 0.0009281942    1.408    0.290
        15 -10.3054     99.3824    180.7019   1.0686956776e+02   2.4057501613e+01    0.2390282    0.2273888  47.58 0.0006494013    1.164    0.141
        16 -15.9890     62.0441    247.5907   1.2151995324e+02   1.6169614053e+01     8.564398     2.585311  30.77  0.006395535    9.558    0.895
        17 -10.9020    140.0145    173.4466   9.6184355943e+01   1.8423461854e+01    0.5658033    0.3273334 -77.80  0.001965402    3.605    0.723
        18 -13.7708     71.0422    158.0327   1.1035082524e+02   3.3552227004e+01    0.5982683    0.5154029 -41.15  0.002434245    1.394    0.283
        19 -11.0364    209.1000    198.3109   8.6178255985e+01   8.9360063866e-01    0.2376794    0.1948043 -36.88 0.0008737033    1.385    0.278
        20 -12.9205     55.7274    146.2914   1.1255457180e+02   3.8351373882e+01     1.997835    0.7883844 -46.29  0.007594484    3.186    0.686
        21  -9.9723    113.0231    198.7230   1.0640833559e+02   1.7986496304e+01     0.274355    0.1622253  85.98  0.001164803    2.723    0.633
        22  -9.7374     82.0276    194.8540   1.1267461489e+02   2.3655678916e+01    0.2252652    0.1681895  42.21  0.001056996    1.322    0.243
        23  -9.8072    161.3669    165.3081   8.9695626433e+01   1.5914910438e+01    0.2037949    0.1414867 -55.39  0.000943132    1.634    0.388
        24 -11.4222     73.9934    188.5554   1.1368845792e+02   2.6168769854e+01    0.4252071    0.2243944  67.77  0.001323253    2.234    0.552
        25 -10.7370    133.8918    246.3892   1.0828261804e+02   6.0035245537e+00    0.2655991    0.1741784 -62.25  0.001279736    1.950    0.487
        26 -10.1673    230.1532    166.1559   7.5749948947e+01   2.2344018875e+00     0.180936     0.164833 -43.96 0.0005585407    1.340    0.254
        27 -12.2901     89.5392    155.5989   1.0528839567e+02   3.1383942332e+01    0.6047551    0.4453415 -27.32  0.002967351    1.924    0.480
        28 -11.2256    133.6251    144.1263   9.1811883699e+01   2.6091957352e+01     1.197548     0.292363 -54.24  0.002757368    6.022    0.834
        29 -10.6363    174.2302    148.6421   8.3200461321e+01   1.6630026405e+01    0.3603432    0.2894044 -71.18  0.001572346    1.602    0.376
        30 -10.5061     40.7467    146.9814   1.1650683321e+02   3.9885448781e+01    0.2272072    0.1942472 -78.95 0.0008108589    1.064    0.060
        31 -10.8698     44.0498    144.2729   1.1531045139e+02   4.0178713434e+01    0.2928292    0.2121117  40.23  0.001167455    1.506    0.336
        32 -11.0198    103.0713    140.5197   9.8961202191e+01   3.2708294610e+01    0.5556338    0.3492166 -27.96  0.002252272    2.444    0.591
        33  -9.2723    130.5281    213.0998   1.0469877577e+02   1.2245084846e+01    0.1677745     0.131468 -61.26 0.0003454563    1.459    0.314
        34 -12.4847     90.5502    140.6005   1.0233093729e+02   3.4799424303e+01    0.2806596    0.2645212 -52.86  0.001608315    1.118    0.106
        35 -10.7150     84.7736    144.0079   1.0450895574e+02   3.4893285401e+01    0.3403068    0.2330379  68.38  0.001239127    1.699    0.411
        36 -11.3812     45.5085    136.5343   1.1385858196e+02   4.1880767419e+01    0.4493547    0.2245214 -59.91  0.001673769    1.720    0.419
        37 -11.6548     45.3455    129.8875   1.1292007025e+02   4.3505884045e+01    0.3668216    0.2267754  27.19  0.001926903    1.932    0.483
        38  -9.3505     95.1674    188.0222   1.0887958746e+02   2.3131202151e+01    0.1812963    0.1780654  78.64 0.0004061862    1.201    0.168
        39 -11.6167    136.0100    129.2401   8.7793520951e+01   2.8960306861e+01     0.885658    0.2146882 -50.60   0.00220817    4.757    0.790
        40  -9.5778    106.6428    210.1024   1.0929321709e+02   1.6749384911e+01    0.2284511    0.1501295  51.47 0.0005089219    1.328    0.247
        41 -10.3859    112.1386    130.6328   9.4413127188e+01   3.3400943626e+01     0.332541    0.2693835   7.19   0.00084131    1.584    0.369
        42 -10.2570    160.5876    127.7497   8.1375550067e+01   2.3944673432e+01    0.3874034    0.2642981 -61.45  0.001630978    1.816    0.449
        43 -11.0533     99.3073    126.8618   9.7102579311e+01   3.6624726379e+01    0.3007881    0.2380862 -29.52 0.0005582022    1.474    0.321
        44  -8.7421     95.2377    127.3313   9.8345265132e+01   3.7213558294e+01    0.1457209    0.1101921 -32.76 0.0002256734    1.534    0.348
        45 -13.1044     82.8848    162.6834   1.0810062477e+02   3.0744832210e+01     1.443372    0.4872522  52.57 0.0004220554    3.999    0.750
        46 -11.3228    120.3421    122.3290   9.0247875719e+01   3.3749368183e+01    0.4559324    0.2926568 -19.60   0.00172582    2.541    0.606
        47 -13.3925     17.6555    191.6357   1.2584803394e+02   3.2109515906e+01    0.4969264    0.2920667  47.21 0.0007369688    1.581    0.367
        48  -9.2587     98.6174    185.9050   1.0780161268e+02   2.3042191573e+01    0.2221982    0.1096489 -86.46 0.0007013739    4.488    0.777
        49 -10.3338    105.9978    130.7081   9.6099967184e+01   3.4517089807e+01     0.338484    0.2895586 -67.65  0.001311263    1.164    0.141
        50 -10.0867    108.1408    119.3915   9.2903474909e+01   3.6795975482e+01    0.2274154    0.1997745 -38.99 0.0003572587    1.154    0.133
        51  -8.9652    154.3246    185.6726   9.5192565692e+01   1.3224410956e+01    0.1440493      0.11025  73.94 0.0007049487    1.695    0.410
        52  -9.8729    168.0303    112.8713   7.5829967415e+01   2.5345464953e+01    0.3828956    0.2637551 -71.65  0.001520223    2.167    0.539
        53 -12.1257     43.7582    109.1854   1.0992740966e+02   4.8683380907e+01     0.412343     0.366279  81.75   0.00169483    1.192    0.161
        54 -10.2904    134.6678    112.5387   8.3934488815e+01   3.2982888520e+01    0.2895253    0.1455317 -45.67   0.00108345    1.967    0.492
        55 -11.9020    118.0329    107.9156   8.7221436254e+01   3.7516394764e+01    0.7533966    0.4945717 -47.84  0.003332025    1.486    0.327
        56 -10.1768    205.3389    110.2509   6.7375381433e+01   1.7162099892e+01    0.3575183    0.2292352  36.61  0.001142922    1.752    0.429
        57 -11.0041     33.1135    108.3447   1.1305557607e+02   4.9910046670e+01    0.3481203     0.133007 -62.89  0.001519225    2.068    0.516
        58 -10.6019    134.5971    105.7743   8.2135227679e+01   3.4484769410e+01    0.4734839    0.1552487 -44.99  0.001437748    3.016    0.668
        59 -10.3194     33.2826     99.8555   1.1151886998e+02   5.1919012849e+01    0.2501535    0.1832515  86.47    0.0014319    1.524    0.344
        60 -11.2052     52.3456     92.1394   1.0363160600e+02   5.1805723274e+01    0.4659219    0.3180294 -62.12  0.002484689    1.339    0.253
        61  -8.9332    108.4638     93.4001   8.5970317123e+01   4.2681789246e+01    0.1493084    0.1465145 -60.77 0.0001285693    1.065    0.061
        62 -10.7541     41.9381     91.7610   1.0705768713e+02   5.3015401008e+01    0.2625407    0.1894927 -32.94   0.00104951    1.455    0.313
        63  -9.0349    160.6765     88.2812   7.0690884231e+01   3.2010378730e+01    0.1582636    0.1263254 -81.53  0.000273594    1.592    0.372
        64  -9.1694    115.7895     84.1887   8.1090699171e+01   4.3165650831e+01     0.253004    0.1734076 -87.02 0.0009426725    2.780    0.640
        65 -12.0025    193.2991    195.0532   8.8691788291e+01   4.2404722735e+00    0.9629422    0.5298357 -63.95  0.003088937    5.457    0.817
        66  -9.8207    157.6731     81.0027   6.9233055959e+01   3.4130532319e+01     0.223553    0.2070587 -38.60 0.0005099404    1.079    0.073
        67  -9.4232     58.7362     67.4356   9.4742561989e+01   5.6566640390e+01    0.2332874    0.1288969  36.73 0.0008809904    2.025    0.506
        68  -8.6655     66.6231     65.2893   9.1159135015e+01   5.5928839368e+01    0.1317903    0.1105428  77.56 0.0007019246    1.731    0.422
        69 -10.9240     13.4427     59.7021   1.1031577012e+02   6.2516534885e+01    0.2194698    0.1832614 -59.88 0.0004325536    1.148    0.129
        70 -13.0199    188.6675     43.8399   5.2141518640e+01   3.2325379665e+01     0.845722    0.5932875  43.40 0.0009859647    1.555    0.357
        71 -15.0936     28.7956    248.1701   1.2716551042e+02   2.0028093627e+01     1.044439    0.4780223  37.93   0.00642177    2.114    0.527
        72 -11.5101     10.9878     52.6494   1.0960684518e+02   6.4161150391e+01    0.3073857     0.147615  15.89  0.001669839    2.493    0.599
        73 -10.8351    149.6010     45.4342   5.9782151856e+01   4.2133036467e+01    0.2813534    0.2531787 -76.21  0.001501019    1.227    0.185
        74 -11.6694     20.6388     33.5301   9.9488111069e+01   6.7334253414e+01    0.3680237    0.1730998  31.28  0.001954517    2.535    0.606
        75 -11.2464    171.8752    240.3863   1.0030719634e+02   8.3505712156e-01    0.4373928    0.2826488 -75.12  0.002086433    3.515    0.715
        76 -11.6002    148.1601     52.0694   6.2288617023e+01   4.1494361629e+01    0.5417523    0.3548723 -81.95  0.001038672    2.509    0.601
        77 -10.4087     21.6198     21.2090   9.4205935066e+01   6.9458024256e+01    0.1710258   0.08404883 -37.53 0.0005499847    1.617    0.382
        78  -9.4870    189.6704     14.9868   4.3788089249e+01   3.5628730104e+01    0.1883645    0.1719799 -56.62 0.0005443867    1.120    0.107
        79 -10.3122    197.7587    223.0098   9.2706218373e+01  -8.8884970426e-01    0.2175973    0.1586858  33.19  0.000467806    1.160    0.138
        80  -9.2882    111.8683    217.6741   1.0915785842e+02   1.4458904550e+01    0.1790784    0.1376039  48.97 0.0004387938    1.107    0.097
        81 -16.8966      8.2383    244.5352   1.3028886532e+02   2.2807155259e+01     1.745958     1.607039 -80.99   0.01213806    1.657    0.397
