#   1 NUMBER                 Running object number                                     
#   2 MAG_AUTO               Kron-like elliptical aperture magnitude                    [mag]
#   3 X_IMAGE                Object position along x                                    [pixel]
#   4 Y_IMAGE                Object position along y                                    [pixel]
#   5 X_WORLD                Barycenter position along world x axis                     [deg]
#   6 Y_WORLD                Barycenter position along world y axis                     [deg]
#   7 A_WORLD                Profile RMS along major axis (world units)                 [deg]
#   8 B_WORLD                Profile RMS along minor axis (world units)                 [deg]
#   9 THETA_WORLD            Position angle (CCW/world-x)                               [deg]
#  10 FWHM_WORLD             FWHM assuming a gaussian core                              [deg]
#  11 ELONGATION             A_IMAGE/B_IMAGE                                           
#  12 ELLIPTICITY            1 - B_IMAGE/A_IMAGE                                       
         1 -13.5124    190.5201     33.0497   5.9045491000e+01   3.3251854453e+01     1.165919     1.093781 -17.09  0.003246198    1.066    0.062
         2 -14.0780    199.0859     21.4947   5.4225513397e+01   3.2368556475e+01     1.973314     1.244361   0.24  0.001885515    1.990    0.497
         3 -11.4448     58.0439      3.4497   7.8316623626e+01   6.7794194483e+01    0.3110201    0.2559845  -0.13  0.002008976    1.072    0.067
         4 -10.5459    167.8663    234.2792   1.0812260622e+02   6.8706971202e+00    0.4673122    0.1410584  36.27   0.00190997    3.583    0.721
         5 -12.6301    223.8774    247.3967   1.0098183243e+02  -2.8212541655e+00    0.7045295    0.3558652  20.59  0.003261547    2.203    0.546
         6 -19.4000     10.2881    140.5612   1.2861945005e+02   4.4351958004e+01     16.48429     2.984893 -78.79   0.05611751    5.164    0.806
         7 -11.5506    236.7531    230.1469   9.6648420993e+01  -3.1129307179e+00    0.4379565    0.3302658  43.21  0.002761588    1.461    0.315
         8 -10.2405     61.0079    187.3107   1.2208802284e+02   2.9768335478e+01    0.2368006     0.192317  27.93  0.001672645    1.733    0.423
         9 -11.3198    208.6726    182.6857   9.3577651073e+01   6.6450638075e+00      0.44547    0.3165552   6.00  0.001727657    1.570    0.363
        10 -11.3373     77.1733    180.1165   1.1825560236e+02   2.9033820915e+01    0.3044193    0.2379584 -42.68  0.001979688    1.880    0.468
        11 -11.3574     80.9599    174.5923   1.1688917019e+02   2.9572498635e+01    0.3336182    0.2546254 -49.71  0.001051537    1.692    0.409
        12  -8.9819     99.6805    180.5717   1.1384429009e+02   2.5728761806e+01    0.1610852   0.09845098  53.08 0.0005505699    1.427    0.299
        13 -11.2744    152.3692    177.2483   1.0298365422e+02   1.7582912250e+01    0.4221806    0.2467581  48.85  0.001251298    1.529    0.346
        14  -9.9324    198.2242    176.8372   9.4367314222e+01   9.3117507226e+00    0.2803269    0.1922534  43.45   0.00135076    1.307    0.235
        15 -10.9188    196.1198    171.2822   9.3733485255e+01   1.0487178996e+01    0.3570321    0.3162071  -7.51  0.001500668    1.174    0.148
        16 -10.1974     78.1447    231.9949   1.2266827667e+02   2.0034302046e+01    0.1912401    0.1169695  49.38 0.0008047094    1.269    0.212
        17 -10.3046    105.1480    172.2353   1.1166415891e+02   2.6448571324e+01    0.2732311    0.1866968  52.93  0.001322814    1.297    0.229
        18 -15.6031    181.4359    201.1284   1.0135818501e+02   8.9242784416e+00     2.103393     1.618252   4.19  0.009743495    1.570    0.363
        19  -9.8180    193.7802    165.6008   9.3096087228e+01   1.1757238478e+01    0.3594672    0.1906786 -44.63  0.001718016    2.205    0.547
        20  -9.7118    145.9414    168.6781   1.0284516556e+02   2.0193067550e+01    0.1850393    0.1556323  51.45 0.0005708123    1.066    0.062
        21 -11.0008    247.1987    223.1817   9.4026015312e+01  -3.9963686892e+00    0.3172322    0.1733479 -22.62  0.001844386    2.001    0.500
        22 -11.1904     94.2284    157.6684   1.1193842339e+02   3.0986214816e+01    0.4847168       0.3565 -34.59  0.001383543    2.022    0.505
        23 -10.7666    164.1893    152.7857   9.6312324473e+01   1.9536501060e+01    0.4330426    0.1534072 -46.10  0.001620335    3.105    0.678
        24 -10.2163    174.4011    149.0899   9.3544920252e+01   1.8153837422e+01    0.2560038    0.1777317  36.73 0.0008429833    1.397    0.284
        25  -9.8808    134.0000    147.5017   1.0160525000e+02   2.6272139175e+01    0.5906048    0.1638408 -51.90  0.001929325    4.008    0.751
        26 -10.0530    106.6645    141.3319   1.0658066907e+02   3.2344246440e+01     0.454807    0.2740564 -31.27  0.001950522    2.930    0.659
        27 -11.4842     94.3389    142.1318   1.0954933077e+02   3.4173059581e+01    0.2378918    0.2246832 -63.39  0.000455734    1.210    0.174
        28  -9.6379    114.2476    131.4839   1.0300659522e+02   3.3085933682e+01    0.2639556     0.228748 -21.14 0.0009190291    1.487    0.327
        29  -9.6450    105.8984    130.7210   1.0483354342e+02   3.4699255757e+01    0.2651062    0.1952434 -68.36  0.001432777    1.360    0.265
        30 -10.1750    161.7849    128.1937   9.1657768530e+01   2.4438249492e+01    0.3690552    0.2589656 -87.39  0.001608517    2.323    0.570
        31  -8.9263    120.2885    129.6702   1.0123287501e+02   3.2372107115e+01    0.1415329    0.1055037  86.35 0.0003275643    1.619    0.383
        32 -10.0731    101.6560    127.9767   1.0533162794e+02   3.6000500441e+01    0.2440488    0.2155486 -29.91 0.0006455815    1.408    0.290
        33 -11.4995     67.4082    126.7165   1.1354874128e+02   4.1408113964e+01    0.4958403    0.2499786 -70.24  0.002400087    1.901    0.474
        34  -9.9779    118.6520    125.9668   1.0086056852e+02   3.3441910642e+01    0.3495129    0.2151589 -22.54  0.001334669    3.315    0.698
        35  -9.4646    135.0000    121.4830   9.6065252742e+01   3.1232372240e+01    0.3207942   0.08089024 -46.67 0.0009425753    3.998    0.750
        36  -9.1205    109.7845    120.1024   1.0177679274e+02   3.6285003270e+01    0.2012887    0.1749786  88.94 0.0004203172    1.152    0.132
        37  -9.8284    167.9698    112.5535   8.6643950757e+01   2.5985967346e+01    0.2805543    0.2027069 -56.36  0.000686912    1.592    0.372
        38  -9.2378    103.9200    111.0020   1.0128580344e+02   3.9283114238e+01    0.2045248    0.1888221 -83.03   0.00028007    1.025    0.024
        39  -9.4364    205.6334    110.1012   7.8692402282e+01   1.7960619573e+01    0.2830743    0.2044965  40.29 0.0006995918    1.381    0.276
        40 -11.6281    250.0364    214.2027   9.2192994397e+01  -3.5859730956e+00    0.6804928    0.2070929 -26.12  0.003122089    3.796    0.737
        41  -9.9274    110.4792    223.4733   1.1655038529e+02   1.6944177758e+01    0.2080286    0.0733581  50.21 0.0008318327    2.307    0.567
        42 -12.1948    118.9623     89.6507   9.2093905838e+01   4.1015906715e+01     1.039433    0.5691234 -49.08   0.00378755    1.775    0.437
        43 -10.1843    118.0234     80.0306   8.9601266361e+01   4.3186086828e+01    0.5402081    0.2958262 -60.19  0.002076555    2.439    0.590
        44 -10.5055    113.7322     80.2578   9.0814362836e+01   4.4007139053e+01     0.436977    0.3892886 -39.39  0.001977468    1.086    0.079
        45  -8.8180    133.4750    216.4739   1.1183775791e+02   1.4561210588e+01    0.1148538   0.09106328  50.70 0.0001649252    1.017    0.016
        46 -10.8278     92.7845     70.8848   9.3960811122e+01   4.9910730894e+01    0.5964633    0.3811982  61.87  0.002718133    2.113    0.527
        47 -10.7173    165.5572     66.1362   7.4077245616e+01   3.4844448268e+01    0.4353724    0.3216994 -78.93 0.0009805319    1.842    0.457
        48 -13.1371    155.6217    194.4816   1.0500484199e+02   1.4273827766e+01     1.204614     0.752412  23.18  0.004499523    2.181    0.542
        49 -11.3449    164.0000     55.5078   7.0980066155e+01   3.6970265116e+01    0.6214058    0.1781473 -32.26  0.001845946    3.309    0.698
        50 -13.1467    180.0396     41.4822   6.3421449189e+01   3.4900225324e+01     1.079485    0.7020179 -11.38  0.002026839    1.766    0.434
        51  -9.7223    139.4577    248.6609   1.1424272925e+02   9.3231866768e+00    0.2233106    0.1363986  67.55  0.001475123    1.989    0.497
        52 -11.7112    243.3474    242.9804   9.7487600561e+01  -5.1694546663e+00    0.4734909     0.244893  20.82  0.002104098    1.809    0.447
        53 -10.2391    144.2813    207.4473   1.0883255069e+02   1.4195218515e+01    0.2753307    0.2295419 -43.90  0.001516266    1.505    0.336
        54 -10.3864    244.9987    205.2673   9.1510527762e+01  -1.9629800145e+00    0.2656987    0.1832149   7.04  0.001795487    1.324    0.244
