#   1 NUMBER                 Running object number                                     
#   2 MAG_AUTO               Kron-like elliptical aperture magnitude                    [mag]
#   3 X_IMAGE                Object position along x                                    [pixel]
#   4 Y_IMAGE                Object position along y                                    [pixel]
#   5 X_WORLD                Barycenter position along world x axis                     [deg]
#   6 Y_WORLD                Barycenter position along world y axis                     [deg]
#   7 A_WORLD                Profile RMS along major axis (world units)                 [deg]
#   8 B_WORLD                Profile RMS along minor axis (world units)                 [deg]
#   9 THETA_WORLD            Position angle (CCW/world-x)                               [deg]
#  10 FWHM_WORLD             FWHM assuming a gaussian core                              [deg]
#  11 ELONGATION             A_IMAGE/B_IMAGE                                           
#  12 ELLIPTICITY            1 - B_IMAGE/A_IMAGE                                       
         1 -11.5404    110.7704     39.9267   1.7742989917e+01   5.2640230341e+01     1.182354    0.8718101  -8.37  0.005462711    1.776    0.437
         2 -10.2782      9.7522     30.0405   6.5242777011e+01   7.3477238504e+01    0.5753813    0.2834876  -3.12  0.002638926    2.282    0.562
         3 -11.9382    104.7498     12.9269   7.6899778974e+00   5.7732859777e+01    0.5105477    0.3835904  -5.50  0.002028392    1.620    0.383
         4 -12.2511    105.8231     19.9839   1.0589972401e+01   5.6663488010e+01    0.3932559    0.3548663 -44.48 0.0003928137    1.195    0.163
         5 -12.4676    113.1831     25.1420   1.1120826076e+01   5.4055667398e+01    0.8848133    0.3770269  55.91  0.003324746    2.071    0.517
         6 -12.3035     58.3133     29.1615   3.1877046012e+01   6.6946887104e+01    0.7278442    0.3843032 -25.91 0.0007314258    2.460    0.594
         7 -11.7892     20.4828     21.5757   5.2665198867e+01   7.4440240739e+01    0.5874831     0.332016 -41.19  0.001894828    1.652    0.395
         8 -11.6515    120.7779     11.4022   4.0088549565e+00   5.3521943211e+01     1.252204    0.1717011  68.57   0.00307266    5.409    0.815
         9 -10.9602    126.9042     16.7845   5.1128325306e+00   5.1291375848e+01    0.3046222    0.2547487  46.13 0.0004186063    1.278    0.217
        10 -12.5619    135.4544     14.3315   2.8626136034e+00   4.9217356360e+01    0.9777884    0.3749814  70.96  0.003370987    2.331    0.571
        11 -10.7453     12.7890      8.3132   5.2046742795e+01   7.7877087906e+01    0.4488038    0.3071924 -65.88  0.002015593    1.936    0.483
        12 -12.2049     16.1044     13.9970   5.2326745447e+01   7.6433347012e+01     1.047754    0.3479633 -37.39  0.003838955    3.447    0.710
        13 -12.2057     22.3492     11.2165   4.4904636865e+01   7.6230852869e+01    0.5789191    0.3819626 -16.91  0.002321008    1.637    0.389
        14 -11.0946     68.8832     19.6604   2.1864299543e+01   6.6099815655e+01    0.3836021    0.3357169  60.26  0.001380437    1.158    0.136
        15 -11.8047    164.9433     17.8525   3.6685458736e-01   4.0983812580e+01    0.5852511    0.2920378  47.12  0.002470413    2.462    0.594
        16 -11.8204     36.3196     18.2989   3.8600592033e+01   7.2901778026e+01    0.6948821    0.4640223 -43.53  0.003026991    1.582    0.368
        17 -11.2547     86.0664     13.9448   1.2847149209e+01   6.2570655184e+01    0.6369994    0.3677396   9.20  0.002569236    2.709    0.631
        18 -10.9101     89.0637      8.4337   9.2122116566e+00   6.2370531081e+01    0.5871535    0.3586611 -68.88  0.002575676    2.205    0.546
        19 -12.2385    227.8156     14.7977   3.5458590134e+02   2.6594602765e+01    0.4540996    0.2287743 -73.31  0.001317182    1.980    0.495
        20 -11.4879    242.3164     15.0680   3.5386129137e+02   2.3674551438e+01    0.2239155    0.2067255  42.45 0.0002181397    1.523    0.343
        21 -12.3401     48.8751     12.8310   2.7247034331e+01   7.1446872616e+01    0.6840175    0.2979982  48.10  0.002892816    2.127    0.530
        22 -10.3675    219.0198     13.0248   3.5468708677e+02   2.8628670940e+01    0.2361829    0.1885678 -10.59  0.001495028    1.622    0.383
        23 -11.6151    192.7995      7.8689   3.5507237651e+02   3.5082113665e+01    0.4677759    0.2902877   8.22  0.001965115    2.809    0.644
        24 -11.9244    212.1816      9.3810   3.5421855118e+02   3.0489189013e+01    0.5104319    0.3183743 -14.51   0.00196493    2.056    0.514
        25 -11.8606     64.0544      9.1642   1.7693092794e+01   6.8564035050e+01    0.4471264    0.3060065 -41.86 0.0003186304    1.685    0.406
        26 -12.0848    168.0911      9.3693   3.5745488411e+02   4.1046996617e+01    0.6740333    0.2623924  74.00  0.002712488    2.331    0.571
        27 -12.0788    154.5526      6.6314   3.5788604708e+02   4.4837998864e+01    0.5764075    0.4214613  64.99  0.003145039    1.335    0.251
        28 -10.3811      1.8502      2.1469   6.0450546308e+01   7.9970451067e+01    0.2773416    0.1389774 -46.40 0.0009779249    1.688    0.408
        29 -11.7934    184.7574      6.5823   3.5529177889e+02   3.7144633725e+01    0.3948326     0.216997 -55.59  0.001507746    1.603    0.376
        30 -11.1115    232.6205      6.6450   3.5249628855e+02   2.6445760514e+01    0.2670948    0.1068987 -56.82  0.001000197    2.071    0.517
        31  -9.6311     77.8808      7.1762   1.1666202436e+01   6.5385810940e+01    0.2137802    0.1826876 -86.90 0.0007767244    1.295    0.228
        32 -10.2292     75.1507      3.0321   1.0137904169e+01   6.6475568670e+01    0.4549257    0.2175882  67.08  0.001949654    1.951    0.488
        33 -12.0367    243.3767      3.3983   3.5131814381e+02   2.4645050882e+01    0.3597303    0.2805771 -86.46  0.002610435    1.322    0.243
        34 -10.4029    142.2213      2.5627   3.5778800847e+02   4.8495262681e+01    0.2838643    0.2517985  64.58  0.001052954    1.179    0.152
        35 -11.1119    137.8360      3.9117   3.5875779578e+02   4.9562484551e+01    0.2757006     0.242512  88.97 0.0003469812    1.027    0.026
        36 -11.9180    133.2510      2.8051   3.5889570109e+02   5.0902351193e+01    0.5988499    0.3066456  81.77  0.002653111    1.791    0.442
        37 -10.5739     41.7686      3.5560   2.4827080403e+01   7.4128444680e+01    0.3581499     0.210969  28.00  0.001753392    1.806    0.446
        38  -9.9221    176.0285      5.6773   3.5569247955e+02   3.9390532510e+01    0.1965746    0.1518486 -87.89 0.0005105389    1.150    0.131
        39 -10.7036    218.5461      3.4599   3.5245383487e+02   2.9690160371e+01    0.2671267    0.1906108 -84.91 0.0009551569    1.305    0.234
        40 -10.5882    223.5650      2.5348   3.5199540569e+02   2.8713903211e+01    0.2294753    0.1751635 -57.05 0.0005762845    1.014    0.014
        41 -11.4578    114.1567      2.5892   1.4320128305e+00   5.6134651070e+01    0.5127239    0.2893828  88.06  0.001603554    1.773    0.436
        42 -11.5781    206.0991      2.1391   3.5278313914e+02   3.2556943701e+01    0.5237445    0.1968842 -87.80  0.002010374    2.789    0.641
        43 -10.3621    105.5372      1.8095   2.5156465507e+00   5.8548002256e+01    0.2875299    0.1879789  85.48  0.001107981    1.469    0.319
        44 -11.1744      6.9580      9.1420   5.8679506691e+01   7.8216356808e+01    0.4892405     0.366831 -10.17  0.002301722    1.216    0.178
        45 -10.2312      1.1369      7.4243   6.4229413316e+01   7.8929963931e+01    0.3010651    0.0647075 -59.80  0.001133895    3.403    0.706
        46  -9.5521    152.1995      1.3444   3.5637884769e+02   4.5935278994e+01    0.1937501     0.112655 -88.57 0.0005005436    1.580    0.367
        47  -9.7224    124.2254      1.3173   3.5946492698e+02   5.3487064417e+01     0.203105    0.1161356  85.10 0.0007644012    1.626    0.385
        48  -9.4937     28.9715      1.4844   3.1994298483e+01   7.6799760963e+01    0.1893163    0.1154838  39.07 0.0005294843    1.516    0.340
        49  -9.7900     49.4791    122.5387   6.4915653242e+01   4.5833092430e+01    0.2602051    0.1489764   9.36   0.00103016    2.339    0.572
        50  -9.9591     44.5087    119.5153   6.6317065427e+01   4.7247961045e+01    0.2565258    0.2180562 -67.05 0.0008026505    1.163    0.140
        51  -9.9348     43.4925    116.0006   6.6161102603e+01   4.8314989317e+01    0.3077642    0.2338416  83.54 0.0008510481    1.356    0.263
        52 -10.9927      7.9001    114.8432   7.9934422110e+01   5.1686673017e+01    0.3098851    0.2307905 -50.63 0.0003743898    1.409    0.290
        53 -12.0777      2.6769    111.4873   8.1727326135e+01   5.2851592636e+01    0.4603902    0.3614405  81.26   0.00182974    1.141    0.124
        54 -11.4033      4.2478    105.2725   8.0683574102e+01   5.4427563416e+01    0.4550003    0.3568606  24.55  0.001922859    1.373    0.272
        55  -9.9076     79.1889    114.5887   5.2479585405e+01   4.3490355219e+01    0.2808636    0.2207687 -57.89 0.0007161814    1.298    0.230
        56 -10.0303     58.5212    115.0215   6.0196576098e+01   4.6641386503e+01    0.2762667    0.1931687  49.83 0.0001049894    1.431    0.301
        57 -10.6089     35.2374    103.0458   6.7431087344e+01   5.2727268838e+01    0.5256455    0.2774426  -5.72  0.001665948    3.001    0.667
        58 -11.6951     26.3452    106.4627   7.1674384710e+01   5.2637507859e+01    0.7440309    0.3481548 -32.05  0.002735864    3.058    0.673
        59 -11.1063     24.5201    102.4948   7.1912182625e+01   5.3867337858e+01    0.5025554    0.2613642  58.67  0.001790758    2.155    0.536
        60 -11.5775     22.5094    114.0040   7.4148354413e+01   5.0913230979e+01    0.5340425    0.3294082 -11.27  0.001788887    2.132    0.531
        61 -11.4245     28.5151    112.8047   7.1617180855e+01   5.0726319010e+01    0.4145721    0.2923905  40.31  0.001457437    1.394    0.283
        62 -10.6650     12.7422    111.4423   7.7765247196e+01   5.2304723316e+01    0.4213599    0.1829022 -78.80 0.0005489911    2.103    0.524
        63 -10.5488     16.3338    109.1002   7.6099988403e+01   5.2697387825e+01    0.3223617     0.221599  41.30  0.001116236    1.444    0.308
        64 -10.0478     48.8287    111.9365   6.3387508349e+01   4.8766118330e+01    0.2595203    0.2129098  34.47 0.0007317917    1.216    0.177
        65 -11.9534     79.7869    107.9047   5.0717567792e+01   4.5095052621e+01    0.5404576    0.3593559  27.65  0.001066819    1.609    0.378
        66  -9.9482    174.5492    108.4045   2.4653328457e+01   2.4863778602e+01    0.2654396    0.2210086  61.03  0.001405797    1.318    0.242
        67  -9.4373    101.9685    109.0000   4.3387664635e+01   4.0562330188e+01    0.2689747   0.08896285  40.12 0.0006280379    2.928    0.658
        68 -11.3090     50.9103    100.6621   6.0375067839e+01   5.1523996857e+01    0.6130581    0.3972987 -30.24  0.002176064    1.961    0.490
        69  -9.9797     85.9080    103.5221   4.7426094834e+01   4.5073275585e+01    0.2635739    0.2174929 -41.58 0.0005438616    1.291    0.225
        70 -10.3837     92.4575    101.9958   4.4728820411e+01   4.4175203881e+01    0.4207843     0.296652 -57.63  0.001863564    1.484    0.326
        71 -10.4988     17.0770    100.3494   7.4836762448e+01   5.5008888531e+01    0.2526187    0.1901678 -87.54 0.0005516587    1.250    0.200
        72 -11.2760      9.1226     96.9483   7.7926712705e+01   5.6407842414e+01    0.4602014    0.3234134  43.57 0.0003689333    1.452    0.311
        73 -10.6371     30.4006     96.8777   6.8518336489e+01   5.4872681982e+01    0.5090498    0.3607019 -66.32  0.002562003    1.324    0.245
        74  -9.3675    210.4796     97.9799   1.6025244282e+01   1.9222609626e+01    0.1953401    0.1193571 -33.93 0.0003261241    1.461    0.316
        75 -10.3002     67.4212     81.2432   4.8465770032e+01   5.4012538365e+01    0.4089159    0.2854149 -32.82  0.001767272    1.677    0.404
        76 -11.4836     79.6540     92.5139   4.6789919373e+01   4.8993107544e+01      1.02734    0.7173535 -54.32  0.004613153    1.456    0.313
        77  -9.9029     83.0075     83.2051   4.2782494069e+01   5.0600106727e+01    0.3591137    0.2218747  37.23 0.0009374434    1.617    0.382
        78 -12.2556     75.3275     78.6733   4.4390601567e+01   5.3186454349e+01    0.7036732    0.5320178  63.70 0.0004408254    1.543    0.352
        79 -12.1507     67.4483     94.8198   5.2200878365e+01   5.0579928731e+01    0.5085935    0.4031669  26.66  0.001030275    1.311    0.237
        80  -8.7740    140.6325     95.7010   2.8750770597e+01   3.4922265101e+01    0.1615031    0.1237551  14.69 0.0007032118    1.731    0.422
        81 -10.2111    125.9544     94.2062   3.2141125473e+01   3.8652650039e+01    0.2570479    0.2453847  77.36 0.0003995104    1.053    0.050
        82 -10.1284    121.9863     93.2940   3.2983603925e+01   3.9766106397e+01    0.2501694    0.2196583 -86.75 0.0007399944    1.262    0.208
        83 -10.2685     42.9934     94.6526   6.2534748508e+01   5.4132247751e+01    0.3352064    0.2882054  42.89  0.001564899    1.174    0.148
        84 -10.4878     43.6792     90.5774   6.1371068977e+01   5.5137571749e+01    0.2432497    0.2251798 -61.10 0.0002854252    1.053    0.050
        85 -10.4674     18.8321     86.4181   7.2203594618e+01   5.8641868728e+01    0.4429534    0.3268528 -38.02  0.002340205    1.410    0.291
        86 -11.2108     23.0831     94.1431   7.1369252544e+01   5.6244355314e+01    0.3214317    0.2956875 -38.35  0.001090727    1.140    0.123
        87 -10.2547     19.0158     91.2757   7.2816178868e+01   5.7322945303e+01    0.3017197    0.2128552  37.94  0.001562232    1.459    0.314
        88 -10.5146     35.5005     91.4989   6.5272211689e+01   5.5818124075e+01    0.6108992    0.2921878  78.79  0.001983967    3.639    0.725
        89  -9.4000     38.6958     90.6145   6.3639819964e+01   5.5709743166e+01    0.3105859    0.1796146  -7.35 0.0009681511    2.549    0.608
        90 -10.7987     49.4959     90.1295   5.8665456907e+01   5.4510763367e+01    0.5971285     0.367297 -83.95  0.002482419    2.041    0.510
        91  -9.8988     52.1466     86.9154   5.6707392675e+01   5.4988616842e+01    0.2781756    0.2182017  45.92 0.0007480158    1.301    0.231
        92 -11.3509     45.2396     83.9219   5.9130005325e+01   5.6700974247e+01    0.5261824    0.4393898  64.89  0.001965812    1.296    0.228
        93 -10.4803     98.0141     90.6624   3.9644490857e+01   4.5725915089e+01    0.2705285    0.2493505  84.44 0.0004533671    1.141    0.124
        94 -10.6644      3.1555     82.0213   7.9217102473e+01   6.0658538333e+01    0.3226004     0.220295  71.98  0.001079866    1.479    0.324
        95 -11.5153      6.1054     88.1619   7.8423371799e+01   5.8905690524e+01    0.6782849    0.3823061  10.02  0.003289405    1.979    0.495
        96 -10.0397     66.8819     88.3108   5.0709858861e+01   5.2336143779e+01    0.3005769    0.2314265 -14.09 0.0008075385    1.656    0.396
        97 -11.3765     27.8673     85.4823   6.7716907487e+01   5.8172911835e+01    0.5602827    0.4618647 -42.99   0.00179945    1.219    0.179
        98 -10.1776     90.4456     85.8011   4.0825189697e+01   4.8463334544e+01     0.400509    0.3041822 -80.45  0.001767058    1.679    0.404
        99 -10.1637     37.7282     85.3046   6.2978255534e+01   5.7232891064e+01    0.3329162    0.2021941   3.95  0.001425088    2.087    0.521
       100 -10.0423    143.2433     84.2048   2.4822620390e+01   3.6558786601e+01    0.2175209    0.2099076  -9.39 0.0005621992    1.117    0.105
       101 -10.7987    112.4902     82.8008   3.2595471727e+01   4.4224832964e+01    0.5859828    0.3057181  65.88  0.001857172    3.146    0.682
       102 -10.4601     60.5820     83.1886   5.1980038491e+01   5.4674267190e+01    0.3084574    0.2378109  38.86 0.0004632713    1.289    0.224
       103  -8.8633    151.3995     83.4610   2.2765581545e+01   3.4726556809e+01    0.1501147    0.1465206 -58.35   0.00021084    1.027    0.026
       104  -9.3567    120.7340     81.3576   2.9736891712e+01   4.2571880049e+01    0.2392861      0.13711 -63.85 0.0004061035    2.615    0.618
       105  -9.4372    118.9729     78.2347   2.9247210981e+01   4.3634762046e+01    0.2125854    0.2034727  74.75  0.001092831    1.024    0.024
       106  -9.5472    103.3697     79.7383   3.4484374344e+01   4.6997378206e+01     0.213593    0.1525712 -36.77 0.0004670955    1.520    0.342
       107 -10.9287     89.2539     77.5483   3.8649081845e+01   5.0617249918e+01    0.5319419    0.3173205  50.18  0.002169819    1.699    0.412
       108 -10.3935     94.1892     76.1581   3.6419519740e+01   4.9852483701e+01    0.7058979     0.405195 -57.60  0.002734413    2.062    0.515
       109 -10.9974     53.5352     76.4145   5.3250583480e+01   5.7481915366e+01    0.4604778    0.3445714 -67.84  0.002225162    1.411    0.291
       110 -10.5827     58.2046     77.4620   5.1398727595e+01   5.6496436265e+01    0.2742469    0.2111585 -57.25 0.0005423856    1.297    0.229
       111 -12.5712    247.2055     74.3458   6.3172754350e+00   1.5760140542e+01    0.5552661    0.2602445 -36.66  0.002925951    1.664    0.399
       112  -9.4223     38.3529     77.6956   6.0936655154e+01   5.9166186936e+01    0.1549079    0.1065869  59.76 0.0007040804    1.709    0.415
       113  -9.9578     46.4390     75.5222   5.6394250390e+01   5.8718739007e+01    0.3416248    0.2119953 -38.49  0.001500144    1.759    0.431
       114 -10.9271     14.0454     74.2551   7.2728887111e+01   6.2189632211e+01    0.3576081    0.2688873  86.51  0.001934836    1.357    0.263
       115  -9.4819    126.3037     76.8678   2.6798379942e+01   4.2121751131e+01    0.2541738    0.1902966  -0.69  0.001072245    1.967    0.492
       116 -11.2212     27.2801     73.3308   6.5586126189e+01   6.1445108645e+01    0.4345575    0.3131847 -19.06  0.001166625    1.557    0.358
       117 -10.8125      1.9617     71.5007   7.8730323908e+01   6.3467242016e+01    0.4683131    0.1912752 -70.93  0.002017153    2.059    0.514
       118  -9.7826    103.6396     74.2861   3.2603844419e+01   4.8103933064e+01    0.3064517    0.1926994  58.05  0.001250845    1.703    0.413
       119  -9.1241     66.3054     74.2933   4.6803549606e+01   5.5907235743e+01    0.1538851    0.1205785 -13.46 0.0003241479    1.579    0.367
       120 -10.5688     80.8395     71.9318   3.9966573221e+01   5.3660507434e+01     0.429097    0.2779784 -53.88  0.001632448    1.634    0.388
       121 -10.7207     34.8585     71.3469   6.1142619501e+01   6.1205000601e+01    0.4750982    0.2201043  36.23  0.001660681    2.165    0.538
       122 -10.3377     40.8061     72.6735   5.8423572255e+01   6.0173237422e+01    0.4153112    0.2479962   7.94   0.00175919    2.111    0.526
       123 -11.6245     40.3595     68.9489   5.7627874573e+01   6.1176762025e+01    0.4293415     0.292547  27.83  0.001921487    1.491    0.329
       124 -10.7802    122.8213     68.4013   2.4966110628e+01   4.4621199158e+01    0.5178801    0.2583006  47.21  0.001956041    1.985    0.496
       125 -10.0677     13.6399     67.3826   7.1794802631e+01   6.4015965739e+01    0.4555255    0.1350508  12.24  0.001551888    3.749    0.733
       126  -9.5138     96.7234     65.3731   3.1803331506e+01   5.1574579391e+01    0.2401549    0.2181514 -88.33  0.001211732    1.190    0.160
       127 -11.1966     92.5017     62.4368   3.2197598604e+01   5.3154851213e+01      0.43328      0.29423  57.71 0.0009550271    1.541    0.351
       128 -13.0633      6.7842     61.5666   7.4726914406e+01   6.5868160073e+01    0.7702234    0.4803517 -43.69  0.004011837    1.497    0.332
       129 -10.1947    158.7421     62.8091   1.5172258182e+01   3.6496859306e+01     0.255163    0.1872959  52.95 0.0005545789    1.392    0.282
       130 -10.3031    105.0750     63.0605   2.8237242290e+01   5.0043716224e+01    0.2506928    0.1928599 -80.98  0.000681659    1.651    0.394
       131 -10.3517     58.7324     61.9575   4.6106066202e+01   6.0155230106e+01    0.3809274    0.2963637  16.81  0.001868183    1.408    0.290
       132 -10.9508     50.6852     56.4503   4.8141437415e+01   6.2760954392e+01    0.9883186    0.4064308 -55.27  0.003645425    2.511    0.602
       133 -10.9712     40.2893     56.5734   5.3829497121e+01   6.4240680780e+01      0.40985    0.2291768  33.53  0.001107658    1.785    0.440
       134 -11.4919     43.3939     60.7585   5.3522116464e+01   6.2814139484e+01     0.453468    0.2525855 -57.34 0.0009323228    1.764    0.433
       135 -11.0730     46.3261     59.2881   5.1456989777e+01   6.2755006741e+01    0.4040764    0.2632933  48.41  0.001700162    1.730    0.422
       136 -10.1055    113.8727     60.6751   2.4756422819e+01   4.8317377953e+01    0.3025326    0.2321818 -46.57   0.00128338    1.350    0.259
       137  -9.1114    150.7432     60.6603   1.6028868656e+01   3.8872194369e+01    0.1460705    0.1198612  14.48 0.0006956376    1.580    0.367
       138 -10.6450     31.9956     52.7484   5.7375644342e+01   6.6174145122e+01    0.5429929    0.2385337  18.67   0.00211778    2.576    0.612
       139 -11.5394     25.7672     56.7869   6.2355575063e+01   6.5819489964e+01    0.5891728    0.5253258  28.39  0.002106484    1.185    0.156
       140 -10.5648    118.5257     56.1671   2.1860508762e+01   4.7947024420e+01    0.6474414    0.3777722 -83.50   0.00205175    3.597    0.722
       141 -10.3684    122.7614     44.5932   1.6558114566e+01   4.8755796118e+01    0.3668988     0.267729  79.43 0.0009012932    1.458    0.314
       142 -12.0612    116.8979     46.1608   1.8584412789e+01   5.0053203788e+01    0.9159161    0.6291037 -12.60  0.003965002    1.987    0.497
       143 -11.2715    120.1957     40.5944   1.5658210037e+01   5.0046563715e+01    0.4228368    0.2549901  47.02  0.000576282    1.683    0.406
       144 -11.5577    119.3033     36.9729   1.4474548443e+01   5.0816748803e+01    0.3770826    0.3313572 -65.57 0.0008008077    1.169    0.145
       145 -11.8043     75.8979     53.6018   3.5145728994e+01   5.8656086965e+01    0.7849323    0.4183984 -36.68  0.003123499    2.085    0.520
       146 -11.7474     72.9268     47.1930   3.3717826956e+01   6.0570027544e+01     1.084833    0.5049603 -58.52  0.002725223    3.880    0.742
       147 -10.4473    106.7976     58.1648   2.5916380640e+01   5.0553756402e+01    0.2366951    0.2093724  86.74 0.0004856395    1.204    0.170
       148 -11.3085     88.4536     54.3210   3.0537566597e+01   5.5708819529e+01    0.7677626    0.2735611 -33.60   0.00221971    3.943    0.746
       149 -11.0160    155.0491     48.4420   1.1385926950e+01   3.9661551954e+01    0.2604268    0.2110072 -35.14 0.0001784025    1.274    0.215
       150 -10.5624    124.5889     56.2826   2.0345117001e+01   4.6362799681e+01    0.4705716    0.2664747 -13.19  0.001565006    3.361    0.703
       151 -10.9264    244.1211     51.1867   1.5910651243e+00   1.9234052614e+01    0.1708868    0.1144017 -56.69 0.0005506548    1.349    0.259
       152  -9.8856     52.1268     48.1019   4.4100964941e+01   6.4397542870e+01    0.2275885    0.1908748 -10.86 0.0005581492    1.275    0.216
       153 -10.7148     60.5715     51.8099   4.1328917296e+01   6.2097581943e+01     0.569185    0.3030106 -60.87   0.00216572    2.567    0.610
       154 -10.7864     61.1831     46.3941   3.8746765909e+01   6.3119457730e+01    0.4979572    0.3520901  -8.37  0.002232359    1.943    0.485
       155  -9.7212     92.0137     57.4849   3.0498203859e+01   5.4260274945e+01    0.2822479    0.2156384 -89.70 0.0009308821    1.751    0.429
       156 -10.7070    156.7495     54.5084   1.2991647799e+01   3.8310910688e+01    0.5832746    0.3086756 -57.34  0.002285257    2.253    0.556
       157 -10.2570    144.9734     50.1299   1.3763950915e+01   4.2034037536e+01     0.238401    0.2162907 -33.24 0.0003534805    1.184    0.155
       158  -9.4885     55.4833     50.1039   4.3174330060e+01   6.3384213104e+01    0.2177994    0.1836459  30.17 0.0003244926    1.161    0.139
       159 -10.1146     50.4963    249.5088   7.6314742957e+01   1.6914619944e+01    0.1186304   0.08585384  41.36 0.0002628726    1.008    0.008
       160 -10.2223     83.1945     46.8482   2.9421386070e+01   5.8345653988e+01    0.5354757    0.3075227 -10.70  0.001652548    4.138    0.758
       161 -10.3872     46.8841     48.8756   4.7275000105e+01   6.5079460733e+01    0.3536084    0.2123524  14.72  0.001210868    2.127    0.530
       162 -10.7673     20.6502     45.8456   6.2370287290e+01   6.8957272618e+01    0.3330072    0.3086469 -18.01   0.00130995    1.055    0.052
       163 -10.3673     13.1003     46.4013   6.7627029310e+01   6.9372471916e+01    0.3551245    0.1778241 -34.59  0.001339693    2.011    0.503
       164 -12.3205     40.3389     44.1303   4.9126893543e+01   6.7113853265e+01      1.23017    0.3889276  32.20  0.004242043    3.101    0.678
       165 -10.6697     26.3808     42.6596   5.7445450016e+01   6.9174921000e+01    0.3336847    0.2740052  74.28   0.00114789    1.557    0.358
       166 -10.3604     23.5729     37.1832   5.7319161320e+01   7.0723951965e+01    0.4422574    0.2421699  37.65  0.002083968    1.983    0.496
       167 -10.6910    234.5033     44.9888   9.9715678237e-01   2.1817058131e+01    0.2283568    0.1497598 -72.33 0.0008891303    1.598    0.374
       168 -10.1335    156.0085     42.1945   9.2414037885e+00   4.0307424131e+01    0.2619153    0.2223839 -21.40 0.0009924766    1.343    0.255
       169 -10.3092    145.0641     42.7164   1.1278152448e+01   4.3110249465e+01    0.2157399    0.1835165  73.05 0.0004955417    1.114    0.102
       170  -9.6767     99.3271     41.6208   2.1683098679e+01   5.5330249165e+01    0.2434455    0.1817749 -79.45   0.00110298    1.714    0.417
       171 -10.0058     56.8445     41.7850   3.8862373574e+01   6.4876334356e+01    0.2905183    0.1901577  42.62 0.0009315946    1.501    0.334
       172 -11.4273     78.8441     35.4095   2.5960508829e+01   6.1368904575e+01    0.7867305    0.4935734 -33.12  0.003575391    1.719    0.418
       173  -9.4541     18.4507     40.4661   6.2154238833e+01   7.0424317132e+01    0.1351878    0.1200443 -34.15 0.0008075877    1.013    0.013
       174 -11.0942      3.8654     36.4032   7.1743222640e+01   7.2263212494e+01    0.4914951    0.3141861 -62.69  0.001506298    1.378    0.274
       175 -11.7762    126.1487    240.4521   5.9150961409e+01   9.2244447724e+00    0.2963089    0.2157301  27.95  0.001943815    1.041    0.039
       176  -9.7001     67.4367     32.0459   2.9050646609e+01   6.4522205897e+01    0.3635478     0.219314  28.62    0.0015509    1.998    0.500
       177  -9.0555    206.4766     37.4043   1.6380480959e+00   2.8618934360e+01    0.1327142    0.1102632 -60.56 9.834984e-05    1.036    0.035
       178 -10.8172     61.2831     36.0823   3.3931517173e+01   6.5108534630e+01    0.4976843    0.3032148 -23.99  0.001899477    2.091    0.522
       179 -10.5598    153.3568     35.6684   7.5555280409e+00   4.1887377377e+01    0.2637748    0.2346745  70.63 0.0007114535    1.112    0.101
       180 -10.5493    177.8143     28.6941   2.2022233715e+00   3.6470970281e+01    0.3179719    0.2401838  43.34  0.001379807    1.625    0.385
       181 -10.5943    175.3249     34.1022   4.0648941744e+00   3.6430039547e+01    0.3434691    0.2046242 -61.97 0.0007750144    1.714    0.417
       182 -10.4036    173.0017     30.8203   3.3773129202e+00   3.7422059669e+01    0.3607628    0.2240818  66.89  0.001776057    1.567    0.362
       183 -11.0486     74.0548    238.2643   7.0420138867e+01   1.6189935295e+01    0.5634142    0.1801498  40.07  0.002561163    2.194    0.544
       184 -11.2164    146.9319    238.0085   5.4495218866e+01   6.8844681133e+00    0.3431928    0.2747473  74.68  0.002181576    2.172    0.540
       185 -10.9317    103.0235     32.7153   1.6837263009e+01   5.5743766575e+01      0.26039     0.224065 -40.03 0.0002149095    1.241    0.194
       186 -11.3311    107.0836     31.7786   1.5359889083e+01   5.4807894636e+01    0.5242438    0.3372914  20.85  0.001638187    2.300    0.565
       187 -10.9354     67.7685    240.5564   7.1992659366e+01   1.6531288703e+01    0.2668228    0.1850664   7.05  0.001114401    1.816    0.449
       188 -10.7157    226.8193     37.3181   3.5985697923e+02   2.4276865079e+01    0.2323931    0.1091737  85.74   0.00108475    2.618    0.618
       189 -10.6797    240.7499     31.7764   3.5759136393e+02   2.2159215073e+01    0.2067969    0.1828881  -0.44  0.001444365    1.518    0.341
       190 -10.0271    217.0041     31.9743   3.5937399668e+02   2.6965232931e+01    0.1929434    0.1551954 -55.63            0    1.024    0.024
       191 -10.3704     45.6157     24.6157   3.6357779147e+01   7.0187060101e+01    0.3177088     0.191937 -30.29  0.001113286    1.800    0.445
       192  -9.4007     15.5046    233.5168   8.3221745264e+01   2.3332269100e+01    0.1675556   0.09597261 -68.80  0.001019576    2.143    0.533
       193 -11.8062     26.5259     27.6644   5.0970092174e+01   7.2486511249e+01    0.5004687    0.3559586 -65.31  0.002037523    1.712    0.416
       194  -9.3235    246.4870    230.4967   3.5407004386e+01  -3.9411789091e+00    0.1055939   0.07266583  -0.24 0.0008105155    1.012    0.012
       195  -9.1381     22.2956     31.2930   5.5838546158e+01   7.2174645326e+01    0.1389116   0.09129549 -25.72 0.0002701965    1.559    0.359
       196 -11.5859    159.8598     29.3700   4.5928065502e+00   4.0980176401e+01    0.5870416    0.2426526  70.40  0.001944443    2.313    0.568
       197 -11.9016    164.2990     27.4606   3.4197399600e+00   4.0056376903e+01    0.4586132    0.3090116 -61.87 0.0005925451    1.444    0.307
       198 -12.1352    127.0968     28.1502   9.4356923601e+00   4.9908424665e+01    0.9525594    0.4187598  76.64  0.003363136    2.660    0.624
       199 -11.6581     49.2931     29.9412   3.7125310475e+01   6.8555975996e+01    0.7110204    0.3808672  33.90  0.002911435    1.874    0.466
       200 -10.5490    230.5921     27.0162   3.5720536939e+02   2.4700873347e+01    0.2134055    0.1715176  75.52  0.001147342    1.399    0.285
       201 -11.0996    183.0200     25.3676   7.0229336498e-01   3.5573582050e+01    0.3192345    0.2149521 -54.62  0.001680411    1.339    0.253
       202 -10.3821    151.0149     26.9763   5.0407830233e+00   4.3604793512e+01    0.3669231    0.2405627  36.81  0.001586069    1.967    0.492
       203 -11.5182    144.3033     25.5428   5.5443308369e+00   4.5572495717e+01    0.6322624    0.2782648  83.65  0.002240123    2.807    0.644
       204 -10.5066    146.6677     22.6764   4.2109418392e+00   4.5273326080e+01    0.2257837    0.1617123  36.90 0.0009355602    1.720    0.419
       205 -10.6977    154.9271     24.0520   3.5384143018e+00   4.2912840666e+01    0.4358521    0.2167287 -86.13  0.001695674    2.454    0.593
       206 -10.2860    155.4811     20.5143   2.3134695508e+00   4.3169342439e+01    0.2993767    0.1858547  58.09   0.00102836    1.603    0.376
       207  -9.3438    250.6680     26.7227   3.5589109059e+02   2.0857205583e+01   0.09812436   0.08808415  21.58  0.000253564    1.602    0.376
       208 -10.6902    189.1011     27.1280   5.9179791884e-01   3.3890368913e+01    0.3834426    0.2571602  41.57   0.00165862    1.977    0.494
       209 -10.0404    169.4195     23.2598   1.5277700323e+00   3.9229276574e+01    0.3574096     0.161699  68.34  0.001524528    2.063    0.515
       210 -10.3087     10.0000    217.9095   8.3996564778e+01   2.6867418966e+01    0.1715308   0.06139157 -85.26  0.000798707    2.917    0.657
       211 -11.5823    134.1459     22.3226   6.0006636323e+00   4.8698730639e+01    0.4760725     0.367422  82.36  0.002279643    1.203    0.168
       212  -9.1211    164.4966    211.4662   4.7224635886e+01   8.5041428043e+00    0.1274989    0.1029951  17.71 0.0005053073    1.031    0.030
       213  -9.1756    171.5041    208.5033   4.5331515476e+01   7.9674215672e+00    0.1287845    0.1015462  11.19 0.0008101604    1.050    0.048
       214 -10.3389      4.9776     22.0748   6.6543813943e+01   7.5555308071e+01    0.4193797    0.2094157  25.88  0.002089852    2.103    0.524
       215 -10.4547      8.6149     19.7469   6.2266464702e+01   7.5861661940e+01    0.2627302    0.1806557 -51.88 0.0008905558    1.315    0.240
       216  -9.3982     79.2407    204.4605   6.6193938352e+01   2.2005588231e+01    0.2729694    0.1502153  72.22  0.001211521    2.592    0.614
       217 -11.5668      5.3899    200.8371   8.4605279354e+01   3.0807897510e+01    0.6336574    0.1213398 -71.46  0.002245518    4.956    0.798
       218 -11.1969    245.0679     21.0397   3.5499877768e+02   2.2518003180e+01    0.3545744    0.1897309  42.51  0.001769454    3.344    0.701
       219 -10.9363    222.9995     21.0393   3.5632818702e+02   2.6929784371e+01    0.3178727    0.1700615 -53.39  0.001324416    1.556    0.357
       220 -11.0631    178.9461     20.6088   3.5974942371e+02   3.7121430580e+01    0.5702914    0.2351114  50.99  0.002247827    2.932    0.659
       221 -12.6589      4.9709    183.3390   8.4190985845e+01   3.4720006349e+01    0.6276994    0.4515087  71.74  0.003919395    1.196    0.164
       222  -8.6834    139.6801    182.6938   4.8170084284e+01   1.7261568187e+01    0.1413723    0.1022382  -0.19 0.0007030992    1.635    0.389
       223  -9.8501    216.6812     19.9952   3.5650340355e+02   2.8390825965e+01    0.1790221    0.1356607 -47.28  0.000370723    1.113    0.101
       224  -9.6280     28.1559    175.8065   7.7487471184e+01   3.4477684608e+01    0.1700556    0.1556612 -53.42 0.0006820397    1.327    0.246
       225  -9.9599     46.1965     19.7410   3.3148038147e+01   7.0912590268e+01    0.2833917    0.2127099  63.23  0.001459277    1.781    0.438
       226 -10.7481     15.9119    173.6342   8.0821986871e+01   3.6106815188e+01    0.2592943    0.1710121  76.63  0.001212554    1.380    0.275
       227  -9.8380     74.8873     19.1610   1.9261682881e+01   6.4738126475e+01    0.2293841     0.157817  28.24 0.0006355181    1.624    0.384
       228  -9.5523    199.0208     17.6918   3.5720683142e+02   3.2603406268e+01    0.1845621    0.1519216 -77.23  0.001014898    1.094    0.086
       229  -9.5285     39.4926    173.4571   7.4068383660e+01   3.3879385930e+01    0.1396129    0.1159619  54.96 0.0002628019    1.028    0.027
       230 -12.1902      9.1722    166.8667   8.2424565908e+01   3.8273696234e+01    0.4694127    0.2874195  33.44  0.002183537    1.479    0.324
       231 -12.6858     12.6531    160.5267   8.1107924109e+01   3.9555338250e+01    0.6298236    0.4113421 -45.66  0.003336267    1.907    0.476
       232 -10.0012    211.1014     15.9769   3.5590261488e+02   3.0044518194e+01    0.1864814    0.1517439 -57.70 -0.001320134    1.022    0.022
       233 -12.4301     22.3376    149.2406   7.7405430574e+01   4.1603446012e+01    0.6799308    0.3344716 -42.34  0.001598141    2.734    0.634
       234 -10.9948    186.8538     14.8855   3.5742466839e+02   3.5794605684e+01     0.190492    0.1793908  71.38  0.001020735    1.243    0.195
       235 -11.3102     16.6207    148.4556   7.9186122973e+01   4.2278684388e+01    0.4579857    0.2064548 -84.07  0.001842446    2.125    0.529
       236 -10.7760      1.8741    166.3528   8.4486731903e+01   3.8925311540e+01    0.3136782    0.1471523  76.28 0.0009790997    1.928    0.481
       237 -10.6538     18.1195    165.0049   7.9728773158e+01   3.8007362782e+01    0.2656459    0.1829627 -75.97  0.001476008    1.456    0.313
       238  -9.9522    205.0811    162.9581   3.0854811270e+01   9.9794458951e+00    0.1984335    0.1657716  -9.08  0.000723285    1.028    0.027
       239 -10.9192     28.2796    160.9419   7.6416435290e+01   3.8098120129e+01    0.2835089    0.2094786  72.42  0.001139707    1.243    0.195
       240  -9.1924    214.7409    161.3636   2.8868667597e+01   8.7309966444e+00    0.1148593   0.09518116 -51.13 0.0006974735    1.633    0.388
       241 -10.5315      9.2949    155.3292   8.1861995340e+01   4.1098928626e+01    0.2418537    0.1436297 -72.80  0.001254625    1.651    0.394
       242  -9.6174    104.5091    154.5087   5.2416760596e+01   2.9215224385e+01    0.2595043    0.1516478 -71.77  0.001036392    2.348    0.574
       243 -11.0319      4.6754    153.1703   8.3172549440e+01   4.1959862041e+01    0.2269249     0.151415  41.77 0.0006977347    1.343    0.256
       244  -9.3114     55.4626    152.4883   6.7062551877e+01   3.7213657141e+01    0.1460321    0.1319477  58.02 5.504749e-05    1.005    0.005
       245 -11.2481     47.5235    147.0240   6.8968350287e+01   3.9596293117e+01    0.6674276    0.4421283 -33.76  0.003088089    1.996    0.499
       246 -12.2460      4.3136    142.5439   8.2817783788e+01   4.4662503527e+01    0.8579013    0.3480557  53.09  0.003517809    2.191    0.544
       247  -9.7785    104.0674    147.1488   5.1184045472e+01   3.1012609955e+01    0.2167408    0.1975443  11.15  0.001143137    1.168    0.144
       248 -10.6892     33.0820    144.1440   7.3446859160e+01   4.1923162570e+01    0.3105485    0.2395007  77.96 0.0008937967    1.226    0.184
       249  -8.7018    231.9880    143.0000   2.2533026071e+01   8.7762121471e+00    0.1773923   0.06891138  44.48 0.0005378416    2.917    0.657
       250 -10.5117     40.4462    137.5767   7.0234889111e+01   4.2878148165e+01    0.2816982    0.2319727  89.16 0.0002890154    1.170    0.146
       251 -11.0199     15.0730    140.8423   7.9190109328e+01   4.4359196209e+01    0.2892161    0.2290694  14.43  0.001085688    1.416    0.294
       252 -11.9295     12.4389    135.6050   7.9730111454e+01   4.5914046341e+01    0.6432604    0.3358961 -63.73  0.003036001    1.866    0.464
       253 -10.5910     80.1609    138.2180   5.6893727061e+01   3.7283073002e+01    0.2904222    0.2207069  40.62 0.0006010158    1.230    0.187
       254 -11.4985     23.9527    136.8919   7.5872951521e+01   4.4674688326e+01    0.5662152    0.3935391 -29.42  0.002850723    1.836    0.455
       255 -11.3198     30.2409    132.5023   7.3248668968e+01   4.5267967975e+01    0.4290738    0.2519386 -44.76  0.001749308    1.980    0.495
       256  -9.4525    103.7436    130.5147   4.7904397569e+01   3.5035364734e+01    0.2050104    0.1496598  24.45 0.0003310735    1.493    0.330
       257 -10.9922     10.4852    126.1839   7.9778710160e+01   4.8520492522e+01    0.3440861    0.2398427 -58.45  0.001143117    1.464    0.317
       258 -10.9430     20.6412    133.8970   7.6765984939e+01   4.5741627044e+01    0.2759118    0.2709105 -73.33  0.001245216    1.146    0.127
       259 -10.2788     22.9816    126.5081   7.5263375940e+01   4.7512501017e+01    0.1936916    0.1377606  21.03 0.0003723827    1.491    0.329
       260 -10.7564    104.6649    122.2886   4.5777138680e+01   3.6833633443e+01    0.3471129    0.3269772  55.99  0.001317444    1.037    0.035
       261  -9.2450     85.1090    122.8299   5.2229985250e+01   4.0352810557e+01    0.2004293      0.18198  -3.65 0.0003390351    1.252    0.202
