#   1 NUMBER                 Running object number                                     
#   2 MAG_AUTO               Kron-like elliptical aperture magnitude                    [mag]
#   3 X_IMAGE                Object position along x                                    [pixel]
#   4 Y_IMAGE                Object position along y                                    [pixel]
#   5 X_WORLD                Barycenter position along world x axis                     [deg]
#   6 Y_WORLD                Barycenter position along world y axis                     [deg]
#   7 A_WORLD                Profile RMS along major axis (world units)                 [deg]
#   8 B_WORLD                Profile RMS along minor axis (world units)                 [deg]
#   9 THETA_WORLD            Position angle (CCW/world-x)                               [deg]
#  10 FWHM_WORLD             FWHM assuming a gaussian core                              [deg]
#  11 ELONGATION             A_IMAGE/B_IMAGE                                           
#  12 ELLIPTICITY            1 - B_IMAGE/A_IMAGE                                       
         1  -9.0038    184.2043     35.8877   6.2815270650e+01   3.4583322988e+01    0.4459805    0.2752028 -77.91  0.001841262    2.259    0.557
         2  -9.5477    211.3785     30.6678   5.7487431905e+01   2.8263467384e+01     0.699334    0.3186923 -65.74  0.002302066    3.790    0.736
         3 -11.4424     80.2897     23.4554   8.2744561974e+01   6.0707156145e+01    0.5891792    0.2665653  34.57 0.0009539614    2.414    0.586
         4 -10.1241     77.7564     13.2811   7.9066154408e+01   6.2538874290e+01    0.7140289     0.261648  43.82  0.002958894    2.580    0.612
         5  -9.6697     64.4979     13.7011   8.4041361905e+01   6.4815431925e+01    0.5141752    0.3126125   2.53  0.002169717    1.991    0.498
         6  -9.6482    133.8473     13.6704   6.4348087796e+01   5.0126103585e+01    0.2899041    0.2236385  28.21 0.0003818073    1.303    0.233
         7  -8.3925     87.8826     13.2161   7.5752041539e+01   6.0589041009e+01    0.2544295    0.1549459   8.93  0.001217646    1.971    0.493
         8 -10.5125    235.5084     12.2700   5.0154193739e+01   2.4452013608e+01    0.3068926    0.2684084 -71.14  0.001636829    1.026    0.026
         9  -8.5275     96.8926     12.1024   7.2592095400e+01   5.8857005172e+01    0.3162775    0.1848054  22.21  0.001066051    1.952    0.488
        10  -9.4966     31.3960     11.1535   9.7226566745e+01   6.9754028723e+01    0.4306518    0.2440172   0.66 0.0003803835    2.226    0.551
        11  -9.2229     32.0610      6.0188   9.4403007670e+01   7.0459225927e+01    0.2572734    0.1693568  -6.20 0.0003465436    1.467    0.318
        12  -8.3444    130.1153      6.2087   6.2270892122e+01   5.1786401344e+01    0.3155522     0.168734  34.84  0.001398771    1.973    0.493
        13  -8.9873    130.0433     10.0404   6.3749638315e+01   5.1434409269e+01    0.2602747    0.2215704  25.86 0.0007197833    1.140    0.123
        14  -8.2124    125.7409     10.3258   6.4755910491e+01   5.2454850303e+01    0.2848419    0.1814433  66.60 0.0007558865    1.611    0.379
        15  -8.9334    215.8087      9.5915   5.1316823857e+01   2.9510721742e+01    0.1947903     0.119292 -89.17 0.0008989408    1.698    0.411
        16  -8.8847     71.5330      8.9842   7.9205272923e+01   6.4206179536e+01    0.1933033    0.1539048  26.06    0.0004412    1.152    0.132
        17 -11.0913    244.5938      3.3789   4.7282677328e+01   2.3261440296e+01     0.698917    0.6367603  89.51  0.004329491    1.126    0.112
        18 -11.4980    237.4702      2.5049   4.7623154564e+01   2.4996731359e+01    0.9230656     0.470231  65.11   0.00434303    1.901    0.474
        19  -9.3953     76.3905      6.0156   7.6108592527e+01   6.3658196023e+01    0.4139229    0.2396338 -24.24  0.001404051    1.670    0.401
        20  -9.3119     46.5516      6.4115   8.7834904361e+01   6.8547678702e+01    0.2570198    0.1855756   6.05  0.000233646    1.273    0.215
        21  -9.1490     40.9700      5.9959   9.0140654088e+01   6.9364297473e+01    0.3297501    0.2082147 -10.15  0.001150354    1.553    0.356
        22 -10.0813      7.8411      5.3241   1.0690030387e+02   7.2814668300e+01    0.4459901    0.2171403  -2.68  0.002438367    2.629    0.620
        23  -8.7278    119.2276      6.9546   6.4833076412e+01   5.4349501786e+01    0.2445659    0.1748613  46.24 0.0002266422    1.248    0.199
        24  -8.0452    100.2901      6.7465   6.9322293577e+01   5.8698546437e+01    0.2362057    0.1568117  57.54 0.0007909862    1.520    0.342
        25  -9.3153     92.7800      5.2709   7.0719339797e+01   6.0461524887e+01    0.4318749    0.1861491  49.68  0.001933556    2.062    0.515
        26  -9.7343     84.8494      5.5327   7.3172980413e+01   6.2064840766e+01    0.2592306    0.2201433   2.36 -5.101479e-06    1.081    0.075
        27  -8.8506    112.2075      4.3624   6.5355861957e+01   5.6243410074e+01    0.2186665    0.1693048  75.25 0.0009595326    1.505    0.335
        28  -7.7015    175.1099      4.0000   5.4311029450e+01   4.0476040345e+01    0.2348958    0.0732619  69.53 0.0004492527    2.928    0.659
        29  -8.5844    143.1244      2.2959   5.8447837688e+01   4.8885188946e+01    0.2161713    0.1812464  15.81 0.0003227159    1.261    0.207
        30  -8.9344    105.7464      2.0377   6.5898203985e+01   5.7938112311e+01    0.2539529    0.2209874  82.31  0.001249547    1.408    0.290
        31  -8.5517     57.5970      3.0798   8.1498647009e+01   6.7297758096e+01    0.2334336    0.1690893  30.65 0.0009931452    1.308    0.235
        32  -7.7796    156.3048      7.2878   5.8053131193e+01   4.5057420655e+01    0.1460165   0.09587636  38.31 0.0001761936    1.567    0.362
        33  -7.6780      3.1877      1.1734   1.0769056361e+02   7.3814778205e+01    0.1985821   0.07567386  10.33 0.0009797126    3.437    0.709
        34  -7.5910     86.9972    105.9960   1.0717041350e+02   4.3544999934e+01    0.2189142    0.1638767  77.18 0.0006570127    1.679    0.404
        35 -10.9125    195.0064    248.9466   1.0803250109e+02  -1.0093997009e+00    0.5579205    0.2057087  35.17  0.002734643    2.260    0.557
        36  -8.6269    140.7785     99.3765   9.0929411791e+01   3.4652297020e+01    0.2247417    0.1398927  36.84 0.0009479293    1.727    0.421
        37  -8.1739    130.2222     96.7573   9.2901493105e+01   3.7470314236e+01    0.3095247    0.1807201  25.73  0.001163494    2.514    0.602
        38  -9.8729     14.6675     96.0835   1.2692359735e+02   5.3883520014e+01     0.411847    0.1825173 -51.99  0.001745042    1.976    0.494
        39  -8.8900     12.0241     94.0538   1.2743773247e+02   5.4508994610e+01    0.3355263    0.1385044 -52.75  0.001307738    2.058    0.514
        40  -7.8429    151.0301     95.4546   8.7363518198e+01   3.3120976458e+01    0.2215651    0.1284911  27.60 0.0007237021    2.460    0.594
        41  -8.7868     14.7412    105.1343   1.2809315057e+02   5.1855717302e+01    0.3635038    0.1403579 -39.20  0.001513686    3.866    0.741
        42  -7.2408     89.3083     94.6692   1.0378216665e+02   4.5692636103e+01    0.1425645    0.1106324  86.79 0.0007040399    1.665    0.399
        43  -9.1289     30.4417     92.7018   1.2157350519e+02   5.3448019880e+01    0.3958618    0.1866209 -80.28  0.001783577    2.508    0.601
        44  -9.3028      1.8876     93.0577   1.3033599371e+02   5.5320488940e+01    0.2918406    0.1343038 -82.13  0.001104743    1.925    0.480
        45  -8.6560    172.8224     92.5540   8.1645268775e+01   2.8540870992e+01    0.2582607    0.2120924 -31.29 0.0003737262    1.232    0.188
        46  -7.6679     83.3197     93.3345   1.0524236723e+02   4.6950217600e+01    0.1438804    0.1059905 -22.16 0.0004259262    1.701    0.412
        47  -8.7666     54.4480     93.4804   1.1419604528e+02   5.0861398214e+01    0.2535648    0.1291834  32.28  0.001219219    2.207    0.547
        48  -8.7988     43.7040     92.2178   1.1731776137e+02   5.2319775924e+01     0.253896    0.1699822 -36.72  0.001417635    1.639    0.390
        49  -8.5500    110.6345     90.5695   9.6507106369e+01   4.2746501149e+01    0.2812247    0.1437447  38.19  0.001132392    2.099    0.524
        50  -8.3147     96.8137     90.0194   1.0034725342e+02   4.5425118994e+01     0.322242     0.199093  20.35  0.001359353    2.337    0.572
        51  -8.8191     65.4853     84.8761   1.0871397792e+02   5.1411938146e+01    0.4271685    0.2253134 -28.45  0.001027641    3.033    0.670
        52  -8.0892    153.3450     86.1655   8.4195638617e+01   3.4354298806e+01    0.3443963    0.1936249  73.35  0.001105037    3.468    0.712
        53  -8.7382    228.2676     84.3518   6.9343422455e+01   1.6712909873e+01    0.2477408    0.2127442 -31.12 0.0006123661    1.103    0.093
        54 -10.5464     37.5771     81.0186   1.1703451183e+02   5.5432546112e+01    0.6180444    0.3444733 -15.06  0.002823458    3.058    0.673
        55  -8.4525     43.6727     81.3097   1.1505599076e+02   5.4770620146e+01    0.1322571    0.1117356 -53.58 0.0003047507    1.026    0.026
        56  -8.0592    126.9379     83.5468   9.0027504350e+01   4.0839767124e+01    0.2204056    0.1281204  25.06 0.0008085769    2.582    0.613
        57  -8.0119     96.4993     78.9014   9.7325311942e+01   4.7834449272e+01    0.3868976    0.2017028  60.20  0.001374761    3.349    0.701
        58  -8.7398     88.4842     78.4519   9.9661887760e+01   4.9327670684e+01    0.3448342    0.2481642  12.60   0.00156828    1.805    0.446
        59  -9.6237      7.9476     77.7009   1.2633640360e+02   5.8368454440e+01    0.3733688    0.1605397 -38.06  0.001278327    2.622    0.619
        60  -8.3984    184.1291     78.0401   7.5273754144e+01   2.8312764740e+01    0.2323637    0.2269703  22.11 0.0006605239    1.019    0.018
        61  -9.5446     50.1795     76.8541   1.1182395454e+02   5.5058514399e+01    0.4864532    0.2516711  15.27  0.002181733    2.870    0.652
        62  -8.1296     16.3246     78.6598   1.2370781182e+02   5.7647501071e+01    0.1182594   0.08152528  75.77 0.0005615984    1.727    0.421
        63  -8.4831    168.4484     74.9572   7.7555798399e+01   3.2716594263e+01    0.2830871    0.2013285  33.07  0.001272033    1.561    0.359
        64  -8.3712    109.0118     75.5042   9.2593583596e+01   4.6156453749e+01     0.228487    0.1452708  45.10   0.00104211    1.623    0.384
        65  -8.7503     23.5163     74.0058   1.2039659446e+02   5.8167610877e+01    0.3248136    0.1361674 -56.52   0.00107439    1.820    0.450
        66 -10.2172     25.9191     69.6446   1.1865119841e+02   5.8938646265e+01    0.6697906    0.3350828   1.93  0.003163762    3.216    0.689
        67  -8.2456     74.9809     74.1028   1.0274600948e+02   5.2402032993e+01    0.2028225    0.1885106 -22.49 0.0004030971    1.070    0.066
        68  -7.3769    163.3470     69.3055   7.6951889148e+01   3.4941739059e+01    0.1622587    0.1176837  21.81 0.0007042044    1.697    0.411
        69  -7.6506    129.5014     69.4182   8.5029940384e+01   4.2979335274e+01    0.1511624    0.1425003  13.15 0.0001382204    1.054    0.052
        70  -8.5038    106.1049     67.3242   9.0879636431e+01   4.8336910465e+01    0.3964464    0.1229767  40.23  0.001235173    3.602    0.722
        71  -8.6469     83.8133     64.3462   9.6882561953e+01   5.3005980234e+01    0.4012735    0.2518293  10.53  0.001723967    2.483    0.597
        72  -9.3009      9.6787     65.0778   1.2357400617e+02   6.1017423736e+01    0.4478263    0.2145327  54.78  0.002156095    3.323    0.699
        73  -9.4284     27.2315     60.1470   1.1599433941e+02   6.0880117922e+01    0.2061029    0.1627381  53.25 0.0009784665    1.627    0.385
        74  -9.2329     24.9393     62.9167   1.1751246166e+02   6.0469027881e+01    0.2533521    0.1567323  43.81  0.001455313    2.053    0.513
        75  -9.6474     19.4900     61.4819   1.1922363438e+02   6.1174693944e+01     0.308641    0.1761984 -11.30  0.001680592    2.396    0.583
        76  -9.6908     62.7727     61.1796   1.0310394569e+02   5.6837810570e+01    0.5976182    0.2666333  25.14  0.002305147    3.027    0.670
        77  -8.4701     45.1316     60.9171   1.0946484782e+02   5.9036789022e+01    0.1905729    0.1672281 -80.30  0.001055555    1.349    0.259
        78  -9.6733     37.7704     58.8609   1.1166288744e+02   6.0219656236e+01    0.4319148      0.18812 -30.86  0.001739075    3.305    0.697
        79  -8.0585     96.3974     59.6015   9.1285730949e+01   5.1685103734e+01     0.285237    0.1915551  -2.42  0.001255309    2.159    0.537
        80  -8.1220    111.2505     58.6675   8.6509312477e+01   4.8902865143e+01    0.3000776    0.1684683  26.93  0.001171424    2.447    0.591
        81  -8.8833    182.5863     57.7614   6.9668750200e+01   3.1936046446e+01    0.2201027     0.136104 -41.95 0.0009547563    1.639    0.390
        82 -10.2492     75.0980     50.1990   9.5092822988e+01   5.7167276179e+01    0.5011853    0.3987578 -11.61 0.0002853168    1.288    0.224
        83  -8.2504    147.0030     55.7596   7.6305280248e+01   4.1216687302e+01    0.2783207    0.1600256  11.26 0.0008889398    3.617    0.724
        84  -9.7276    128.3175     52.5293   7.9750783611e+01   4.6198700115e+01     0.267732    0.2656144 -73.65 0.0002063916    1.103    0.093
        85  -8.6281    118.4747     51.1180   8.1867426719e+01   4.8658654339e+01    0.2707914     0.205859  55.57 0.0006048877    1.403    0.287
        86  -9.2287     45.9544     48.6062   1.0544558293e+02   6.1459421684e+01      0.31508    0.2338259  10.75 0.0008125474    1.514    0.339
        87  -8.1560    106.8273     48.5933   8.4266600739e+01   5.1583116175e+01    0.2843844    0.1672974  30.47  0.001230211    1.976    0.494
        88  -8.8420      3.3311     46.0679   1.2213315091e+02   6.5358896468e+01    0.3906845    0.2140114  38.56  0.002339251    2.423    0.587
        89  -8.8438     10.4993     47.0744   1.1941872792e+02   6.4773229690e+01    0.2646018    0.1726765 -55.17 0.0007098917    1.176    0.150
        90  -9.2184     13.7025     45.6792   1.1774587717e+02   6.4867236014e+01    0.2136045    0.1472264 -62.10 0.0006175151    1.266    0.210
        91  -9.2843     56.5756     42.7690   9.9283333458e+01   6.1275695318e+01    0.6509567    0.3075059 -20.00  0.002063337    5.150    0.806
        92  -7.5256    142.3161     44.3410   7.3547105127e+01   4.4134974331e+01    0.1588375    0.1115509  21.32 0.0007048361    1.708    0.414
        93  -8.9144     92.3307     38.1470   8.4789656446e+01   5.6212382407e+01    0.7710367     0.242191 -35.09  0.002687324    3.142    0.682
        94 -10.8870     83.1917     40.0437   8.8534957913e+01   5.7600224508e+01    0.3917581    0.2614096 -17.20 0.0002201262    1.640    0.390
        95  -8.8983     87.8022     38.1302   8.6251288990e+01   5.7075134337e+01    0.3043629    0.2302447 -18.92  0.001296105    1.289    0.224
        96  -8.4930    113.3698     42.3652   8.0120200491e+01   5.1198370485e+01    0.3420808    0.1974643  15.50  0.001274235    2.905    0.656
        97  -8.5548     33.6264     42.7390   1.0855566341e+02   6.3898162297e+01    0.3954231    0.2474837  -7.55  0.002205495    1.983    0.496
        98  -9.5709     37.7485     36.0885   1.0456101026e+02   6.4767086530e+01    0.4959723    0.2686128  -8.96  0.002283181    2.893    0.654
        99  -8.8212      3.5768     40.3220   1.2068990864e+02   6.6521462641e+01    0.2143873   0.09343313 -67.64  0.001123207    2.056    0.514
       100  -9.2478    202.7294     38.2641   6.0749569275e+01   2.9505219312e+01    0.5414544    0.2805365 -67.52  0.001949163    3.052    0.672
       101  -7.8518    124.0092     39.9855   7.6411317004e+01   4.9161043024e+01    0.2348235    0.1657254  19.80 0.0005101811    1.645    0.392
       102  -9.8161     68.6526     37.3251   9.2639025749e+01   6.0501109283e+01    0.5685066    0.3172783  22.39  0.002645553    2.250    0.556
       103  -9.2628     73.6287     34.2439   8.9597113621e+01   6.0215662088e+01    0.2898305    0.2491692 -45.75  0.001223364    1.343    0.255
       104  -8.4273    223.9629     35.7263   5.7312939444e+01   2.4523878391e+01    0.3005004    0.1989011  -8.99  0.001305153    1.924    0.480
       105 -12.0107    237.7069    246.3732   1.0055250965e+02  -7.0497074009e+00    0.2251777    0.1732371  24.58 0.0004423782    1.146    0.127
       106  -9.2264     22.6011     33.6869   1.1037905744e+02   6.6621087294e+01    0.4461911    0.2471042 -71.01   0.00177459    2.766    0.638
       107  -8.9637     56.4447     34.9257   9.6391254589e+01   6.2715141918e+01    0.3356162    0.2189454 -17.44  0.001237485    1.654    0.395
       108  -8.4685     45.8835     35.6405   1.0096452061e+02   6.3940948343e+01    0.2574184    0.1486158  14.33  0.001323166    2.163    0.538
       109  -8.9573     13.7594     35.9191   1.1503947582e+02   6.6826351793e+01    0.2056118    0.1620477 -86.42  0.001060516    1.703    0.413
       110  -9.7174      6.8127     33.7425   1.1753856137e+02   6.7670543625e+01     0.423818    0.2722376   1.13  0.002810994    1.825    0.452
       111  -9.4307      2.0507     29.1767   1.1844705712e+02   6.8810850866e+01    0.4578001    0.1470029 -56.60  0.002309357    2.147    0.534
       112  -7.9412     18.7059     35.6975   1.1276670637e+02   6.6529306215e+01    0.1216655   0.06918082 -34.11 0.0001561672    1.575    0.365
       113  -9.0085    247.7069    102.3502   7.0816341515e+01   9.8002592045e+00    0.3667866    0.2353172 -87.60  0.001499448    3.184    0.686
       114  -9.5923     41.2490     26.0319   9.9190886809e+01   6.6193653437e+01    0.4339006    0.2442156 -61.40  0.001833799    3.171    0.685
       115  -9.4248     62.8870     26.9247   9.0592514718e+01   6.3121116924e+01    0.3513673    0.2104147  31.33  0.001196589    1.733    0.423
       116  -8.8172     25.7614     25.2235   1.0591861004e+02   6.7932293097e+01    0.3495249   0.08534197 -42.58  0.001370724    3.246    0.692
       117  -8.7097     28.9857     21.0372   1.0274147618e+02   6.8371535711e+01    0.2668444    0.1645354  -7.44 0.0008055381    1.832    0.454
       118  -8.5612    196.3722     32.8527   6.0095594330e+01   3.1817698741e+01    0.2838322    0.1856449 -79.27  0.001277415    1.878    0.467
       119  -7.8082    110.5265     25.9910   7.4615163331e+01   5.4189445950e+01    0.2007937     0.116844   3.29 0.0008092709    2.500    0.600
       120  -8.6411     68.1887    104.2042   1.1226664680e+02   4.6704928936e+01      0.28697     0.116428  26.15  0.001057921    3.540    0.718
       121  -8.8052    144.6954     23.3151   6.5686136220e+01   4.6338977521e+01    0.2504286    0.2166213  37.45 0.0003126664    1.109    0.098
       122  -7.6216    128.9729     22.5341   6.8725054727e+01   5.0325811896e+01    0.2139197   0.09662077  38.79 0.0006111987    2.411    0.585
       123  -8.7415     46.1077     20.9321   9.4900184863e+01   6.6449558865e+01    0.2830772    0.1635444 -41.53 0.0009977075    1.610    0.379
       124  -7.6202    179.3707     31.1333   6.2127228655e+01   3.6440522072e+01    0.2082952    0.1259546 -40.30 0.0008030641    1.687    0.407
       125  -8.6647     92.1062     21.0247   7.7864176402e+01   5.8759530586e+01    0.2923133    0.1561083  33.46  0.001144173    1.965    0.491
       126  -8.2631    106.0191     36.7800   8.0098146096e+01   5.3644824756e+01    0.2380535    0.1464106  25.66 0.0007326363    1.928    0.481
       127  -8.0716    140.4442     19.9783   6.5338671570e+01   4.7794443423e+01    0.2185267    0.1748076  54.60  0.000296842    1.163    0.140
       128  -8.3883      9.3229     19.8561   1.1192619865e+02   7.0169952090e+01    0.2007741    0.1399742 -11.39 0.0007075507    1.451    0.311
       129  -8.3282      5.1637     18.8459   1.1367582686e+02   7.0607228697e+01    0.1532097    0.1320302 -47.48 0.0003227049    1.232    0.188
       130  -8.3312    127.5316     16.9660   6.6930822030e+01   5.1317648776e+01    0.2124395    0.1732498  50.97 8.062433e-05    1.141    0.123
       131  -8.6015    189.6067     15.8449   5.6031353902e+01   3.5531030150e+01    0.2462963    0.1797923  58.74  0.001281899    1.298    0.229
       132  -9.7481     15.1275    246.8821   1.3804956879e+02   2.3755411568e+01    0.2019501    0.1710466 -49.69  0.001196191    2.149    0.535
       133  -8.8778      1.8059    237.8420   1.3972528239e+02   2.6479262928e+01    0.1501433    0.1008046  80.68 0.0007496616    1.181    0.153
       134  -9.8207    188.3420    234.3544   1.0720483424e+02   1.7871077263e+00    0.1976671    0.1848512 -84.47  0.001464077    1.533    0.348
       135  -7.9488    105.3155     14.3233   7.1237019762e+01   5.6777246402e+01    0.1467096   0.09398229  23.92 0.0003798162    1.664    0.399
       136 -10.5275     34.5646    214.1491   1.3323326886e+02   2.7325764244e+01    0.8864832    0.3112612  63.81  0.004328787    2.897    0.655
       137  -8.7875    192.6136    196.4086   1.0052354673e+02   6.2780847043e+00    0.2287128    0.1150518 -54.44 0.0009503915    3.403    0.706
       138  -8.9142    243.2530    169.0358   8.6206276926e+01   1.1047263550e+00    0.2120342    0.1731189  34.31 0.0002180667    1.243    0.195
       139  -8.3648    244.2220    164.4071   8.5108645001e+01   1.5604170902e+00    0.1612185    0.1205224  46.78 0.0001934636    1.505    0.336
       140  -7.8142    165.4289    161.1943   9.9512748235e+01   1.7268794612e+01    0.1830517     0.136967 -59.21 0.0003152968    1.613    0.380
       141  -7.9668    244.2941    159.0222   8.3991768855e+01   2.2855444297e+00    0.1773237    0.1509737  -2.31 0.0002418394    1.039    0.038
       142  -9.9329    212.2226    157.0974   8.9276250712e+01   8.6239140879e+00     0.259903    0.2411453  17.57 0.0003643597    1.081    0.075
       143  -8.0446    145.3211    150.6669   1.0184271120e+02   2.3265198109e+01     0.147103    0.1123675  80.88 0.0007049618    1.700    0.412
       144  -8.1491    133.1866    148.4835   1.0420349114e+02   2.6060535559e+01    0.2742315    0.1707054 -28.45  0.001164288    2.359    0.576
       145  -9.5117     67.3801    144.6693   1.1954088792e+02   3.7623558039e+01    0.4155698    0.2859229  69.48   0.00225167    1.513    0.339
       146  -7.6261     34.9815    145.4719   1.2752280526e+02   4.1157614944e+01    0.1707315   0.07439706  55.47 0.0008087607    2.450    0.592
       147  -8.0484    132.1613    137.3948   1.0218930142e+02   2.8558744758e+01    0.2124464    0.1300782  54.42  0.000647479    1.730    0.422
       148  -8.5582    153.3607    124.6457   9.4300252940e+01   2.6818520553e+01    0.3218911     0.227989   4.99  0.001366204    2.146    0.534
       149  -7.9839    131.6632    124.5190   9.9481075444e+01   3.1364934223e+01    0.3170523    0.1404366  48.05   0.00118835    2.284    0.562
       150  -7.7231     85.2349    121.5907   1.1096844547e+02   4.0297921878e+01     0.186528    0.1349771  22.33 0.0009474366    1.737    0.424
       151  -7.8487    119.6498    118.7151   1.0118540882e+02   3.4968498481e+01    0.1464524    0.1175715   0.38  0.000608959    1.657    0.396
       152  -7.8751     65.9133    116.1198   1.1526040740e+02   4.4285050620e+01    0.1978121    0.1646576  87.89 0.0005146802    1.208    0.173
       153  -9.5896    134.0872    107.3708   9.4713951052e+01   3.4461255488e+01    0.5633497    0.2905542 -40.95  0.002254283    1.989    0.497
       154  -7.7706     52.6844    113.3639   1.1850666390e+02   4.6530542590e+01    0.1359096   0.09103984  77.10  0.000704052    1.766    0.434
       155  -9.1119      9.6442    110.2668   1.3011406865e+02   5.1056045372e+01    0.2892294    0.1581094  74.73  0.001359578    1.985    0.496
       156  -7.5867    142.6626    111.6823   9.3678360620e+01   3.1744873459e+01    0.1561253    0.1210018   5.51 0.0007048853    1.703    0.413
       157  -7.5377      1.3659    110.3032   1.3234734264e+02   5.1558140720e+01    0.1146887   0.06815778 -49.22 0.0003452967    1.738    0.425
       158  -7.4539     39.0000    109.0261   1.2170464157e+02   4.8964848928e+01    0.2126016    0.0613158 -65.87 0.0008025084    2.943    0.660
       159  -8.5022    123.4177    107.4788   9.7489969468e+01   3.6637037126e+01    0.3020028    0.2087836  13.01  0.001275021    2.197    0.545
       160  -8.3843    116.0254    107.7038   9.9504745940e+01   3.8046036151e+01    0.2079809    0.1933799  50.22 0.0005764879    1.089    0.082
       161  -8.2811    109.9195    106.4257   1.0084061275e+02   3.9483392525e+01    0.4077377    0.2489349  15.11  0.001517338    3.049    0.672
