#   1 NUMBER                 Running object number                                     
#   2 MAG_AUTO               Kron-like elliptical aperture magnitude                    [mag]
#   3 X_IMAGE                Object position along x                                    [pixel]
#   4 Y_IMAGE                Object position along y                                    [pixel]
#   5 X_WORLD                Barycenter position along world x axis                     [deg]
#   6 Y_WORLD                Barycenter position along world y axis                     [deg]
#   7 A_WORLD                Profile RMS along major axis (world units)                 [deg]
#   8 B_WORLD                Profile RMS along minor axis (world units)                 [deg]
#   9 THETA_WORLD            Position angle (CCW/world-x)                               [deg]
#  10 FWHM_WORLD             FWHM assuming a gaussian core                              [deg]
#  11 ELONGATION             A_IMAGE/B_IMAGE                                           
#  12 ELLIPTICITY            1 - B_IMAGE/A_IMAGE                                       
         1 -11.1616     88.4562     54.3225   3.0219949968e+01   5.5545247674e+01     0.780654    0.2755065 -33.02  0.002215089    4.120    0.757
         2 -10.1401    110.3342     39.1138   1.7348584391e+01   5.2768677434e+01    0.8897982    0.6049279  -1.35  0.003788931    2.182    0.542
         3 -11.5863      5.4965     34.6038   6.8368653083e+01   7.2497449693e+01     1.085788    0.3643428 -38.89  0.003867918    2.802    0.643
         4 -12.2541    104.7274     12.8371   7.4715150298e+00   5.7611768632e+01    0.5610761    0.3968242 -14.84  0.001961346    1.647    0.393
         5 -12.7051    105.8992     19.9141   1.0355318219e+01   5.6520521743e+01    0.4591269    0.3719592 -68.26  0.000424332    1.332    0.249
         6 -12.2745     58.1195     29.5676   3.1582056765e+01   6.6668914125e+01    0.5325633     0.367934 -14.61  0.001109599    1.785    0.440
         7 -11.1932     49.7467     29.4251   3.5847506326e+01   6.8313267651e+01     1.148027     0.639241  15.44  0.004234083    3.222    0.690
         8 -11.7774     20.3256     21.5565   5.1305997514e+01   7.4231053340e+01    0.5321284     0.316002 -41.63  0.002780644    1.556    0.357
         9 -12.0851    144.4683     24.9034   5.1908833195e+00   4.5590493817e+01    0.8248749    0.4116533  56.77  0.003521823    1.921    0.479
        10 -11.6566    122.1961      5.8005   1.3915239591e+00   5.3577674242e+01    0.3745923    0.2090569 -15.75  0.001639631    2.136    0.532
        11 -11.2710    120.6924     11.3235   3.8474288701e+00   5.3467691386e+01    0.5034423    0.2813274  85.09  0.001538669    1.854    0.461
        12 -12.1394    136.3503     14.1897   2.5600815490e+00   4.8950343139e+01    0.7786233    0.2709337  61.89  0.002311529    2.456    0.593
        13 -11.6692     36.3177     18.0116   3.7398796783e+01   7.2677369689e+01    0.6568673    0.4440328 -45.03  0.003004666    1.592    0.372
        14 -12.3115     48.9728     12.8262   2.6485231763e+01   7.1144266564e+01    0.7241579    0.2851912  48.64  0.002933483    2.373    0.579
        15 -11.3599      5.6885      8.9767   5.7772541617e+01   7.8143855337e+01     0.434789    0.3736755 -56.03  0.002898746    1.281    0.219
        16 -12.1867     22.2986     11.2846   4.3517188870e+01   7.5957397158e+01    0.6029515    0.3895045 -11.50  0.002505404    1.790    0.441
        17 -11.2395     68.9197     19.7597   2.1470695172e+01   6.5837945466e+01     0.385797     0.333883  52.33  0.001040414    1.109    0.098
        18 -11.8928    165.0218     17.8228   2.4711438022e-01   4.0999823410e+01    0.5880857    0.3037189  46.20  0.002531677    2.401    0.583
        19 -11.1829     89.0431      8.4383   8.9818369977e+00   6.2186742590e+01    0.5889689     0.361999 -70.62  0.002604449    2.197    0.545
        20 -11.4189    127.7468     11.8347   2.9343601882e+00   5.1509184563e+01    0.5434722    0.2832097 -58.06  0.002286458    2.166    0.538
        21 -12.0953    227.5279     14.7064   3.5446909649e+02   2.6766611048e+01    0.4609285    0.2206583 -69.72  0.001432747    2.090    0.521
        22 -10.9524     86.2411     13.4374   1.2270221571e+01   6.2386488957e+01    0.6730884    0.3252916  31.74   0.00250689    2.897    0.655
        23 -10.9399    242.3074     14.8915   3.5370727393e+02   2.3800301689e+01    0.1853746     0.169487 -67.47 0.0001964125    1.242    0.195
        24 -10.3838    218.9717     13.1756   3.5461310993e+02   2.8722832179e+01     0.257025    0.1830818 -17.08  0.001534805    1.680    0.405
        25 -11.2492    191.0000     12.0459   3.5621336930e+02   3.5165126074e+01    0.4116863     0.145868 -33.24  0.001385382    2.384    0.581
        26 -11.7757    192.8447      7.5676   3.5487323693e+02   3.5177467140e+01    0.4250776     0.278548 -17.76  0.002312474    1.801    0.445
        27 -11.8558    212.2204      9.4797   3.5412330645e+02   3.0565771236e+01    0.4704199    0.3079588 -11.21  0.001934992    2.021    0.505
        28 -12.2305    168.1520      9.4789   3.5737090997e+02   4.1058274877e+01    0.6437818    0.2643937  72.90  0.002658881    2.227    0.551
        29 -10.7145    164.8678      4.3321   3.5608408591e+02   4.2385613389e+01    0.3821632    0.2164025  34.24  0.001697314    2.639    0.621
        30 -11.9079     64.0718      9.1836   1.7255263330e+01   6.8297047201e+01    0.4407891    0.3289823 -43.95 0.0003123723    1.549    0.354
        31 -12.3862    155.0448      7.1186   3.5787888971e+02   4.4671258622e+01    0.6663263    0.3825105  46.62  0.003121665    2.046    0.511
        32 -11.7443    184.7135      6.5175   3.5516090245e+02   3.7226863408e+01    0.4487241    0.2215649 -59.86  0.001409342    1.873    0.466
        33 -10.1474     70.3445      5.3117   1.2662894393e+01   6.7212639818e+01    0.2813585    0.1598906  40.02  0.001318055    1.721    0.419
        34  -9.6856     78.0041      7.0550   1.1260850774e+01   6.5142870677e+01    0.2797815    0.2040446 -65.92 0.0008601036    1.709    0.415
        35 -10.4914     75.0886      3.1270   9.9065265208e+00   6.6248297927e+01     0.402803    0.2247857  72.64  0.001839955    1.847    0.459
        36 -11.2760    243.5841      3.6922   3.5123603965e+02   2.4682716382e+01    0.2875397    0.1455128 -60.14  0.000803627    1.619    0.382
        37 -10.6388    176.3938      5.6458   3.5553840693e+02   3.9353896107e+01    0.2522227    0.1486628  78.44  0.000652555    1.580    0.367
        38 -11.3739    142.1679      2.7928   3.5774972564e+02   4.8465385283e+01    0.3167381    0.2803705 -88.24  0.001025428    1.029    0.028
        39 -11.2564    137.9143      3.9826   3.5864802537e+02   4.9499320584e+01    0.2824792    0.2521906 -67.84 0.0003397336    1.087    0.080
        40 -12.0970    132.9661      2.3134   3.5861683688e+02   5.0971313540e+01    0.4356504    0.3217487  84.75  0.001757078    1.206    0.171
        41 -11.6853    114.2560      2.8648   1.3815928432e+00   5.5977015629e+01     0.541391    0.3284053 -77.39  0.001707917    1.797    0.444
        42 -10.6572     41.8489      3.6373   2.4041833495e+01   7.3795947606e+01    0.3745186    0.2146806  25.44  0.001777305    2.007    0.502
        43 -11.1207    234.9250      2.5670   3.5135762975e+02   2.6487550487e+01    0.3377905    0.1489629 -48.94  0.001803962    1.687    0.407
        44 -10.5589    218.5402      3.4658   3.5232703438e+02   2.9789280583e+01    0.2390476    0.1727768 -76.02 0.0007863438    1.228    0.185
        45 -10.7338    223.6560      2.6234   3.5188009067e+02   2.8787230998e+01    0.2714443    0.1862275 -82.26 0.0004947231    1.354    0.261
        46 -11.6844    206.3223      2.2554   3.5267288686e+02   3.2584958243e+01    0.5530011    0.2041233 -85.70  0.002019207    2.951    0.661
        47 -10.3131      1.9199      2.1464   5.7814319785e+01   7.9772190510e+01    0.2374013    0.1444312 -41.52  0.000869484    1.409    0.290
        48  -9.4151     33.7429      1.8574   2.7716938978e+01   7.5585086189e+01    0.1988249     0.144204  -3.73 0.0006184794    1.447    0.309
        49 -10.7507    105.5956      1.9198   2.3874381632e+00   5.8387221253e+01    0.3006373    0.2079536 -82.06  0.001342557    1.503    0.335
        50 -10.7307     12.8968      8.5484   5.0202832463e+01   7.7581498499e+01     0.391342    0.3302073 -32.88  0.002084243    1.133    0.117
        51  -9.8755    152.0655      1.4229   3.5629450907e+02   4.5964498357e+01    0.2050124    0.1202466  80.98 0.0004841887    1.532    0.347
        52 -11.8992    134.2965     22.2889   5.8423502002e+00   4.8619532795e+01    0.5638537    0.4294665 -72.44  0.002809383    1.325    0.245
        53  -9.3617     28.9373      1.4849   3.0832702710e+01   7.6494129613e+01    0.1878388    0.1150809  39.04 0.0004915478    1.519    0.342
        54 -11.7662     16.0820     13.5448   5.0380734225e+01   7.6287682045e+01    0.6860217    0.2999897 -38.30   0.00310466    2.240    0.554
        55 -11.5213      4.2757    105.3249   7.9717595644e+01   5.4356051711e+01    0.4665488    0.3654334  29.84  0.002369405    1.366    0.268
        56 -10.7495    248.5648    249.1794   3.7919088161e+01  -5.9921048852e+00    0.2148855    0.1729986  41.85  0.001609519    2.815    0.645
        57  -9.6013     79.1451    114.8071   5.2169867609e+01   4.3328838486e+01    0.2113119    0.1858393 -13.22 0.0006062799    1.333    0.250
        58  -9.6544     58.3669    114.9369   5.9714991209e+01   4.6562185950e+01    0.2352864    0.1776218  85.24  0.001118788    1.452    0.311
        59 -10.7305     35.2107    102.9714   6.6688678217e+01   5.2626292245e+01     0.617241    0.2977831   5.35  0.001962891    3.126    0.680
        60 -11.7539     26.5361    106.2194   7.0764014008e+01   5.2580769008e+01    0.7271093    0.3659544 -34.96  0.002823886    2.589    0.614
        61 -10.9797     24.5303    102.4762   7.1074801457e+01   5.3764847333e+01    0.4135031    0.2379809  78.49  0.001576223    1.943    0.485
        62 -11.5869     22.3822    113.9870   7.3400550878e+01   5.0837354206e+01    0.5503989    0.3239142  -6.95  0.001719586    2.311    0.567
        63 -11.2804     28.5076    112.8070   7.0863358736e+01   5.0624019518e+01    0.3622852    0.2892701  39.68  0.001368117    1.260    0.206
        64 -10.7465     12.7267    111.4275   7.6897270376e+01   5.2236607764e+01    0.4996668    0.1840773 -79.39  0.001489758    2.486    0.598
        65 -10.7093     16.5219    109.5244   7.5210223556e+01   5.2486907040e+01    0.3441426    0.2103178  42.71 0.0008709887    1.625    0.384
        66  -9.8225     48.9776    111.7139   6.2685676293e+01   4.8681835355e+01    0.2136668    0.1852982  40.83 0.0005596416    1.154    0.133
        67 -11.8826     79.8209    107.9059   5.0330802983e+01   4.4968053091e+01    0.5037631    0.3504439  27.45  0.001082394    1.553    0.356
        68  -9.4145    174.0345    108.3417   2.4739386192e+01   2.5029266094e+01    0.2129298    0.1358792  64.35 0.0001561896    1.992    0.498
        69 -11.1914     50.2219    100.8959   6.0091349031e+01   5.1411956898e+01    0.7722035    0.4201948 -30.68   0.00286305    2.734    0.634
        70  -9.7708     85.9016    103.4059   4.7063155188e+01   4.4985251590e+01    0.2440954    0.2150441 -26.58 0.0005278202    1.272    0.214
        71 -11.9297     67.3278     95.0826   5.1833397999e+01   5.0384693056e+01    0.5521163     0.446017 -27.77  0.001409812    1.429    0.300
        72 -10.7829     17.0336    100.4126   7.3964234663e+01   5.4902168121e+01    0.2624905    0.1913703 -77.35 0.0005694142    1.250    0.200
        73 -11.4462      9.2994     96.9814   7.6878058694e+01   5.6313817370e+01    0.4828532    0.3849661  53.69  0.001016669    1.272    0.214
        74 -12.1275    246.2281     99.3890   1.1746717587e+01   1.2677996826e+01    0.4614836     0.145948 -30.22  0.001850405    2.894    0.655
        75 -10.6393     30.5943     97.1089   6.7666306190e+01   5.4667848576e+01    0.5061458    0.3724827 -55.37  0.002608548    1.304    0.233
        76  -9.2984    210.4668     98.0063   1.6054325390e+01   1.9296517042e+01    0.1940901    0.1189784 -33.77 0.0003198748    1.448    0.310
        77 -10.8719     79.7680     92.8552   4.6456394946e+01   4.8748467023e+01    0.9163577     0.657175 -58.39  0.004186395    1.425    0.298
        78 -12.2075     75.5813     79.0233   4.3971625735e+01   5.2893463932e+01    0.7505072    0.5552429  77.78 0.0004597208    1.821    0.451
        79  -9.3821     83.1882     83.3377   4.2391589510e+01   5.0387768355e+01    0.3181784    0.2070217  50.67  0.000784037    1.599    0.375
        80 -10.1838     42.8246     94.3846   6.1850345610e+01   5.4079840538e+01    0.3048643    0.2769804  39.64  0.001272107    1.129    0.115
        81 -10.4417     43.6922     90.6558   6.0674365759e+01   5.4964719364e+01    0.2540739    0.2292964 -43.16 0.0004024171    1.126    0.112
        82 -10.1332     18.4261     86.3136   7.1415032547e+01   5.8587729182e+01    0.3830858    0.3439111   6.62  0.001906232    1.227    0.185
        83 -11.1115     23.1284     94.2814   7.0487476743e+01   5.6090511388e+01     0.320733    0.2898248 -23.87  0.001347737    1.211    0.174
        84 -10.7012     19.1952     91.4090   7.1821565772e+01   5.7167386531e+01    0.3221649    0.2156601  43.13  0.001630739    1.550    0.355
        85 -10.0718    125.7952     94.0564   3.2016729628e+01   3.8675750122e+01    0.2522341    0.2230863  54.71 0.0004563152    1.122    0.108
        86 -10.5310     35.9247     91.0498   6.4211242736e+01   5.5753602503e+01    0.5402964    0.4103384  47.14  0.002776645    1.366    0.268
        87  -9.9925     50.5277     91.4979   5.7887367722e+01   5.3856429166e+01    0.2832676    0.2609282  36.64 0.0008165687    1.111    0.100
        88  -9.7798     52.1184     86.8886   5.6077130541e+01   5.4838276261e+01    0.3173632    0.2230797  55.04 0.0003328397    1.581    0.368
        89 -11.3856     45.1994     83.8963   5.8428619181e+01   5.6551304730e+01    0.6647071    0.4588585  75.64  0.002353093    1.835    0.455
        90 -10.0658     97.9206     90.5000   3.9367035931e+01   4.5673393960e+01    0.2208439    0.2149149  79.25 0.0004518164    1.022    0.021
        91 -10.9347      3.1702     81.9929   7.8083353517e+01   6.0597816660e+01    0.3649482    0.2290959  72.87  0.001182326    1.635    0.388
        92 -11.3912      6.3151     88.3844   7.7295764398e+01   5.8763401374e+01    0.6977953    0.2690177  35.50  0.002881113    2.603    0.616
        93 -10.3227      2.4907     89.0036   7.9090110462e+01   5.8772665078e+01     0.261903    0.2000662  62.19  0.001490948    1.319    0.242
        94  -9.9596      9.4990     86.4953   7.5614141646e+01   5.9101913985e+01    0.2622565    0.2193188  83.23 0.0007705725    1.149    0.130
        95 -11.3683     27.9478     85.2303   6.6748152890e+01   5.8098971711e+01     0.520568    0.4174469 -33.89  0.001596531    1.318    0.241
        96  -9.8190     67.1179     88.0922   5.0058551057e+01   5.2194189041e+01    0.2407373    0.2047505 -26.34 0.0005676188    1.312    0.238
        97 -10.0456     90.4078     85.6049   4.0468818752e+01   4.8387549833e+01    0.3554531    0.2567887 -87.19  0.001481377    1.966    0.491
        98 -10.1291     37.5760     85.3443   6.2271741123e+01   5.7088442578e+01    0.3649674    0.2037458   6.74  0.001482479    2.383    0.580
        99  -9.8239    143.3467     84.1327   2.4704125510e+01   3.6539229503e+01     0.216754    0.1849604 -47.98  0.000624789    1.162    0.140
       100 -10.2883     60.7529     83.2707   5.1369413601e+01   5.4459145700e+01    0.2490125    0.2187289  63.46 0.0003408042    1.211    0.174
       101 -10.0208    112.4342     83.0174   3.2497716418e+01   4.4108746075e+01    0.4678465    0.1657603  57.11  0.001208773    4.383    0.772
       102 -10.2130     67.3759     81.1396   4.7955762671e+01   5.3879731337e+01    0.3044564    0.2465697 -12.11  0.001216702    1.501    0.334
       103  -9.3868    103.3921     79.7606   3.4255157428e+01   4.6880541390e+01    0.2134078    0.1520166 -35.50 0.0004558738    1.529    0.346
       104  -9.4088     92.2145     70.9742   3.5064151258e+01   5.1285752120e+01    0.2337801    0.1483963 -57.30 0.0009600624    1.796    0.443
       105 -10.6907     89.1856     77.3703   3.8296543202e+01   5.0532142462e+01    0.4761127      0.30007  50.17  0.001763584    1.613    0.380
       106 -10.3015     94.3798     76.1514   3.6066825561e+01   4.9681378350e+01    0.3708448    0.3209257 -34.47  0.001382464    1.223    0.182
       107 -10.6553     53.4638     76.2309   5.2584927866e+01   5.7361474917e+01    0.4353407    0.3407605 -67.31  0.002172835    1.322    0.243
       108 -12.5857    247.3199     75.2430   6.4855075367e+00   1.5710353148e+01    0.5160892    0.3065248 -38.16  0.003033424    1.326    0.246
       109 -10.1542     58.2042     77.4420   5.0799474059e+01   5.6325756081e+01    0.2686137     0.207031 -56.86 0.0005013923    1.280    0.219
       110  -9.4529     38.3356     77.6745   6.0130781297e+01   5.9010629473e+01    0.1536352     0.107343  63.63 0.0004246451    1.718    0.418
       111  -8.7458    126.6686     76.6672   2.6513451464e+01   4.2021396088e+01    0.1615143    0.1260154  13.31 0.0007052149    1.725    0.420
       112  -9.9024     46.1408     75.8946   5.5913316871e+01   5.8489194450e+01    0.2967737     0.186493 -40.43  0.001327482    1.681    0.405
       113 -11.0977     13.8712     74.5250   7.1772348724e+01   6.2018466249e+01    0.3707284     0.287472 -81.11   0.00177198    1.226    0.184
       114  -9.3136    118.9744     78.0439   2.9032112505e+01   4.3604030328e+01    0.1875411    0.1710822 -48.11            0    1.111    0.100
       115 -11.1089     27.2786     73.3165   6.4628259349e+01   6.1300037132e+01    0.4761443    0.3070201 -18.83  0.001414928    1.874    0.466
       116 -10.6978     34.5914     71.1759   6.0358271947e+01   6.1111123613e+01    0.4941522    0.2109327  36.19  0.001806664    2.355    0.575
       117 -10.3036     40.5266     72.7519   5.7783254910e+01   6.0013936227e+01    0.4064225    0.2605235  10.77  0.001803848    1.860    0.462
       118 -11.4506     40.4404     68.9270   5.6760949155e+01   6.0992816655e+01    0.4112831    0.2804605  32.52  0.001732844    1.501    0.334
       119 -10.7846      1.9486     71.4955   7.7511555394e+01   6.3398280538e+01    0.4759479    0.1875623 -69.82  0.002032207    2.093    0.522
       120  -9.6511    103.7057     74.4604   3.2414104566e+01   4.7941803909e+01    0.3061703    0.1529143  52.22  0.001129607    2.045    0.511
       121 -10.2945     80.9238     72.0546   3.9592414771e+01   5.3454456471e+01    0.3949819    0.2285194 -43.65  0.001623066    1.774    0.436
       122 -10.6165    122.9161     68.2754   2.4759663714e+01   4.4558400261e+01    0.4971629    0.2229443  48.99   0.00179917    2.186    0.543
       123  -9.2812     77.6777     67.3099   3.9211766618e+01   5.5179181342e+01     0.156413    0.1230736  81.38 0.0006606402    1.649    0.394
       124 -10.1805     13.3266     67.4179   7.0821432896e+01   6.3908322872e+01    0.4000047    0.1332402  14.53  0.001361257    3.269    0.694
       125  -9.1814     96.7290     65.3606   3.1530921352e+01   5.1442156569e+01    0.2194126    0.1615299 -61.07 0.0006455259    1.560    0.359
       126 -11.0072     92.4724     62.4502   3.1919994328e+01   5.3012587239e+01    0.4152461    0.2788531  56.18  0.000965775    1.543    0.352
       127 -12.7543      6.4010     62.3136   7.3791081247e+01   6.5594999160e+01    0.6972222    0.4605315 -28.07  0.003665695    1.574    0.365
       128 -10.5053      9.4515     56.2218   7.0884339784e+01   6.6999259239e+01    0.3634929    0.2404873  49.15  0.001897858    1.744    0.427
       129  -9.4360    201.6749     64.3018   8.9887792198e+00   2.6178632670e+01    0.1431794    0.0937541 -62.12 0.0007030199    1.638    0.389
       130 -10.0624    158.8069     62.8183   1.5104739126e+01   3.6502811446e+01    0.2457862    0.1900491  50.50  0.000434137    1.356    0.263
       131  -9.5849    105.0339     63.0544   2.8030743108e+01   4.9941068423e+01    0.2475633    0.1910181 -79.60 0.0008251201    1.634    0.388
       132  -9.8037     57.9733     62.2926   4.5974425552e+01   6.0009001903e+01    0.2776414     0.218089 -85.87  0.001333393    1.653    0.395
       133 -10.7038     50.9488     56.5109   4.7310834801e+01   6.2497421066e+01    0.9094393    0.2788848 -58.19  0.002631438    4.198    0.762
       134 -10.7416     40.3253     56.5781   5.2945161830e+01   6.4034798054e+01    0.3537056    0.2256068  36.96 0.0009898858    1.615    0.381
       135 -11.3763     43.3840     60.7822   5.2726796248e+01   6.2613577437e+01    0.4286871    0.2457473 -60.44 0.0008789224    1.771    0.435
       136 -11.4251     46.4827     59.4449   5.0657713466e+01   6.2493901666e+01    0.5580993    0.2928199  48.49  0.002257102    2.300    0.565
       137  -9.7982    113.6666     60.9518   2.4738499951e+01   4.8226592873e+01    0.2224268     0.203518 -45.81 0.0009915045    1.121    0.108
       138  -9.0957    150.7582     60.6565   1.5952866060e+01   3.8875223136e+01    0.1441643    0.1190275   9.14 0.0006915756    1.563    0.360
       139 -10.7344     32.0159     52.7532   5.6355458898e+01   6.5977648228e+01    0.7099369    0.2879451  14.86  0.002450905    3.477    0.712
       140 -11.3766     25.7593     56.7741   6.1276770873e+01   6.5652521211e+01    0.5492353    0.5116017 -57.89  0.002158399    1.060    0.056
       141 -11.5275     73.0389     47.3754   3.3301209988e+01   6.0308267256e+01    0.8378586    0.3659742 -53.88  0.002814712    3.188    0.686
       142  -9.3839    106.7359     58.3770   2.5806654908e+01   5.0417610280e+01     0.212923    0.1417551  45.76 0.0003217093    1.487    0.328
       143 -10.4674     51.1291    249.3425   7.5792413085e+01   1.6884083900e+01    0.2357764   0.09558387  22.19  0.001103263    2.624    0.619
       144 -11.0960    155.0395     48.4730   1.1321347543e+01   3.9674649845e+01    0.2911074    0.2121107 -29.80 8.296036e-05    1.445    0.308
       145  -9.5506     91.9492     57.1666   3.0104172921e+01   5.4186019444e+01    0.2564418    0.1786557  79.30 0.0005930073    2.058    0.514
       146  -9.9066    124.6181     56.2366   2.0187163169e+01   4.6300958770e+01    0.2099843    0.1511399 -23.74 0.0007166196    1.622    0.384
       147  -9.0463     34.6737    245.3162   7.9063655614e+01   1.9317618768e+01    0.1257495   0.05763339  51.24 0.0007044451    1.672    0.402
       148 -10.5742    118.2349     55.7229   2.1620866339e+01   4.8019112457e+01    0.9111188    0.5307707 -84.88  0.002904443    3.621    0.724
       149 -10.1020    122.7315     44.5836   1.6420348055e+01   4.8694170950e+01    0.2914383    0.2337131  66.57 0.0006468849    1.196    0.164
       150 -11.4675    116.3391     48.2499   1.9354959237e+01   4.9770822484e+01     0.733188    0.3813758  46.08  0.002479669    1.978    0.494
       151 -11.2581    117.0848     43.9878   1.7550772194e+01   5.0261313793e+01    0.5919956    0.4210315 -78.57   0.00232367    1.753    0.430
       152 -11.1091    120.1864     40.5974   1.5512727439e+01   4.9968830045e+01    0.4153111    0.2314004  49.01   0.00071284    1.783    0.439
       153 -11.6992    119.3183     36.9591   1.4314611391e+01   5.0731269465e+01     0.437091    0.3370024 -54.11   0.00122393    1.360    0.265
       154 -11.6796     76.0270     53.4121   3.4592809370e+01   5.8477093589e+01    0.7911597    0.3495964 -38.58  0.002887259    2.460    0.593
       155 -10.7093     60.4123     51.5330   4.0698457987e+01   6.1973607673e+01    0.6272225    0.3051383 -60.89  0.002188585    3.098    0.677
       156 -10.6225     61.1682     46.3298   3.8141258999e+01   6.2915618222e+01    0.3846257    0.2785351 -18.80  0.001544952    1.679    0.405
       157 -10.5612    243.9968     51.2882   1.5702853417e+00   1.9342025790e+01    0.1654286    0.1365467 -57.66 0.0005668466    1.121    0.108
       158  -9.6754    239.9825     50.5301   1.7322025154e+00   2.0185129667e+01    0.1595612     0.118498  76.16 0.0006815484    1.553    0.356
       159 -10.0793    145.0182     50.1364   1.3668704076e+01   4.2012818349e+01     0.223659     0.194424  33.62 0.0003400709    1.325    0.245
       160  -9.3136     55.4117     50.1954   4.2587264123e+01   6.3159195971e+01    0.2029186    0.1425331 -45.82 0.0007569328    1.419    0.295
       161  -9.1694    189.0250     49.0781   6.5524430481e+00   3.1193848744e+01    0.1666572    0.1457015 -52.73 0.0005651265    1.035    0.034
       162 -10.7140     46.9198     48.8448   4.6455698011e+01   6.4861379048e+01    0.4946243    0.1860549  34.13  0.001805183    2.671    0.626
       163 -11.5887     44.2320     43.9353   4.5901369243e+01   6.6352821251e+01    0.4090023    0.3877394  53.27 0.0008924771    1.188    0.158
       164 -10.6826     39.4850     43.5858   4.8495079195e+01   6.7133055272e+01    0.2933798     0.244483 -34.27 0.0006997687    1.152    0.132
       165  -9.7253      2.0594     48.0847   7.3933397860e+01   6.9366533898e+01    0.2458387     0.159819 -73.90  0.001334662    1.407    0.289
       166  -9.9489     83.4289     46.2110   2.8710671369e+01   5.8227279270e+01    0.3742343    0.2505663   5.21  0.001482039    2.489    0.598
       167 -10.6322     20.6977     45.6549   6.1030653526e+01   6.8823765226e+01    0.3600136    0.2659052 -38.86  0.001285857    1.258    0.205
       168 -10.3099     13.1035     46.4188   6.6263041160e+01   6.9222494077e+01    0.2987367    0.1596064 -43.17  0.001135323    1.709    0.415
       169 -10.5500    234.4737     44.9810   9.3611376861e-01   2.1923784073e+01    0.2281125    0.1515079 -72.47 0.0008789814    1.581    0.368
       170 -10.5848     31.9331     44.4941   5.3438001944e+01   6.7922790827e+01    0.3895838    0.2164569  33.01  0.001432327    1.831    0.454
       171 -10.6820     26.4751     42.9570   5.6325500489e+01   6.8897181610e+01    0.3430763     0.264938 -80.87  0.001235786    1.583    0.368
       172 -10.1359     23.9141     37.2911   5.5860103104e+01   7.0462003752e+01    0.4398574    0.2726496  42.87  0.002183957    1.884    0.469
       173  -9.5643    145.4494     42.5368   1.1054947312e+01   4.3025632972e+01    0.1482765    0.1386888 -86.16  7.01034e-05    1.014    0.014
       174  -9.7503     99.5086     41.7831   2.1459823389e+01   5.5116162591e+01    0.2974793    0.1980887 -81.39  0.001199554    2.286    0.563
       175 -10.6154    157.1470     55.2767   1.3091965404e+01   3.8111144363e+01    0.5311636    0.3050876 -55.09  0.001642972    1.898    0.473
       176  -9.8482     56.9526     41.5382   3.8053174097e+01   6.4675065959e+01    0.3109799     0.135503  45.83  0.001115328    2.372    0.578
       177 -11.4124     78.8375     35.3984   2.5583465515e+01   6.1170232478e+01    0.7811323    0.5065385 -32.81   0.00363513    1.639    0.390
       178  -9.9850    156.1017     41.9446   9.0657622387e+00   4.0334958970e+01    0.2201495    0.2128556 -78.86 0.0008364206    1.084    0.077
       179 -10.3295     67.8827    240.5676   7.1644964946e+01   1.6522820836e+01    0.1909797    0.1641596 -35.66 0.0009350459    1.585    0.369
       180 -10.7523     61.3626     36.0596   3.3308752350e+01   6.4862369605e+01    0.5030589    0.3045423 -23.81  0.001755578    2.095    0.523
       181 -10.0850     67.2388     32.2635   2.8758516805e+01   6.4298705310e+01    0.5326884     0.306106  49.85  0.002383376    1.688    0.408
       182  -9.9768    227.1760     37.3950   3.5977333852e+02   2.4295694781e+01    0.1703228    0.1071574 -82.04 0.0009204344    1.724    0.420
       183  -8.9543    206.3030     37.2845   1.5537536159e+00   2.8763569597e+01    0.1189332      0.10131  29.33 0.0002527965    1.557    0.358
       184 -10.5752    153.3172     35.6322   7.4600658823e+00   4.1912580384e+01    0.2603325    0.2310494  70.06 0.0007328586    1.119    0.107
       185 -11.2105    177.4953     28.9499   2.2271041532e+00   3.6577391181e+01    0.3166556    0.2461602  37.38  0.001358008    1.637    0.389
       186 -10.8058    175.2102     33.9899   3.9675226725e+00   3.6526935138e+01    0.3660985    0.2197736 -67.99 0.0008435729    1.782    0.439
       187 -10.8046    147.1763    238.8318   5.4502262392e+01   6.7722187769e+00    0.2543478    0.2031023 -77.18  0.001594101    2.153    0.536
       188 -10.5370    131.9566    240.4924   5.7830659177e+01   8.4976830735e+00    0.1881267   0.09376016  30.51 0.0005391604    1.547    0.354
       189 -11.2236    103.1021     32.8274   1.6654054150e+01   5.5572074207e+01    0.2971806    0.2770949 -89.00 0.0002960078    1.089    0.082
       190 -11.5918    106.9847     31.7386   1.5176517702e+01   5.4716318477e+01    0.4698891    0.3096471  16.49  0.001651855    2.251    0.556
       191 -12.5186    113.6272     25.2774   1.0913363689e+01   5.3814403149e+01    0.9668328    0.3267962  52.24  0.003161257    2.698    0.629
       192 -10.1783    217.0085     31.9565   3.5928879861e+02   2.7064416215e+01    0.1911743    0.1567896 -54.17            0    1.004    0.004
       193 -10.2083     45.5351     24.9079   3.5751579366e+01   6.9886148000e+01    0.3785114    0.1550409 -34.83  0.001136812    2.746    0.636
       194 -10.6075     72.5607    237.4783   7.0389081275e+01   1.6515089515e+01    0.2304086    0.1729325  38.61  0.001535397    1.021    0.021
       195  -9.3936     15.5854    233.2695   8.2673348802e+01   2.3374985317e+01    0.1387638   0.09959103 -75.43  0.000951244    1.664    0.399
       196  -9.9876    241.2093     31.3521   3.5738052640e+02   2.2222398462e+01    0.1682681    0.1294849 -40.98 0.0007759678    1.113    0.102
       197 -11.7603     26.5541     27.6918   4.9698315325e+01   7.2244006147e+01    0.4755754    0.4010535 -62.93  0.002011377    1.384    0.278
       198 -10.1646    248.5175    223.5324   3.4200799304e+01  -3.3840418604e+00    0.1065256   0.07387665  -1.64 0.0008095354    1.003    0.003
       199  -9.0599     22.2848     31.3059   5.4508496309e+01   7.1961335088e+01    0.1384571   0.09064865 -26.98 0.0002934216    1.563    0.360
       200 -10.9276    188.8996     27.3275   5.8053941387e-01   3.3989353922e+01     0.377522    0.2862791  25.00  0.001690483    1.873    0.466
       201 -11.5736    159.8506     29.3703   4.5031030611e+00   4.1006552835e+01    0.5224784    0.2436415  69.98  0.001825843    2.056    0.514
       202 -11.9157    164.2384     27.4808   3.3427104627e+00   4.0102668171e+01    0.4256742    0.3046653 -52.68 0.0005541173    1.311    0.237
       203 -12.1766    127.2211     28.1592   9.2836763040e+00   4.9811856978e+01    0.9747729    0.4309544  77.01  0.003456277    2.701    0.630
       204 -10.5353    230.6400     26.7641   3.5705212479e+02   2.4822616949e+01    0.2213996    0.1916204 -51.25 0.0008889799    1.115    0.103
       205 -10.9261      9.3514    211.3454   8.3374790936e+01   2.8257799516e+01    0.2656243    0.1315814  45.55  0.001510163    1.492    0.330
       206 -11.6311    154.9645     24.0868   3.4452173879e+00   4.2911139132e+01     0.532719    0.2529649 -88.35   0.00200751    2.662    0.624
       207 -10.1503    155.4626     20.5105   2.2116027025e+00   4.3187445586e+01    0.2332662    0.1847959  66.11 0.0008093879    1.241    0.194
       208 -11.1080    183.0614     25.2507   5.7615251737e-01   3.5642668008e+01    0.2984158    0.2136081 -76.42  0.001275831    1.327    0.246
       209  -9.8118     98.0086     26.0163   1.5042132524e+01   5.7829819890e+01    0.1838964    0.1642277  61.18 0.0004498084    1.038    0.037
       210  -9.1060    164.4836    211.4977   4.7238898791e+01   8.5395440176e+00    0.1264601    0.1030379  16.68 0.0003712393    1.021    0.021
       211  -9.3678    171.5079    208.5395   4.5360823243e+01   8.0016992230e+00    0.1269102    0.1018205  12.42 0.0002527266    1.020    0.020
       212 -11.4349    126.9974     16.6853   4.9253701607e+00   5.1211724306e+01    0.3935803    0.2281537  60.31 0.0003979746    1.573    0.364
       213  -9.5690     79.5101    205.4873   6.5930517989e+01   2.1742585242e+01    0.2147333    0.1258488 -88.06  0.001037757    2.323    0.569
       214 -10.0195    169.2973     23.1089   1.4014618171e+00   3.9320192337e+01    0.3802666    0.1782248  69.24  0.001637824    2.017    0.504
       215 -10.9860      5.3881    200.8267   8.3987230221e+01   3.0803028136e+01     0.233057   0.08975528 -74.03   0.00111083    2.665    0.625
       216 -12.3567      4.9014    183.6757   8.3560454291e+01   3.4633167455e+01     0.622538    0.3920434  69.71  0.003671534    1.347    0.258
       217 -10.3315      5.1118     22.1659   6.4550142902e+01   7.5374491266e+01    0.2771062    0.2136205   7.47  0.001184302    1.328    0.247
       218 -10.7312      9.7445     19.2252   5.9153354450e+01   7.5709626751e+01    0.7682446    0.2769662   6.86  0.002807153    3.848    0.740
       219  -9.6325     28.1697    175.7923   7.6904757091e+01   3.4438091603e+01    0.1680358    0.1535508 -56.55 0.0006570883    1.317    0.241
       220 -10.4566     15.8097    173.8991   8.0225138254e+01   3.6019778192e+01    0.2585133    0.1456399  66.64    0.0013432    1.589    0.371
       221 -11.0608    222.9944     21.0129   3.5622188805e+02   2.7035110478e+01    0.3395777    0.1838898 -50.50  0.001354142    1.503    0.335
       222 -11.0444    178.7858     20.6847   3.5969109430e+02   3.7211627350e+01    0.5245503     0.236765  46.52  0.002087944    2.996    0.666
       223  -9.6390     13.7967     22.3214   5.7082852659e+01   7.4717457994e+01    0.1893868    0.1539058  34.44  0.000841435    1.400    0.286
       224  -9.3038     39.3026    173.3254   7.3583734226e+01   3.3881478055e+01    0.1290632    0.1015317 -36.47 0.0003552118    1.640    0.390
       225  -9.8429    216.7003     19.9417   3.5638845655e+02   2.8490980800e+01    0.1789122    0.1345747 -48.29 0.0003480813    1.100    0.091
       226  -9.4141    190.3243    170.6629   3.5125744633e+01   1.1144139829e+01    0.1185421    0.1074075 -89.22 0.0007051169    1.718    0.418
       227  -9.9026     74.7855     19.1621   1.8928461931e+01   6.4537090725e+01    0.2488493    0.1872631  10.71 0.0007571432    1.567    0.362
       228 -10.0081     46.2345     19.7579   3.2343158530e+01   7.0629499740e+01    0.2803744    0.2120337  64.17  0.001458687    1.778    0.438
       229 -11.9963      9.1242    166.8215   8.1749819515e+01   3.8258843252e+01    0.4780707    0.2547519  33.99  0.002125503    1.667    0.400
       230 -10.7692     84.9929     17.5162   1.4705815358e+01   6.2231499360e+01    0.5393674    0.1603784  47.85  0.001762964    3.141    0.682
       231  -9.5873    199.0399     17.6777   3.5710058639e+02   3.2685222742e+01    0.1847929    0.1523845 -77.27 0.0008019604    1.103    0.094
       232 -12.5076     12.6541    160.3586   8.0409893374e+01   3.9558837711e+01    0.5711874     0.370114 -43.25  0.003011629    1.970    0.492
       233 -10.2987     18.4304    164.7031   7.8969680483e+01   3.8013228536e+01    0.2103245    0.1630591 -17.70 0.0009574094    1.733    0.423
       234 -10.0446    211.0771     15.9543   3.5579259505e+02   3.0147144270e+01    0.1887594    0.1523821 -56.17            0    1.021    0.021
       235 -10.4335    205.0503    163.1301   3.0968919044e+01   1.0008007381e+01    0.2220146    0.1679963 -26.16 0.0007733799    1.204    0.169
       236 -10.1621     28.8379    160.8177   7.5628233681e+01   3.8020562579e+01    0.2025338    0.1368691  60.80 0.0007018054    1.335    0.251
       237 -10.4882    186.9201     14.8272   3.5729890392e+02   3.5854568216e+01    0.1905223    0.1786485  73.91   0.00121801    1.228    0.185
       238  -9.8580     31.6081    156.8349   7.4462069681e+01   3.8746275670e+01    0.2011427    0.1158153  81.99 0.0009434554    1.766    0.434
       239  -9.8194    104.2711    154.4013   5.2254713396e+01   2.9238925110e+01    0.2585389    0.1909316  88.91  0.001203991    1.774    0.436
       240 -11.2850     47.4278    147.3547   6.8504147880e+01   3.9441157875e+01    0.7461688    0.4524996 -47.07   0.00343644    1.913    0.477
       241 -12.4840     22.0319    149.4812   7.6847026261e+01   4.1510219841e+01    0.6493626    0.3583079 -38.63  0.001484116    2.475    0.596
       242 -10.5222     16.5221    147.9503   7.8477319150e+01   4.2363820961e+01    0.3052296    0.1846845 -77.47  0.001225095    1.554    0.356
       243 -11.0590      4.4114    153.1662   8.2503907183e+01   4.1948253486e+01    0.2709746    0.1493906  30.72   0.00129995    1.713    0.416
       244  -9.4226     55.4720    152.4792   6.6580208725e+01   3.7138057958e+01    0.1442218    0.1316188  61.26 9.786146e-05    1.014    0.014
       245 -12.1054      4.3819    142.4862   8.2006493530e+01   4.4637117281e+01    0.8300321    0.3060201  49.04  0.003306927    2.369    0.578
       246  -9.1383     74.7104    148.3030   5.9970775149e+01   3.5512919783e+01    0.1536919      0.10638  63.58 0.0002287385    1.567    0.362
       247  -9.2970    103.8871    147.1252   5.1017463848e+01   3.1000978487e+01    0.1959597    0.1748091  -4.55            0    1.270    0.212
       248 -10.5621     33.2268    144.1622   7.2773712160e+01   4.1828971338e+01    0.2882761     0.216778  81.26 0.0008996249    1.261    0.207
       249 -10.4340     40.5149    137.8633   6.9646646665e+01   4.2707040393e+01     0.396587    0.2480726  39.42  0.001471832    1.498    0.332
       250 -10.9397     14.8863    140.8745   7.8514907392e+01   4.4310119268e+01    0.2679325    0.2037392  41.66  0.001110472    1.254    0.202
       251 -10.5370     80.0473    138.2701   5.6591119391e+01   3.7203784421e+01    0.2603471    0.2246324  44.96 0.0005310671    1.097    0.089
       252 -11.1626     30.4195    132.4989   7.2508084658e+01   4.5167916248e+01    0.3635753     0.249687 -36.19   0.00140181    1.787    0.440
       253 -11.6233     12.4686    135.2790   7.8925878265e+01   4.5942274677e+01    0.6220633    0.3005105 -56.53  0.002808949    2.128    0.530
       254  -9.3172    103.7637    130.6503   4.7707617050e+01   3.4934931467e+01    0.2074672    0.1374024  45.71  0.000294686    1.468    0.319
       255 -10.6991     10.1016    126.2310   7.9098577139e+01   4.8476159608e+01    0.2775042     0.245479 -72.17 0.0009693771    1.140    0.123
       256  -9.8614     20.4967    134.0366   7.6096231424e+01   4.5647503887e+01    0.2743755    0.2359727 -81.26 0.0009780844    1.113    0.101
       257  -9.5603      2.4745    125.9864   8.1765184456e+01   4.9004984601e+01    0.2091486    0.1170468 -86.04  0.001030527    1.589    0.371
       258 -10.7439    104.6634    122.2747   4.5556947167e+01   3.6767335481e+01    0.3608502    0.3148613  59.56  0.001245203    1.166    0.142
       259  -9.2124     85.0225    122.9121   5.1946857699e+01   4.0249898030e+01    0.1810694    0.1707076  53.93 0.0004092414    1.022    0.021
       260  -9.0250     26.7184    123.3477   7.2825367734e+01   4.7950997560e+01    0.1522566   0.09394158  63.26 0.0005405135    1.644    0.392
       261  -9.6531     49.5247    122.6414   6.4341179086e+01   4.5688308411e+01    0.2804947    0.1413402   6.83 0.0009478637    3.365    0.703
       262 -11.6470     23.9499    136.6402   7.5148798401e+01   4.4669534842e+01    0.4824755    0.3954678  -9.46  0.002709293    1.507    0.336
       263  -9.7158     44.5015    119.5392   6.5705758330e+01   4.7129784341e+01    0.2385612    0.2175026  81.58 0.0008593225    1.036    0.035
       264  -9.7157     43.4393    116.2063   6.5579742258e+01   4.8149597909e+01     0.267035    0.1898696 -81.63 0.0007013656    1.406    0.289
       265 -11.6601    244.9102    117.8125   1.5736349907e+01   1.0370190119e+01      0.30208     0.189484 -57.11  0.001633696    2.242    0.554
       266 -10.9589      7.9055    114.7186   7.9036628385e+01   5.1660034464e+01    0.3114731    0.2485561 -57.54 0.0003732187    1.271    0.213
       267 -12.1217      2.6604    111.3464   8.0790446358e+01   5.2841166832e+01    0.4720395    0.3378359  81.17  0.001244202    1.258    0.205
