#   1 NUMBER                 Running object number                                     
#   2 MAG_AUTO               Kron-like elliptical aperture magnitude                    [mag]
#   3 X_IMAGE                Object position along x                                    [pixel]
#   4 Y_IMAGE                Object position along y                                    [pixel]
#   5 X_WORLD                Barycenter position along world x axis                     [deg]
#   6 Y_WORLD                Barycenter position along world y axis                     [deg]
#   7 A_WORLD                Profile RMS along major axis (world units)                 [deg]
#   8 B_WORLD                Profile RMS along minor axis (world units)                 [deg]
#   9 THETA_WORLD            Position angle (CCW/world-x)                               [deg]
#  10 FWHM_WORLD             FWHM assuming a gaussian core                              [deg]
#  11 ELONGATION             A_IMAGE/B_IMAGE                                           
#  12 ELLIPTICITY            1 - B_IMAGE/A_IMAGE                                       
         1 -13.8939    187.2823     30.6076   6.1168125297e+01   3.4592150192e+01     1.700019      1.00005  15.34  0.006674876    2.402    0.584
         2 -13.7675    247.5604      4.0960   4.6681917240e+01   2.2008185034e+01    0.7766525    0.5547253 -61.51  0.004315906    1.390    0.280
         3 -11.9003     58.7864      4.5117   8.2305535100e+01   6.7315391638e+01    0.4309981    0.2506531 -21.26  0.002295734    1.623    0.384
         4 -11.4073    210.0618      1.7792   4.9305096231e+01   3.1595024504e+01    0.6007566     0.191356  70.92  0.002102862    2.988    0.665
         5 -10.0621     39.5973    231.8402   1.3017236424e+02   2.5510552816e+01    0.1324816   0.09301092  60.79 0.0004190363    1.089    0.081
         6 -14.0849      3.3591    169.6630   1.3321811210e+02   3.9422082732e+01    0.5873945     0.253541 -80.79  0.002622895    1.881    0.468
         7 -19.3960     21.2584    134.7536   1.2729620989e+02   4.4785900346e+01     16.58318     3.487819 -76.06   0.06171543    4.362    0.771
         8 -11.6042     45.3186    215.8777   1.2840412621e+02   2.7382512594e+01    0.3188345    0.1005531  52.62  0.001565861    2.342    0.573
         9 -13.0883     54.3093    235.0015   1.2807061988e+02   2.3432299073e+01     3.164562    0.8513311  51.00   0.01269797    2.538    0.606
        10 -12.0582    127.5218    206.4962   1.1334911292e+02   1.8016563216e+01    0.3188454    0.1481395 -57.83  0.001734543    2.659    0.624
        11 -12.0631     63.7509    206.8689   1.2469109724e+02   2.6742576374e+01    0.4282669    0.3079551 -78.88  0.001857662    1.430    0.301
        12 -11.6978    108.6777    210.4957   1.1712956755e+02   2.0207498814e+01    0.3805228    0.1548483  38.99  0.001964585    2.252    0.556
        13 -10.2690     78.5065    210.0834   1.2237985321e+02   2.4383469314e+01     0.216624    0.1742487  89.35  0.001025544    1.256    0.204
        14  -9.5844     71.9260    210.7495   1.2357284141e+02   2.5106875600e+01    0.2009228    0.1007699  54.90  0.000776317    1.574    0.365
        15 -10.5334    135.2280    210.2364   1.1241712933e+02   1.6272980235e+01    0.1551938   0.09125517 -70.19 0.0007747278    2.449    0.592
        16 -10.4125     43.7406    209.7867   1.2830383316e+02   2.8544924390e+01    0.2649397   0.07280421  55.67  0.001302573    3.036    0.671
        17 -11.8134    107.5915    206.0909   1.1687030166e+02   2.1052392815e+01    0.3595108    0.2448273  21.18  0.002050115    2.365    0.577
        18  -9.8562    164.2189    205.7983   1.0674828610e+02   1.2257852156e+01    0.1666714    0.1545122  88.68 0.0004133561    1.330    0.248
        19 -14.5080      3.0878    151.8749   1.3235522210e+02   4.2809155611e+01     1.033352    0.3092866 -82.87   0.00367295    2.790    0.642
        20 -11.8859     45.1454    203.7209   1.2768901500e+02   2.9402799686e+01    0.1689196    0.1233274  70.07 0.0003431105    1.023    0.022
        21 -13.1596    113.7761    197.5052   1.1481058580e+02   2.1514331360e+01    0.4420543    0.3309191 -63.09  0.003045399    1.544    0.352
        22 -12.3851      1.4894    193.0533   1.3454851675e+02   3.5407494654e+01    0.6082745   0.09377889 -81.23  0.002391531    5.852    0.829
        23 -11.1727    193.6741    193.4753   9.9769761587e+01   8.9063133707e+00    0.4554659     0.353604 -57.04   0.00290255    1.851    0.460
        24 -10.4546     67.4843    195.8945   1.2315899226e+02   2.8144027736e+01    0.2127953    0.1108727  57.10   0.00127604    1.596    0.373
        25 -12.0772     72.4137    192.1390   1.2192846164e+02   2.8179259516e+01    0.5500358    0.4402809  49.97  0.003875786    1.249    0.199
        26 -12.7659      9.5113    189.4706   1.3304214673e+02   3.5350064891e+01     0.398621    0.1650294 -76.11  0.001928468    2.113    0.527
        27  -9.1684    180.1585    192.3933   1.0198092009e+02   1.1388399031e+01    0.1735166   0.09837148  51.26 0.0006477466    1.668    0.401
        28  -9.9521     60.6333    189.5135   1.2388558365e+02   3.0093423883e+01    0.2023017    0.1263764 -73.47 0.0007340937    1.587    0.370
        29 -10.9151    103.9858    201.4734   1.1703840620e+02   2.2311669739e+01    0.1656693    0.1515556  42.93 0.0007498807    1.323    0.244
        30  -9.8382     82.0855    194.9395   1.2039803487e+02   2.6438174109e+01    0.2321623    0.1312791  44.06  0.001447872    1.539    0.350
        31 -10.4712     99.5271    180.5533   1.1554500042e+02   2.6516054360e+01     0.202192    0.1691555  63.72 0.0006114088    1.022    0.022
        32 -10.4015    210.9351    179.3958   9.4413102790e+01   7.6590550142e+00    0.2718156    0.1678034  19.31  0.001352324    1.813    0.448
        33 -11.0955     83.1364    177.8459   1.1846285655e+02   2.9326026529e+01     0.243847    0.2132651 -64.54 0.0006473603    1.371    0.271
        34 -11.9320     86.3409    173.1513   1.1729865594e+02   2.9749503666e+01    0.3442324    0.2689197 -51.17  0.001582469    1.607    0.378
        35 -11.9342    126.5819    173.8551   1.0930842195e+02   2.3465253034e+01    0.3840879    0.2845737 -89.95  0.002298548    1.610    0.379
        36 -10.3244    195.9575    170.9481   9.5547548218e+01   1.1504543555e+01    0.3071748    0.2272849  26.88  0.001018365    1.266    0.210
        37 -11.9648    103.0647    171.2069   1.1367669879e+02   2.7674306426e+01    0.6092581    0.1553556  50.14  0.002107452    4.136    0.758
        38 -10.0298    137.6795    171.3488   1.0672686694e+02   2.2021022430e+01    0.1301242    0.0918511  74.46 0.0007048768    1.739    0.425
        39  -9.5795    193.8054    164.9333   9.4836871477e+01   1.2755367311e+01    0.1931776    0.1529184 -70.25  0.001039882    1.920    0.479
        40  -9.7445    141.7772    158.2994   1.0378123882e+02   2.3559052261e+01    0.1958912    0.1709188 -81.17 0.0007093393    1.271    0.213
        41 -11.4054     98.5367    155.8561   1.1253095997e+02   3.1256674576e+01    0.5145264    0.3561167 -32.01  0.002752927    2.324    0.570
        42 -11.5374     63.5168    155.2654   1.2001130434e+02   3.6200543824e+01    0.2893652    0.1824798  47.51  0.001058726    1.482    0.325
        43 -11.1793    134.0000    143.4992   1.0279458989e+02   2.7665887499e+01    0.5217848    0.1990664 -55.08  0.001980539    3.155    0.683
        44  -9.5425    174.6971    149.3091   9.5474292850e+01   1.8839104906e+01    0.1300448    0.1066168  82.62 0.0003261097    1.605    0.377
        45 -10.6483    109.1119    140.4304   1.0777599373e+02   3.2610473593e+01    0.4070077    0.2462808 -37.63  0.001961948    2.271    0.560
        46 -11.5079     97.5597    140.8333   1.1047337745e+02   3.4383356943e+01    0.2303312    0.2234127 -71.31 0.0005284873    1.192    0.161
        47 -10.8485     80.4827    140.2199   1.1430296191e+02   3.7027562855e+01    0.3080583    0.1500506  50.67  0.001518615    2.013    0.503
        48  -9.3175      3.5353    229.6806   1.3548679623e+02   2.9323161959e+01   0.07342469   0.06475312 -50.56 0.0006782514    2.136    0.532
        49 -11.2499    116.8178    130.6213   1.0423264256e+02   3.3255481230e+01    0.4701369    0.2625057  33.69  0.002148724    2.107    0.525
        50 -10.2186    105.9997    130.9806   1.0682988830e+02   3.5031193349e+01    0.3111879    0.2601438  85.26  0.001260209    1.205    0.170
        51 -10.2608    103.8637    126.9636   1.0659865499e+02   3.6208697222e+01    0.2410027    0.2209497 -39.72 0.0007863275    1.260    0.206
        52 -11.6423    136.4550    124.8309   9.8542495321e+01   3.0761217873e+01    0.6194493    0.3522436 -33.46  0.002694388    2.269    0.559
        53  -9.9064    161.3363    128.6588   9.3912998464e+01   2.5055187078e+01    0.1442693    0.1121693  89.09  0.000705063    1.761    0.432
        54  -9.7893    110.9759    119.4996   1.0342603775e+02   3.6539235653e+01    0.1981656    0.1786688 -68.56 0.0003965607    1.085    0.078
        55  -8.9824     70.8845    228.2974   1.2502982204e+02   2.2493245137e+01    0.1361606   0.09048049  55.95 0.0009377573    1.101    0.092
        56 -10.7331    126.2366    128.0187   1.0154241926e+02   3.2074968580e+01    0.3542351     0.222501  84.35  0.001450092    2.837    0.648
        57  -9.2325    205.5937    110.2153   8.0836843767e+01   1.8528140462e+01    0.1946169     0.135553 -16.70 0.0005802099    1.544    0.352
        58 -10.9090     87.7464    223.0513   1.2186700653e+02   2.1158539854e+01     0.210187    0.1735839 -51.34  0.001238018    1.788    0.441
        59  -9.6979    168.2653    113.1136   8.8867939475e+01   2.6344112168e+01    0.2704963    0.1962395  82.46  0.001218893    2.050    0.512
        60 -11.8160     76.6826    216.2807   1.2319073129e+02   2.3626305866e+01    0.3199928    0.1651302  69.11  0.001980698    1.944    0.486
        61 -10.8043     40.8082    220.0653   1.2937266085e+02   2.7200962065e+01    0.1728727   0.09447084  54.84 0.0006750207    1.335    0.251
        62 -11.4582    172.1398     71.1828   7.6685521361e+01   3.2662647000e+01    0.4521057    0.3174674 -83.78 0.0009840267    2.190    0.543
        63 -12.0625    172.8089     45.4517   6.8470095672e+01   3.6435538491e+01    0.4507844    0.3706271  54.12 0.0008331129    1.208    0.172
        64 -10.0897    171.4434    239.5784   1.0974465298e+02   6.9368346980e+00    0.1973607    0.1357692  71.74  0.001299389    2.199    0.545
        65 -10.3889    250.6077     20.8514   5.0781266478e+01   1.9637229853e+01    0.3426617    0.1103132 -26.63  0.001285938    2.668    0.625
        66 -10.8905     61.9255    216.0241   1.2565966535e+02   2.5471496787e+01    0.2623748    0.1282173  61.05  0.001619786    1.695    0.410
        67 -10.6033     84.9097    235.4243   1.2328241455e+02   1.9701746504e+01    0.2831187    0.1569858 -77.42  0.001665145    2.095    0.523
        68  -8.9477     66.6037    232.8174   1.2601395241e+02   2.2332884077e+01   0.08773664   0.06294765  38.01 0.0002244411    1.601    0.375
