#   1 NUMBER                 Running object number                                     
#   2 MAG_AUTO               Kron-like elliptical aperture magnitude                    [mag]
#   3 X_IMAGE                Object position along x                                    [pixel]
#   4 Y_IMAGE                Object position along y                                    [pixel]
#   5 X_WORLD                Barycenter position along world x axis                     [deg]
#   6 Y_WORLD                Barycenter position along world y axis                     [deg]
#   7 A_WORLD                Profile RMS along major axis (world units)                 [deg]
#   8 B_WORLD                Profile RMS along minor axis (world units)                 [deg]
#   9 THETA_WORLD            Position angle (CCW/world-x)                               [deg]
#  10 FWHM_WORLD             FWHM assuming a gaussian core                              [deg]
#  11 ELONGATION             A_IMAGE/B_IMAGE                                           
#  12 ELLIPTICITY            1 - B_IMAGE/A_IMAGE                                       
         1 -18.2529    176.4632    123.1232   6.9589280721e+01   2.2314853429e+01     6.943408     5.109661 -46.54   0.02980982    1.348    0.258
         2 -12.3771      5.9929    115.6850   1.1722947466e+02   5.0858663528e+01     1.109745    0.6566916 -70.37  0.005104288    1.330    0.248
         3 -18.3470    219.8561    109.1674   5.7853555166e+01   1.5591166667e+01     4.329141     3.035944 -40.60   0.01175551    1.292    0.226
         4 -11.5437    175.6497     28.0525   4.3640915262e+01   3.8331056895e+01     1.061555    0.5037503 -66.37  0.003858321    3.421    0.708
         5 -10.4705    200.1822     20.6116   3.8623977208e+01   3.3269804459e+01    0.5018669    0.3069499 -80.06  0.001920067    1.724    0.420
         6  -9.6457    189.5203     15.2650   3.8428909997e+01   3.6377087359e+01    0.2487468    0.2126212  89.81  0.000672912    1.028    0.027
         7  -9.0074     80.6541     12.9737   5.8307660216e+01   6.2085081586e+01    0.3118257    0.1948323 -37.32  0.001685031    1.899    0.473
         8 -10.2807     56.0212    133.8821   1.0477551243e+02   4.1973756607e+01    0.4295905    0.2527471  69.46  0.001838621    2.395    0.583
         9 -10.9848    248.1812    247.3289   8.0635079850e+01  -1.0790733811e+01    0.6168429    0.3618108 -26.49  0.003967487    1.613    0.380
        10  -9.5403    220.7982    250.3866   8.5967220008e+01  -7.6520768341e+00    0.3307865    0.0887292  40.89  0.001252392    4.038    0.752
        11  -9.6727    203.1648    250.3761   8.9225001595e+01  -5.2275753107e+00    0.3229837   0.09447084  39.17  0.001323056    3.054    0.673
        12  -9.0069    196.3443    216.1732   8.4987454080e+01   8.6669390222e-01    0.2532929    0.1682321  37.96 0.0002479288    1.446    0.308
        13  -8.7987    197.3608    211.7827   8.4012434477e+01   1.4196849860e+00    0.2369988    0.1806478   8.36 0.0003812514    1.250    0.200
        14  -8.7096    198.0409    206.9553   8.3009603309e+01   2.1090315859e+00    0.1994407    0.1698308  12.13  0.000308553    1.026    0.025
        15 -14.2179    227.6548    143.3584   6.4360646291e+01   8.0097904662e+00      1.87753    0.4756702 -42.85   0.00579918    3.791    0.736
        16  -8.3817    209.0945    239.3143   8.6382804423e+01  -4.5513157518e+00    0.1668844    0.1287448  21.49 0.0003073851    1.102    0.093
        17 -11.9330     69.9568    115.4352   9.6828264827e+01   4.4748593371e+01    0.7879992    0.7130814  13.11  0.001908551    1.217    0.178
        18  -8.4931     98.3055    126.0647   9.0541210587e+01   3.7688100104e+01    0.2132093    0.1884692 -53.69 0.0004141257    1.087    0.080
        19  -8.7094     93.7886    125.6044   9.1770512952e+01   3.8573868262e+01    0.2145649     0.186338 -45.89 0.0007087034    1.109    0.098
        20 -10.5912    239.7730    249.7220   8.2476776012e+01  -1.0033749857e+01    0.4297645    0.1726485  31.82   0.00144033    2.164    0.538
        21 -12.3469     28.9782    116.2437   1.1015527530e+02   4.9115769540e+01    0.6361697    0.4538697  27.78 0.0009449603    1.631    0.387
        22 -10.7011     18.6669     89.6763   1.0905160499e+02   5.6287868740e+01    0.2916519    0.1677223  -8.35  0.001496665    2.250    0.556
        23 -12.5623     82.1252    115.6399   9.3019647320e+01   4.2893261779e+01       1.3456     1.044939  53.73  0.006792718    1.460    0.315
        24 -10.4003     35.9588     87.4030   1.0220527351e+02   5.5438691477e+01    0.3589369    0.1298213  26.06  0.001468012    3.045    0.672
        25  -9.1579     16.4960    195.3073   1.2181397592e+02   3.1319853003e+01    0.2787545    0.2061291 -34.21  0.001265213    2.048    0.512
        26  -8.9125     46.9481     87.0000   9.8029616420e+01   5.4416266886e+01    0.2077043   0.07840868  26.51 0.0005609743    2.970    0.663
        27  -9.1350    250.2753    159.3726   6.3969657682e+01   1.4014674265e+00    0.2855142    0.1628448 -39.40  0.001210607    1.582    0.368
        28  -9.4611    245.6309    164.3344   6.5756293631e+01   1.3513739331e+00    0.2436816    0.2039657   4.37 0.0002193477    1.160    0.138
        29  -8.1824     88.4757     80.8582   8.1484870750e+01   4.9775510663e+01    0.2150024    0.1392091 -44.40 0.0004869364    1.484    0.326
        30  -9.7221     51.4074     80.4962   9.4654167370e+01   5.5382686867e+01    0.2297593    0.2058296 -28.68 0.0002398125    1.047    0.045
        31  -8.5435    188.2847    233.3400   8.9447458814e+01  -5.8457669833e-01     0.128871   0.08819695   0.74 0.0003071836    1.634    0.388
        32  -8.1340    120.8003     76.9863   7.0336719354e+01   4.4097340877e+01    0.2033305    0.1904571 -23.87            0    1.055    0.052
        33  -8.6368      3.6411     75.6810   1.1207803995e+02   6.0360123130e+01     0.134936   0.06616319 -41.30 0.0007044021    1.762    0.432
        34 -12.3426     67.3231    141.1292   1.0272506333e+02   3.8727611488e+01     1.658451    0.9795247 -57.89  0.007297662    1.539    0.350
        35  -7.8045     82.3172    149.3154   9.9931773928e+01   3.4560501813e+01    0.1471698    0.1109815 -28.08 0.0007037829    1.650    0.394
        36  -9.6280     51.8671     69.4072   9.1259240831e+01   5.7740917811e+01    0.3218009    0.1238977 -43.66  0.001296996    2.297    0.565
        37 -10.6528    146.8168     62.5713   5.9233706806e+01   4.0630708849e+01    0.4292189    0.3490184 -32.71   0.00113563    1.263    0.209
        38  -9.8936    147.0920     56.5931   5.7302652209e+01   4.1513128869e+01    0.3396729    0.2940087  77.97  0.001206111    1.235    0.190
        39  -8.8352    101.1286     62.9425   7.1492344788e+01   5.0858883192e+01    0.2720179    0.2103252  24.55  0.001256941    1.328    0.247
        40  -8.3777     49.9993    190.5566   1.1397545211e+02   2.8906040755e+01    0.1895975    0.1513491 -86.29 0.0004550828    1.120    0.107
        41  -8.7046     49.8165     61.1116   8.9450817413e+01   5.9709758145e+01    0.1870788    0.1740746 -40.53 0.0004380109    1.210    0.174
        42  -8.7934     95.0139     52.9058   6.9858524468e+01   5.3827142176e+01    0.2444224    0.1936693 -32.95  0.001057133    1.269    0.212
        43 -11.7845     68.6092    125.1326   9.9312170742e+01   4.2543280549e+01    0.9252969    0.5271545 -33.53  0.003861235    2.248    0.555
        44  -9.6981    130.0983    187.8572   9.4487473932e+01   1.7586405209e+01    0.2343166    0.2051253 -57.53 0.0003144169    1.207    0.172
        45 -13.2825     54.8388    115.5851   1.0172551605e+02   4.6666668377e+01     1.725756     1.225324 -39.35  0.009006301    1.423    0.297
        46  -8.7242    110.6502    168.1445   9.5783304708e+01   2.5417934802e+01    0.2345003    0.1847465 -82.86  0.001169072    1.446    0.309
        47  -8.3944    168.1675     33.5991   4.6350237540e+01   3.9508578875e+01    0.3746951     0.157764  54.92   0.00116701    2.168    0.539
        48 -10.0589    173.6709     32.0009   4.5046630995e+01   3.8348242474e+01    0.5977096    0.3231628 -87.94  0.002428832    2.608    0.617
        49  -8.9752    247.1729    227.9209   7.7560519708e+01  -8.2469269362e+00     0.190082    0.1413247  13.28 0.0004229484    1.143    0.125
        50  -9.3175    193.0847     30.2128   4.1910098305e+01   3.3844597634e+01    0.5593797    0.2535751 -70.53  0.001915793    3.891    0.743
        51  -8.2445    160.0277     32.1577   4.7241667638e+01   4.1692698797e+01     0.202891    0.1701203  41.03 0.0003773068    1.249    0.199
        52  -8.0166    225.4390     27.7068   3.7754654898e+01   2.6670408852e+01    0.1587809    0.1214506 -23.30 0.0009375155    1.568    0.362
        53  -9.9116    154.5822     26.0735   4.6288370407e+01   4.3744691597e+01    0.4211958    0.2328406  39.63  0.001327087    2.067    0.516
        54  -8.5084    127.8330     27.1333   5.1695908907e+01   5.0129880281e+01    0.1907222    0.1788576 -86.03 0.0003310833    1.178    0.151
        55 -10.1866    205.4915     24.8213   3.9096854664e+01   3.1547110989e+01    0.3862813     0.225719 -80.17  0.001905292    1.886    0.470
        56 -11.1057     45.5253    221.4337   1.1773786075e+02   2.2676501722e+01    0.8126956     0.519529  64.99  0.004969734    1.363    0.267
        57  -8.9984     93.7330    141.4760   9.5211642467e+01   3.4699727345e+01    0.2798075    0.1413858  40.62 0.0008357644    2.017    0.504
        58 -10.2400    121.4565    165.4077   9.2515395736e+01   2.4154374488e+01    0.3247293    0.2636077  42.68   0.00136476    1.212    0.175
        59  -8.7414     84.8800     21.3475   6.0615882620e+01   6.0325322095e+01    0.1967447    0.1742211 -19.78 0.0004248377    1.233    0.189
        60  -8.9422     12.0792     21.9778   9.2884861619e+01   7.0743446966e+01      0.17641    0.1310124 -23.14 0.0003203143    1.014    0.014
        61  -7.9113    233.1356     18.4544   3.5005127989e+01   2.6073344650e+01    0.1624955    0.1088778  77.35 0.0004873077    1.427    0.299
        62  -8.9628     74.9508     16.8089   6.1868724028e+01   6.2791579597e+01    0.2103767    0.1714093  -8.44 0.0003953435    1.196    0.164
        63  -8.9284    208.0788    221.8788   8.3674964045e+01  -1.8574999942e+00    0.2333123    0.1863866 -46.09  0.001425045    1.622    0.384
        64 -10.1089    101.0014    175.9896   9.9592252795e+01   2.5189060956e+01    0.2022466    0.1903595  73.07            0    1.012    0.012
        65  -7.8704    120.5929     12.7968   4.8106958529e+01   5.3327765147e+01    0.1675068    0.1202372 -38.35 0.0003117354    1.583    0.368
        66 -10.2562    227.9850    215.3752   7.8777005945e+01  -3.8598115635e+00     0.214432    0.1764832  -2.25 0.0001957134    1.050    0.047
        67  -7.6650     51.3523    175.2205   1.1196103255e+02   3.2341309576e+01    0.1178293    0.1006564 -24.21 0.0003749623    1.552    0.355
        68  -8.5910    117.7074    199.4599   9.9282012968e+01   1.7197468854e+01    0.1854584    0.1303096  26.98 0.0004965897    1.519    0.342
