#   1 NUMBER                 Running object number                                     
#   2 MAG_AUTO               Kron-like elliptical aperture magnitude                    [mag]
#   3 X_IMAGE                Object position along x                                    [pixel]
#   4 Y_IMAGE                Object position along y                                    [pixel]
#   5 X_WORLD                Barycenter position along world x axis                     [deg]
#   6 Y_WORLD                Barycenter position along world y axis                     [deg]
#   7 A_WORLD                Profile RMS along major axis (world units)                 [deg]
#   8 B_WORLD                Profile RMS along minor axis (world units)                 [deg]
#   9 THETA_WORLD            Position angle (CCW/world-x)                               [deg]
#  10 FWHM_WORLD             FWHM assuming a gaussian core                              [deg]
#  11 ELONGATION             A_IMAGE/B_IMAGE                                           
#  12 ELLIPTICITY            1 - B_IMAGE/A_IMAGE                                       
         1 -13.1968    242.1774    112.6943   7.8236010697e+01   9.0821363170e+00     6.699125    0.8325247 -41.67   0.01571929    6.335    0.842
         2 -12.3536    218.1398     43.7035   6.6075531132e+01   2.5734754828e+01     1.757721     1.051003  85.81  0.008675712    1.763    0.433
         3 -12.0935    220.3343     31.0151   6.2974013954e+01   2.6935591241e+01     1.075053    0.6890103 -83.22  0.004083211    1.527    0.345
         4 -12.7668    131.3073     23.0331   7.4313851447e+01   4.9009866603e+01     2.476703     1.131857  47.35   0.01131257    1.942    0.485
         5 -12.1470    146.8719     43.0920   7.7270575896e+01   4.2963322922e+01     2.703095     1.027387  69.73   0.00780203    4.778    0.791
         6 -10.0285    250.4966     21.0890   5.7990920246e+01   2.1551661633e+01    0.4055882    0.1619888 -37.48  0.001914694    2.460    0.594
         7 -11.6397    249.7459     26.5753   5.9123875235e+01   2.1013960164e+01    0.3955984    0.1738097 -52.84   0.00196602    1.991    0.498
         8 -12.2498    245.5804     20.4971   5.8296281589e+01   2.2666222496e+01    0.5493325    0.4110063 -52.05  0.002354529    1.270    0.213
         9 -11.3995    187.7695     92.2520   8.2702821660e+01   2.5066115855e+01     3.607712    0.6465299 -40.14  0.008834268    5.247    0.809
        10  -9.0866    178.0821     13.4884   6.3924584971e+01   3.8957012095e+01    0.5604112    0.2724337 -54.29   0.00258656    2.389    0.581
        11  -9.5889    173.3548      4.5593   6.2265485268e+01   4.0956271933e+01    0.6551085    0.3230649 -38.46  0.003142317    2.185    0.542
        12  -9.7601    202.7919     17.2829   6.1841779154e+01   3.2682749143e+01    0.5949261    0.2657942 -65.92   0.00232041    2.997    0.666
        13 -11.7809    192.1919      7.8259   6.0829634967e+01   3.6190860585e+01     1.448877    0.6612999  68.96  0.007069605    1.834    0.455
        14 -11.2414    210.3195      2.3468   5.7735943018e+01   3.2544883054e+01    0.8519222    0.2897918  69.53  0.001660995    2.416    0.586
        15 -11.2641    144.3360      7.3718   6.7185597093e+01   4.7529908768e+01    0.7092412    0.3855412 -31.01  0.003731669    2.094    0.522
        16  -8.8342    223.3737     15.9064   5.9391512861e+01   2.8098707412e+01    0.3266162    0.1421487 -49.13  0.001317758    2.137    0.532
        17  -9.4327    125.6533     14.3239   7.2695798444e+01   5.1167061027e+01    0.3329234    0.2263734 -50.13  0.001470995    1.846    0.458
        18 -11.6942    119.4282      9.8495   7.2509206838e+01   5.2959226225e+01    0.6581047    0.4571842  47.69  0.002611145    1.214    0.176
        19  -7.8450    251.0000      7.8811   5.5440115454e+01   2.3033952683e+01    0.1618832   0.06044166 -36.57 0.0003358787    2.684    0.627
        20 -12.0575    161.7908     50.6303   7.6520957067e+01   3.8329656187e+01      2.06197    0.9723527 -64.43  0.005851131    5.409    0.815
        21  -8.5500      9.2991      8.3617   1.0885332418e+02   7.0765529951e+01    0.1130504   0.05982291 -15.61 0.0007034739    1.717    0.418
        22  -7.5220    224.7564      6.3288   5.7266240877e+01   2.8868794260e+01     0.171027    0.1316115 -87.60 0.0003958318    1.042    0.040
        23 -11.0189    225.3640      2.0285   5.6335587253e+01   2.9195435399e+01    0.2964986    0.1710395  75.03 0.0004569739    1.476    0.322
        24  -9.9889    249.3810      2.3979   5.4538457228e+01   2.3992890777e+01    0.2737692    0.1739757 -69.62  0.001752391    1.274    0.215
        25  -9.0608      4.5935      3.4062   1.0900159758e+02   7.1784019270e+01    0.2542956    0.1081545 -13.81  0.001281105    3.082    0.676
        26  -9.9995    167.6143    113.2607   9.2269335186e+01   2.5702258255e+01    0.5019625    0.3575652 -82.35  0.001830388    1.973    0.493
        27 -10.3411    205.4456    110.5688   8.3911767872e+01   1.7447185436e+01    0.4746805    0.2837344  33.13  0.001897809    2.374    0.579
        28  -8.9604    195.7164    103.4422   8.3994520706e+01   2.1067628052e+01    0.2023634    0.1439704  43.71 0.0005756063    1.530    0.346
        29  -7.6828    177.5153    103.4513   8.7620141342e+01   2.5361918574e+01    0.1544344    0.1482644 -82.46 0.0001300573    1.009    0.009
        30 -11.3885    229.2268     35.4748   6.2969388692e+01   2.4325802173e+01    0.5912554    0.3779688  64.08  0.001554686    1.537    0.349
        31  -9.0176    149.5887     96.7186   9.2060519884e+01   3.3277093024e+01    0.3284817    0.2637854 -13.92 0.0006693347    1.534    0.348
        32  -8.7496    206.3386     93.5051   7.9633959057e+01   2.0443294180e+01    0.4508907    0.2563251 -80.69  0.001500846    3.527    0.716
        33  -8.2202    135.1771     94.1252   9.4883780484e+01   3.7072196471e+01    0.2051529    0.1781371 -83.70 0.0004147257    1.327    0.246
        34  -7.6774    116.6106     92.3067   9.9284549936e+01   4.1420003327e+01    0.1548327    0.1198815  85.71 0.0002044182    1.812    0.448
        35 -10.9483    158.7304     77.2033   8.4597952352e+01   3.4797132210e+01    0.4345577    0.3033293 -41.24  0.001083365    1.465    0.318
        36 -10.0243    165.0022     85.9710   8.5657658440e+01   3.1704928146e+01    0.5953206    0.3779235 -66.90  0.001665022    2.163    0.538
        37 -10.2607    161.5341     87.4887   8.6819172932e+01   3.2252135929e+01    0.6497219    0.3857658  30.75  0.002500286    2.417    0.586
        38  -9.5230    250.2661     86.1708   7.1342785875e+01   1.2024881407e+01    0.3281187    0.1680406 -39.45  0.001135534    1.792    0.442
        39  -9.6527    143.3908     85.2593   9.0361979111e+01   3.6937501749e+01    0.4264959    0.2716769 -44.61  0.001493618    1.601    0.375
        40  -9.8396    184.4797     69.4941   7.7445816950e+01   2.9867575879e+01    0.2703011    0.2505814  83.64  0.001516809    1.015    0.015
        41 -10.1299    207.7374     66.2985   7.2810229402e+01   2.4786207347e+01    0.8733015    0.4266802 -73.95  0.002584835    4.800    0.792
        42 -10.2645    208.8213     61.8890   7.1587763755e+01   2.5227608978e+01     0.984006    0.4393038 -67.89  0.002732241    5.450    0.817
        43  -9.9659    194.7451     61.5525   7.3670541892e+01   2.8652142655e+01     0.327005    0.2442494  45.75 0.0007856776    1.493    0.330
        44 -10.8029    200.4942     57.4997   7.1764871955e+01   2.7892134184e+01    0.5078161    0.3545597  36.32  0.001684065    1.919    0.479
        45  -8.2368    221.9122     66.4089   7.0778401897e+01   2.1459337144e+01    0.2664262    0.1929261 -19.12  0.001324155    1.932    0.482
        46  -8.4447    122.1052     65.8807   8.9965054532e+01   4.5183718168e+01    0.2071088      0.19635  31.15 0.0003206815    1.011    0.010
        47  -7.9678    244.9093     60.4994   6.6546871636e+01   1.7267571792e+01    0.1834176    0.1232823  71.71 0.0006074766    1.501    0.334
        48  -8.2953    249.1058     54.2893   6.4775496447e+01   1.7307457844e+01    0.2733063    0.1288642 -59.38  0.001226559    2.185    0.542
        49  -7.5528     70.4194     50.7967   1.0047286385e+02   5.7393102425e+01    0.1784706    0.1120684 -26.49 0.0007711928    1.567    0.362
        50  -9.5655    180.7294     80.7968   8.1093259328e+01   2.8843687928e+01    0.3612113    0.2670113  48.19  0.001755813    1.390    0.281
        51  -7.8018    184.6505     45.8272   7.1269941251e+01   3.3438528713e+01    0.1988798    0.1163021 -48.39 0.0008071564    1.764    0.433
        52  -9.3659    242.7176     39.8856   6.2475560819e+01   2.0742536741e+01    0.2422445    0.1642869 -67.75 0.0005776099    1.310    0.237
        53 -10.1891    109.9221     39.4588   8.4635178860e+01   5.1758430188e+01    0.3580265     0.273709  44.59 0.0006352413    1.196    0.164
        54  -8.5841    250.6119     34.3807   6.0585386748e+01   1.9803874668e+01    0.2094201   0.09961094 -44.53  0.001059897    1.850    0.459
        55 -13.1581     34.9697    185.9207   1.3916315796e+02   3.1981252134e+01     1.170515    0.9470409 -40.51  0.003272746    1.683    0.406
        56 -12.4857     47.4395    176.0064   1.3523030549e+02   3.2850234391e+01     1.038519    0.8553576  80.79  0.003718754    1.091    0.083
        57  -9.1653    110.0633    156.0959   1.1649461101e+02   2.8142261044e+01    0.2175146    0.2059714 -85.37 0.0003074475    1.007    0.007
        58  -8.0167     67.6531     26.3175   9.2474457015e+01   6.1319701967e+01    0.1076336    0.1002242 -85.80 0.0006073412    1.726    0.421
        59  -8.1835    105.5133    249.4562   1.3175486638e+02   8.4585388183e+00    0.1264616    0.1046244  58.09 6.438619e-05    1.045    0.043
        60  -8.2813    228.8441     21.8059   6.0102989091e+01   2.6164089527e+01    0.2391329    0.1184466 -43.09  0.001037083    1.903    0.474
        61 -11.9693    249.2368    234.3895   1.0163005453e+02  -1.2593731777e+01    0.2285846    0.1957568  -5.42 0.0002458349    1.147    0.128
        62  -8.4874     15.6657    233.6942   1.4685174863e+02   2.3765898914e+01    0.1742992    0.1336772 -83.61 0.0007469199    1.268    0.212
        63  -8.6278    176.0092    150.3033   9.9332312636e+01   1.5889542850e+01    0.2539218    0.2167289 -44.17  0.001022105    1.163    0.140
        64 -12.0196    236.6052     70.8496   6.9802960145e+01   1.7447667296e+01     1.716139    0.6254369 -52.19  0.006335212    2.901    0.655
        65 -10.2225     67.7096    144.1322   1.2532523033e+02   3.7920608484e+01    0.6167109    0.3768972  62.12  0.002542911    2.047    0.511
        66 -10.1203    222.3482    144.8202   8.8703294608e+01   7.1421441139e+00    0.2465716    0.2379745 -68.05 0.0002990612    1.098    0.089
        67 -11.2576    133.7409     41.8484   7.9676960488e+01   4.6196719067e+01    0.6787245    0.3808458 -47.42            0    2.124    0.529
        68  -8.4587    191.9513    143.7041   9.4398046020e+01   1.3804705082e+01    0.2160179    0.1977423  51.68 0.0004237906    1.122    0.109
        69  -8.4515    108.4335    141.0054   1.1376011066e+02   3.2064910812e+01    0.2075281    0.1969191  52.66 0.0002151255    1.091    0.083
        70  -8.7111    161.0090    129.0242   9.7717941196e+01   2.3855120138e+01    0.3846187    0.1982648 -57.51  0.001359611    2.411    0.585
        71 -11.8225    176.7971     58.7072   7.5973515607e+01   3.3465532371e+01    0.6500533    0.4557042   7.65  0.002876506    2.389    0.581
        72  -8.4537    167.2814     12.4317   6.5117608272e+01   4.1641945361e+01    0.2690566   0.09897055  61.60  0.001145732    2.187    0.543
        73  -9.0502    226.0252    125.7131   8.3767514292e+01   1.0029853295e+01    0.1962698     0.190704 -79.44 0.0004143979    1.077    0.071
        74 -10.6978    185.4698    123.1470   9.0881529388e+01   1.9519523889e+01    0.4931215    0.3906548  32.41  0.002356409    1.439    0.305
        75  -8.7656    198.1897    122.1782   8.8074279107e+01   1.6815794646e+01    0.2183452    0.1789848 -74.84 0.0005493064    1.370    0.270
        76 -12.2146      4.6922    210.1361   1.4724313493e+02   2.9724592811e+01    0.8401624    0.4486183 -80.48  0.004948755    1.474    0.322
        77 -11.3388    176.9325     75.4285   8.0405821978e+01   3.0703314243e+01    0.9686853     0.671145  59.14  0.001672723    1.403    0.287
        78 -10.0654    162.2559    213.0867   1.1492757605e+02   5.5538224397e+00    0.2313518    0.2213517  49.34 0.0002220345    1.053    0.050
