#   1 NUMBER                 Running object number                                     
#   2 MAG_AUTO               Kron-like elliptical aperture magnitude                    [mag]
#   3 X_IMAGE                Object position along x                                    [pixel]
#   4 Y_IMAGE                Object position along y                                    [pixel]
#   5 X_WORLD                Barycenter position along world x axis                     [deg]
#   6 Y_WORLD                Barycenter position along world y axis                     [deg]
#   7 A_WORLD                Profile RMS along major axis (world units)                 [deg]
#   8 B_WORLD                Profile RMS along minor axis (world units)                 [deg]
#   9 THETA_WORLD            Position angle (CCW/world-x)                               [deg]
#  10 FWHM_WORLD             FWHM assuming a gaussian core                              [deg]
#  11 ELONGATION             A_IMAGE/B_IMAGE                                           
#  12 ELLIPTICITY            1 - B_IMAGE/A_IMAGE                                       
         1 -14.1764     15.5574    130.3243   1.1055346191e+02   4.6938345314e+01     1.935042    0.7397336 -71.49   0.00810065    2.301    0.565
         2 -12.9342      5.0188     52.6373   9.9699428280e+01   6.5390676919e+01     1.146825    0.4323548 -53.81  0.005138427    2.084    0.520
         3 -13.5635     12.8163     41.0419   9.2367239482e+01   6.7050297615e+01      1.15651    0.8734221  27.40  0.005514381    1.542    0.351
         4 -13.0244    234.3962     31.4647   3.4158611852e+01   2.4064841684e+01     0.963839    0.6237018  88.33   0.00595774    1.445    0.308
         5 -13.4201    218.2989     38.3919   3.7096515371e+01   2.6524425167e+01     1.614883    0.9408385 -79.45  0.008551258    1.813    0.448
         6 -12.2010     79.5164     33.0883   6.1266082037e+01   5.8748827009e+01    0.8283759     0.575443  19.68  0.004538663    1.532    0.347
         7 -11.9980     27.5006     30.3065   8.1064244762e+01   6.7429407516e+01     0.659718    0.3986198 -40.79  0.003436719    1.628    0.386
         8 -11.3083     44.4606     20.7787   6.9176067109e+01   6.6497329806e+01     0.383701    0.3538193 -10.97  0.002476794    1.317    0.241
         9 -12.3020     60.4362     24.8543   6.4554414642e+01   6.3353623888e+01     1.107741    0.6570134  11.14  0.005552366    2.137    0.532
        10 -12.4871     50.5214     29.4123   7.0342984669e+01   6.4402460571e+01    0.8627801    0.5515042 -10.38  0.004771738    1.721    0.419
        11 -12.1725     46.0963     25.8757   7.0697976119e+01   6.5574438865e+01    0.7549884    0.4379343  10.92  0.003859098    2.091    0.522
        12 -13.0832    125.6113      5.3224   4.0478354239e+01   5.1509467283e+01      1.03272    0.5587341  71.46  0.005353692    1.658    0.397
        13 -12.2968    122.6053     19.3135   4.5469503688e+01   5.0916949495e+01    0.6237589    0.5021162  79.78  0.003771726    1.248    0.199
        14 -13.0435    147.1467     10.1958   3.8653085999e+01   4.6024717516e+01    0.8737759    0.6565776 -28.64  0.004631365    1.563    0.360
        15 -11.2501    173.6151      3.4743   3.3686223736e+01   4.0455741670e+01    0.3265608    0.2094914  78.71  0.001854531    1.312    0.238
        16 -10.6364     91.6446      3.5376   4.6521606289e+01   5.9311880635e+01    0.2228716    0.1582564 -22.98   0.00137174    1.631    0.387
        17 -10.5601    165.0083      2.4847   3.4356719446e+01   4.2536381912e+01    0.1814958     0.161818 -58.82  0.001252001    1.221    0.181
        18  -9.0056      1.6578      1.7045   8.2205503201e+01   7.4199831351e+01    0.1141881   0.06398515  -9.03 0.0007031591    1.662    0.398
        19 -11.2584     39.2809    212.5883   1.1327303032e+02   2.4614221571e+01    0.6187412    0.2953133  66.80  0.002701059    2.348    0.574
        20 -10.7651     89.9647    250.3625   1.0594647985e+02   1.0013571546e+01    0.2940734    0.1030058  35.30  0.001239166    2.449    0.592
        21 -13.3534      5.8083    187.5037   1.1886000094e+02   3.3792332939e+01     1.877157    0.6510636 -80.35  0.008035613    2.605    0.616
        22 -14.3356     12.8953    203.4258   1.1841089675e+02   2.9482642068e+01     1.260719     1.016831 -38.34  0.008167197    1.702    0.413
        23 -12.8155     26.7687    191.8079   1.1429363889e+02   3.0808414419e+01    0.9326688    0.5199468 -71.63  0.004874595    1.614    0.380
        24 -14.4696     14.3123    156.4626   1.1400753588e+02   4.0561959999e+01     2.195176     1.416365 -71.67   0.01230729    1.316    0.240
        25 -14.3477      5.2086    133.2620   1.1404893594e+02   4.6956737335e+01     2.396744    0.7632508 -74.25  0.008976484    2.733    0.634
        26 -11.9877    131.9508    247.7618   9.6791639993e+01   4.3127144545e+00    0.3512762    0.2321096  28.69  0.001951226    1.377    0.274
        27 -12.1011     45.9213    198.2040   1.1034147287e+02   2.7147199293e+01    0.7822807    0.4914452  43.96  0.003523007    1.495    0.331
        28 -11.3068     41.8102    180.1109   1.0937065729e+02   3.1986933846e+01    0.2740066    0.2511441 -53.04 0.0004845455    1.236    0.191
        29 -11.4756     49.7796    173.5175   1.0648227803e+02   3.2666411785e+01    0.2614464    0.2504997 -50.50 0.0004738989    1.186    0.157
        30  -9.9227     70.5170    208.4899   1.0562683883e+02   2.1547015767e+01    0.2657045     0.245754 -23.29  0.001624954    1.359    0.264
        31 -10.3777     62.9704    163.3943   1.0145119280e+02   3.3493588136e+01    0.2515071    0.1974609 -65.99 0.0003561978    1.205    0.170
        32 -12.8141     48.0068    159.8301   1.0510332515e+02   3.6310239525e+01    0.5377583    0.3242114 -34.53  0.001830564    2.222    0.550
        33 -12.9059     44.2041    149.0984   1.0462118367e+02   3.9469358421e+01     1.006829    0.6893713 -70.46  0.005213845    1.345    0.257
        34 -11.7869     72.9581    156.6301   9.7528963755e+01   3.3779120170e+01    0.6255845    0.4827999  26.67  0.003196364    1.419    0.295
        35  -8.8256    132.5549    158.8141   8.1763596902e+01   2.2876285216e+01    0.2045715    0.1486297 -65.51  0.000806816    1.582    0.368
        36 -11.7665     68.9873    143.9873   9.6415907488e+01   3.7548786829e+01       0.5222    0.3747616  82.76  0.001755173    1.712    0.416
        37 -11.3072     65.5021    141.5021   9.6998839556e+01   3.8673752949e+01    0.4780797    0.3470719 -68.03  0.001623005    1.349    0.259
        38 -11.5314     95.3998    135.1525   8.6772094293e+01   3.5492800591e+01    0.5459664    0.4846294 -64.19  0.002225009    1.128    0.113
        39 -10.5729     88.5049    143.5067   9.0564060818e+01   3.4620939978e+01    0.2743552    0.2484167  45.77 0.0008359253    1.124    0.111
        40 -11.4607     92.6577    140.4726   8.8724036102e+01   3.4666638053e+01    0.5828481    0.3808377  30.13  0.001499361    1.653    0.395
        41 -11.4677     76.0902    141.5854   9.3837727736e+01   3.7092986298e+01    0.3276132    0.2720661 -50.79  0.000328995    1.172    0.147
        42 -12.3998    241.3628    138.2735   5.5263129819e+01   6.2341396139e+00     0.514966    0.2967004 -38.37   0.00266884    1.484    0.326
        43 -12.0999    246.1561    133.4916   5.3592828605e+01   6.2448749582e+00    0.4273511    0.3374323  75.77  0.002554858    1.713    0.416
        44 -12.2617     30.8295    138.0573   1.0696598730e+02   4.3675761552e+01    0.5207695    0.4824464  -3.70  0.002607219    1.257    0.205
        45 -10.6206    105.2624    131.4703   8.3080871279e+01   3.4583398848e+01    0.4471564    0.3318274  25.28  0.002070687    1.511    0.338
        46 -12.6471     89.3255    127.2129   8.6793833072e+01   3.8488235224e+01    0.7377312    0.5140654 -53.71 0.0009845757    1.396    0.284
        47 -10.9877     28.3276    105.1245   1.0223218147e+02   5.2039642719e+01      0.37328    0.2057255  21.92  0.001400951    2.038    0.509
        48 -13.0346     35.1019    115.7037   1.0189621594e+02   4.8820382450e+01     1.071445    0.6062464 -49.85  0.005214742    1.578    0.366
        49 -11.6939     24.8897    112.1597   1.0472742976e+02   5.0644858722e+01    0.5809141    0.3733066 -63.44  0.003101903    1.353    0.261
        50 -10.1326     22.9631    104.0283   1.0392951355e+02   5.2770737142e+01      0.38572    0.2130411 -56.73   0.00191495    1.511    0.338
        51  -9.1673    102.7373    119.7524   8.1010521574e+01   3.7833120998e+01     0.198657    0.1764274  76.59 0.0003788205    1.265    0.209
        52 -11.3990     65.1309    125.2624   9.3904576117e+01   4.2792200896e+01    0.4665416    0.4136662 -72.76  0.002574113    1.134    0.118
        53 -10.8586     52.3319    108.6671   9.4553871299e+01   4.8570951844e+01    0.4607224    0.3670268  44.93  0.002417998    1.394    0.283
        54 -11.0399     51.4008    104.7994   9.3999963141e+01   4.9612343920e+01    0.3713544    0.3101495 -43.26   0.00176548    1.103    0.094
        55 -10.8538     72.7867    106.3329   8.7046494891e+01   4.6213271464e+01    0.4181552    0.3191518 -14.67  0.002060793    1.557    0.358
        56 -11.4722     36.7342    102.7054   9.8740780913e+01   5.1797562678e+01    0.5501121    0.3963705  63.83  0.002862107    1.825    0.452
        57 -10.5112     35.6138     92.6830   9.6927787356e+01   5.4261804367e+01    0.3481661    0.1912484 -37.53  0.001647094    1.812    0.448
        58 -11.2057    239.8512     94.8290   4.6553593739e+01   1.3797829638e+01    0.2507999    0.1465838  35.94  0.001170284    2.772    0.639
        59 -10.8543     52.3405     92.0682   9.0561922900e+01   5.2447173382e+01    0.4661528    0.4228269  -8.53  0.002769436    1.099    0.090
        60 -10.3934     28.5963     66.2594   9.2933983847e+01   6.0747077207e+01    0.4999394    0.3557696 -21.99  0.002920311    1.345    0.256
        61 -11.7078     30.9647     80.3754   9.5751225460e+01   5.7504860373e+01     0.824464    0.4450793  37.09  0.003980107    2.121    0.529
        62 -11.5386     36.7352     73.1740   9.1503374089e+01   5.8457875835e+01    0.7352607    0.4842908 -58.65  0.003937284    1.580    0.367
        63 -10.3284     10.1503     77.8835   1.0357222602e+02   5.9750147911e+01    0.3014205    0.2235921 -37.94  0.001236533    1.167    0.143
        64 -11.2852     52.3436     75.1340   8.5873209604e+01   5.6126266722e+01    0.3149206    0.2574496 -71.85  0.001749782    1.580    0.367
        65 -10.4977      9.4971     71.6600   1.0246276524e+02   6.1154627543e+01    0.2764865    0.1735823 -31.37  0.001470457    1.470    0.320
        66  -8.6760     14.7936    247.9927   1.2078538805e+02   1.9809112029e+01    0.1320458    0.0776807 -84.72 0.0003656324    1.568    0.362
        67 -12.1583     14.0345     50.3213   9.4760358848e+01   6.5212889659e+01    0.5485739     0.431352 -44.41  0.002383892    1.184    0.156
        68  -9.4148     59.5285    245.9566   1.1184104885e+02   1.5002163317e+01    0.1710187    0.1139758 -80.27 0.0006248976    1.569    0.362
        69 -11.2338     56.4119     49.5499   7.5815337066e+01   6.0374464777e+01    0.7195503    0.4088084  43.99  0.003570597    1.943    0.485
        70 -11.5633     43.4461     45.0986   7.9528513095e+01   6.3012767925e+01    0.8832856      0.32527  28.36  0.003354516    2.980    0.664
        71 -14.8538    110.2327    229.7422   9.9145739427e+01   1.1056018798e+01     3.330344     1.027294  37.37   0.01241018    2.762    0.638
        72 -12.3643    212.8736     47.1718   3.9594652569e+01   2.6519105449e+01    0.5920533    0.3678201  72.87  0.003253967    1.575    0.365
        73 -11.4198     85.1500    224.1064   1.0408778078e+02   1.6003191671e+01    0.4889732    0.4184544  15.69  0.002008972    1.389    0.280
        74 -11.4351     87.3546     44.1025   6.2881887556e+01   5.5667577150e+01    0.7845275    0.5493413  22.53  0.004121595    1.544    0.352
        75 -11.6566     82.0673     38.3350   6.2432453141e+01   5.7541500294e+01    0.6636407    0.4278862  17.82  0.003308615    1.871    0.466
        76 -13.2834     74.6950    232.0551   1.0730248270e+02   1.5811102073e+01     1.113129     0.832553 -74.16  0.006486233    1.411    0.292
        77 -12.8279     85.9538    232.2174   1.0484452071e+02   1.4183460585e+01    0.6877805     0.587422 -39.79  0.003476998    1.461    0.316
        78 -10.6543     67.3644    240.1167   1.0968288665e+02   1.5148335097e+01    0.2815431    0.2352423  71.11  0.001039204    1.095    0.087
        79 -10.5209     57.1387    239.8793   1.1181143191e+02   1.6535693483e+01    0.3125392    0.2902494 -34.26  0.001899104    1.464    0.317
        80  -9.1642     12.4953    239.5218   1.2075833552e+02   2.1740210539e+01    0.1578006   0.09399822 -71.11 0.0006686256    1.687    0.407
        81  -9.5308     12.1383    235.1315   1.2058157128e+02   2.2674626933e+01    0.2367385    0.1078924  71.25  0.001112033    2.070    0.517
        82 -11.0747    203.9607     23.1012   3.5196468698e+01   3.1525890278e+01    0.4515501    0.2659149  54.51  0.002474823    1.900    0.474
        83 -10.5413     38.4414    237.3710   1.1547481421e+02   1.9347536626e+01    0.4325157     0.178452  41.77  0.002166024    1.987    0.497
        84 -11.3938     45.0732    234.1555   1.1385241451e+02   1.9226767224e+01    0.4160642    0.2880478  70.86  0.001393008    1.294    0.227
        85 -10.7864     61.6355    229.6189   1.0991065601e+02   1.8091026629e+01    0.4668895    0.2308822  47.68  0.001651217    1.755    0.430
        86 -10.3022     28.8944    229.4949   1.1686039821e+02   2.2087689118e+01    0.4487661    0.1835399  56.83  0.002132438    2.264    0.558
        87 -10.5258     61.5098    223.0067   1.0928648674e+02   1.9530605947e+01    0.2982047     0.197079 -65.68 0.0009816667    1.567    0.362
        88 -12.9992     55.6493    213.8061   1.0967731529e+02   2.2333708278e+01     1.178959    0.6525197  83.61  0.005392308    2.141    0.533
