#   1 NUMBER                 Running object number                                     
#   2 MAG_AUTO               Kron-like elliptical aperture magnitude                    [mag]
#   3 X_IMAGE                Object position along x                                    [pixel]
#   4 Y_IMAGE                Object position along y                                    [pixel]
#   5 X_WORLD                Barycenter position along world x axis                     [deg]
#   6 Y_WORLD                Barycenter position along world y axis                     [deg]
#   7 A_WORLD                Profile RMS along major axis (world units)                 [deg]
#   8 B_WORLD                Profile RMS along minor axis (world units)                 [deg]
#   9 THETA_WORLD            Position angle (CCW/world-x)                               [deg]
#  10 FWHM_WORLD             FWHM assuming a gaussian core                              [deg]
#  11 ELONGATION             A_IMAGE/B_IMAGE                                           
#  12 ELLIPTICITY            1 - B_IMAGE/A_IMAGE                                       
         1 -12.9670    183.7261     55.5573   4.3959433546e+01   3.2413192584e+01     1.738404    0.9399868  39.57   0.00563424    2.661    0.624
         2 -13.3508    205.0029     37.4890   3.6877006752e+01   3.0117322154e+01    0.8136861    0.7626072  -6.24  0.001630412    1.434    0.302
         3 -13.2151    228.8471     12.4007   2.9394961321e+01   2.8089082817e+01    0.8127661    0.6361527 -67.97  0.004009005    1.046    0.044
         4 -10.9684     32.6795      5.0140   6.5744293111e+01   7.0433739586e+01    0.3346685   0.09871265 -26.63  0.001361915    3.865    0.741
         5 -11.2460     57.3737      2.6966   5.4408404530e+01   6.6551380193e+01    0.3182451    0.1258959  40.99  0.001550199    2.062    0.515
         6 -10.1611     58.8382    196.0566   1.0657646467e+02   2.5587681310e+01     0.208033    0.1922893  42.27 0.0003335059    1.150    0.131
         7 -18.5888     17.3419    209.5714   1.1761575148e+02   2.6983564649e+01     12.82046     4.990897 -79.44   0.05830637    2.381    0.580
         8  -9.3268     59.8507    192.1670   1.0584977060e+02   2.6405771993e+01    0.2400247    0.1790075 -74.55 0.0004172755    1.287    0.223
         9 -11.2748     42.6305    179.8227   1.0879012921e+02   3.1534158052e+01    0.2532777    0.2213177  80.82 0.0004378729    1.051    0.048
        10 -12.7664     60.0553    179.9070   1.0421007233e+02   2.9422940830e+01    0.8866376    0.8283262 -78.19  0.005274334    1.054    0.052
        11 -11.0543     50.6310    181.0344   1.0684412609e+02   3.0306227008e+01    0.4662488    0.2629686  51.99  0.001352415    1.839    0.456
        12 -11.1161     46.0624    176.6436   1.0750452094e+02   3.1946040853e+01    0.4447885    0.3155587 -71.07  0.001369728    1.292    0.226
        13 -10.0033     82.8423    194.7821   1.0036102648e+02   2.2621301952e+01    0.3235066    0.2502787  32.45  0.001192428    1.309    0.236
        14 -11.2954     98.8959    181.3188   9.4107581892e+01   2.3432584472e+01    0.4739167    0.3363259 -33.86  0.001286379    1.662    0.398
        15  -9.9476    145.1955    183.1582   8.2711765062e+01   1.5061815524e+01    0.2296483    0.1988984 -15.22 0.0005817079    1.199    0.166
        16 -10.1573    184.0564    179.8698   7.3209657512e+01   8.8628086577e+00     0.524511    0.2244197 -55.00  0.001758087    3.466    0.712
        17  -9.8284    179.9433    174.4334   7.2983764962e+01   1.0689898231e+01    0.2720389    0.2043154 -57.36 0.0008491236    1.564    0.361
        18 -10.4554     75.1368    249.5683   1.0853464849e+02   1.1656581675e+01    0.3720823    0.1661144 -57.24  0.001596737    2.484    0.597
        19 -11.0653    120.6067    173.4113   8.6985168381e+01   2.1684397946e+01    0.5236244    0.1586508  30.89  0.001411452    4.362    0.771
        20 -10.2551    137.2471    172.4249   8.2547969548e+01   1.8926326801e+01     0.219683    0.1406397  47.65 0.0009495713    1.673    0.402
        21  -9.0515     90.8728    194.1554   9.8230159536e+01   2.1579039113e+01    0.2125074    0.1800014  63.64 0.0003603976    1.193    0.162
        22  -9.1117     75.7863    244.0037   1.0785973803e+02   1.2677919726e+01    0.1922408    0.1632796  60.03 0.0006979016    1.050    0.048
        23 -10.4020     50.9955    168.8873   1.0515934243e+02   3.3342375568e+01     0.218984    0.1853311 -73.31 0.0002711189    1.084    0.077
        24 -11.4391    109.0669    189.5672   9.2868409503e+01   1.9802162226e+01    0.4483966    0.2657426 -27.63  0.001758824    2.566    0.610
        25 -10.1869    191.7128    166.2619   6.8793701092e+01   1.0236143808e+01    0.3263572    0.2507798 -42.93 0.0008313219    1.251    0.201
        26  -9.8422    186.5154    165.9919   6.9817430087e+01   1.1227871052e+01    0.4049021    0.1364973 -43.65  0.001378653    2.793    0.642
        27 -10.2276    130.4888    188.9360   8.7384075831e+01   1.6341511917e+01    0.2262132    0.1466265 -52.47  0.001031679    1.588    0.370
        28  -9.8735     76.2403    183.3166   1.0040582464e+02   2.6377125397e+01    0.3579561    0.2396886 -81.12   0.00140975    1.660    0.398
        29  -9.3673     52.1417    156.9733   1.0311556322e+02   3.6274729742e+01    0.2184974    0.1783718  74.27 0.0003734851    1.278    0.218
        30 -11.6031    133.8117    145.4866   7.7648968314e+01   2.5874583818e+01     1.284513    0.3334984 -54.41  0.002915798    5.763    0.826
        31 -11.5668     91.1343    149.6595   9.0400369206e+01   3.2618120593e+01    0.6577079     0.446371 -20.38  0.001777176    2.052    0.513
        32  -9.5644    111.5817    149.7098   8.4585897839e+01   2.9067302916e+01    0.3501209    0.2216527  68.47  0.001307164    2.532    0.605
        33  -9.3117    174.8220    148.8242   6.8580174573e+01   1.7000178238e+01    0.2038383    0.1824107 -80.36 0.0004955476    1.343    0.255
        34 -11.1469     40.5420    146.2820   1.0492205347e+02   4.0356236701e+01    0.3501787    0.3174228  -0.85  0.001056797    1.281    0.220
        35 -11.4466     42.8231    138.6322   1.0302145078e+02   4.2094820919e+01      0.53997    0.2083493  34.21  0.002030786    2.654    0.623
        36 -12.9411     42.8071    128.8731   1.0135759625e+02   4.4614309550e+01     1.097413    0.6039865  88.40  0.004231099    2.833    0.647
        37 -11.7213     91.9414    135.7778   8.7220662614e+01   3.5990442792e+01     0.303754    0.2710942 -34.43 0.0003803736    1.124    0.110
        38  -9.1754    119.2876    136.6591   7.9503163173e+01   3.0800399482e+01    0.1585489    0.1263358  88.06 0.0002822245    1.642    0.391
        39 -10.0845    147.6008    131.5895   7.0864729536e+01   2.6275090690e+01    0.3582789    0.2705505 -76.25  0.001059816    1.779    0.438
        40  -9.1085    115.6687    133.2829   7.9714832078e+01   3.2306972814e+01    0.1572946    0.1253459  76.41 0.0003806078    1.611    0.379
        41 -10.9888    105.2851    133.4986   8.2742644308e+01   3.4203415520e+01    0.8849921     0.353181 -44.39   0.00196608    2.536    0.606
        42 -11.1349    134.7639    128.3321   7.3321000220e+01   2.9664350143e+01    0.4537906    0.3578708  62.84  0.002116338    1.488    0.328
        43 -10.3547    100.0602    123.7336   8.1955929313e+01   3.7536679532e+01    0.3061639     0.251513   1.64 0.0008738369    1.416    0.294
        44 -10.0273    119.4658    122.0352   7.5882278394e+01   3.4222856328e+01    0.3277291    0.2015692   2.41  0.001037043    3.571    0.720
        45 -10.3667    112.8506    128.2160   7.9293784906e+01   3.4062358434e+01    0.3555282    0.2733209  18.10 0.0009892415    1.507    0.336
        46  -9.2379    108.8485    117.5381   7.7780172695e+01   3.7361460470e+01    0.2234653    0.2065493 -44.78 0.0005855686    1.059    0.056
        47  -9.7529    205.5497    110.2305   5.3676103163e+01   1.8497328590e+01    0.2438307    0.2273209  18.02 0.0005915409    1.238    0.192
        48 -10.7020    118.3319    109.6860   7.2977549300e+01   3.7268327249e+01    0.2490426    0.2317102  83.45  0.001105261    1.203    0.169
        49  -8.4198    160.5102    107.5322   6.1778853822e+01   2.8635438932e+01     0.152758    0.1454605 -64.94 0.0008090722    1.057    0.054
        50  -9.7786     85.0161    185.4932   9.8427205710e+01   2.4559240746e+01    0.2912169    0.2381106  55.28 0.0009400297    1.222    0.182
        51  -9.4665    134.3933    106.1678   6.7683662472e+01   3.4647543664e+01     0.229604    0.1441572 -53.75  0.000931336    1.727    0.421
        52 -11.0002     95.3590    203.3486   9.8459491190e+01   1.8736117100e+01    0.4961941    0.2807311 -23.77  0.001762894    3.649    0.726
        53 -10.2931    110.9652    102.9665   7.3260908715e+01   4.0256470757e+01    0.2363878    0.2281332 -21.86 0.0005027036    1.008    0.008
        54  -9.8410    163.9977    203.0075   8.2062434431e+01   7.6245864527e+00    0.1771114    0.1614094   2.68   0.00101772    1.002    0.002
        55 -11.2985     81.2119    181.9263   9.8880931887e+01   2.6003265452e+01    0.6100906    0.4970326  79.44   0.00321775    1.305    0.234
        56 -10.8988    192.6079    194.2640   7.4252787448e+01   4.6219246597e+00    0.9201275    0.4643511 -62.58  0.002571601    6.395    0.844
        57 -10.4409     55.0032     95.1386   8.9770275376e+01   5.1524079100e+01    0.3251883    0.2103219  27.96  0.001137989    1.641    0.391
        58  -8.4916     94.6716     82.3086   7.2204392246e+01   4.7856053956e+01    0.1453372    0.1209968  85.09 0.0007039422    1.660    0.398
        59 -10.6939     71.7117    243.2976   1.0866058801e+02   1.3357200058e+01    0.3412689    0.2481906  82.83 0.0009244513    1.451    0.311
        60 -10.7103     97.2166    246.7352   1.0354791475e+02   9.2106247547e+00    0.3928066    0.2235569 -75.35  0.001587187    2.324    0.570
        61 -12.9592    198.3190     44.0266   3.9168090708e+01   3.0731686549e+01    0.7259581    0.6509903  72.62  0.003740722    1.180    0.153
        62 -11.8105    155.9407    226.6709   8.7886631757e+01   4.3148934999e+00    0.5043569    0.2804894 -21.42  0.002107126    2.741    0.635
        63 -10.0646     60.0740     20.9632   6.1722555040e+01   6.4199391671e+01    0.1946252    0.1609602  19.02 0.0005534677    1.015    0.014
        64  -9.3765     59.4173    217.3407   1.0879999560e+02   2.0521488731e+01    0.2612144    0.1690111  60.69 0.0009800075    1.508    0.337
        65 -15.2434     69.6398    148.0348   9.6445822951e+01   3.6313733600e+01     4.116294     2.489012  80.54   0.01183295    2.636    0.621
