#   1 NUMBER                 Running object number                                     
#   2 MAG_AUTO               Kron-like elliptical aperture magnitude                    [mag]
#   3 X_IMAGE                Object position along x                                    [pixel]
#   4 Y_IMAGE                Object position along y                                    [pixel]
#   5 X_WORLD                Barycenter position along world x axis                     [deg]
#   6 Y_WORLD                Barycenter position along world y axis                     [deg]
#   7 A_WORLD                Profile RMS along major axis (world units)                 [deg]
#   8 B_WORLD                Profile RMS along minor axis (world units)                 [deg]
#   9 THETA_WORLD            Position angle (CCW/world-x)                               [deg]
#  10 FWHM_WORLD             FWHM assuming a gaussian core                              [deg]
#  11 ELONGATION             A_IMAGE/B_IMAGE                                           
#  12 ELLIPTICITY            1 - B_IMAGE/A_IMAGE                                       
         1 -14.9625      8.1552     21.7442   1.1777032517e+02   6.8923878018e+01     1.498878    0.5944685 -34.97  0.008508599    1.996    0.499
         2 -12.6090     83.9724     22.3508   8.8928501525e+01   5.9192751600e+01    0.4315122    0.3084618   4.68  0.002069741    1.400    0.286
         3 -12.2747    103.8833      3.1230   7.6366794111e+01   5.7178328718e+01    0.5053822    0.3468264 -35.09  0.003038851    1.740    0.425
         4 -12.2977     75.3598     13.3897   8.8043633270e+01   6.1707283337e+01     0.374989    0.2479957  36.38  0.001334959    1.322    0.244
         5 -12.8463     96.0957      3.3197   7.8300705713e+01   5.8750955161e+01    0.5720783    0.3537412  39.74   0.00244513    1.357    0.263
         6 -13.4282     86.1810      3.7568   8.1039120515e+01   6.0648739577e+01      1.02839    0.3260307  40.51  0.004359641    2.780    0.640
         7 -12.0242     79.6726      2.2047   8.2227564204e+01   6.1994063216e+01    0.4094531    0.2219661  39.08  0.001238019    1.538    0.350
         8 -12.2650     82.1801     13.8140   8.6142074119e+01   6.0449030817e+01    0.2927807    0.2351857  43.31  0.001122457    1.251    0.200
         9 -13.0675     86.9714     11.4657   8.3840731195e+01   5.9794806558e+01    0.6134128    0.4114612  60.88   0.00252248    1.779    0.438
        10 -11.7109    123.9005     10.3370   7.4543922676e+01   5.2232812957e+01    0.2356212    0.2013026  20.86 0.0006227632    1.195    0.163
        11 -11.5621    137.5164      5.8050   7.0491451926e+01   4.9526285836e+01    0.2997713    0.1766993  72.12  0.001352851    1.672    0.402
        12 -12.3544    110.5766      4.5097   7.5359162555e+01   5.5654729606e+01    0.2850977    0.1958189  58.73  0.001651253    1.331    0.249
        13 -11.8713     32.6778      4.0376   9.9549798022e+01   6.8977028875e+01    0.3031174    0.1420389  31.27  0.001623901    2.008    0.502
        14 -12.1052     73.1532      1.5450   8.3864828890e+01   6.3219114874e+01    0.2348668    0.1278614  46.87 0.0005128644    1.630    0.386
        15 -11.5363    134.0649     54.3022   8.6633837772e+01   4.4554060677e+01    0.5612223    0.2703668  66.33  0.002004408    3.029    0.670
        16 -12.4286     71.1376    198.1267   1.3520687984e+02   2.4949764713e+01    0.1943089    0.1773887 -75.38  0.001258276    1.259    0.205
        17 -11.6595    200.8137    194.2367   1.0677603152e+02   2.1663218273e+00    0.3638129    0.2542973  50.52  0.001495898    1.491    0.330
        18 -11.7270    229.3217    191.4966   1.0069871287e+02  -2.6936212728e+00    0.3926719    0.2996303 -26.79   0.00220144    1.278    0.218
        19 -13.1133    191.2919    196.1745   1.0908071127e+02   3.6569054946e+00    0.4929306    0.4028812 -65.21  0.002154648    1.517    0.341
        20 -11.9430     34.0196    177.4443   1.4072879237e+02   3.4297096521e+01    0.2556073    0.2198208  -5.91  0.001681558    1.831    0.454
        21 -11.6122    216.3427    174.8086   9.9766582804e+01   2.6709013603e+00    0.4595006    0.2367329  47.13  0.001969454    1.997    0.499
        22 -11.5183    197.7880    168.5770   1.0215269419e+02   7.6080594101e+00    0.2841379    0.1956438  58.23  0.001013137    1.667    0.400
        23 -11.9286     47.7440    167.2493   1.3649438496e+02   3.5077228135e+01    0.3389249     0.204423   4.15  0.001417922    3.992    0.750
        24 -11.6323    211.8563    164.7916   9.8513209010e+01   5.4324951816e+00    0.5910498    0.2810801  31.92  0.002135601    2.838    0.648
        25 -12.5429    200.4578    155.7763   9.8815309401e+01   9.5642218947e+00    0.9506826    0.4208995 -46.58  0.003542206    2.324    0.570
        26 -13.0931    190.7405    156.4536   1.0097424332e+02   1.1520175753e+01    0.8648669    0.4811635 -39.19   0.00358595    1.840    0.457
        27 -13.1292     59.5581    145.9246   1.3053835987e+02   3.8640048260e+01    0.6658865    0.4659726  68.95  0.003580251    1.588    0.370
        28 -13.6556     51.9734    143.4717   1.3207893289e+02   4.0156930050e+01    0.8899839    0.5179256  64.46  0.004290333    2.144    0.534
        29 -11.7491     75.9809    139.0092   1.2505074689e+02   3.8032982379e+01    0.2273312      0.16735 -31.01  0.001148369    1.727    0.421
        30 -15.5513    149.4992    124.6932   1.0278550099e+02   2.7496043749e+01     2.580951      1.76994  58.68   0.01130199    1.583    0.368
        31 -13.5399    122.7408    127.9808   1.1029727841e+02   3.2462707874e+01    0.7194514     0.388121  53.58  0.002830196    2.091    0.522
        32 -11.3185     79.8757    109.9073   1.1778805629e+02   4.4249546211e+01    0.2152581    0.1760426 -34.11 0.0003826878    1.253    0.202
        33 -13.9287    120.4378    103.9806   1.0483193495e+02   3.8277278477e+01    0.4895248    0.4512038 -36.42  0.002626223    1.078    0.072
        34 -13.5223     17.2335    101.0629   1.3459570068e+02   5.3188588753e+01    0.4192342    0.3534185 -63.71  0.002968566    1.076    0.071
        35 -12.6948    132.4227    103.4458   1.0153372265e+02   3.5859600772e+01    0.3510259    0.2884496   9.88  0.001690305    1.499    0.333
        36 -11.8176     33.7333     89.5390   1.2724626785e+02   5.4357480570e+01    0.2330409    0.1225193  24.93  0.000638283    2.262    0.558
        37 -14.0312     40.2157     92.9487   1.2593791667e+02   5.3007983106e+01    0.6036401      0.47866   2.82  0.003801998    1.492    0.330
        38 -11.7495      5.8967    100.2063   1.3777702090e+02   5.4119350475e+01    0.2089643    0.1424641 -34.07  0.001372992    1.574    0.365
        39 -11.9231     54.6459     95.0196   1.2187251170e+02   5.0987042858e+01    0.3452428    0.2259231 -39.46   0.00128961    1.437    0.304
        40 -10.9196    188.8385     94.8140   8.6397412764e+01   2.4315727313e+01    0.2190524    0.1794423 -77.49 0.0005834008    1.345    0.257
        41 -12.2034     24.1577     89.1789   1.3022611665e+02   5.5243472930e+01    0.2276736    0.1633402 -83.54  0.000459219    1.651    0.394
        42 -12.1039     21.5149     86.4708   1.3051391076e+02   5.6022306877e+01    0.2633272    0.1540613 -49.70  0.001109819    1.350    0.259
        43 -11.0716     89.4743     86.5077   1.0882888312e+02   4.7776694397e+01    0.1406237    0.1314783 -31.40 0.0001358629    1.021    0.021
        44 -11.3536     83.0023     85.9845   1.1065559491e+02   4.8952719097e+01    0.1707822    0.1540602 -33.68 0.0004672494    1.020    0.020
        45 -11.8705     79.3132     86.0137   1.1180504234e+02   4.9529211348e+01      0.20787    0.1849139  24.51 0.0004422882    1.193    0.162
        46 -10.0675      1.7520     83.9951   1.3633385199e+02   5.7796353882e+01    0.1500575   0.07517073 -63.46 0.0004057533    1.516    0.340
        47 -11.0501    128.9710     83.0300   9.6671858596e+01   4.0734051834e+01     0.224243    0.2215801  -6.20 0.0004662828    1.011    0.011
        48 -13.0010     56.5732     77.6708   1.1680920476e+02   5.4403860350e+01    0.2665506    0.1952709 -30.02  0.001185664    1.291    0.226
        49 -10.5779     42.8338     78.1181   1.2153310984e+02   5.5871370040e+01    0.1784485    0.1286866 -29.37 0.0006723053    1.329    0.247
        50 -11.6750     87.5556     69.4826   1.0433956827e+02   5.1427479532e+01    0.2352442    0.1940674 -42.26 0.0005726592    1.213    0.176
        51 -13.1148     97.0227     72.0377   1.0225183840e+02   4.9273736218e+01    0.5942103    0.3579906  24.90  0.001227095    2.051    0.512
        52 -12.1971     90.2738     72.9474   1.0457491784e+02   5.0310884715e+01    0.2582016     0.233639  -7.00 0.0002028248    1.056    0.053
        53 -11.9622     72.8810     74.8738   1.1064690021e+02   5.2745396459e+01    0.2139319    0.1706293 -18.29 0.0008398089    1.253    0.202
        54 -10.6582    120.5268     73.5214   9.6051465795e+01   4.4332684166e+01    0.1443195    0.1405759   9.18 6.602187e-05    1.017    0.017
        55 -10.8751     18.6392     72.1210   1.2833468719e+02   5.9199294625e+01    0.1670472    0.1578696   3.89 0.0005971394    1.292    0.226
        56 -11.4639     76.8307     71.1256   1.0824381796e+02   5.2869136383e+01    0.1936036    0.1478068 -17.13 0.0007595414    1.353    0.261
        57 -12.2869     59.8524     71.1330   1.1385282710e+02   5.5285410551e+01    0.1930405    0.1774024 -58.69  0.001238588    1.274    0.215
        58 -11.0829     83.0791     68.4923   1.0543311770e+02   5.2362986070e+01    0.1922557    0.1320073  35.95 0.0004618178    1.507    0.336
        59 -10.2966    167.6675     63.7370   8.2144624919e+01   3.5008697686e+01    0.1490837    0.1118809  31.51 0.0002383487    1.576    0.366
        60 -12.7818    125.4810     57.5135   8.9755676552e+01   4.5987615455e+01    0.3462313    0.2632687  44.42 0.0006710761    1.255    0.203
        61 -11.0179     52.6402     56.9095   1.1200692605e+02   5.8853124250e+01    0.1972313    0.1559497  -2.73   0.00040567    1.237    0.192
        62 -12.5872     67.2182     53.6673   1.0583784916e+02   5.7459791383e+01    0.3999245    0.3074125 -62.42  0.002007678    1.883    0.469
        63 -10.2334    210.6387     54.2883   7.2321062538e+01   2.5828968605e+01     0.177937    0.1355285 -27.44 0.0006024813    1.532    0.347
        64 -10.3998     93.2202     52.5976   9.7079634561e+01   5.3335107468e+01    0.1812207    0.1201134  31.65 0.0004086346    1.512    0.338
        65 -10.8082     95.0626     49.2892   9.5396095118e+01   5.3511772001e+01    0.1841431    0.1609491  28.94 0.0003509098    1.105    0.095
        66 -12.9258     42.3420     47.7500   1.1279813992e+02   6.1656343182e+01    0.3992532     0.316013 -40.16  0.000642205    1.238    0.192
        67 -12.5741     41.8312     42.7690   1.1130358411e+02   6.2549193009e+01    0.4966789    0.2799014  -3.80  0.002450824    2.360    0.576
        68 -12.2381      2.6926     46.3954   1.2781634059e+02   6.5117828139e+01    0.2946957    0.2090336 -43.16  0.001434857    1.049    0.047
        69 -12.9738    243.1700    247.5571   1.0841146768e+02  -1.3102664007e+01    0.5415556    0.2679308  17.58  0.002600169    2.557    0.609
        70 -10.7170    156.8345     43.9194   7.8535628270e+01   4.0645109393e+01     0.206279     0.180389  32.14 0.0004938769    1.218    0.179
        71 -10.4984    102.4912     43.5325   9.1252914117e+01   5.2933007771e+01    0.1348904    0.1218783  16.82 0.0001477384    1.008    0.008
        72 -10.7718    197.5917     40.9834   7.0863596536e+01   3.0940836361e+01    0.2123179    0.1658567  71.11 0.0001480865    1.176    0.150
        73 -11.3278     82.0159     34.8120   9.4235761945e+01   5.7974079237e+01    0.2275411    0.1759882  -2.86  0.000894774    1.237    0.191
        74 -10.6832    176.4512     33.4653   7.2080748062e+01   3.7175702475e+01    0.1395469    0.1250905  76.92 2.193539e-05    1.005    0.005
        75 -11.6021     41.9705     32.8359   1.0767720341e+02   6.4100894977e+01    0.3177049    0.1531854  17.93  0.001578886    2.545    0.607
        76 -10.5288    140.9901     31.6197   7.7948389962e+01   4.6044440974e+01    0.1878173     0.155982  55.75  0.001071556    1.090    0.083
        77 -11.5277     79.2915     30.2669   9.3398939194e+01   5.9051185768e+01    0.2406665    0.1965678 -16.93  0.001534975    1.181    0.154
        78 -10.0182     37.2511     27.3422   1.0746144697e+02   6.5451094756e+01    0.1179765   0.07159884 -15.55 0.0002382015    1.575    0.365
        79 -12.3634    225.7819    247.5301   1.1151724865e+02  -1.0475440584e+01     0.216554    0.1670154 -21.89  0.001432231    1.377    0.274
        80 -10.2199    150.9924     19.7374   7.2396675858e+01   4.5004452256e+01    0.1726526     0.104349  62.21 0.0003396158    1.451    0.311
        81 -11.8143     64.0551     17.5230   9.3430790342e+01   6.3123841443e+01    0.3846171    0.2101572  46.68  0.001715628    1.987    0.497
        82 -11.8396    184.5968    246.7787   1.1905103803e+02  -3.6264497221e+00    0.1568342    0.1228192 -59.36 0.0009561307    1.699    0.411
        83 -11.9495    193.7894    248.9121   1.1764347149e+02  -5.4918846371e+00    0.2114829    0.1863303 -81.10  0.001388421    1.615    0.381
        84 -12.7128    232.4083    237.7470   1.0868024318e+02  -1.0207026436e+01    0.2522137    0.1756262  19.70  0.001234841    1.286    0.223
        85 -13.0428    238.8873    228.2514   1.0585315121e+02  -9.9230135848e+00    0.4814201    0.3577203  70.70  0.002509356    2.824    0.646
        86 -12.3903    194.6433    229.3651   1.1435512183e+02  -2.6733080063e+00    0.2612388    0.2032734 -11.04  0.001523982    1.490    0.329
        87 -11.4935    215.9814    229.5102   1.1029969362e+02  -6.3759445168e+00    0.2023908    0.1119111  38.79  0.001038246    1.606    0.377
        88 -13.6795    243.9652    220.1335   1.0347714781e+02  -9.5837883711e+00    0.7008529     0.438556 -27.75  0.003991625    1.577    0.366
        89 -11.8160    191.4089    217.1764   1.1290513455e+02  -8.8555029787e-02    0.2326531    0.1520839  44.90  0.001142666    1.417    0.294
        90 -12.4718    177.6724    212.5465   1.1486100629e+02   3.2762143356e+00     0.254033    0.1910005  22.08 0.0008866881    1.457    0.314
        91 -10.6362    250.4786    208.9459   1.0023810575e+02  -9.0042363576e+00    0.1910444    0.1146916 -32.02  0.001036202    1.602    0.376
        92 -13.0746    237.7372    192.8708   9.9416142555e+01  -4.4129792639e+00    0.9048842     0.516386 -40.13  0.004497881    1.763    0.433
        93 -12.5523    185.5966    193.7994   1.0979814637e+02   5.2155168231e+00    0.4582033    0.3405255 -32.72  0.002356183    1.471    0.320
