#   1 NUMBER                 Running object number                                     
#   2 MAG_AUTO               Kron-like elliptical aperture magnitude                    [mag]
#   3 X_IMAGE                Object position along x                                    [pixel]
#   4 Y_IMAGE                Object position along y                                    [pixel]
#   5 X_WORLD                Barycenter position along world x axis                     [deg]
#   6 Y_WORLD                Barycenter position along world y axis                     [deg]
#   7 A_WORLD                Profile RMS along major axis (world units)                 [deg]
#   8 B_WORLD                Profile RMS along minor axis (world units)                 [deg]
#   9 THETA_WORLD            Position angle (CCW/world-x)                               [deg]
#  10 FWHM_WORLD             FWHM assuming a gaussian core                              [deg]
#  11 ELONGATION             A_IMAGE/B_IMAGE                                           
#  12 ELLIPTICITY            1 - B_IMAGE/A_IMAGE                                       
         1 -14.1387    135.4753    124.4118   1.0898821173e+02   3.0606970593e+01     2.918297    0.3753518 -48.51  0.005330077    9.468    0.894
         2 -14.4351    151.2049     58.2050   8.6339452823e+01   3.9846555607e+01     1.328243     1.101211  12.38  0.002349953    1.375    0.273
         3 -14.8523    162.4623     43.4446   7.9315969114e+01   3.9229545434e+01     1.302341     1.067541 -12.40  0.003554654    1.346    0.257
         4 -14.7321    176.2798     10.8824   6.6912649421e+01   3.9539507622e+01     1.245537     1.041755  59.39  0.004413837    1.137    0.120
         5 -11.9991    189.7968     14.5318   6.6296977935e+01   3.5701755267e+01    0.3019932    0.2143237 -25.18  0.001064605    1.523    0.344
         6  99.0000     15.5422    246.7811   1.4964476971e+02   2.3228927100e+01    0.1639991   0.07108528  85.44  0.001036712    2.036    0.509
         7 -20.0608     76.2522    174.1055   1.3242841450e+02   2.9963102341e+01     16.83552     6.848451 -66.50   0.07339716    2.456    0.593
         8 -10.9171     12.9032    242.8192   1.4987559531e+02   2.4162999712e+01    0.1443363    0.1076337 -57.06   0.00112769    2.128    0.530
         9 -10.3370    151.1044    241.7306   1.2609954880e+02   5.6996284192e+00    0.1610852    0.1221616  39.39 0.0005247787    1.104    0.094
        10 -10.5933     24.9161    185.5336   1.4445062244e+02   3.3725830941e+01    0.1692158    0.1235494 -77.97 0.0003776703    1.254    0.202
        11 -12.7408    118.2404    181.4539   1.2421580068e+02   2.1755749285e+01    0.6489187    0.3335697  67.42  0.002423396    3.305    0.697
        12 -10.7831     31.3413    182.6080   1.4293137344e+02   3.3674290642e+01    0.2907094    0.1771497  20.88  0.001656575    2.563    0.610
        13 -10.9998     27.3432    179.8930   1.4352042779e+02   3.4655241985e+01    0.3022262    0.2106948 -34.21  0.001808801    2.522    0.604
        14 -12.5903    199.1609    178.8681   1.0695501422e+02   7.0609102480e+00    0.5233344    0.3384457 -65.37  0.002267755    2.876    0.652
        15 -13.5252    195.3039    168.7981   1.0569688683e+02   9.4876607373e+00    0.4938282    0.4424409 -38.13 0.0007113495    1.205    0.170
        16 -10.9984    218.6461    178.6801   1.0326893117e+02   3.4440266582e+00    0.1429577   0.09560481  10.83 6.901905e-05    1.751    0.429
        17 -14.6845    138.2533    171.2354   1.1810857802e+02   2.0207683012e+01     1.175824    0.8179885  49.33  0.006036401    1.352    0.260
        18 -14.6421    145.0126    169.4650   1.1630103505e+02   1.9277127603e+01     1.019207    0.6569212  70.34  0.004502157    2.192    0.544
        19 -11.9757     26.1528    173.5308   1.4323819316e+02   3.6120145898e+01    0.2398848    0.1742086  85.19 0.0003497259    1.086    0.079
        20 -12.4430    165.6039    172.1332   1.1239287371e+02   1.4758099223e+01    0.3176497    0.2193655 -58.48  0.001121956    1.744    0.427
        21 -12.3147    126.0171    171.8921   1.2093355222e+02   2.2334153503e+01    0.3157904    0.2908505 -76.26 0.0009747676    1.112    0.101
        22 -10.8130     28.7156    239.9356   1.4724239182e+02   2.3000354037e+01    0.1412479   0.09070244  69.64 0.0004017115    1.122    0.109
        23 -11.8835    185.0993    169.2167   1.0780880937e+02   1.1433623938e+01    0.2594358    0.1889201 -70.30 0.0009589707    2.073    0.518
        24 -11.4039     21.7034    238.4299   1.4828846764e+02   2.4010154313e+01    0.1112648   0.09284868  72.35 0.0009383007    1.323    0.244
        25 -12.0852    230.1872    166.8849   9.8812274368e+01   3.1054106650e+00    0.2839549    0.1779856 -43.60  0.001430332    1.802    0.445
        26 -12.3206    122.0324    165.4646   1.2070932374e+02   2.4394752632e+01      0.61033    0.2694747  58.73  0.002090846    3.398    0.706
        27 -10.8299    131.1824    235.7255   1.2898997989e+02   9.7854771139e+00    0.1691764    0.1396418 -76.83 0.0005628251    1.432    0.302
        28 -13.3775    160.0438    162.1112   1.1160534822e+02   1.7769859745e+01    0.3860687     0.343854  50.93   0.00216234    1.086    0.079
        29 -12.5764    129.4377    161.6185   1.1832114203e+02   2.3839128377e+01     0.507238      0.24803  41.30  0.001323931    1.992    0.498
        30 -11.1475    139.1686    250.2345   1.2922269461e+02   6.3442109241e+00    0.2110904    0.1539819  43.12  0.001447421    1.098    0.089
        31 -12.1841    191.1609    157.7984   1.0422531027e+02   1.2236351953e+01     0.389267    0.2870756  12.75  0.001914163    1.628    0.386
        32 -10.6755    126.8886    250.8695   1.3144162055e+02   8.1328306134e+00     0.139414   0.06105296  41.63            0    1.812    0.448
        33 -11.6921     17.9208    156.2986   1.4351828216e+02   4.0616963782e+01    0.4134192    0.1855885 -69.92  0.002248691    1.805    0.446
        34 -15.0475    134.1917    146.1989   1.1417364075e+02   2.6190587206e+01     1.812809     0.699744 -57.93   0.00580357    3.548    0.718
        35 -13.2610    160.3149    152.3165   1.0952246330e+02   1.9637523107e+01    0.4199986    0.3162818  21.92   0.00130421    1.574    0.365
        36 -10.7972     22.9872    156.0515   1.4236273421e+02   4.0213668749e+01    0.1768489    0.1408404 -89.55 0.0003978623    1.032    0.031
        37 -13.5309    162.8594    154.6311   1.0945650837e+02   1.8657657532e+01    0.4748991    0.3783328 -41.20  0.002108876    1.310    0.237
        38 -12.8242    193.0014    164.2731   1.0522074392e+02   1.0724599175e+01    0.4806262    0.3080443  38.72   0.00190692    1.495    0.331
        39 -14.7873    144.1003    143.8594   1.1136209402e+02   2.4695139504e+01     1.154396     0.667358 -64.38  0.004588326    2.383    0.580
        40 -12.7567    174.2297    148.7401   1.0574795082e+02   1.7429566165e+01    0.3736882    0.3268322 -53.54  0.001112644    1.231    0.188
        41 -10.8456     17.1050    224.8281   1.4834242863e+02   2.6892549647e+01    0.1253847   0.08073675 -83.40 0.0006920876    1.384    0.277
        42 -12.0476     27.3601    145.6147   1.4029195281e+02   4.2130400569e+01    0.2648069    0.2391625 -60.27 0.0009833833    1.310    0.237
        43 -10.8160    133.5598    248.5591   1.3002287101e+02   7.4541915266e+00    0.1206968    0.1018844  70.19 0.0001175031    1.240    0.193
        44 -11.2441      8.8376    137.8826   1.4392936721e+02   4.5423973505e+01    0.3046974    0.1611237 -56.23  0.001483859    1.826    0.452
        45 -11.8104    172.1597    138.5055   1.0388494380e+02   1.9847637469e+01     0.240246    0.2115103 -73.12 0.0007648524    1.309    0.236
        46 -13.1672    160.7226    128.0912   1.0394308135e+02   2.4413507727e+01    0.4912831    0.3957458 -63.31  0.001819625    1.401    0.286
        47 -12.8120     22.7548    220.2873   1.4714157159e+02   2.7143928123e+01    0.2593878    0.1557476 -70.02  0.001695467    1.714    0.417
        48 -11.9534    140.4412    120.9086   1.0692778238e+02   3.0307500015e+01    0.3397722    0.2601089  66.82  0.001103852    1.503    0.335
        49 -11.3209    167.4972    112.8005   9.8608464890e+01   2.5935097112e+01    0.3081898    0.2498039 -86.85   0.00142215    1.560    0.359
        50 -13.3606    125.1220    241.4655   1.3074248977e+02   9.8329423807e+00    0.4632899     0.166993 -54.45  0.002208658    3.382    0.704
        51 -10.2034    163.1936    250.6101   1.2505351173e+02   2.5456616472e+00    0.1598595   0.08823833  35.24 0.0002279976    1.547    0.353
        52 -10.7162    130.7537    213.6120   1.2629253499e+02   1.3537818509e+01    0.1890808    0.1390378  86.01 0.0006606469    1.663    0.399
        53 -10.8062    205.2214    110.1792   9.0338041522e+01   1.7690938989e+01    0.3006999    0.2005377  39.40 0.0009244975    1.602    0.376
        54 -10.3936     15.8047    209.6244   1.4773670152e+02   2.9848247249e+01    0.1011377   0.08449914 -53.97 0.0004038464    1.799    0.444
        55 -11.6029     37.1970    102.0802   1.3147794523e+02   5.1186048500e+01    0.2330865    0.1897715  -1.10 0.0007241021    1.595    0.373
        56 -13.1426     11.4036    206.0928   1.4831300715e+02   3.0948242306e+01    0.3682582     0.240411  35.64  0.002195934    1.818    0.450
        57  -9.6961     22.8467    205.0450   1.4620211837e+02   3.0024237323e+01     0.190509     0.140389 -37.34  0.001132539    2.504    0.601
        58 -10.5921    144.0030     80.7553   9.5041860227e+01   3.7640071540e+01    0.2132302     0.204289  51.01 0.0004442952    1.056    0.053
        59 -11.1286    139.9085    200.2952   1.2256512700e+02   1.4344043728e+01    0.3552471    0.2119679  40.41 0.0008242003    1.515    0.340
        60 -11.2970    134.0961    244.4389   1.2946793846e+02   7.9845715190e+00    0.2180902    0.1667861 -36.72  0.001300195    1.835    0.455
        61 -11.3269    138.8420    242.8937   1.2844156236e+02   7.4732471588e+00    0.3101428    0.2207671 -66.40  0.001894397    1.799    0.444
        62 -13.1599    166.4418     35.1030   7.5940076281e+01   3.9328317275e+01     0.439963    0.4258147 -89.67 0.0008247818    1.033    0.032
        63 -11.0364     13.5266     59.9700   1.3084599465e+02   6.2422874194e+01    0.1795056    0.1592163  57.73 0.0005090346    1.452    0.311
        64 -10.5332    144.3479     33.8798   7.9665587444e+01   4.5095356800e+01    0.2443472    0.1913415  73.81 0.0006211381    1.369    0.269
        65 -10.1545    160.3103    247.6759   1.2519690422e+02   3.3969016356e+00    0.2107262    0.1411579  15.25  0.001003303    2.062    0.515
