#   1 NUMBER                 Running object number                                     
#   2 MAG_AUTO               Kron-like elliptical aperture magnitude                    [mag]
#   3 X_IMAGE                Object position along x                                    [pixel]
#   4 Y_IMAGE                Object position along y                                    [pixel]
#   5 X_WORLD                Barycenter position along world x axis                     [deg]
#   6 Y_WORLD                Barycenter position along world y axis                     [deg]
#   7 A_WORLD                Profile RMS along major axis (world units)                 [deg]
#   8 B_WORLD                Profile RMS along minor axis (world units)                 [deg]
#   9 THETA_WORLD            Position angle (CCW/world-x)                               [deg]
#  10 FWHM_WORLD             FWHM assuming a gaussian core                              [deg]
#  11 ELONGATION             A_IMAGE/B_IMAGE                                           
#  12 ELLIPTICITY            1 - B_IMAGE/A_IMAGE                                       
         1 -19.3357    221.4747     80.8014   3.7890376870e+01   1.8898401522e+01     10.86096     7.742774 -34.89   0.05661034    1.325    0.246
         2 -16.8876    144.3377     49.6815   4.3006279269e+01   4.2493964908e+01     4.759416      3.38944 -15.60   0.02258466    1.666    0.400
         3 -13.6452    121.3113      8.8758   3.3776693271e+01   5.3127781716e+01    0.7455828    0.3355299   1.11  0.002616465    4.155    0.759
         4 -13.6747    131.2680      6.9107   3.1174841930e+01   5.0858965806e+01    0.5125302    0.2904491  30.99  0.002404541    2.064    0.515
         5 -11.1403    189.4878    148.4857   5.9948987613e+01   1.3688399340e+01    0.2894422    0.2221499 -80.56   0.00124404    2.081    0.519
         6 -10.2775    202.0099    248.0097   7.5824710532e+01  -4.7240937224e+00    0.1429752    0.1107546  16.58 0.0003254267    1.027    0.026
         7 -12.2568    182.6490    212.1628   7.3929186870e+01   3.4999996185e+00    0.2596092    0.1732361  47.64   0.00106883    1.640    0.390
         8 -15.7216     28.0149    146.9070   1.0164862460e+02   4.1179267322e+01     1.469771     1.052947 -59.44  0.007372557    1.328    0.247
         9 -11.7595    162.3062    157.9184   6.8053073720e+01   1.7325029174e+01    0.2174459    0.1923071 -31.62  0.001144187    1.153    0.133
        10 -13.1273    169.0570    135.7647   6.1497007431e+01   2.0481111172e+01    0.5023653    0.2503352  58.88  0.001688845    3.018    0.669
        11 -13.3867    141.8024    131.4140   6.7053602640e+01   2.7235721681e+01    0.5209286    0.4016296 -79.89  0.002333312    1.758    0.431
        12 -12.7778    143.5560    145.6728   6.9900558850e+01   2.3730855578e+01    0.6470976    0.3552263 -67.25  0.002141222    3.346    0.701
        13 -14.1920    161.1819    128.4048   6.1555514492e+01   2.3709481867e+01    0.8389866    0.5461271  38.00  0.003183655    1.564    0.361
        14 -10.8582    177.7928    110.3242   5.3249659928e+01   2.3631630155e+01    0.2923622    0.2281964  27.51 0.0006470898    1.424    0.298
        15 -14.1118    185.0720    122.1880   5.4694443884e+01   1.9696914971e+01    0.9291058    0.6203009 -47.60  0.004200807    1.553    0.356
        16 -13.8645    166.1788    116.5913   5.7433543833e+01   2.5031926914e+01    0.8798519    0.6550191  23.85  0.003427669    1.566    0.361
        17 -12.6888    203.8815    152.3039   5.7855486897e+01   1.0115305836e+01    0.4074809    0.3442466 -20.44   0.00222491    1.122    0.109
        18 -14.0322    155.9322    118.9883   6.0457936631e+01   2.6840326160e+01    0.5804477    0.4716057  78.51     0.002715    1.560    0.359
        19 -12.5631    177.5873    121.5915   5.6145962210e+01   2.1470939819e+01    0.4014272    0.3321453 -68.98 0.0008451591    1.469    0.319
        20 -10.7865     97.7837    123.2204   7.7293374639e+01   3.7783804888e+01    0.2053408    0.1784083 -14.49 0.0005514844    1.304    0.233
        21 -12.3226    151.3317    122.0333   6.2352518351e+01   2.7216474306e+01    0.2957598    0.2256982  16.24  0.001099422    1.590    0.371
        22 -14.2526    172.0468    123.6039   5.7869646886e+01   2.2300085069e+01    0.6885923    0.5308674 -79.65  0.002821063    1.835    0.455
        23 -12.4601    129.5705    128.7777   6.9621183114e+01   3.0372647870e+01    0.3604935    0.2296413 -64.36  0.001124988    2.018    0.504
        24 -13.0284    133.5105    145.0114   7.2304777924e+01   2.5902318936e+01    0.9710913    0.2800296 -54.00  0.002568537    4.566    0.781
        25 -12.3867    132.3496    138.2003   7.1084752963e+01   2.7672042212e+01     0.366619    0.2711093 -57.09 0.0009047546    1.452    0.311
        26 -12.2897    172.5322    149.9846   6.3978270385e+01   1.6861935524e+01    0.2788497    0.2521774  -0.58 0.0007080667    1.104    0.094
        27 -10.9490    157.8044    192.5647   7.5849281810e+01   1.1283155381e+01    0.2037307    0.1844279  62.14 0.0004598133    1.269    0.212
        28 -13.1498    157.1365     79.7227   4.9394301671e+01   3.4326617530e+01    0.5785486    0.4125303  84.90  0.002467512    1.968    0.492
        29 -13.0954    158.3352     73.0995   4.7181210134e+01   3.5213339459e+01    0.5166596    0.2915434 -44.68  0.001250496    1.838    0.456
        30 -12.4753    199.7867    182.3717   6.4949455884e+01   5.5534334472e+00    0.2730832     0.226556  62.52 0.0009418644    1.675    0.403
        31 -11.6258    185.7692     64.9004   3.9478060327e+01   2.9796542151e+01    0.2410603    0.2249996  35.33 0.0003295122    1.159    0.137
        32 -12.2503    172.6750    145.3507   6.2901847580e+01   1.7766345838e+01    0.3735959    0.3000145 -73.79  0.001320707    1.677    0.404
        33 -11.6596    184.3941     56.1003   3.7277215714e+01   3.1487981438e+01    0.3129654    0.2348396 -25.06 0.0008675657    1.465    0.317
        34 -11.7806    179.1620     49.8172   3.6381978392e+01   3.3712710012e+01    0.6217042    0.3923306  15.45  0.002485266    2.767    0.639
        35 -11.2569    183.0789     30.1388   3.0245085705e+01   3.5339793738e+01     0.219201    0.1975675  -6.01 0.0002983107    1.323    0.244
        36 -10.8367    182.7948     34.2214   3.1422316799e+01   3.4905084233e+01    0.3145789    0.2670668  35.90  0.001174064    1.353    0.261
        37 -13.7866    186.9389     45.9409   3.4058641913e+01   3.2319157063e+01     0.578009    0.4083004 -26.94  0.001988921    1.546    0.353
        38 -13.1815    179.6002     39.9690   3.3516300599e+01   3.4962889416e+01    0.4403721    0.3594394 -73.65  0.001618626    1.258    0.205
        39 -13.0411    118.0823     43.3994   4.7195847677e+01   4.9793851994e+01    0.2696901    0.2156226 -37.72 0.0004298704    1.340    0.254
        40 -14.0581    186.5073    172.6430   6.5752653976e+01   9.7237168379e+00     0.697511    0.4593348 -69.08  0.002819919    2.976    0.664
        41 -11.5053    195.3747     28.1070   2.8084469951e+01   3.2539818199e+01    0.7234128    0.4766539  28.63  0.003330356    2.226    0.551
        42 -13.9679     53.0012    138.7025   9.3576845725e+01   4.0580779068e+01    0.4943469    0.4728813 -37.10 0.0008676269    1.177    0.150
        43 -11.9559    190.0706     36.4939   3.1019874307e+01   3.2803941171e+01    0.4472383    0.2534556  78.32  0.002016404    1.897    0.473
        44 -16.2678     64.7002    134.9090   8.9531870013e+01   4.0048925305e+01     2.176201     1.852465  14.46  0.005744569    1.371    0.271
        45 -11.9905    240.3240     25.2412   2.2759115876e+01   2.2511878550e+01    0.2855119     0.202747 -34.57  0.001268215    1.420    0.296
        46 -11.0924    169.7144     21.4659   2.9661034261e+01   3.9714998591e+01    0.3073651    0.1894747 -19.91  0.001404572    1.936    0.484
        47 -11.5406    179.4855    209.4816   7.4126604287e+01   4.4725219317e+00    0.2379637    0.1178001  37.12  0.001095094    1.782    0.439
        48 -13.3996    176.4979    174.0232   6.8190320280e+01   1.1359974877e+01    0.3957663    0.3656968  25.67  0.001066819    1.066    0.062
        49 -12.9026    209.1545    169.9870   6.0581508309e+01   5.9997506059e+00    0.3499938    0.3000478  48.56 0.0009271844    1.384    0.277
        50 -14.2015    190.4620    109.7959   5.0501535607e+01   2.0851200775e+01    0.6969523    0.5892155 -76.37  0.003522406    1.427    0.299
        51 -13.5627    200.1433    164.2976   6.1188942550e+01   8.6683145444e+00    0.9278265    0.5559253 -67.84  0.002965154    4.901    0.796
        52 -13.8124    192.5715    154.2266   6.0576805368e+01   1.1983965875e+01    0.7686921    0.4862206  43.88  0.003236377    1.600    0.375
        53 -15.3944     13.9343    142.2903   1.0493824342e+02   4.3455606151e+01     2.532399       1.1992 -75.47   0.01280743    1.762    0.432
