#   1 NUMBER                 Running object number                                     
#   2 MAG_AUTO               Kron-like elliptical aperture magnitude                    [mag]
#   3 X_IMAGE                Object position along x                                    [pixel]
#   4 Y_IMAGE                Object position along y                                    [pixel]
#   5 X_WORLD                Barycenter position along world x axis                     [deg]
#   6 Y_WORLD                Barycenter position along world y axis                     [deg]
#   7 A_WORLD                Profile RMS along major axis (world units)                 [deg]
#   8 B_WORLD                Profile RMS along minor axis (world units)                 [deg]
#   9 THETA_WORLD            Position angle (CCW/world-x)                               [deg]
#  10 FWHM_WORLD             FWHM assuming a gaussian core                              [deg]
#  11 ELONGATION             A_IMAGE/B_IMAGE                                           
#  12 ELLIPTICITY            1 - B_IMAGE/A_IMAGE                                       
         1 -10.9793    241.5012     18.0189   2.8918933344e+02   6.0587351165e+00    0.0196387   0.01797065  19.58  0.001310302    1.079    0.073
         2  -9.6094    141.6969     20.2562   2.9037094617e+02   6.6568845227e+00    0.0256723   0.01085594 -41.75  0.001892059    2.811    0.644
         3 -10.9852    244.3462     11.5618   2.8911533257e+02   6.1141006788e+00   0.02886005   0.01259565  31.53  0.002455158    2.169    0.539
         4  -9.5195    201.6828     11.7915   2.8961545575e+02   6.3783999548e+00   0.01432672  0.009554368   6.74  0.001190782    1.804    0.446
         5 -10.2607    229.5255      9.1368   2.8927318354e+02   6.2343478881e+00   0.01453245   0.01054647 -42.34 0.0008735288    1.427    0.299
         6  -9.6216    211.3162      7.8820   2.8947812305e+02   6.3624839553e+00   0.01892859   0.01049367 -61.97  0.001157461    1.861    0.463
         7  -8.9605    138.9482      6.9636   2.9031933113e+02   6.8247978035e+00   0.02258411  0.008831574 -40.67  0.001615094    3.323    0.699
         8 -10.7332    243.8341      6.0705   2.8908663842e+02   6.1795274619e+00   0.02542431   0.01062619  45.98  0.001984627    2.727    0.633
         9  -7.9402    111.3007      7.6665   2.9064773635e+02   6.9890680704e+00  0.006933061  0.005062089  64.25 0.0006319693    1.654    0.395
        10 -10.0495    249.6153      3.9264   2.8900556836e+02   6.1676175269e+00   0.01832367   0.01404891 -72.54  0.002016328    1.426    0.299
        11  -9.6850    222.9936      5.9857   2.8932963086e+02   6.3109299964e+00   0.01083237  0.007706602  59.86 0.0004881676    1.661    0.398
        12  -8.3564    180.2531      6.4136   2.8983222810e+02   6.5732769347e+00   0.00935578  0.005930902  39.31 0.0005845148    1.553    0.356
        13  -8.5751    133.9888      3.7437   2.9035712609e+02   6.8922307833e+00  0.009186896  0.008797104  20.22  0.000445792    1.023    0.023
        14  -8.6718    109.1389      2.8262   2.9064256636e+02   7.0574290927e+00   0.01023701  0.009044195  61.03  0.000858757    1.215    0.177
        15  -9.3355    236.3710    229.6629   2.9058129014e+02   3.6885544242e+00   0.01922755   0.01216704  89.35  0.001645012    2.313    0.568
        16  -9.5755    239.2896    221.4576   2.9049576140e+02   3.7635588516e+00   0.01946958    0.0145308  58.29  0.002089269    1.525    0.344
        17 -10.8566    233.2114    246.3382   2.9072272531e+02   3.5188472617e+00   0.04322549   0.02320218 -45.44  0.003995506    1.937    0.484
        18 -10.6795    224.5920    244.8751   2.9081408803e+02   3.5891382810e+00   0.04147225   0.01954449 -73.14  0.003238139    2.954    0.661
        19 -10.3631    232.1648    237.5956   2.9068011012e+02   3.6246596066e+00   0.02779104   0.01880547  84.82  0.002268564    2.044    0.511
        20 -11.9272    248.3883    238.5076   2.9049662875e+02   3.5132397427e+00   0.09676979   0.02648561 -65.40  0.005675059    4.959    0.798
        21 -10.9690    242.7653    245.9646   2.9060896671e+02   3.4635870282e+00   0.03329558   0.01754025 -50.56   0.00220897    1.882    0.469
        22 -10.9465    241.3893    238.3316   2.9057714071e+02   3.5588409730e+00   0.03435634   0.01684501 -52.16  0.002578709    1.998    0.500
        23  -8.9880    200.1116    249.7670   2.9113036363e+02   3.6859563259e+00   0.01338454  0.007926144 -34.16  0.001232773    2.027    0.507
        24  -8.8625    185.9868    229.9915   2.9117132284e+02   3.9985594247e+00  0.008182644  0.007940463 -49.38  0.001008433    1.046    0.044
        25  -8.8873    174.7921    229.6140   2.9129966817e+02   4.0725076571e+00   0.01007797  0.005788365  38.22 0.0009570001    1.697    0.411
        26  -8.7852    223.0967    226.6957   2.9071753302e+02   3.8049498890e+00   0.01326169   0.00965037 -52.83  0.001431344    1.374    0.272
        27  -9.1166    161.6260    225.8452   2.9142981997e+02   4.1972445442e+00  0.009627961  0.006483072 -76.71 0.0009535677    1.763    0.433
        28  -8.5247    199.5072    224.9109   2.9098163960e+02   3.9721313751e+00   0.01018368  0.006611225 -61.01  0.001026706    1.572    0.364
        29  -8.8224    216.5563    222.8452   2.9076969897e+02   3.8894303527e+00   0.01633818  0.006871384 -64.70  0.001296311    2.630    0.620
        30  -8.5243    206.6524    223.5519   2.9088971631e+02   3.9430819365e+00   0.01185731    0.0063346 -61.86 0.0009588014    1.926    0.481
        31  -9.5294    227.2726    220.6553   2.9063091633e+02   3.8475488702e+00    0.0195777   0.01282106  65.28  0.001871712    2.030    0.507
        32  -8.9196    191.9646    220.5191   2.9104215755e+02   4.0689927111e+00   0.01266799  0.009831119 -89.30  0.001371441    1.539    0.350
        33 -10.0748    248.4336    215.8811   2.9035410631e+02   3.7698988142e+00   0.03070141    0.0191295  84.30  0.002715886    2.493    0.599
        34  -8.3805    168.7449    216.0140   2.9128507132e+02   4.2647037687e+00  0.008593066  0.005768026 -61.18 0.0007935571    1.522    0.343
        35  -9.2512    232.7425    214.3100   2.9052728052e+02   3.8855391434e+00   0.01464797   0.01258657 -56.78  0.001510447    1.178    0.151
        36  -9.0085    185.5173    212.5213   2.9106729304e+02   4.2000130724e+00   0.01229858   0.01114745 -56.00 0.0009625491    1.119    0.106
        37  -9.7577    215.0482    209.3349   2.9070253864e+02   4.0523066752e+00   0.02222984   0.01467157 -41.60  0.002269508    1.598    0.374
        38  -9.2728    204.3604    207.8780   2.9081815652e+02   4.1354389622e+00   0.02160458  0.006788806 -55.75  0.001589343    2.947    0.661
        39  -8.4128    192.0000    208.0188   2.9096335487e+02   4.2108174518e+00    0.0109885  0.003811806 -61.07 0.0008012971    2.935    0.659
        40  -8.4658    246.4656    205.9957   2.9031499413e+02   3.8944277500e+00  0.009911537  0.006557764 -59.63 0.0005311792    1.530    0.346
        41  -7.8540    196.6767    204.6994   2.9088792484e+02   4.2194119005e+00  0.006954423   0.00503637 -22.57 0.0007027236    1.631    0.387
        42  -8.7114    243.6917    201.9470   2.9032192830e+02   3.9577008014e+00  0.009550838  0.008527322 -59.42 0.0007455143    1.142    0.124
        43  -9.1087    228.5614    200.7167   2.9049073580e+02   4.0659971248e+00   0.01258724  0.006111939 -55.18 0.0009601709    2.010    0.502
        44  -8.2218    210.5234    201.4601   2.9070593614e+02   4.1699622753e+00  0.006629641  0.006430577  -1.88 0.0001920742    1.023    0.022
        45  -9.1570    236.6051    207.7277   2.9044089781e+02   3.9362264431e+00    0.0185824   0.01210976 -77.99  0.001817002    1.885    0.470
        46  -9.0702    237.0372    196.8736   2.9036770239e+02   4.0568098222e+00   0.01188404   0.01132028  25.59  0.001327733    1.031    0.030
        47  -8.5919    209.7506    195.7181   2.9067891780e+02   4.2400128780e+00   0.01091157  0.007019381  63.36 0.0008681734    2.053    0.513
        48 -10.0210    247.0593    192.6568   2.9022429075e+02   4.0422040404e+00   0.02146821   0.01683085 -57.26  0.002372478    1.287    0.223
        49  -8.3760    231.5656    194.7918   2.9041847468e+02   4.1145676821e+00  0.008972622  0.006576876 -79.65 0.0005638375    1.598    0.374
        50  -9.0727    223.7463    191.3901   2.9048836990e+02   4.2019526830e+00    0.0128363   0.01112076  56.30  0.001133258    1.226    0.184
        51  -8.5890    215.6565    194.2848   2.9060097497e+02   4.2194927296e+00   0.01114792   0.00772234  64.13  0.001109617    1.807    0.447
        52  -8.0106    238.2900    187.3408   2.9029320757e+02   4.1572658465e+00  0.007023717  0.004956088 -27.89 0.0007024017    1.647    0.393
        53  -8.8078    230.9231    186.9789   2.9037690210e+02   4.2073143840e+00   0.01255823  0.009798378 -74.70  0.001384121    1.413    0.292
        54  -8.5656    249.7440    178.0409   2.9010112993e+02   4.1914319164e+00  0.009484918  0.008413827 -50.32 0.0006347439    1.136    0.120
        55  -8.6357    240.8121    149.1810   2.9002390505e+02   4.5748782590e+00   0.01004228  0.008707058  59.43 0.0005739938    1.239    0.193
        56  -8.2749     83.5135    141.0207   2.9181162221e+02   5.6470942586e+00  0.009158893  0.005826558  81.43  0.000807869    2.375    0.579
        57  -8.1829     96.7209    135.6465   2.9162331334e+02   5.6261745238e+00  0.007040333  0.004914836 -29.55 0.0007011587    1.652    0.395
        58  -8.4391    121.7767    133.9361   2.9131934076e+02   5.4898751996e+00  0.008688256  0.005439681 -58.76 0.0002903823    1.606    0.377
        59  -8.4336    235.9309    129.9923   2.8996016460e+02   4.8232260074e+00   0.01053324  0.007720642  61.33  0.000580429    1.605    0.377
        60  -8.1228    200.6519    125.2910   2.9034265295e+02   5.0967861554e+00  0.007041021   0.00494954  58.22 0.0007027602    1.665    0.400
        61  -7.9732    212.6641    123.6690   2.9019210163e+02   5.0402591435e+00  0.007172944   0.00499246 -24.15 0.0007052137    1.732    0.423
        62  -8.2582    171.4605    122.5261   2.9066648579e+02   5.3102078362e+00  0.006655341  0.006403209 -11.23 -4.772407e-05    1.041    0.039
        63  -8.3236    232.3668    121.2022   2.8994645915e+02   4.9452776683e+00  0.009003376  0.006459473 -74.24 0.0005865722    1.575    0.365
        64  -9.0212    192.0723    118.5302   2.9040039297e+02   5.2270893877e+00   0.01169666  0.009354034  86.63 0.0005666982    1.479    0.324
        65  -8.1589    110.8064    115.3753   2.9133119240e+02   5.7690502873e+00  0.009513739  0.006345104  13.06 0.0009420516    1.679    0.405
        66  -8.2234    209.2334    114.4066   2.9017390025e+02   5.1668508738e+00  0.009399982  0.005898882  39.47 0.0005385971    1.571    0.363
        67  -8.4977    154.0409    114.7028   2.9082103006e+02   5.5076229535e+00   0.01150872  0.003537164  45.45  0.000703209    4.160    0.760
        68  -8.4457    242.4270    112.9538   2.8977707210e+02   4.9760838159e+00   0.01460717  0.006845242  56.57  0.001038852    3.506    0.715
        69  -8.6379     25.7044    111.4252   2.9230322043e+02   6.3419866162e+00   0.01199025  0.007616097 -38.31   0.00117647    1.731    0.422
        70  -8.4824    237.0341    107.4954   2.8980566822e+02   5.0717301769e+00   0.01018472   0.00655259  24.69   0.00101768    1.560    0.359
        71  -8.3197    197.3641    107.2535   2.9026759173e+02   5.3221451874e+00  0.009040536  0.006449947 -74.56 0.0004741168    1.591    0.371
        72  -7.9689    108.5197    106.5253   2.9130237734e+02   5.8838440986e+00   0.00663194  0.006437588  40.72 8.372116e-05    1.039    0.037
        73  -8.8320    119.6311    105.2280   2.9116414439e+02   5.8294815211e+00  0.009755758  0.005825014 -49.52 0.0005938688    1.676    0.403
        74  -8.9442    228.8855    104.1877   2.8987999995e+02   5.1601751310e+00   0.01022545  0.008837908  50.33  0.000516708    1.198    0.166
        75  -9.1973    247.0260    102.7011   2.8965881461e+02   5.0637170706e+00    0.0113786  0.009694963 -66.27 0.0005954317    1.220    0.181
        76  -8.5728    195.8355    101.8732   2.9025159611e+02   5.3927788907e+00  0.009216289  0.007794867  62.31 0.0006329679    1.298    0.230
        77  -8.6811    205.4248     98.4675   2.9011807940e+02   5.3716031836e+00   0.01398352  0.008713173 -40.17  0.001367428    1.739    0.425
        78  -9.4394    234.0753     95.7005   2.8976593554e+02   5.2240904307e+00   0.01799788    0.0101666 -68.76  0.001662328    2.007    0.502
        79  -8.7567    171.9782     96.0234   2.9049373351e+02   5.6080187454e+00   0.01107318  0.007862736  64.01  0.001024215    1.729    0.422
        80  -8.6795    150.9484     92.7055   2.9071887858e+02   5.7767756553e+00  0.009566354  0.008327204  29.20 0.0005803289    1.125    0.111
        81  -8.3063    250.5150     88.4850   2.8952852116e+02   5.2032297141e+00   0.00668591  0.006390527 -12.40 -2.762494e-05    1.052    0.050
        82  -8.5752    235.9830     86.9359   2.8968844131e+02   5.3116392947e+00  0.008082855  0.007672079 -53.72 0.0007131486    1.070    0.065
        83  -8.1993    207.4681     87.5675   2.9002556245e+02   5.4825923787e+00  0.006611873   0.00639914  34.91 0.0001352535    1.031    0.030
        84  -8.6687    186.0383     83.9266   2.9025316031e+02   5.6576850022e+00   0.01642369  0.007224618 -46.87  0.001362506    2.350    0.575
        85  -8.5859    172.2162     84.4246   2.9041795046e+02   5.7382520596e+00  0.009844912  0.005817623  40.02 0.0009448625    1.673    0.402
        86  -9.0585    244.9833     80.7065   2.8954408424e+02   5.3260688845e+00   0.01205509  0.009372818  72.88 0.0008205283    1.547    0.354
        87  -8.0644    175.6206     79.3008   2.9034587158e+02   5.7751963058e+00  0.007231737  0.004886685  58.09 0.0007024481    1.768    0.434
        88  -9.7377    240.3218     76.1087   2.8956953991e+02   5.4073773149e+00   0.01718377   0.01051302 -41.85  0.001443376    1.745    0.427
        89  -8.8483    189.0832     75.4236   2.9016400651e+02   5.7352149539e+00    0.0262765   0.01334716  73.94  0.001475774    6.269    0.840
        90  -9.1546     44.5073     77.0066   2.9186696340e+02   6.6167163315e+00  0.009466378  0.005862875  83.24 0.0008103839    2.537    0.606
        91  -9.1925    249.6064     76.1956   2.8946167350e+02   5.3483402334e+00  0.009914536  0.005872614 -49.19 0.0009547749    1.693    0.409
        92  -8.7959    139.6836     75.3433   2.9074148193e+02   6.0441432227e+00  0.007070997  0.005037856  63.66 0.0006945846    1.714    0.417
        93  -8.9627     62.8065     75.2190   2.9164123461e+02   6.5235360746e+00   0.01197996  0.006627757  62.99 0.0009592468    2.844    0.648
        94  -7.8910    208.2581     74.3571   2.8993311356e+02   5.6276048509e+00  0.006957103  0.004874846 -31.55 0.0003131295    1.618    0.382
        95 -10.0435    230.0590     70.7449   2.8965560184e+02   5.5323860493e+00   0.01825342   0.00979289 -81.22  0.001454315    2.942    0.660
        96  -9.0481    250.6381     69.8357   2.8940953524e+02   5.4140346784e+00  0.009246018  0.006434337 -75.80 0.0004800094    1.668    0.400
        97  -9.0374    234.6324     70.3089   2.8959943163e+02   5.5087450262e+00  0.007207394  0.004921307  59.07 0.0006911784    1.758    0.431
        98  -9.5922    239.4492     68.2480   2.8953018043e+02   5.5020129874e+00   0.01198079   0.01112407  67.42 0.0005556638    1.144    0.126
        99  -8.1434    219.9608     69.0524   2.8976291844e+02   5.6146969942e+00  0.008023034  0.007415919  25.64 0.0003055222    1.061    0.057
       100  -8.3078    158.3677     76.8181   2.9053208712e+02   5.9109702553e+00  0.009642434  0.005835868 -49.36 0.0009378787    1.656    0.396
       101  -9.7486     44.2314     67.8433   2.9181266462e+02   6.7225399825e+00   0.01314838  0.009045405  29.83 0.0008174104    1.415    0.293
       102  -9.4649    245.5686     66.1116   2.8944524718e+02   5.4879822873e+00    0.0147008   0.01090211  72.87  0.001297353    1.686    0.407
       103  -8.5771    250.7829     65.0046   2.8937738263e+02   5.4679282403e+00   0.00903261  0.005444384 -60.78 0.0008272479    1.691    0.408
       104  -8.1701    205.6241     61.7026   2.8988415999e+02   5.7876656671e+00     0.007144  0.005019991 -19.70 0.0007025768    1.749    0.428
       105  -9.4059    231.4904     58.9677   2.8956463532e+02   5.6570499257e+00   0.01098676   0.00895903  28.42  0.001085155    1.201    0.167
       106  -8.5322    222.6897     59.7151   2.8967217268e+02   5.7035856069e+00   0.00680034  0.005046729 -21.72 0.0002223686    1.572    0.364
       107  -8.7572    174.2336     59.2217   2.9023563631e+02   6.0117899543e+00  0.009839769  0.009063092 -12.10 0.0009271742    1.115    0.103
       108  -8.8660    244.5926     51.3415   2.8936349983e+02   5.6616090082e+00   0.01283167  0.006739768 -67.36  0.001019436    2.145    0.534
       109  -9.0512    149.3534     52.1352   2.9048217143e+02   6.2473924625e+00  0.009298737  0.008659996 -67.08  0.000881589    1.111    0.100
       110  -8.6129    195.0076     48.7761   2.8992681215e+02   6.0006483976e+00   0.01649252  0.008828021 -75.13  0.001397372    2.493    0.599
       111  -8.8617    237.9735     45.4686   2.8940376606e+02   5.7696145160e+00   0.01431898  0.007838655  70.54  0.001046922    3.568    0.720
       112  -8.0445    190.2937     44.6640   2.8995602050e+02   6.0767427573e+00  0.006904384  0.005075565  65.14 0.0004801688    1.644    0.392
       113  -7.9845    183.6824     43.3266   2.9002492401e+02   6.1331984590e+00  0.007011007  0.005035203  62.58 0.0007045546    1.676    0.404
       114  -8.4571    163.6533     43.1695   2.9025829872e+02   6.2599778833e+00  0.009521796  0.005802814 -49.98 0.0003967602    1.640    0.390
       115  -8.1803    132.3325     43.6695   2.9062815424e+02   6.4495528541e+00  0.007110472  0.005005429  61.88  0.000705205    1.723    0.419
       116 -10.2525    248.7581     37.6840   2.8922869162e+02   5.7904073512e+00   0.01688923   0.01295813 -24.48 0.0009367417    1.471    0.320
       117  -9.7214    242.6559     37.9236   2.8930147083e+02   5.8258749837e+00  0.009482363  0.008432821 -62.86 0.0005114431    1.155    0.134
       118  -9.2269    229.3991     37.1874   2.8945169801e+02   5.9171529122e+00   0.01266205   0.01007695 -16.45 0.0006958549    1.417    0.294
       119  -9.3773    218.3099     34.3907   2.8956364995e+02   6.0182110584e+00   0.01099275  0.008109582  88.62  0.000864503    1.699    0.411
       120  -9.0059    105.0313     34.3846   2.9088953246e+02   6.7249099272e+00   0.01154603  0.009315473 -41.60  0.001067052    1.269    0.212
       121  -8.9015    164.1693     32.1188   2.9018260604e+02   6.3821484398e+00   0.01886927  0.009273609 -78.51  0.001352411    3.360    0.702
       122  -9.4806    248.6700     30.8404   2.8918653209e+02   5.8685392356e+00   0.01387629  0.007481978 -44.41  0.001179412    1.956    0.489
       123  -8.9230    111.3447     34.9669   2.9081921621e+02   6.6790139530e+00   0.01278907  0.008947593  53.83  0.001006143    1.603    0.376
       124  -8.5830    194.0268     29.9972   2.8981986795e+02   6.2198039875e+00  0.008189656  0.007858236  20.25 0.0008401524    1.021    0.021
       125  -8.5393    142.4818     30.4550   2.9042603737e+02   6.5362786810e+00  0.006636418  0.006409601  41.32   6.7164e-05    1.043    0.042
       126 -10.1757    243.9246     27.3018   2.8921962253e+02   5.9383517445e+00    0.0189179   0.01144535  88.23  0.001623035    2.626    0.619
       127  -8.1519    170.5149     29.0144   2.9008876305e+02   6.3777681051e+00  0.009747351  0.005897024  84.86 0.0008102606    2.699    0.629
       128  -8.9985    224.5042     23.4627   2.8942229756e+02   6.1033823130e+00   0.01394133  0.006620593 -61.16  0.001207788    2.154    0.536
       129  -8.7152    249.1530     23.1427   2.8913230374e+02   5.9527662441e+00   0.01073658  0.008929976 -22.31 0.0008934267    1.303    0.232
       130  -9.6571    218.7018    247.3506   2.9089831705e+02   3.5976935555e+00   0.02418391   0.01051827 -63.16  0.001995036    2.438    0.590
       131  -9.5690    191.4550    247.9027   2.9121970985e+02   3.7610040201e+00    0.0168459   0.01120686  78.84  0.001591686    2.137    0.532
       132  -8.2765    215.5303     20.4921   2.8950844501e+02   6.1931842556e+00  0.006602988  0.006461568   6.43 0.0008098506    1.005    0.005
       133  -8.3805    174.9481     17.7040   2.8996554844e+02   6.4783816518e+00   0.00938662  0.008284657  28.64 0.0004427774    1.109    0.099
       134  -9.6994    233.1550     14.8549   2.8926687011e+02   6.1468308011e+00  0.009478957  0.007760947 -22.21 0.0005614012    1.336    0.251
       135  -8.0002    217.3421     15.3106   2.8945456294e+02   6.2405931879e+00  0.007079548  0.005023815 -22.19 0.0007045383    1.697    0.411
       136  -8.9583    206.3335     20.5770   2.8961651094e+02   6.2497229705e+00   0.01130016   0.01068869 -89.90 0.0006292298    1.121    0.108
       137  -8.8822    175.5728    246.7928   2.9139815005e+02   3.8724184904e+00  0.009371788  0.006584958 -78.75 0.0009507041    1.689    0.408
       138  -8.8201    131.4332     13.5087   2.9044863898e+02   6.7974006656e+00   0.00655535  0.006460836   6.28 0.0001219942    1.010    0.009
       139  -9.7669    210.1730    245.5002   2.9098622545e+02   3.6718078391e+00   0.01234461  0.009712762 -62.02 0.0007725302    1.304    0.233
       140  -8.8081    201.9628    241.7578   2.9105857765e+02   3.7654297539e+00   0.01421048  0.008445202 -61.31  0.001368298    1.720    0.419
       141  -9.2033    168.7280    242.8433   2.9145333449e+02   3.9598738454e+00    0.0111478  0.008064965 -39.44  0.001182178    1.457    0.314
       142  -9.3597    146.4959    242.9707   2.9171375600e+02   4.0966461358e+00   0.01776772  0.006610158 -61.19  0.001366406    2.741    0.635
       143  -9.3378    159.4232    239.1110   2.9153862057e+02   4.0601561552e+00   0.01594288  0.006992247 -72.69  0.001157022    3.330    0.700
       144  -8.7396    182.4772    238.4740   2.9126544548e+02   3.9240034742e+00  0.006606278  0.006464648  13.50 0.0002402534    1.002    0.002
       145  -8.3119    189.6416    237.1792   2.9117369683e+02   3.8941372384e+00   0.00956807   0.00587624 -50.40 0.0008673871    1.624    0.384
       146  -9.5007    203.8085    234.8495   2.9099374080e+02   3.8324309094e+00   0.01806242    0.0115979 -68.97  0.001801985    1.716    0.417
       147  -9.8670    215.7823    233.1667   2.9084346066e+02   3.7769957801e+00   0.02365745   0.01512568  70.91  0.002175088    2.259    0.557
       148  -8.8579    194.8506    231.0306   2.9107435899e+02   3.9315839295e+00   0.01593404   0.00684625 -53.62  0.001339391    2.245    0.555
