#   1 NUMBER                 Running object number                                     
#   2 MAG_AUTO               Kron-like elliptical aperture magnitude                    [mag]
#   3 X_IMAGE                Object position along x                                    [pixel]
#   4 Y_IMAGE                Object position along y                                    [pixel]
#   5 X_WORLD                Barycenter position along world x axis                     [deg]
#   6 Y_WORLD                Barycenter position along world y axis                     [deg]
#   7 A_WORLD                Profile RMS along major axis (world units)                 [deg]
#   8 B_WORLD                Profile RMS along minor axis (world units)                 [deg]
#   9 THETA_WORLD            Position angle (CCW/world-x)                               [deg]
#  10 FWHM_WORLD             FWHM assuming a gaussian core                              [deg]
#  11 ELONGATION             A_IMAGE/B_IMAGE                                           
#  12 ELLIPTICITY            1 - B_IMAGE/A_IMAGE                                       
         1 -14.0755    198.5117     32.4085   2.1063563447e+01   3.1324288677e+01    0.9061074    0.7546403  77.54  0.003923187    1.106    0.096
         2 -11.1094     73.9585      7.9085   3.7602748854e+01   6.2030679741e+01    0.2129577    0.1420027  50.01   0.00062683    1.367    0.269
         3 -11.1337     81.6284    235.7530   9.1374196485e+01   1.3524412111e+01    0.2276138    0.1557109 -46.08  0.001208755    1.894    0.472
         4 -13.9363    247.2174    242.6035   5.7741336855e+01  -1.4049058775e+01     1.349943    0.5435905 -32.84  0.006566127    2.326    0.570
         5  -8.5720     10.8712    166.0506   9.9895925804e+01   3.8536512751e+01    0.3426601    0.1901967  -4.77  0.001575876    3.394    0.705
         6 -12.1708     76.1231    249.3480   9.3980281774e+01   1.1530295710e+01    0.2420359    0.2038653  59.75  0.001119118    1.068    0.064
         7 -13.8685    134.1738    147.3643   6.3225658680e+01   2.4967269406e+01     1.582657    0.6106597 -57.90  0.004480682    3.649    0.726
         8 -10.2971      1.4919    153.3344   1.0090669051e+02   4.2309576286e+01    0.1634813   0.09038502 -62.25 0.0008970589    1.468    0.319
         9 -10.8010    121.8339    143.1927   6.5559583120e+01   2.8521584597e+01    0.2417912    0.2158881  83.58 0.0005981858    1.236    0.191
        10 -10.9527    126.8906    136.1002   6.2498195190e+01   2.9187599353e+01    0.2385411    0.2141262  86.67  0.001162094    1.237    0.191
        11 -12.4157    121.8577    123.3516   6.0709411670e+01   3.3246157177e+01    0.5318257    0.3541391 -42.97  0.002290526    1.502    0.334
        12 -12.7604    120.9303    129.8075   6.2591682595e+01   3.1923465667e+01    0.7160027    0.4531504  72.22   0.00254448    2.729    0.634
        13 -11.4314    117.3951    124.8341   6.2336501549e+01   3.3824921429e+01    0.3240688     0.250639  -3.60 0.0007119219    1.696    0.410
        14 -12.2461    135.6644    126.5787   5.7788968860e+01   2.9540079152e+01    0.7060603    0.2221382 -50.83  0.001970156    3.563    0.719
        15 -10.5503     87.9452    233.5867   8.9760319372e+01   1.3014312490e+01    0.2069797    0.1823466 -45.06 0.0004033142    1.425    0.298
        16 -19.2124     53.4061    152.1563   8.6811312623e+01   3.7632401682e+01     18.24037     6.885077 -69.10   0.06402674    2.883    0.653
        17 -11.7482     98.8061    120.6368   6.6690064574e+01   3.8457834153e+01    0.2936996    0.2309722  69.97 0.0006003321    1.610    0.379
        18 -11.7367    106.0060    119.3679   6.4227752395e+01   3.7386002259e+01    0.3640992    0.2829362   8.16  0.001101597    1.586    0.370
        19 -11.1603    112.0315    115.0415   6.1343159014e+01   3.7189618894e+01     0.233092    0.2320322  21.49 0.0003378741    1.032    0.031
        20  99.0000     13.3402    205.7000   1.0290895411e+02   2.8952110714e+01    0.3533857    0.1905101  27.13  0.001908818    2.329    0.571
        21 -13.1306    118.7535    110.5468   5.8220860365e+01   3.6813246192e+01    0.7021884    0.5354177 -74.48  0.002504117    1.719    0.418
        22 -12.7267    118.0310    103.9391   5.6621257462e+01   3.8413574418e+01    0.7366251    0.4531217  74.06  0.002454624    3.385    0.705
        23 -11.8496    112.2753     99.0860   5.6916458875e+01   4.0659545960e+01    0.3676665    0.2720204  54.65 0.0003322974    1.486    0.327
        24 -10.5740    108.3561     96.6992   5.7387736382e+01   4.1969892968e+01    0.2546579    0.2203822 -67.41 0.0005825452    1.350    0.259
        25 -11.5037    105.1557     94.8268   5.7804442912e+01   4.3009838426e+01    0.3789724    0.2767732 -39.93 0.0003984328    1.367    0.269
        26 -10.7870     16.0457    202.4432   1.0208049212e+02   2.9431064190e+01    0.1366785     0.122484  26.88 0.0009319464    1.494    0.331
        27 -10.0622    210.8963    198.7606   5.6559434768e+01  -1.4708226404e+00    0.2090414    0.1739359   1.69 0.0004985022    1.153    0.133
        28 -10.1461    161.3617    199.1593   6.7443859329e+01   7.5386610901e+00    0.3523565    0.1741785  26.14  0.001247487    2.697    0.629
        29  -9.6432    168.7234    103.3263   4.3773729847e+01   2.6954434575e+01    0.1575725    0.1203446 -76.09 0.0002071445    1.589    0.370
        30 -10.8687     95.0633    249.1768   9.0074603284e+01   8.6918727778e+00    0.1823299    0.1712591 -87.04 0.0003782203    1.209    0.173
        31  -9.8486    218.9587    110.9898   3.6058945822e+01   1.4054381031e+01    0.2324301    0.1628608 -70.14 0.0005741965    1.677    0.404
        32 -10.8951     94.4610     89.0159   5.9398863922e+01   4.6295642902e+01    0.3445227    0.2265614 -20.19  0.001378273    1.897    0.473
        33 -10.4802    118.7959     87.9394   5.1846990625e+01   4.1548715039e+01    0.2519849     0.220396  64.61 0.0003908105    1.265    0.210
        34 -10.1691    159.1255    189.8775   6.6153096735e+01   9.9810619723e+00    0.2104192    0.1775212 -14.86 0.0005654372    1.315    0.239
        35 -12.9307    172.7016    173.8393   5.9670011682e+01   1.0800161327e+01    0.8907799    0.6603853 -35.07  0.002904508    1.380    0.275
        36 -11.7473    180.6875    168.5949   5.6723694993e+01   1.0316519182e+01    0.7080585    0.4288236 -60.91  0.002484802    2.198    0.545
        37 -13.2309    163.9152     69.9222   3.5935790496e+01   3.4230179462e+01    0.5711219    0.4428306  54.30  0.001016557    1.231    0.188
        38 -10.6604    112.6015     72.9755   4.9084579187e+01   4.5683791339e+01    0.2742034     0.204327  63.85 0.0008010839    1.608    0.378
        39 -11.4063    156.0153     72.3140   3.8208576134e+01   3.5746475413e+01    0.2180348    0.1860472  60.14 0.0004378986    1.108    0.098
        40 -14.1285    177.6307     57.3830   3.0123653462e+01   3.2870931008e+01      1.20019     0.945825  32.89  0.004137244    1.597    0.374
        41 -12.5508    184.2370     50.7120   2.7378594916e+01   3.2253356962e+01    0.4766625    0.3885117  63.67 0.0009087626    1.168    0.144
        42 -12.0171    155.0163    178.3797   6.4794051575e+01   1.3368631400e+01     0.390552    0.2454192  33.60  0.001654598    1.648    0.393
        43 -10.6954    106.8773     55.9184   4.5277099472e+01   4.9723025100e+01    0.3849596    0.2343164  65.17  0.001666962    2.274    0.560
        44 -10.4312    125.5796     53.4690   3.9597914540e+01   4.5935062134e+01    0.3692968    0.2345997  79.20  0.001555474    2.448    0.592
        45 -10.6391     85.5107     54.1987   5.1159296417e+01   5.4281784869e+01    0.2401354    0.1773724  36.94 0.0004889664    1.262    0.208
        46 -10.1199      6.2503    176.1536   1.0196103655e+02   3.6494148281e+01    0.2302953    0.1468887  84.11 0.0009597062    1.394    0.283
        47 -10.1564     11.0747    174.4052   1.0067931200e+02   3.6506467233e+01    0.1413967    0.1272387 -73.28 0.0003172493    1.198    0.165
        48 -10.5632      1.7117    171.2118   1.0256208192e+02   3.8027577361e+01    0.1453997    0.1083229 -63.43 0.0009277505    1.264    0.209
