#   1 NUMBER                 Running object number                                     
#   2 MAG_AUTO               Kron-like elliptical aperture magnitude                    [mag]
#   3 X_IMAGE                Object position along x                                    [pixel]
#   4 Y_IMAGE                Object position along y                                    [pixel]
#   5 X_WORLD                Barycenter position along world x axis                     [deg]
#   6 Y_WORLD                Barycenter position along world y axis                     [deg]
#   7 A_WORLD                Profile RMS along major axis (world units)                 [deg]
#   8 B_WORLD                Profile RMS along minor axis (world units)                 [deg]
#   9 THETA_WORLD            Position angle (CCW/world-x)                               [deg]
#  10 FWHM_WORLD             FWHM assuming a gaussian core                              [deg]
#  11 ELONGATION             A_IMAGE/B_IMAGE                                           
#  12 ELLIPTICITY            1 - B_IMAGE/A_IMAGE                                       
         1 -14.5135     68.4267    144.4940   1.0317240333e+02   3.7419492773e+01     4.941689     2.529027  75.55  0.005431276    4.358    0.771
         2 -13.7649    200.5787     41.3523   4.4225947461e+01   2.9898022474e+01     1.298593     1.071834  22.56  0.004185725    1.618    0.382
         3 -13.9818    209.3416     35.2259   4.1612537176e+01   2.8617512294e+01     1.628052      1.11688 -23.20  0.007119598    1.734    0.423
         4 -12.5429    217.1138     28.0302   3.9030008793e+01   2.7710996194e+01    0.5192531    0.4166201  46.85  0.001197631    1.534    0.348
         5 -13.9059    226.4871     18.7574   3.6008458406e+01   2.6690242675e+01    0.9782485     0.917898  14.89  0.002695392    1.469    0.319
         6  -9.8366    129.0335      8.0562   4.5092027578e+01   5.1285125401e+01    0.2589461    0.1811029  89.28 0.0006422197    1.632    0.387
         7  -9.5200    125.5088      5.5202   4.4835855725e+01   5.2347878037e+01    0.1928225    0.1491729 -80.01 0.0006112688    1.505    0.336
         8 -10.5239      2.3278      3.3059   8.9176227098e+01   7.4276205621e+01    0.3022997   0.07655304 -43.71  0.001362139    3.186    0.686
         9 -11.4764    247.9323      2.0058   3.0882204921e+01   2.3944805097e+01    0.4693142     0.190633  80.33  0.002361892    2.359    0.576
        10 -11.3787    183.7041    215.9858   8.8074278407e+01   2.0845609370e+00    0.3147554    0.1815564  37.82  0.001583026    1.569    0.363
        11 -10.5416    139.6556    249.6075   1.0199700030e+02   3.6409017317e+00    0.2094266    0.1620772 -58.41  0.001219305    1.606    0.377
        12 -13.2628      3.3062    184.4559   1.2398861488e+02   3.4804567568e+01    0.9790519    0.4727951  78.11 0.0008442859    1.875    0.467
        13 -15.6935     59.2639    247.0144   1.1734377250e+02   1.5701654587e+01      9.45968     2.739028  28.86   0.01382892    9.890    0.899
        14  -9.3917    108.7826    192.0033   1.0061278663e+02   1.9747988573e+01    0.2273687    0.1536836  84.07 0.0008551276    1.952    0.488
        15  -9.2737     79.4142    183.2389   1.0634791643e+02   2.6396468326e+01    0.1962369    0.1256684 -80.73 0.0005466563    1.681    0.405
        16  -9.9295    144.5120    180.1577   9.0140999846e+01   1.5951697126e+01    0.2806109    0.2343436  72.43  0.001121626    1.405    0.288
        17  -9.4194     99.3474    180.9824   1.0114727091e+02   2.3810580749e+01    0.1977671    0.1777967 -77.03 0.0005680036    1.101    0.092
        18 -12.1000     60.7231    178.5876   1.1027504851e+02   3.0102622719e+01    0.4143895    0.3347161 -24.37  0.001334871    1.751    0.429
        19 -12.0208     65.9761    173.0832   1.0825450628e+02   3.0717738930e+01    0.3261666    0.2782574 -36.88 0.0005597834    1.449    0.310
        20 -13.6581     18.3662    219.0856   1.2314141808e+02   2.5947333593e+01    0.9298578    0.4197578  56.38  0.002681573    1.849    0.459
        21  -9.1158    150.0187    178.4779   8.8538951352e+01   1.5266522388e+01    0.2114801    0.1400605  42.19 -2.347349e-05    1.452    0.311
        22 -13.5697     63.1730    159.3649   1.0701306322e+02   3.4439735612e+01    0.5682873    0.3435646 -45.18  0.001752678    1.876    0.467
        23 -11.8897     75.9199    163.4784   1.0429473184e+02   3.1645381570e+01    0.4273053    0.3376658  44.16 0.0003955987    1.285    0.222
        24 -12.8369     82.6352    157.2185   1.0148435838e+02   3.2171636505e+01     1.069948    0.9408152 -69.68   0.00106761    1.078    0.072
        25 -10.4008    209.9545    199.9381   7.9938220205e+01   3.5956151294e-01    0.2768933    0.1862945 -44.54 0.0006747061    1.687    0.407
        26 -10.0050    125.0431    154.0735   8.9697047794e+01   2.5525609978e+01    0.2276589    0.2134796  85.97 0.0003547127    1.101    0.091
        27  -9.5475    174.8879    149.1443   7.6634400606e+01   1.6463737373e+01    0.2346501    0.2161242 -88.68 0.0007541944    1.271    0.213
        28 -10.4790    134.1063    146.2665   8.5686021353e+01   2.5551982181e+01    0.8141773    0.1968119 -52.59  0.001976409    5.080    0.803
        29 -15.3342      8.4961    240.1650   1.2605899156e+02   2.2765751250e+01     1.982663     1.555239 -80.19   0.01552142    1.403    0.287
        30 -11.1836     32.9876    144.2440   1.1302008693e+02   4.1683886534e+01     0.425653    0.2504901  25.35  0.002198945    2.033    0.508
        31 -10.8614     98.6577    141.6590   9.4135883753e+01   3.3368760223e+01    0.6453943    0.4028829 -19.85  0.002381356    2.924    0.658
        32 -12.4065     85.7408    141.2907   9.7682555764e+01   3.5622244880e+01    0.3162635    0.2617069 -48.57 0.0004647326    1.202    0.168
        33  -9.9219    137.3067    169.9496   8.9877203199e+01   1.9544231374e+01    0.2442145    0.1927138 -72.76  0.001190121    1.491    0.330
        34 -11.2965     66.4020    125.7272   1.0023983858e+02   4.2390922125e+01    0.3886845    0.2826076 -64.42  0.001981643    1.281    0.219
        35  -9.4714    158.3863    134.1963   7.6877971612e+01   2.3154546930e+01    0.2171295    0.1463978 -54.28 0.0003676105    1.599    0.374
        36 -10.4665     24.1707    133.7063   1.1409989708e+02   4.5093930090e+01    0.2704078    0.1749567  68.15  0.001240531    1.702    0.413
        37 -10.8366    107.5410    131.2724   8.9364789524e+01   3.4287866654e+01    0.5212688    0.3278231  38.95   0.00194133    1.642    0.391
        38 -12.9936     84.8729    231.0156   1.1088774793e+02   1.5284456685e+01    0.8163716     0.452987  86.97  0.001471849    2.430    0.589
        39 -10.4022    135.6097    129.2650   8.1299799176e+01   2.9145663743e+01    0.3137022    0.1506078 -50.51  0.001135701    2.130    0.530
        40 -10.1811    115.7066    125.2941   8.5659044379e+01   3.4143184342e+01    0.3169168     0.227505 -10.22   0.00131525    2.058    0.514
        41 -11.1490     96.4217    127.4925   9.1668535628e+01   3.7223896220e+01    0.3162422    0.2680299  -4.02 0.0005222779    1.424    0.298
        42 -13.0289     87.3215    225.0535   1.0974339282e+02   1.6111212226e+01    0.6924928    0.4930888  71.99 0.0009059856    1.399    0.285
        43 -11.0348    193.4307    195.5273   8.2384536258e+01   3.9352175533e+00     0.840492     0.453737 -63.63  0.002572988    5.681    0.824
        44  -9.2229    120.4155    120.7802   8.3230669475e+01   3.4254804498e+01    0.2233271    0.1456135 -37.66 0.0005338395    1.612    0.380
        45  -9.7678    106.1804    119.9462   8.7036429007e+01   3.7254390334e+01    0.2206138    0.2110613 -37.03 0.0003971738    1.040    0.038
        46  -8.7749     80.2129    115.0117   9.3633492795e+01   4.2982365262e+01    0.1987787      0.11353 -54.28 0.0004359766    1.629    0.386
        47  -9.4021    168.0934    113.0835   6.9299393796e+01   2.5443107468e+01     0.259613    0.1962347 -79.39  0.001130106    1.797    0.443
        48 -10.1795    205.3693    110.5120   6.1154390540e+01   1.7500199591e+01     0.332422    0.2608174  28.95  0.001011199    1.493    0.330
        49 -11.2992    245.9999    109.0262   5.4286174980e+01   9.3656034076e+00     0.221761    0.1893316 -39.85  0.001024771    1.010    0.010
        50 -10.2111    134.3342    105.8494   7.5510525082e+01   3.4646353201e+01    0.3292714    0.1399898 -50.47  0.001089798    2.580    0.612
        51 -10.8759     52.7124     90.8808   9.6867865891e+01   5.2619095654e+01    0.3774161     0.199111 -54.60  0.001249243    1.673    0.402
        52  -9.9298     41.8816     92.0604   1.0102122588e+02   5.3578362548e+01    0.2048748    0.1760544 -45.99 0.0004855077    1.024    0.023
        53 -10.5866    249.9913     88.0173   4.9070805864e+01   1.1991995792e+01    0.1998715    0.1608716  -1.38 0.0005853846    1.657    0.396
        54  -9.5224    234.3111     86.3196   5.0741568737e+01   1.5447640321e+01    0.1327785    0.1081853   5.09 0.0003237168    1.645    0.392
        55  -9.1168     71.7706     83.1922   8.8002456956e+01   5.1713742852e+01    0.2230971    0.1552882  78.41 0.0009315154    2.678    0.627
        56  -9.3492    160.5183     82.4616   6.2530911789e+01   3.3224992088e+01    0.1519694    0.1504878 -77.38 0.0001126726    1.005    0.005
        57  -8.8415    130.4116     65.4913   6.4369676318e+01   4.3491675007e+01    0.1469895    0.1453315 -67.60 9.977735e-05    1.064    0.060
        58  -9.0230     44.7816     60.8369   9.1264188631e+01   6.0144593165e+01    0.1565735    0.1542663 -74.51 0.0003758967    1.307    0.235
        59 -10.7023     13.5380     60.2289   1.0427242944e+02   6.3134786192e+01    0.2271726    0.1904648 -53.31 0.0004877921    1.143    0.125
        60 -16.0911     33.0348    183.5580   1.1736681612e+02   3.2215161989e+01      8.98696     3.525688  79.28   0.03104318    4.223    0.763
        61 -14.7232      9.3890    207.5002   1.2417813697e+02   2.9245118705e+01     1.144606     1.077461 -14.35  0.007795806    1.646    0.393
        62  -9.9433    170.8530    233.8125   9.3566493560e+01   1.2644075972e+00     0.204497     0.174051 -45.56 0.0006946552    1.415    0.293
        63 -13.3494     32.9798    205.6830   1.1929014831e+02   2.7243058704e+01    0.6581493    0.4234968 -43.43  0.003671023    2.328    0.570
        64 -10.5479    136.1626     42.7407   5.5503085014e+01   4.5654297884e+01    0.2567882    0.2247651 -74.83  0.000431539    1.289    0.224
        65  -8.5572    135.6370     34.2685   5.2776371611e+01   4.6899680157e+01    0.1422622    0.1075179 -80.13 0.0004587958    1.651    0.394
        66 -10.1347    189.6235     15.4600   3.8826110199e+01   3.5669579831e+01    0.2318213    0.1945028 -60.86 0.0007515291    1.146    0.127
        67 -10.6867     73.0001    227.0897   1.1292081087e+02   1.7736348753e+01    0.2187131    0.1745556 -68.97 0.0006118185    1.367    0.269
        68  -9.7195    109.6563    201.2711   1.0180606014e+02   1.7584190549e+01    0.1809999    0.1256085 -51.02 0.0007009567    1.575    0.365
        69  -9.4218    111.4861    197.0435   1.0075462845e+02   1.8191593297e+01     0.207523    0.1379687 -60.97  0.001034096    1.599    0.375
