#   1 NUMBER                 Running object number                                     
#   2 MAG_AUTO               Kron-like elliptical aperture magnitude                    [mag]
#   3 X_IMAGE                Object position along x                                    [pixel]
#   4 Y_IMAGE                Object position along y                                    [pixel]
#   5 X_WORLD                Barycenter position along world x axis                     [deg]
#   6 Y_WORLD                Barycenter position along world y axis                     [deg]
#   7 A_WORLD                Profile RMS along major axis (world units)                 [deg]
#   8 B_WORLD                Profile RMS along minor axis (world units)                 [deg]
#   9 THETA_WORLD            Position angle (CCW/world-x)                               [deg]
#  10 FWHM_WORLD             FWHM assuming a gaussian core                              [deg]
#  11 ELONGATION             A_IMAGE/B_IMAGE                                           
#  12 ELLIPTICITY            1 - B_IMAGE/A_IMAGE                                       
         1 -11.8232     50.8574     11.2086   6.9044337675e+01   6.7470474927e+01     0.641541    0.4773687 -13.84  0.004160899    1.251    0.201
         2 -11.6962     92.9383     10.3880   5.4251091349e+01   5.9557035370e+01    0.9280856    0.3295595 -16.77  0.003463375    3.851    0.740
         3 -11.9036     50.5923     24.6646   7.5420227776e+01   6.5747868237e+01    0.7801989    0.4948671 -12.75  0.004346837    1.619    0.382
         4 -12.1653     87.1329     40.3722   6.8059082958e+01   5.7092424927e+01     1.418726    0.6525269 -22.60   0.00547066    2.941    0.660
         5 -11.7222     60.6828     26.9758   7.2219293261e+01   6.3835881430e+01    0.7650084    0.4191437  11.72   0.00338908    2.618    0.618
         6 -12.9220     68.4433     30.8222   7.0835213586e+01   6.1972583119e+01     1.100537    0.6361815  35.86  0.005689493    1.620    0.383
         7 -11.4920     90.4250     20.6680   5.9177923995e+01   5.9019230252e+01    0.8480119    0.3400116 -15.23  0.002971848    4.103    0.756
         8 -11.9137     30.8060     24.3465   8.4537501917e+01   6.8386712593e+01    0.5538247    0.2950337 -41.83  0.003079109    1.780    0.438
         9 -11.4882      3.3007     27.5139   1.0026946194e+02   7.0161162782e+01     0.675734    0.2016519 -37.58   0.00309097    2.694    0.629
        10 -12.3110     25.5784      7.6882   7.9403587062e+01   7.1417927617e+01    0.6131037    0.2245524 -37.10 5.740239e-05    2.549    0.608
        11 -12.8582     15.7616      6.0527   8.4044845282e+01   7.2698237712e+01    0.8977441    0.6303776   8.54  0.006335957    1.246    0.197
        12 -12.7624      4.4588     10.2473   9.2778620385e+01   7.3029372370e+01    0.6815832    0.4185438 -48.35 0.0008020676    1.668    0.400
        13 -11.1553      2.1864      2.4161   9.0485376287e+01   7.4389663854e+01    0.2709222    0.2438922 -14.70  0.001270939    1.474    0.321
        14  -9.9382    204.3625     25.2664   3.9673799938e+01   3.1193612579e+01    0.5044657    0.2325619 -23.94  0.002156941    2.811    0.644
        15 -11.0221    170.5656     14.7878   4.1011448080e+01   4.0575917918e+01     0.656071     0.373464 -87.37  0.003077387    1.984    0.496
        16 -10.7237    177.3556     21.0289   4.1838696974e+01   3.8227864728e+01    0.4187627    0.3179489   1.21  0.001715754    1.827    0.453
        17 -11.0164    161.7376     17.0478   4.2877548587e+01   4.2530759577e+01    0.7071025    0.4412462  50.20  0.003137379    1.569    0.363
        18 -10.1210    148.7225     10.5832   4.2883395828e+01   4.6400970291e+01    0.3189214    0.2066407  78.30  0.001165692    1.475    0.322
        19 -10.9040    154.2224     17.5251   4.4151672698e+01   4.4349448642e+01    0.4798495     0.307354  30.81 0.0004842255    1.984    0.496
        20 -11.0348    150.2185     15.1728   4.4063747975e+01   4.5583721943e+01    0.5230842    0.3366785  33.55  0.002338426    1.857    0.461
        21 -11.1082    123.1315     22.3376   5.1477546176e+01   5.1453895913e+01    0.5288355    0.3445239   6.16  0.002343873    2.043    0.510
        22 -11.3645    131.5324     19.5873   4.8791198580e+01   4.9726328760e+01    0.6075065    0.3262613  50.33  0.001384769    1.645    0.392
        23 -12.7091    117.5473     13.2640   4.9444404088e+01   5.3711008318e+01     1.273739    0.6937603  44.85  0.006258861    1.658    0.397
        24 -11.2503    104.8735      1.8973   4.7942345581e+01   5.7643158955e+01    0.5524421     0.219198  62.32  0.002420768    2.199    0.545
        25 -11.7480    103.1339     10.5101   5.1690239704e+01   5.7295177347e+01     0.758309    0.3509413  33.17  0.003264317    2.470    0.595
        26 -10.7070     54.8726     17.8243   7.0493883608e+01   6.6012372285e+01    0.3419351    0.2545513  -4.45  0.001227206    1.222    0.181
        27 -11.2840     84.7811     19.0330   6.0217285291e+01   6.0373023581e+01    0.5798498    0.3066675  27.89  0.002682736    2.124    0.529
        28 -12.0855     19.0209     15.8681   8.6933203488e+01   7.0937216272e+01    0.7165331    0.3602673 -45.83  0.004024776    2.016    0.504
        29 -11.3627    100.9473      5.4589   5.0232328289e+01   5.8237302398e+01    0.3719314    0.2995626  39.72 0.0003691006    1.074    0.069
        30  -9.9089     31.3938     12.0641   7.8558548793e+01   7.0128506865e+01    0.2085521    0.1770012 -18.86 0.0007343651    1.299    0.230
        31 -10.4441     38.2223      9.0528   7.3682405037e+01   6.9621818420e+01     0.397973    0.1783303 -26.74  0.001985776    2.199    0.545
        32  -9.7258     41.8127      3.6467   6.9227419326e+01   6.9737159781e+01    0.2294342    0.1462179  11.92 0.0005788417    1.449    0.310
        33  -9.3175    233.7923      7.1957   3.2909788679e+01   2.6578947182e+01    0.1903583    0.1471297 -24.38 0.0003461248    1.658    0.397
        34 -10.6188    200.6067      7.2512   3.5695253421e+01   3.4072026611e+01    0.4333921    0.1833677 -41.86  0.001122515    2.211    0.548
        35  -9.1888    197.4596      3.2338   3.5023127313e+01   3.5213806771e+01    0.2135724    0.1628566  -4.28  0.001265172    1.881    0.468
        36 -10.5488    163.2699      5.9790   3.9475527439e+01   4.3235850014e+01    0.5252222    0.2719805 -33.25   0.00261022    2.072    0.517
        37  -9.8812     77.7714      9.0037   5.8091048128e+01   6.2845594952e+01    0.2172588    0.1587039  41.65 0.0004409641    1.180    0.152
        38 -10.0711    157.5021      6.1069   4.0271242461e+01   4.4646228047e+01     0.328558    0.2293099  -4.11  0.001796075    1.910    0.477
        39  -9.2731    156.6586      1.3907   3.9003086752e+01   4.5267125224e+01    0.3088864    0.1116128  71.88  0.001248857    2.442    0.591
        40 -10.6610    139.5066      4.7885   4.2497259272e+01   4.9187049502e+01    0.5245991    0.2686148 -12.70  0.002441839    2.577    0.612
        41  -9.0521    226.2357      7.9730   3.3649702756e+01   2.8142890308e+01    0.1782739    0.1377542  30.73  0.001075237    2.009    0.502
        42 -10.5355    132.3638      4.7063   4.3639549453e+01   5.0932755827e+01    0.3788438    0.3126518   2.73  0.001700728    1.430    0.301
        43 -11.1628     70.8669      4.0252   5.8061904989e+01   6.4674575069e+01    0.5175724    0.3232872  26.83  0.002965983    1.471    0.320
        44  -9.5383    181.9033      4.4214   3.6870281867e+01   3.8822235075e+01    0.2528491    0.1863947 -22.52 0.0007634024    1.648    0.393
        45 -11.0312    108.5406      7.5877   4.9308081519e+01   5.6329089299e+01    0.4302358    0.2871167 -55.09  0.001674614    2.028    0.507
        46  -9.4250    210.3847      3.2086   3.3877808667e+01   3.2207741831e+01    0.1664951    0.1594635 -15.84 0.0006063277    1.392    0.281
        47  -8.8982    207.3042      3.3289   3.4166735887e+01   3.2904928774e+01     0.212319   0.09984959  69.70 0.0006709931    1.868    0.465
        48  -9.3176     84.8777      1.8077   5.2835647323e+01   6.2036481678e+01    0.1940388    0.1395947  35.17 0.0003500391    1.183    0.155
        49  -9.9460     56.9514      1.7750   6.1924153360e+01   6.7455552223e+01    0.3406827    0.1415351  44.67  0.001684525    2.056    0.514
        50  -9.2173    214.4958      1.3400   3.3120775515e+01   3.1457393849e+01     0.182563   0.09928354  78.33  0.000176571    1.618    0.382
        51  -8.9157     97.9990    115.4879   8.8099816309e+01   3.9947502065e+01    0.2341357    0.1508577  39.49  0.001031191    1.591    0.371
        52  -9.2735     74.6893    124.9237   9.7405345163e+01   4.1502720806e+01    0.2022149    0.1728904 -60.57 0.0003264155    1.100    0.091
        53  -8.7753     84.0428    113.4584   9.1920731548e+01   4.2842424996e+01    0.1961078    0.1321556  -0.19 0.0005861236    2.283    0.562
        54  -9.1001     59.4957    112.4978   9.9615944465e+01   4.6668015718e+01    0.2177911    0.1184732 -49.62 -0.000113789    1.678    0.404
        55  -9.4924     62.1871    109.8412   9.8155224355e+01   4.6963160590e+01    0.3224124     0.207282 -32.87  0.001503444    1.780    0.438
        56 -12.6190     43.0780    127.7612   1.0767985583e+02   4.4815979687e+01    0.8141627    0.6229672 -47.51  0.004602172    1.289    0.224
        57  -9.8650     32.6006    110.0675   1.0802374559e+02   5.0201405028e+01    0.4009894    0.1309765 -46.42  0.001495476    2.963    0.663
        58  -9.2393    113.6129    107.2776   8.1341830218e+01   3.8852503118e+01    0.2773268    0.2001263 -36.52 0.0009973651    1.438    0.305
        59  -9.0233    110.3085    104.4476   8.1548817950e+01   4.0156202536e+01    0.2924268    0.1519924  36.10  0.001120982    2.058    0.514
        60 -12.3266    145.4060    100.2021   7.0796106086e+01   3.3457832563e+01    0.7892759    0.3806833  33.06  0.002590891    2.961    0.662
        61 -10.0107     62.8340    102.0799   9.6162521605e+01   4.8743415484e+01    0.3325409    0.3092208  35.35  0.001172411    1.170    0.146
        62  -9.5181     37.2261    103.2464   1.0520665084e+02   5.1422108135e+01    0.2935247    0.1783656  -4.83  0.001392768    2.308    0.567
        63  -9.5825     27.1648    102.6654   1.0854470815e+02   5.2459010339e+01    0.2654057    0.1567627 -56.25   0.00084095    1.401    0.286
        64  -9.9911    132.4448     99.9330   7.4065967396e+01   3.6450358157e+01    0.5616384    0.3488404 -61.12  0.002221672    2.089    0.521
        65 -10.2844     53.1541     99.4914   9.8893401778e+01   5.0597061563e+01    0.4956526    0.3442229 -81.47  0.001739752    1.800    0.444
        66 -10.2226     48.5746    101.7438   1.0098449380e+02   5.0594426728e+01    0.3858694    0.1770254 -59.25  0.001659334    1.936    0.483
        67  -9.2439     45.7251     98.9202   1.0136210403e+02   5.1586322788e+01    0.2115358    0.1970528 -53.37  0.001273941    1.058    0.055
        68  -8.3843    108.6750    101.2593   8.1163159482e+01   4.1197491492e+01    0.1501995    0.1221587  76.77 0.0002596844    1.555    0.357
        69 -10.3097      4.4521     99.8471   1.1577314557e+02   5.4647682533e+01    0.3651568    0.1676799 -61.08  0.001887944    1.648    0.393
        70  -9.3870     33.3296     99.0081   1.0572783737e+02   5.2802683184e+01    0.2428812    0.1680273 -31.21   0.00132563    1.536    0.349
        71 -11.0127     25.2212     96.9616   1.0818326931e+02   5.3976758838e+01    0.4340513    0.4122397  13.82  0.002402479    1.229    0.186
        72  -9.7360     21.3817     91.4123   1.0851564670e+02   5.5576766420e+01     0.311106    0.1868316  56.28   0.00107862    2.277    0.561
        73 -12.7584     12.0014    125.7977   1.1673141475e+02   4.7992104185e+01    0.5037677    0.3597902 -83.09 0.0005004128    1.218    0.179
        74  -9.9732     87.8845     97.0862   8.6504670182e+01   4.6032124231e+01    0.2765321     0.248223 -71.12  0.001008022    1.230    0.187
        75 -11.0466     75.3400     95.2856   9.0191396303e+01   4.8515537971e+01    0.5869002    0.3828043 -34.42   0.00254484    1.618    0.382
        76  -9.7514     39.1935     96.5724   1.0316213651e+02   5.2825656988e+01    0.2809506    0.1940976 -21.89 0.0009755049    1.673    0.402
        77 -11.1411     37.7491     92.1808   1.0273458935e+02   5.4003995178e+01     0.684418    0.3557132  22.29  0.002979414    2.201    0.546
        78  -9.9013     96.2373     96.2697   8.3599936186e+01   4.4712235508e+01    0.3206755    0.2094565  30.69 0.0009554005    1.655    0.396
        79 -10.1774    116.5454     94.5986   7.6973119796e+01   4.1037935702e+01    0.4369045    0.2551532  26.03  0.001181073    2.328    0.570
        80 -10.4747    249.5078     92.4984   4.9734426454e+01   1.1607642498e+01    0.2456106    0.1204128 -27.69  0.001043155    2.383    0.580
        81 -10.3256      2.1447     82.8597   1.1403100031e+02   5.8696373702e+01    0.2830549    0.1674454 -25.40 0.0006819344    1.854    0.461
        82 -10.5384     52.3917     92.0895   9.7414361631e+01   5.2431231784e+01    0.3392161    0.2529401 -39.34  0.001845884    1.251    0.201
        83 -10.1857    122.9802     92.4941   7.4535493608e+01   4.0102343156e+01    0.3473314    0.1518684  45.25  0.001045319    2.281    0.562
        84  -9.9635    156.0623     96.8375   6.7297351861e+01   3.1658353903e+01    0.2711473    0.2216324 -31.90   0.00131058    1.272    0.214
        85 -10.3013     15.1305     87.4062   1.1004660036e+02   5.6938247473e+01    0.4927444    0.2641997  81.05  0.002145998    3.080    0.675
        86  -9.2634    111.9988     88.0503   7.6390412140e+01   4.3375801958e+01    0.2529987    0.1900864  -4.37     0.001136    1.737    0.424
        87  -9.3165     88.2168     88.4257   8.3959415946e+01   4.7906787014e+01    0.3051817    0.2137893  32.92  0.001158683    1.480    0.324
        88  -9.5363     91.2004     87.0349   8.2572246561e+01   4.7671770866e+01    0.3545215    0.2699119 -82.47  0.001310898    1.927    0.481
        89 -10.3269    146.4115     84.1384   6.5992215630e+01   3.6414496910e+01    0.4776632    0.3407891 -23.97  0.001991594    1.635    0.388
        90  -9.9039    119.2413     86.6038   7.3856990072e+01   4.2132275108e+01    0.3222352    0.2401703  37.44 0.0008642651    1.358    0.263
        91  -8.5680    107.2978     86.3401   7.7288642944e+01   4.4703178108e+01    0.1565305     0.119023  -5.22 0.0003695333    1.662    0.398
        92  -8.4717     96.2640     86.2904   8.0713411093e+01   4.6888551489e+01    0.1462469    0.1143879 -10.36  0.000205465    1.499    0.333
        93  -9.5271     58.7503     84.9349   9.3266378901e+01   5.3266460518e+01    0.4740796    0.2482557  -2.32  0.001509588    4.627    0.784
        94  -9.6981     52.5724     84.7427   9.5491848761e+01   5.4096802841e+01     0.505879    0.1503208 -42.75  0.001654802    3.497    0.714
        95  -8.8603    156.5039     84.9791   6.3877966142e+01   3.3845583568e+01    0.2231208    0.1526264 -38.02 0.0004228707    1.483    0.326
        96 -10.0004     25.5751     84.6089   1.0560636320e+02   5.6838439204e+01    0.2780094    0.2139628  64.74  0.001447269    1.681    0.405
        97  -8.9456     76.0236     83.9776   8.6808819880e+01   5.0944662823e+01    0.1765516    0.1542615  24.83 0.0006416642    1.180    0.153
        98  -9.5087    161.4947     81.9930   6.1925276965e+01   3.3195419198e+01    0.2095462    0.1956521 -45.51   0.00110606    1.079    0.073
        99  -9.0050    158.4473     80.5436   6.2179638312e+01   3.4197503697e+01    0.3016278    0.2537535  59.98 0.0006835246    1.185    0.156
       100 -11.1617     38.5413     79.1548   9.9376081574e+01   5.6919233277e+01    0.4660898    0.4105346  63.80  0.002879562    1.430    0.301
       101 -10.1415     98.7337     76.0069   7.6763467440e+01   4.8534631039e+01    0.6369871    0.3306793 -47.45  0.002612444    2.005    0.501
       102  -9.9128    103.6489     80.7198   7.6696634176e+01   4.6602758935e+01    0.3701389    0.2210357  30.05  0.001363536    1.919    0.479
       103 -10.0914    105.9027     77.7072   7.5065622394e+01   4.6749367577e+01    0.4331454    0.3283045  42.15  0.001485996    1.314    0.239
       104  -9.8977     20.8497     80.5637   1.0654930442e+02   5.8121707741e+01    0.3290742    0.2041169 -50.64   0.00174503    1.311    0.237
       105 -10.3787     25.1544     65.3725   1.0123222143e+02   6.1159204712e+01    0.6407382    0.3141756 -75.60  0.002548184    3.528    0.717
       106  -9.7272     24.7039     74.0832   1.0358720164e+02   5.9290461995e+01     0.293949    0.2065695 -55.59  0.000733237    1.216    0.177
       107 -10.5962     20.7194     72.8656   1.0490184987e+02   5.9861926672e+01    0.5589715    0.2159783 -40.15  0.002460231    2.402    0.584
       108 -12.0940     32.4351     59.0648   9.6360064293e+01   6.1845905530e+01     1.193944    0.5880907   1.60  0.001429836    3.012    0.668
       109  -9.6231     24.1844     60.1576   1.0024184904e+02   6.2344389046e+01    0.1795881    0.1423431 -38.81 0.0005999344    1.030    0.029
       110 -10.9275    177.0076     78.5694   5.7795540780e+01   3.0043323739e+01    0.2604176     0.213113 -39.65 0.0001641815    1.224    0.183
       111 -11.4010      4.5844     88.2609   1.1401266703e+02   5.7340762968e+01    0.7256537    0.2634297 -53.05  0.003448894    2.047    0.512
       112  -9.6138    188.8817     77.7039   5.5365903361e+01   2.7329567136e+01    0.6207578    0.2010079  43.76  0.001770043    4.386    0.772
       113  -9.7405    143.9736     78.2689   6.4853274636e+01   3.8095725966e+01    0.2349536    0.2270263   0.07 0.0004113201    1.076    0.070
       114  -9.8413    146.7301     74.8421   6.3177463009e+01   3.8060562468e+01    0.2440639    0.2075568  52.63 0.0002734455    1.148    0.129
       115 -10.5108      5.2934     77.0692   1.1185049988e+02   5.9857429373e+01    0.3799652    0.1876064  17.89  0.002038481    2.387    0.581
       116 -10.0529      3.8133     72.6665   1.1161164619e+02   6.0913987751e+01    0.3088925    0.1263161 -56.14  0.001229668    1.774    0.436
       117 -11.4016    114.9604     70.5383   7.0096993013e+01   4.6201302324e+01    0.7433835    0.5095313 -35.79  0.001466014    1.492    0.330
       118  -9.3240     69.6342     76.3136   8.6809076866e+01   5.3598852316e+01    0.2627824    0.1723127 -37.13  0.001287025    1.462    0.316
       119 -11.4509     30.7537     72.0452   1.0065264460e+02   5.9234824114e+01    0.7355664    0.2531007 -46.11  0.002755885    2.389    0.581
       120 -10.6780     39.9709     67.2159   9.5587541738e+01   5.9382910346e+01    0.3804655    0.3703987 -74.42  0.002341136    1.265    0.209
       121  -9.4132     93.3479     75.3654   7.8297281373e+01   4.9707854964e+01    0.2963374    0.2297129  20.29  0.001350874    1.383    0.277
       122  -9.6984    169.0024     71.5267   5.7407509310e+01   3.3208768530e+01    0.4242883    0.2823417  14.63  0.001234825    2.556    0.609
       123  -9.8648    139.1576     71.8183   6.4076570356e+01   4.0415210496e+01    0.4242527    0.3071781   4.54  0.001363102    1.962    0.490
       124  -9.8215    138.5863     68.1548   6.3088150530e+01   4.1197487033e+01    0.3922949    0.2799414  -8.52   0.00140575    1.892    0.472
       125 -10.3657     66.7104     70.6670   8.6141255722e+01   5.5224981119e+01    0.4904794     0.280758  20.24  0.001535862    2.113    0.527
       126 -10.6310     69.9986     69.0060   8.4391109751e+01   5.5058708950e+01    0.7332525    0.2370314  38.08  0.002043282    3.173    0.685
       127 -10.7715     52.6900     71.3508   9.1711691025e+01   5.7026222083e+01    0.4024316    0.2624488 -29.63  0.000707423    1.543    0.352
       128 -10.0311     57.3707     68.8993   8.9144895585e+01   5.6928614799e+01    0.2588248    0.2017098  24.78  0.001189351    1.339    0.253
       129 -11.7573     55.8943     63.2220   8.7925041158e+01   5.8290680296e+01    0.5832117    0.3899108 -44.10  0.001388923    1.382    0.276
       130  -9.3196    122.2807     66.1110   6.6624435871e+01   4.5366778179e+01    0.3797241    0.1420013 -34.52  0.001274838    2.944    0.660
       131 -10.6776    101.2604     69.5244   7.3875017827e+01   4.9290154192e+01    0.3003961    0.2493295   2.92 0.0004149826    1.305    0.234
       132  -9.0007    165.0050     68.7129   5.7405533716e+01   3.4665574995e+01    0.2169621     0.198183  64.06   0.00116489    1.064    0.060
       133 -10.5196    149.3624     66.0156   5.9925627058e+01   3.8959130121e+01    0.4688966    0.4593191  64.56  0.002348261    1.016    0.016
       134  -9.7162    126.4887     70.0599   6.6758969949e+01   4.3698210767e+01    0.4824135    0.2714807  61.51  0.001910893    2.158    0.537
       135  -8.9785    131.8610     67.1497   6.4443737379e+01   4.2966404870e+01    0.2033737     0.169627  27.91 0.0004700123    1.267    0.211
       136  -8.9196    226.2845     66.6775   4.6929498781e+01   2.0468332518e+01    0.1423695   0.09323558 -63.68 0.0002105216    1.596    0.373
       137 -10.8765     77.5035     61.1230   7.9020089869e+01   5.5362554264e+01    0.7964056    0.4204502  37.82  0.003578992    1.905    0.475
       138 -10.9894     76.7884     42.1349   7.2316101631e+01   5.8783118430e+01    0.7022451    0.3655098 -20.63  0.002952951    2.513    0.602
       139 -10.7927     20.8091    244.2015   1.2395735493e+02   2.0773034360e+01    0.2078189    0.1477763  67.05 0.0003953057    1.029    0.028
       140  -9.8507    106.4790     59.7821   6.9013934755e+01   4.9969061277e+01     0.282297    0.2367469  40.16 0.0006389528    1.149    0.130
       141 -11.6830    102.0736     54.7492   6.8600186524e+01   5.1761151868e+01     1.145908    0.5554647  33.40  0.004428101    2.456    0.593
       142 -12.2500     87.1640     55.7844   7.3767127940e+01   5.4577735731e+01    0.8532394    0.6305797 -47.07  0.003114356    1.505    0.335
       143  -8.8120     21.4679    232.5339   1.2320579234e+02   2.2959286800e+01    0.1163212   0.08389864  68.19 0.0001640059    1.041    0.040
       144  -9.3892     55.9221    216.6633   1.1517917589e+02   2.2237241469e+01    0.1961155    0.1452903 -74.45 0.0007812206    1.355    0.262
       145 -11.1675     31.3441     41.7106   9.1152778461e+01   6.5346772855e+01    0.4513309    0.2528012  24.70  0.002482978    1.862    0.463
       146 -11.2001     40.3387     40.4425   8.6533692557e+01   6.4583513917e+01    0.7618347    0.4021534   3.42  0.003378056    2.782    0.641
       147  -8.6844    227.0139    216.2603   7.8864618512e+01  -4.6694187420e+00    0.1511224    0.0966694  29.64 0.0002225951    1.436    0.304
       148  -9.4060    123.9676    206.0095   9.8709381257e+01   1.4312373141e+01    0.1985202      0.17848  48.02  0.001169235    1.007    0.007
       149  -8.1312    133.0118    199.1995   9.5566943393e+01   1.4163222216e+01    0.1731118    0.1039438  38.34 0.0007996346    1.525    0.344
       150 -12.2802     78.4367     32.5568   6.7920492328e+01   5.9907617262e+01     0.560626    0.4708644  51.62  0.001177944    1.376    0.273
       151 -11.6332     49.6646     39.6034   8.2074663277e+01   6.3534133437e+01    0.5255901     0.345065   4.76  0.001250871    1.662    0.398
       152 -11.7936     56.6889     37.8183   7.8386980054e+01   6.2820013260e+01     0.586989    0.3561473  -9.80  0.002879109    2.029    0.507
       153  -8.4258    223.0201    187.9754   7.4342095865e+01   3.4832750294e-01    0.1555857    0.1338642  -2.67 0.0009415327    1.005    0.005
       154  -9.5117    204.2878     75.5708   5.2236332312e+01   2.4046301878e+01    0.3363622    0.1961608  33.92  0.001134428    2.615    0.618
       155  -8.7832    207.3059     61.3251   4.8218429779e+01   2.5594810898e+01    0.1351926    0.1107464  22.43 0.0003488325    1.646    0.393
       156 -10.1649    182.1578     60.9648   5.2051438314e+01   3.1692704216e+01     0.241667    0.1999887  56.64 0.0002674628    1.206    0.171
       157  -9.4896    200.0140     59.6849   4.8866928884e+01   2.7565474674e+01    0.3309446    0.1896286  45.83  0.001183857    2.023    0.506
       158  -9.2481    127.6031     59.3956   6.3041130119e+01   4.5284978705e+01    0.2839975    0.1870876  82.10  0.001143123    2.443    0.591
       159  -9.3867    173.9832     57.2521   5.2447914949e+01   3.4281748211e+01    0.2424607    0.1900566  -8.61 0.0006141943    1.639    0.390
       160  -9.6813    140.5452     52.2797   5.7641576342e+01   4.3314193093e+01    0.3610916    0.2540212  55.02  0.001021649    1.338    0.252
       161 -12.4005    147.2309     53.8600   5.6671177313e+01   4.1434986211e+01    0.5247957    0.3938481  35.73 0.0002651051    1.442    0.306
       162 -10.6462    145.8100     48.3914   5.5267731483e+01   4.2601392626e+01    0.3643836    0.2748034  35.97 0.0003200555    1.423    0.297
       163 -10.1617    184.6584     56.0550   5.0302263250e+01   3.1829987115e+01    0.2513025    0.2321627  84.53 0.0006601955    1.026    0.026
       164 -10.2659      3.2355     56.4961   1.0848848156e+02   6.4446638278e+01    0.2615451    0.2187201 -39.81  0.001115623    1.091    0.084
       165  -9.4473      3.5110     51.5258   1.0718254066e+02   6.5470821082e+01    0.1993387    0.1052713 -38.67 0.0006984913    1.543    0.352
       166 -10.5757    166.1136     53.4241   5.2780643776e+01   3.6815681822e+01    0.4215991    0.2874731 -49.75  0.001484184    1.535    0.348
       167 -10.1014    161.5545     51.3433   5.3023572171e+01   3.8260323224e+01    0.5172502     0.235702 -28.51   0.00198998    2.542    0.607
       168 -10.0520    133.5969     53.9929   5.9801165769e+01   4.4731301544e+01    0.4268432    0.2625497  -4.30  0.001660304    2.731    0.634
       169 -10.3315    120.6300     54.2978   6.3164851102e+01   4.7733984532e+01    0.4291681    0.3479451 -16.49  0.001659762    1.344    0.256
       170  -9.4444    117.0250     49.9286   6.2636177091e+01   4.9246867727e+01    0.3336837    0.2774882 -19.29  0.001796453    1.275    0.216
       171  -8.2067     12.3088     56.3085   1.0442682056e+02   6.3994256429e+01    0.1299284   0.07027326 -35.42   0.00040546    1.617    0.381
       172 -10.7111    192.9685     54.4322   4.8565525939e+01   3.0045067623e+01    0.2794601    0.2411185  84.20 0.0003500663    1.107    0.096
       173  -9.7393     70.6240     54.0390   7.9054247242e+01   5.7833100625e+01    0.3381541    0.1952784 -24.16  0.001534303    2.004    0.501
       174 -11.2200     41.6831     53.8296   9.0710538428e+01   6.1929006800e+01    0.2493263    0.1956571 -17.98 0.0002763564    1.155    0.134
       175  -9.6956     44.6814     49.9851   8.8099018254e+01   6.2314047431e+01    0.2107025     0.169839  14.18 0.0005455499    1.240    0.194
       176  -9.0303     66.4711     40.9247   7.5699354137e+01   6.0768392469e+01    0.2485595    0.1211492 -33.49  0.001128168    2.043    0.511
       177 -10.1238     64.6496     45.3018   7.8108311337e+01   6.0338352016e+01    0.4773849    0.2649876  24.83  0.001741513    1.976    0.494
       178 -11.2251     58.6833     49.9950   8.2242495094e+01   6.0429888214e+01    0.6214206    0.4155294  46.79  0.002618696    1.873    0.466
       179 -10.6432     57.7920     46.5812   8.1339095131e+01   6.1170868763e+01    0.4038714    0.2875591  32.06  0.002038507    1.427    0.299
       180 -10.8471    183.5030     51.2508   4.9187066778e+01   3.2823582199e+01    0.4308271    0.2922842 -88.58 0.0006176539    1.705    0.414
       181 -11.2688     18.4341     60.8273   1.0291045106e+02   6.2638096433e+01    0.8252311    0.3411664  -7.99  0.003108311    4.313    0.768
       182 -10.0136     29.1286     49.4179   9.4816189928e+01   6.4096153392e+01    0.2888448    0.1651223 -54.67  0.000927491    1.712    0.416
       183  -8.7940    171.9186     49.5639   5.0637788259e+01   3.5937126158e+01    0.2050073    0.1336668  61.46            0    1.450    0.310
       184  -8.6398    205.3478     46.3033   4.4745688834e+01   2.8242892151e+01    0.1349913    0.1042341  35.08  0.000704034    1.693    0.409
       185  -9.7717    173.9718     46.6605   4.9469225842e+01   3.5839952110e+01    0.4522679    0.1405916  66.88  0.001368084    3.832    0.739
       186 -10.7666    153.0552     44.1545   5.2489304920e+01   4.1408453365e+01    0.4761162    0.3677504 -32.86  0.002500718    1.388    0.279
       187 -10.5323    157.2328     40.7194   5.0658768452e+01   4.0835983470e+01    0.5600909    0.3884483 -65.86  0.002139652    1.713    0.416
       188 -10.8874    144.4858     42.5550   5.3703074859e+01   4.3755009948e+01    0.6780263    0.3138015  34.28  0.002300663    3.432    0.709
       189 -10.3675    148.8035     41.2548   5.2424147963e+01   4.2863552932e+01    0.3355798    0.2286537  38.98 0.0006551058    1.581    0.367
       190  -9.4689    136.2254     42.4378   5.5427004715e+01   4.5797231139e+01    0.4907646    0.2550429 -64.86  0.001560081    4.296    0.767
       191  -9.2955    219.7975     42.4352   4.2047109198e+01   2.5417972955e+01    0.2030776    0.1521628 -35.09 0.0005673732    1.392    0.282
       192  -9.8401    118.3173     41.9889   5.9538541025e+01   5.0123297821e+01    0.3016558    0.2573772  47.18  0.001327933    1.087    0.080
       193  -9.9121    105.7510     42.7816   6.3227257439e+01   5.2846688800e+01    0.5143988    0.3079639  54.67  0.002383082    1.678    0.404
       194  -9.1407    102.4884     27.5411   5.8451242647e+01   5.5609950315e+01    0.1977866    0.1263808  62.53  0.000678422    1.700    0.412
       195  -9.9398    107.9578     29.3823   5.7676625657e+01   5.4163121584e+01      0.38353    0.3066106 -72.17  0.002073382    1.708    0.415
       196 -10.4052     98.8402     41.5661   6.4810140845e+01   5.4516118953e+01    0.3748049    0.2900067  32.90  0.001101693    1.213    0.176
       197 -10.2970    101.1751     37.6013   6.2636009179e+01   5.4583443307e+01     0.378825    0.2473079  46.52  0.001785107    1.411    0.291
       198 -10.4899    105.3914     34.2282   6.0177266952e+01   5.4117863851e+01    0.4064631    0.2675732   8.30 0.0007886285    1.977    0.494
       199  -9.5274    166.4438     42.0840   4.9431492913e+01   3.8349977811e+01    0.2851673    0.1806374  46.14  0.001348792    1.645    0.392
       200  -9.6339     23.1546     41.4619   9.4951961677e+01   6.6162038970e+01    0.2227107    0.1551418 -48.24  0.000674961    1.337    0.252
       201  -9.5075     16.0173     31.2262   9.4866861793e+01   6.8632598824e+01    0.2751186    0.2142214  59.96  0.001522702    2.331    0.571
       202 -10.0074     13.3314     34.2590   9.7332244620e+01   6.8282282387e+01    0.2872664      0.16231  26.52  0.001383335    1.997    0.499
       203  -9.8687     10.6563     41.5690   1.0105587131e+02   6.7075066433e+01    0.2873898     0.154978  -1.97   0.00160112    2.059    0.514
       204 -11.5317     16.7349     38.4846   9.7068506710e+01   6.7243353771e+01    0.7554836    0.3724754   8.84  0.003981028    2.286    0.563
       205  -9.3506    173.7527     39.5232   4.7494887314e+01   3.6869466949e+01    0.5130035    0.1865805  43.27  0.001616044    4.032    0.752
       206  -9.4219    191.2319     40.0129   4.5037405725e+01   3.2492078051e+01    0.2018174    0.1761461   6.49 0.0005935127    1.490    0.329
       207  -9.0641    202.7371     37.6337   4.2917882129e+01   3.0032787630e+01    0.1864086    0.1194561  80.91 0.0009376221    1.555    0.357
       208  -9.6027    125.4863     36.1908   5.5768763981e+01   4.9226687606e+01    0.3461004    0.2347527  78.46   0.00163262    1.859    0.462
       209  -9.0801    120.1742     35.6787   5.6859346930e+01   5.0549600116e+01    0.3269437    0.1835086  63.25   0.00137972    1.873    0.466
       210  -9.7121    219.6725     32.8237   3.9819894363e+01   2.6706218167e+01    0.2394677    0.1903763   2.17   0.00122876    1.902    0.474
       211  -9.6725    156.2132     32.7177   4.8423783294e+01   4.2123123328e+01    0.6446752     0.191929  51.03  0.002199626    3.081    0.675
       212 -10.1431    147.6067     34.8793   5.0660547032e+01   4.3996813323e+01     0.470611    0.2469202  66.71  0.001422142    1.883    0.469
       213  -9.1840    142.9765     34.7891   5.1532925546e+01   4.5155086174e+01    0.2774947    0.1922211  64.59  0.000984368    1.356    0.263
       214 -10.6471    244.6470     34.0099   3.7660315935e+01   2.1095908629e+01     0.261141    0.2018482 -82.71 0.0005038831    1.176    0.150
       215  -9.4237    134.9689     34.6287   5.3126243939e+01   4.7141248254e+01    0.2468264    0.1931472   4.09 0.0006466007    1.543    0.352
       216 -10.7945    235.9726     31.8598   3.7990279122e+01   2.3212998079e+01    0.5519093    0.3526837  -8.31   0.00264528    2.915    0.657
       217  -9.8012    181.7606     33.1946   4.4545938153e+01   3.5698535379e+01    0.3400784    0.2553425 -71.63  0.001841874    1.357    0.263
       218  -9.1159    206.9589     33.5283   4.1396028671e+01   2.9562373266e+01    0.1987448    0.1214197  69.90  0.001016134    1.550    0.355
       219  -9.8013    193.7910     32.1860   4.2663944694e+01   3.2880357557e+01    0.2271788    0.1960866 -83.20 0.0006858307    1.038    0.036
       220  -9.6781    123.5669     32.1678   5.4822601095e+01   5.0197615596e+01    0.3194923    0.1837009  62.34  0.000841038    1.711    0.416
       221  -9.3576    113.8173     31.6581   5.7002258993e+01   5.2543547432e+01    0.2291681    0.1791142  -1.01 0.0007306827    1.439    0.305
       222 -10.1921    223.7971     29.6775   3.8676177804e+01   2.6169478941e+01    0.2658521    0.1770148 -32.76  0.001315243    1.600    0.375
       223  -9.4725    172.8930     31.0227   4.5235341329e+01   3.8166724434e+01    0.2762576    0.1544509  43.67  0.001240399    2.056    0.514
       224  -9.8907     36.5285     26.3172   8.2588395766e+01   6.7405937882e+01    0.2799063    0.1849792 -34.82  0.001674118    1.395    0.283
       225 -10.2827     29.7411     30.5835   8.7678224562e+01   6.7481240022e+01    0.2672092    0.1863874   8.57 0.0008430994    1.371    0.270
       226  -8.7988     11.6432    184.6986   1.2218690906e+02   3.4087065432e+01    0.1136647   0.08328014 -49.16 0.0007037853    1.711    0.415
       227 -10.1856     23.2000     29.4088   9.0483990991e+01   6.8333369166e+01    0.2734447    0.2373196 -70.30  0.001408578    1.810    0.447
       228  -9.2784    101.0079    176.0009   9.9508459432e+01   2.4825515210e+01    0.1978815    0.1870043  67.02   0.00112769    1.020    0.020
       229 -11.9090     12.1713     25.1436   9.4596260194e+01   7.0000284035e+01    0.3107657    0.1873202 -26.66 0.0003890544    1.379    0.275
       230 -10.0852     23.1534    166.5256   1.1802517809e+02   3.7272553554e+01    0.2165683    0.1501379 -80.86 0.0003193287    1.220    0.180
       231  -9.8163     32.5842    166.1076   1.1564049985e+02   3.6462195852e+01    0.2200624    0.1914557  20.65 0.0007644951    1.436    0.303
       232  -9.2984      2.3212    161.3243   1.2263329289e+02   4.0198649954e+01    0.1195004   0.07724306 -52.71 0.0007046599    1.680    0.405
       233 -11.4771      9.5583    158.9061   1.2068902153e+02   4.0227807851e+01    0.5257143    0.1983544 -49.82  0.001524184    3.064    0.674
       234 -11.0945    167.4427     29.1026   4.5515953443e+01   3.9757598743e+01    0.2777745    0.2613097   6.86 0.0005230997    1.259    0.206
       235  -9.5384    150.0306     29.7054   4.8594470054e+01   4.4031682922e+01    0.2496364    0.1890107  25.29 0.0007466435    1.591    0.371
       236 -11.5666     11.6120    153.7177   1.1972270893e+02   4.1300016411e+01    0.4126138    0.2636277 -28.71  0.002268168    2.273    0.560
       237  -8.8058    228.0404     27.0476   3.7675064600e+01   2.5548131489e+01    0.1533307    0.1261176 -81.67 0.0004146676    1.065    0.061
       238  -9.0209    160.5453     24.8659   4.5355034286e+01   4.1974244295e+01    0.4300082    0.2154262 -52.39  0.001842149    2.361    0.576
       239  -9.7870     39.1729    159.0802   1.1316124120e+02   3.7481263369e+01    0.2680388    0.1784284  40.73  0.001235132    1.553    0.356
       240  -9.6658     15.9407    159.5175   1.1916123907e+02   3.9571698712e+01    0.1679413    0.1216987  31.85  0.001030911    1.586    0.369
       241  -9.1657     45.0020    150.9811   1.1056739977e+02   3.8837478662e+01     0.209745    0.1497753 -38.57 0.0008722945    1.679    0.404
       242  -9.7392     30.9363    151.3185   1.1442823020e+02   4.0211480783e+01     0.177274    0.1569512 -87.98 0.0005891411    1.054    0.051
       243 -10.8180      4.5408    147.2641   1.2095447869e+02   4.3348662704e+01    0.2277722    0.2047161  73.85 0.0004106504    1.180    0.153
       244 -11.2131     15.3874    100.6749   1.1222077241e+02   5.3805808392e+01     1.029589    0.3935072 -39.48  0.004323945    2.875    0.652
       245 -11.0468      3.0206    113.3310   1.1795183300e+02   5.1533941625e+01    0.7128393    0.4645596 -18.96  0.002823642    1.963    0.491
       246 -11.9699     16.6557    108.6627   1.1302645191e+02   5.1810291544e+01     1.026668     0.673302  -3.89  0.005763136    1.982    0.495
       247  -9.6300    153.5002     23.9722   4.6227662372e+01   4.3832260016e+01    0.2848379    0.1455198 -17.36  0.001207424    2.621    0.618
       248  -9.6799    148.2830     23.9471   4.7108728084e+01   4.5132945843e+01    0.2817437    0.1733165  56.44  0.001004254    1.441    0.306
       249  -9.5085    241.5878     24.1771   3.5855737524e+01   2.2965323358e+01    0.3155787     0.153824 -65.80  0.001547242    2.104    0.525
       250 -10.1075    110.7335     17.8681   5.2675475817e+01   5.4838600314e+01    0.2684322    0.1921113  49.35 0.0004816478    1.212    0.175
       251  -9.6653    115.2013     23.8444   5.3820072938e+01   5.3155647852e+01    0.2088622    0.1662844  29.71 0.0002228593    1.243    0.196
       252 -10.7671      6.6625    142.0844   1.1993346335e+02   4.4437152733e+01    0.2765623    0.1939047 -83.46 0.0009425094    1.168    0.144
       253 -11.6267      6.6618    136.1882   1.1936523546e+02   4.5848269157e+01    0.4884346    0.3094859  87.42   0.00283571    1.435    0.303
       254 -12.5605     13.5976    133.8004   1.1718970780e+02   4.5943024453e+01    0.6563804    0.5093111 -50.92   0.00209489    1.313    0.238
       255 -11.1561     20.3300    142.6972   1.1631399190e+02   4.3261235420e+01    0.4626994    0.2425501  77.80  0.002184449    2.190    0.543
       256  -9.6167     68.4746     22.7788   6.7381940155e+01   6.3057609880e+01    0.2154032    0.1593517  35.01  0.000393339    1.234    0.189
       257 -11.9090     27.8748    139.9269   1.1389139316e+02   4.3289593271e+01    0.5090003    0.4004936  43.38  0.003109973    1.386    0.278
       258  -9.2255    246.7796     19.2033   3.4412775735e+01   2.2473492998e+01    0.1520379    0.1368582  69.58  0.001068977    1.374    0.272
       259 -10.4692     64.2137     17.9059   6.6815778778e+01   6.4424771727e+01    0.3143498    0.1999036   5.38  0.001535916    1.738    0.425
       260  -8.6574     47.3106    139.3339   1.0824323066e+02   4.1471956519e+01    0.1414282   0.09592712 -39.79 0.0002690806    1.677    0.404
       261 -10.4228     80.3086     18.6677   6.1485355148e+01   6.1314635817e+01    0.2496713    0.1821859  39.96  0.001456438    1.210    0.174
       262  -8.5060    232.6765     17.3257   3.5142397605e+01   2.5688235534e+01    0.1350914   0.07470302 -64.60 0.0002713999    1.688    0.408
       263  -9.4257    198.0925     16.5576   3.8215641836e+01   3.3682232604e+01    0.1827942    0.1607923 -78.30 0.0004290036    1.056    0.053
       264 -10.6657     22.1877    136.7344   1.1510458004e+02   4.4562746633e+01    0.3229782    0.1367382 -58.05  0.001491664    1.990    0.497
       265  -9.4392     69.9324     17.0765   6.4331923379e+01   6.3490070721e+01    0.2153739    0.1311384  20.11 0.0008967483    1.730    0.422
       266 -10.2466    181.8175     15.3955   3.9761075386e+01   3.7743235460e+01    0.4988516    0.1851832  62.35  0.002035241    2.289    0.563
       267  -9.0494    193.9497     14.9710   3.8265890194e+01   3.4846418998e+01    0.2128579    0.1330672 -71.08 0.0008815723    1.621    0.383
       268  -8.6310     78.3564    135.7093   9.8480423762e+01   3.8277745028e+01    0.1530506    0.1095862  69.15 0.0004813174    1.684    0.406
       269  -8.7003    213.3062     12.3478   3.5715625854e+01   3.0580899924e+01     0.119716    0.0932048  41.89 0.0007042529    1.700    0.412
       270  -9.7552     56.9524    133.4725   1.0444279631e+02   4.1792888434e+01    0.2023531    0.1395833  31.98  0.001027531    1.579    0.367
       271 -10.3669     63.7022    131.3424   1.0202793953e+02   4.1455085255e+01    0.2235126    0.1949003  72.98 0.0007740467    1.200    0.167
       272 -10.3010    179.8311     25.0963   4.2615748798e+01   3.7153762517e+01    0.2472981    0.2133072 -75.28 0.0002717598    1.100    0.091
       273  -8.9628    233.5291     10.5322   3.3629995406e+01   2.6271134770e+01    0.1233976    0.0976534 -72.55 2.462759e-05    1.010    0.010
       274 -11.0611     66.6857    124.7765   9.9849979974e+01   4.2684717215e+01    0.4171385    0.2141555 -50.10  0.001791385    1.823    0.452
       275 -10.8770     68.3496    119.0313   9.8146847528e+01   4.3872806477e+01    0.4988077    0.1704849 -52.21  0.001771332    2.587    0.613
       276  -9.8132     55.7697    125.7314   1.0342034379e+02   4.3869142647e+01    0.3103616     0.189788 -61.77 0.0009263444    1.474    0.322
       277 -11.9349     53.3040    118.7566   1.0288546676e+02   4.5897296280e+01     1.429819    0.6918066  62.01  0.004848128    3.985    0.749
       278 -11.3580     33.1120    124.8755   1.1027363248e+02   4.6522316262e+01     0.416971    0.3660192  13.99  0.001382234    1.357    0.263
       279 -10.9562     33.1877    119.8391   1.0946557815e+02   4.7756141598e+01    0.3535454    0.3074448   8.29  0.001539052    1.370    0.270
       280 -10.8690     28.2045    119.6854   1.1100288719e+02   4.8237663570e+01    0.3319386    0.2377046 -79.86  0.001301855    1.303    0.232
       281 -12.2592     39.9774    115.9930   1.0665707604e+02   4.8046771586e+01    0.9392124    0.5802976 -79.51  0.004628335    1.721    0.419
       282 -10.5454     40.8657    146.4940   1.1110530998e+02   4.0397171325e+01    0.2723033    0.2460616   3.09  0.000982361    1.372    0.271
       283  -9.8607     25.7501    127.5741   1.1289048105e+02   4.6510652008e+01    0.1679798    0.1156288  43.78 0.0004868032    1.601    0.376
       284 -10.5709    249.6725    127.8179   5.7331833117e+01   5.8156460994e+00    0.2832051     0.111137 -31.60  0.001095157    2.610    0.617
       285  -9.9379     90.1946    122.1121   9.2042478805e+01   3.9725307478e+01    0.3694384    0.2436344  31.70  0.001642824    1.629    0.386
       286  -9.1087     91.5144    118.4967   9.0799132235e+01   4.0374349405e+01    0.2976195    0.2296015  65.36   0.00132361    1.549    0.355
       287 -11.0470     75.4581    120.0588   9.6128066800e+01   4.2585844321e+01    0.2423615    0.2294507  38.29  0.000198086    1.121    0.108
       288  -9.1399     61.0340    120.3178   1.0073083138e+02   4.4546219980e+01    0.1883397    0.1820002  32.11 0.0005250932    1.131    0.116
       289 -10.3347     20.3037    118.0372   1.1322373439e+02   4.9278305617e+01    0.3217077    0.2355498 -82.51  0.001903918    1.261    0.207
       290  -9.9506    116.2421    116.6860   8.3037904697e+01   3.6170216345e+01    0.2699699    0.2544969  -1.59 0.0003064145    1.119    0.107
