#   1 NUMBER                 Running object number                                     
#   2 MAG_AUTO               Kron-like elliptical aperture magnitude                    [mag]
#   3 X_IMAGE                Object position along x                                    [pixel]
#   4 Y_IMAGE                Object position along y                                    [pixel]
#   5 X_WORLD                Barycenter position along world x axis                     [deg]
#   6 Y_WORLD                Barycenter position along world y axis                     [deg]
#   7 A_WORLD                Profile RMS along major axis (world units)                 [deg]
#   8 B_WORLD                Profile RMS along minor axis (world units)                 [deg]
#   9 THETA_WORLD            Position angle (CCW/world-x)                               [deg]
#  10 FWHM_WORLD             FWHM assuming a gaussian core                              [deg]
#  11 ELONGATION             A_IMAGE/B_IMAGE                                           
#  12 ELLIPTICITY            1 - B_IMAGE/A_IMAGE                                       
         1 -12.1562    119.4537     37.7609   2.5340805900e+01   5.0183356821e+01    0.8019375    0.4007612 -50.12  0.003380493    2.614    0.617
         2 -11.8364      6.3826     34.0848   6.6762370723e+01   6.8906668701e+01    0.9435768    0.3625515 -31.59  0.004577476    2.537    0.606
         3 -11.5865     20.4667     21.8134   5.4804817454e+01   6.9723669349e+01    0.7397904    0.3589057 -23.60  0.003897561    2.209    0.547
         4 -11.6255      6.1432     11.1436   5.7961417941e+01   7.2612907496e+01    0.6077814    0.4764951 -44.52  0.004546335    1.591    0.372
         5 -10.2473      1.2763      7.8629   5.9345932023e+01   7.3470549929e+01    0.3430057   0.06482483 -44.78  0.001423428    4.060    0.754
         6 -10.0918     22.0681      3.1741   4.5299726253e+01   7.2037392603e+01    0.2162141    0.1437598 -32.95 0.0007128303    1.617    0.382
         7 -10.7733      2.1513      2.1070   5.6092472379e+01   7.4200728950e+01    0.2222841    0.1329285 -15.12  0.001235559    1.403    0.287
         8 -10.6374     12.8445      8.7602   5.3049596526e+01   7.2341368255e+01    0.2615901     0.195355 -46.47 0.0009425398    1.837    0.456
         9 -12.2601     16.1124     14.1127   5.3732542165e+01   7.1280723596e+01    0.6287563    0.2889026 -20.99   0.00305084    2.552    0.608
        10 -12.1811     22.7068     10.5917   4.8608654023e+01   7.1048067164e+01    0.4604521     0.300169   7.25   0.00220786    1.371    0.270
        11 -12.6617    113.7632     25.4277   2.2530865666e+01   5.2987499227e+01    0.9391142    0.3658166  44.14  0.003525908    2.520    0.603
        12 -13.1829    105.4973     20.1770   2.2640472435e+01   5.5421734427e+01    0.3245798    0.3093103  80.74 0.0005514266    1.175    0.149
        13 -12.3109    104.3947     14.0786   2.0724144355e+01   5.6281557774e+01    0.4731727     0.356253  11.46  0.002821327    1.540    0.351
        14 -11.9062     36.2974     19.4189   4.6009632957e+01   6.8201142806e+01    0.6746904    0.4032333 -25.15  0.004061694    1.600    0.375
        15 -12.1642     48.8374     13.0157   3.7640956122e+01   6.7164304415e+01    0.5366002    0.2580885  44.61  0.002847661    2.001    0.500
        16 -11.9108    135.6105     22.0732   1.6968696367e+01   4.8239051947e+01    0.5442477    0.3921868  72.92  0.003057755    1.281    0.219
        17 -11.8693    127.2441     16.5287   1.6779314728e+01   5.0800641110e+01    0.6098661     0.371077  -7.58  0.002418574    2.326    0.570
        18 -11.8950    134.9956     14.9562   1.4888224906e+01   4.9120821927e+01    0.6461853    0.2378235  59.58  0.002757737    2.171    0.539
        19 -10.9809     67.7957     19.4300   3.3285325467e+01   6.3200016012e+01    0.3591589    0.3258293  85.92  0.002245068    1.597    0.374
        20 -12.2946    164.7827     18.1992   1.1254714749e+01   4.1618751422e+01    0.5286025    0.2794353  46.43  0.002520054    2.145    0.534
        21 -11.4177    184.4343      5.9611   5.8328332520e+00   3.8201385856e+01    0.4579543    0.3042602 -44.51  0.002739929    1.553    0.356
        22 -11.8213    177.4162      6.0418   6.5903427979e+00   3.9843705484e+01    0.2955714    0.2017495  81.66 0.0002648839    1.223    0.182
        23 -11.6201    191.9460      9.5253   5.9161519643e+00   3.6086286202e+01    0.8686927    0.3357313 -21.66  0.003373315    4.343    0.770
        24 -10.3789    188.6258      2.7488   4.6608983731e+00   3.7540929896e+01    0.3085221    0.1545454 -57.66 0.0009808292    1.980    0.495
        25 -11.4468     85.7144     14.2533   2.5562850463e+01   6.0267015458e+01    0.5035455    0.2984709   7.43  0.002539766    2.274    0.560
        26 -10.4155     89.5024      8.5893   2.2328667715e+01   6.0014456181e+01    0.2784377    0.1973756  -8.26  0.001062449    1.617    0.382
        27 -11.0188    225.6935     13.7005   3.8008237397e+00   2.8052902545e+01    0.2356979    0.1825014 -66.36 0.0004199547    1.098    0.089
        28 -10.5797    186.8831     15.0034   7.7428776806e+00   3.6686407375e+01    0.2102766    0.1812747 -75.99 0.0003369304    1.104    0.094
        29 -12.1089    212.2177      9.4363   4.0277669416e+00   3.1481222423e+01    0.5038482    0.3779531 -10.03  0.003009552    2.161    0.537
        30 -10.7766    218.6074      3.6720   2.3046879238e+00   3.0692264297e+01    0.2698014    0.1837885  79.12 0.0007948759    1.286    0.222
        31 -10.9033    223.7437      2.6802   1.7203008075e+00   2.9686713332e+01    0.2542717    0.1779926 -82.04 0.0003877844    1.123    0.110
        32 -10.9638    207.8188      2.8234   2.9805452834e+00   3.3160944137e+01    0.3212791    0.1845593 -88.49 0.0009704035    1.505    0.336
        33 -10.4140    204.4918      1.5032   2.9702395763e+00   3.4040378450e+01    0.1977969    0.1491548  89.92 0.0007307878    1.069    0.064
        34 -10.5390    120.5935     11.7137   1.6483607347e+01   5.2819754266e+01    0.3064709    0.1335538  62.95 0.0009476151    1.939    0.484
        35 -12.1043    163.1437     28.1338   1.4170586271e+01   4.0893145845e+01    0.5575719    0.3295147  48.11 0.0008333695    1.796    0.443
        36 -10.8835    168.7415      9.5096   8.4600512291e+00   4.1564103604e+01     0.468794    0.1589708  57.52  0.001970771    2.538    0.606
        37 -10.7256    163.8926      7.0745   8.4146679966e+00   4.2958654898e+01    0.5167887    0.2528562 -12.01  0.002234801    3.556    0.719
        38 -10.3171    145.0711     10.0174   1.1788493944e+01   4.7189253850e+01    0.2208073    0.1641946  33.08 0.0008321161    1.617    0.382
        39 -11.6402    152.8868      7.6589   9.9986704292e+00   4.5537735957e+01    0.7749496    0.2471139  56.15  0.003186562    2.587    0.613
        40 -10.4994    157.5814      3.7193   8.3027059579e+00   4.4775594570e+01     0.341794    0.1894931  44.62  0.001749023    2.060    0.515
        41  -9.6142     77.9903      7.6491   2.5123929936e+01   6.2458456756e+01    0.1758669    0.1330251  46.90 0.0005546499    1.140    0.123
        42 -10.4071    232.1367      6.9389   1.9582912238e+00   2.7443223799e+01     0.200166    0.1227325 -66.89  0.001236502    1.335    0.251
        43 -11.2550    233.2607      2.5981   1.0348222108e+00   2.7681026955e+01    0.2801461     0.158155 -65.34 0.0004691734    1.463    0.316
        44 -10.6134    122.0660      5.4211   1.4147574904e+01   5.3036066204e+01    0.2295528    0.1765754 -20.29  0.001061146    1.562    0.360
        45 -10.2348     63.0290      6.6816   2.9449281478e+01   6.5403069484e+01    0.2101807    0.1578677   2.62  0.001007385    1.320    0.242
        46 -11.0396    141.6728      3.8568   1.0493056355e+01   4.8554772551e+01    0.3300661    0.1984916  65.08  0.001827806    1.361    0.265
        47 -11.8640    134.0005      2.5786   1.1263200397e+01   5.0479149788e+01    0.4815114    0.2704129  72.08   0.00236613    1.539    0.350
        48 -10.6325    242.9211      4.1617   6.9163041769e-01   2.5523458586e+01    0.1917557    0.1175847 -69.78 0.0006775875    1.286    0.223
        49 -10.7641    113.4413      2.6265   1.4812303576e+01   5.5250226891e+01    0.4420643    0.2398194  76.23  0.001934746    1.943    0.485
        50 -10.5017    105.1821      2.0684   1.6258832700e+01   5.7156696367e+01    0.3785222    0.2156419  86.32  0.001684382    2.458    0.593
        51 -10.3079     41.6983      3.6440   3.6218232845e+01   6.9287927622e+01    0.2618985    0.1502787  24.76  0.000973815    1.582    0.368
        52 -10.3577     73.9385      3.2688   2.4489947432e+01   6.3644211608e+01    0.3920664    0.1456007  55.60  0.001794807    2.359    0.576
        53 -10.1584     13.4513      2.6098   4.9692003751e+01   7.3076263808e+01    0.1879119    0.1380111  16.10 0.0006465034    1.245    0.197
        54  -9.4365     64.3734      2.1676   2.6994805604e+01   6.5565160646e+01    0.1379969    0.1063528 -25.73 0.0004218262    1.500    0.333
        55  -9.7021    245.8729      1.3921   3.5999232332e+02   2.5231741610e+01    0.1570882   0.09000021  83.76 0.0003581263    1.510    0.338
        56  -9.8391    152.3818      1.4583   8.3450834422e+00   4.6213120675e+01    0.2509244    0.1047272  70.76 0.0007051479    1.984    0.496
        57  -9.4289     58.2143    118.4481   6.7866505874e+01   4.5834993374e+01     0.205249    0.1714745 -68.84  0.001125158    1.157    0.136
        58  -9.6170    249.6632    250.2966   4.7368609070e+01  -1.2994278174e+01   0.09424898   0.08680272  27.44 0.0005643349    1.652    0.395
        59  -9.2740     89.3613    250.3165   7.8864803182e+01   1.0423806075e+01    0.1172266   0.09816625   0.55 0.0007042329    1.762    0.432
        60 -11.5598     49.3876    247.6609   8.6662866048e+01   1.6454302083e+01    0.4117535    0.2621534 -89.07  0.002519509    1.523    0.343
        61  -9.7578     43.4173    116.2386   7.2273105829e+01   4.8180165224e+01    0.2696085    0.1851213 -65.49 0.0009163563    1.340    0.254
        62 -10.7543      7.8775    114.8865   8.3659507904e+01   5.1601966070e+01    0.4126599    0.2089576 -48.36 0.0003907039    1.795    0.443
        63 -12.0153      2.5433    112.0409   8.4984907932e+01   5.2599964809e+01    0.4412746    0.2696036 -73.13  0.002540693    1.364    0.267
        64 -11.3308      4.0748    105.6257   8.3610316774e+01   5.4020089223e+01    0.4155985    0.3414981 -17.42  0.002777758    1.404    0.288
        65  -9.8050     37.3387    116.9515   7.4407714538e+01   4.8657571843e+01    0.1961011     0.159163 -59.28 0.0004815346    1.087    0.080
        66  -9.6553     79.3720    114.7752   6.0234261435e+01   4.3593977497e+01    0.2781505    0.1792808 -45.89  0.001275068    1.518    0.341
        67  -9.0761     67.6761    115.3024   6.4112764806e+01   4.5279119367e+01    0.1460434    0.1111257  73.24 0.0007029938    1.636    0.389
        68 -10.3085     35.8707    102.8367   7.2189752049e+01   5.2196547456e+01     0.568517    0.2921722  -2.18  0.002242544    3.409    0.707
        69 -11.6382     25.2317    107.4104   7.6747394503e+01   5.2096908921e+01    0.8699667    0.3966396 -35.26  0.003692934    2.692    0.629
        70 -11.7258     22.6206    114.2426   7.8782627992e+01   5.0677867664e+01    0.5088629    0.2749109  -2.25  0.002327284    2.780    0.640
        71 -11.4474     28.5087    113.0261   7.6630283002e+01   5.0462670516e+01    0.3996793    0.2877057  11.74  0.001588728    1.661    0.398
        72  -9.1497    104.5246    112.5993   5.1976822429e+01   3.9582995271e+01    0.1510091    0.1468398  73.25  4.15699e-05    1.038    0.037
        73 -10.0554     48.8750    112.1369   6.9640628592e+01   4.8545868212e+01    0.2641262    0.1814914  35.43  0.001227797    1.572    0.364
        74 -11.0997     15.5756    109.1567   8.0303005238e+01   5.2441535981e+01    0.3582266     0.265293 -32.34  0.001520745    1.439    0.305
        75  -9.3676    101.4143    109.7482   5.2169940358e+01   4.0841199782e+01    0.2202567    0.1405636 -39.44 0.0009473027    1.659    0.397
        76 -12.3899     80.0625    108.0047   5.8372651188e+01   4.5081518122e+01    0.3913373    0.3140672  27.32 0.0004501655    1.329    0.247
        77  -9.4533     89.4027    105.1460   5.4667567375e+01   4.4131256962e+01    0.2238406    0.1982455  39.32 0.0003418091    1.153    0.133
        78 -10.2230     85.8170    103.6430   5.5415025443e+01   4.5109833751e+01    0.2593191    0.2492476 -49.07 0.0005907532    1.023    0.022
        79  -9.1256    182.5654    104.4846   3.0744464808e+01   2.4006222641e+01    0.1503816    0.1408197 -70.11 4.296367e-05    1.011    0.011
        80 -11.7803     17.4074    100.6639   7.8261983421e+01   5.4311517749e+01    0.2677358    0.2163726 -64.80 0.0004550728    1.084    0.078
        81 -11.2658     52.3252     99.2884   6.5616597832e+01   5.1169300656e+01    0.4952841    0.2418639 -43.16            0    2.009    0.502
        82 -10.2735     64.6720     98.6769   6.1167011209e+01   4.9637380192e+01    0.3835658    0.1608607 -49.51  0.001477072    2.190    0.543
        83 -11.5580     68.7443     95.4572   5.8938628979e+01   4.9763922695e+01     0.484483    0.3646108  27.32  0.002530538    1.405    0.288
        84 -11.5148      9.2101     97.1939   8.0553655377e+01   5.5675263452e+01    0.4760675    0.3541366  85.32   0.00189794    1.509    0.337
        85 -10.6090     80.2474     84.0270   5.1835722181e+01   5.0379499147e+01      0.46565    0.3507682 -29.02  0.002386141    1.396    0.284
        86 -11.5842     74.8315     78.6966   5.2112839077e+01   5.2401703147e+01    0.6039437    0.5482363  37.72  0.003516566    1.155    0.134
        87 -10.6220     79.3774     97.4515   5.5878915738e+01   4.7614759614e+01    0.5089856    0.2251516  49.73  0.001328904    2.895    0.655
        88 -11.3645     79.6545     92.6487   5.4483868663e+01   4.8633530824e+01      0.70205    0.5163134  43.53  0.003551832    1.421    0.296
        89 -10.2766     30.3388     96.2051   7.2795150405e+01   5.4280090417e+01    0.2496534    0.2084489  68.62 0.0003435827    1.442    0.307
        90  -8.4071     17.7565     86.7435   7.5505000371e+01   5.7483000215e+01    0.3225964    0.2953335  45.82  0.002192411    1.308    0.236
        91 -11.3819     22.5370     94.4532   7.5273525227e+01   5.5358725889e+01    0.2993919     0.243432 -33.40 0.0006200911    1.201    0.167
        92 -11.1391     18.7678     91.9985   7.6172573425e+01   5.6215600982e+01    0.3156754    0.2498522 -89.02  0.001935191    1.435    0.303
        93 -11.6104    125.8335     94.7970   4.1185268824e+01   3.9018304310e+01    0.2649622    0.2502407  60.24 0.0002208443    1.045    0.043
        94  -9.6115    121.6201     93.7448   4.2028427637e+01   4.0163008225e+01    0.2815735    0.1482329 -40.35 0.0007554673    1.983    0.496
        95 -10.5702     43.3423     94.3040   6.7657021801e+01   5.3389356795e+01    0.3028962     0.261805  24.25  0.001202843    1.261    0.207
        96 -11.1410     42.7902     91.0023   6.7078534159e+01   5.4203517305e+01    0.4282485    0.2085878  39.98  0.001252324    2.327    0.570
        97 -10.3740     35.4428     92.4159   7.0112778528e+01   5.4661319630e+01    0.2865705    0.2242478 -82.11  0.001128474    1.482    0.325
        98 -11.7735     98.3775     91.0267   4.8010401138e+01   4.5561201382e+01     0.275627    0.2444987  43.49 0.0001394732    1.132    0.116
        99 -10.6298     88.9435     89.4655   5.0539444953e+01   4.7680976315e+01    0.7069432    0.4748361  -6.28  0.002963874    2.350    0.574
       100  -9.7634     90.3067     85.6194   4.8987463899e+01   4.8236818572e+01    0.3866045    0.2464049  56.17  0.001716839    1.914    0.478
       101  -9.9906     49.4435     91.3725   6.4732299796e+01   5.3339451679e+01    0.2944883    0.1641393  37.17  0.001400634    1.938    0.484
       102 -11.4152      7.3410     88.2682   7.9696395662e+01   5.7826760171e+01     0.462251    0.3481644 -12.74  0.002294627    1.479    0.324
       103  -9.9573     66.3605     88.6139   5.7935302857e+01   5.1644239312e+01    0.3576581    0.2198157  -9.87  0.001419102    2.683    0.627
       104 -10.0595     26.9885     89.2265   7.2550030107e+01   5.6179960837e+01    0.3143221    0.2033379  -0.20  0.001689135    1.870    0.465
       105 -10.5247     27.2480     84.9268   7.1500762392e+01   5.7124105564e+01    0.4768396    0.3134717   6.34  0.002068884    1.766    0.434
       106 -10.6627    103.9689     86.5720   4.5022549705e+01   4.5370778861e+01    0.2889775     0.212846 -45.71  0.001406225    1.376    0.273
       107 -10.2634     51.9983     87.0010   6.2682260488e+01   5.3995979608e+01    0.1992896    0.1796044 -38.72            0    1.020    0.020
       108 -11.2919     44.5945     84.7462   6.4855839528e+01   5.5395489607e+01    0.6038379    0.4345418  25.99  0.002502653    1.489    0.328
       109 -10.1392     37.2195     86.1917   6.8000677075e+01   5.5885563518e+01    0.3058311    0.1570776  35.53  0.001118281    2.141    0.533
       110 -11.4781    143.2017     84.6580   3.3978612754e+01   3.7046490339e+01    0.2550469    0.2457727 -60.79 0.0002538119    1.059    0.055
       111 -10.0587    112.4157     82.8981   4.1471108839e+01   4.4342540668e+01    0.3927763    0.2133774  51.89  0.001617236    1.899    0.474
       112 -10.3569     67.2186     81.7017   5.5685676367e+01   5.2998482194e+01    0.3256162    0.2556884 -12.58  0.001534991    1.402    0.287
       113  -9.0669    119.6375     80.3115   3.8694772540e+01   4.3271100504e+01    0.1551184    0.1188561  89.18  0.000704065    1.751    0.429
       114  -9.6938    103.0274     79.4679   4.3191890709e+01   4.6982328445e+01    0.2297432    0.1918785 -39.70  0.000509971    1.219    0.179
       115 -10.2213    103.1543     74.9847   4.1783565623e+01   4.7818548027e+01    0.2620747    0.2484737 -71.53 0.0008544061    1.160    0.138
       116 -12.1169     52.9524     73.9045   5.8692613374e+01   5.6669455432e+01    0.5602707    0.2869733 -56.04 0.0003586029    2.074    0.518
       117  -9.2544     88.5290     73.0120   4.5738209106e+01   5.1089882017e+01    0.1940405    0.1844892 -24.62 0.0004344275    1.059    0.056
       118  -9.7247     92.7019     72.1654   4.4128200061e+01   5.0450666701e+01     0.278406    0.2326058 -73.60   0.00146599    1.527    0.345
       119 -10.7410     89.1079     77.6957   4.7002244795e+01   5.0068440326e+01    0.6303365    0.2971806  46.70  0.002538462    2.212    0.548
       120 -10.1381     94.3398     76.3583   4.4916427857e+01   4.9327743244e+01    0.3251725    0.2222204  39.30  0.001130135    1.443    0.307
       121  -9.2200    126.9666     76.9349   3.5756269072e+01   4.2256511260e+01    0.1753996    0.1656223  53.36 0.0003368802    1.021    0.020
       122 -10.7681     58.0343     77.8573   5.7924677273e+01   5.5155358227e+01     0.281959    0.2346677 -40.43 0.0005702554    1.125    0.111
       123 -11.0537     14.0423     74.6511   7.4381429628e+01   6.0412125160e+01    0.3102911    0.2353194 -74.63   0.00144997    1.438    0.304
       124 -10.8196      2.0894     71.6843   7.8592785230e+01   6.1761414389e+01    0.3724808    0.1630104 -57.56  0.001660488    1.739    0.425
       125  -9.4230     59.8227     83.1854   5.8779626703e+01   5.3774713702e+01    0.1946535     0.155139 -18.99 0.0006376563    1.308    0.235
       126  -9.2941     24.6424     73.7942   6.9888312220e+01   5.9781098268e+01    0.1761203    0.1106168 -65.86 0.0009479114    1.665    0.399
       127 -10.6125     81.3102     72.2303   4.7893394543e+01   5.2567885990e+01    0.4161036    0.2077793 -33.77  0.001701642    2.294    0.564
       128 -10.5037     78.0500     67.5801   4.7526742510e+01   5.4032539292e+01    0.3831978    0.2707591 -72.85    0.0017672    2.334    0.571
       129 -11.2395     35.3747     71.8787   6.5042397853e+01   5.9171157107e+01    0.4608069    0.2333999  32.22  0.001322851    2.121    0.528
       130  -9.8938     41.2551     72.5926   6.2884442644e+01   5.8383212441e+01    0.2746044    0.1967458 -17.65  0.001042132    1.470    0.320
       131 -10.6331     39.9307     69.1007   6.2420458174e+01   5.9253280621e+01    0.2642955    0.2264372  -0.18 0.0009037242    1.157    0.136
       132  -9.3028    153.8460     72.3847   2.8170155788e+01   3.6729213410e+01    0.2146593    0.1301457  46.88 0.0008133815    1.675    0.403
       133 -10.8381    123.0453     68.7759   3.4317464291e+01   4.4616384075e+01    0.4882055    0.2372325  48.62   0.00174104    1.950    0.487
       134 -10.1745     13.9250     67.6960   7.2817749741e+01   6.1899364197e+01     0.410145    0.1624975  13.01  0.001863183    3.027    0.670
       135 -10.4035     96.4994     65.4973   4.0804358879e+01   5.0921393313e+01    0.2629564    0.2215414  -5.61  0.001430537    1.296    0.229
       136 -11.1356     92.7573     62.9330   4.1134321208e+01   5.2123230590e+01    0.4165725    0.2808381  60.84  0.001177779    1.848    0.459
       137 -10.4468     11.6066     49.5660   6.9044500904e+01   6.5702038062e+01    0.5602627    0.1502081 -43.32  0.002357806    2.899    0.655
       138 -12.5858      6.1176     61.8107   7.4740743694e+01   6.3615874065e+01    0.6483058    0.3825572  -9.59  0.002408009    1.859    0.462
       139  -9.8149      7.9844     55.0074   7.2213418026e+01   6.4878860691e+01    0.2194802    0.1756407  47.53  0.001470784    1.708    0.415
       140 -10.6130    201.6924     64.7525   1.7816289672e+01   2.6554477006e+01    0.2460417    0.2005473 -83.82 0.0002449884    1.147    0.128
       141  -8.8876    192.4815     65.4498   1.9356151472e+01   2.8593488618e+01    0.1422355    0.1263375 -81.53 0.0002119858    1.006    0.006
       142  -9.6696    159.0666     62.7767   2.4442126965e+01   3.7062785914e+01    0.2373848    0.1463871  40.19 0.0006675863    1.925    0.481
       143  -9.7913    105.2769     63.4645   3.7519122781e+01   4.9456631165e+01     0.278672     0.131729  44.29  0.001132136    2.026    0.506
       144 -10.6762     50.7331     56.4803   5.4086722348e+01   6.0366980251e+01    0.9240087    0.4159559 -48.20  0.004196802    2.219    0.549
       145 -10.7946     40.0210     56.7952   5.8619370165e+01   6.1666037658e+01    0.3016506    0.1749344  31.95  0.001081528    1.802    0.445
       146 -11.4942     43.0844     61.1238   5.8724958552e+01   6.0473753796e+01     0.361139     0.215244 -48.09  0.001882888    1.584    0.369
       147 -11.0210     46.4623     59.5081   5.6822789618e+01   6.0364202022e+01    0.3064341    0.2503557  62.87  0.001474769    1.795    0.443
       148 -10.3453     64.3907     61.2257   5.0359990450e+01   5.7490352421e+01    0.3870271    0.3037593  28.89  0.002228499    1.255    0.203
       149 -10.0772    124.8103     56.6305   3.0113812090e+01   4.6227936788e+01    0.2567202     0.208797 -46.71 0.0006633939    1.320    0.243
       150  -9.8181    123.4389     60.7432   3.1739102608e+01   4.5884836202e+01    0.2955344    0.2323361  75.85 0.0005795044    1.446    0.308
       151 -10.8169    118.8122     56.6106   3.1614437125e+01   4.7607191545e+01    0.5887701    0.3664156  77.90  0.002258708    2.515    0.602
       152  -9.4073    113.5305     60.9896   3.4408188541e+01   4.8081979523e+01    0.2172061    0.1427908 -37.35  0.001036984    1.608    0.378
       153 -10.7433     31.1234     53.0240   6.1239518758e+01   6.3357299728e+01    0.4999027    0.1934849  19.59  0.002105549    3.142    0.682
       154  -9.7028     29.5135     60.4629   6.4234786342e+01   6.2082926656e+01     0.221982    0.1833987   6.30  0.001126563    1.225    0.184
       155 -11.1707     24.5856     57.4111   6.5472198722e+01   6.3144828487e+01    0.4817427    0.3887217  15.76  0.002199618    1.315    0.240
       156 -10.9142     88.2136     55.8297   4.0198643851e+01   5.4230299201e+01     0.624581     0.236763 -28.68  0.001966322    4.322    0.769
       157 -12.7207     75.5590     53.0070   4.3477720354e+01   5.7062026660e+01    0.5829368    0.4843704 -56.93  0.001102797    1.509    0.337
       158 -12.5253     73.0994     47.7590   4.2472370799e+01   5.8355805637e+01     0.426591    0.2828078 -48.66  0.001229584    1.798    0.444
       159  -9.5374    106.5295     58.4683   3.5536049441e+01   5.0029143815e+01    0.1406939    0.1333793  43.75 0.0001262863    1.039    0.037
       160  -9.5373     91.6726     57.3346   3.9607473704e+01   5.3298577081e+01    0.1368672    0.1125552 -87.62 0.0004899441    1.720    0.419
       161 -10.0897    157.2528     54.7311   2.2546167538e+01   3.8755033547e+01    0.3875464    0.2399997 -60.58   0.00175904    1.905    0.475
       162  -9.4411     33.9713     57.0000   6.1263408650e+01   6.2303803365e+01    0.1944604   0.06867872  27.00 0.0008059265    2.967    0.663
       163  -9.8791     66.8036     54.4628   4.7151532476e+01   5.8312592151e+01    0.3078497     0.181816 -58.25  0.001377396    2.572    0.611
       164  -9.2224    201.3063     53.3411   1.5158481625e+01   2.8378964433e+01    0.1284251    0.1074084  29.56  0.000504057    1.684    0.406
       165 -11.1441     60.8079     48.2341   4.7205206059e+01   6.0332804717e+01    0.7066256    0.3286794 -33.63  0.003178781    2.267    0.559
       166 -10.6328     46.9935     48.7279   5.2943840865e+01   6.2258406832e+01    0.3057122    0.2071143  21.94 0.0009076129    1.457    0.314
       167 -12.1791     43.4972     44.2450   5.2809413259e+01   6.3488403170e+01    0.5568575    0.3283219  29.88  0.001152439    1.678    0.404
       168 -10.4034     51.9922     48.3174   5.0734055238e+01   6.1639792690e+01    0.2541457    0.2339032   4.76 0.0007200312    1.136    0.120
       169 -10.3188    239.9292     50.6640   1.0075983318e+01   2.0269641239e+01    0.2012262    0.1632467 -44.13 0.0006207551    1.299    0.230
       170  -9.8789    145.2413     50.2214   2.3598040068e+01   4.2343521104e+01    0.3064419    0.1808027 -11.99 0.0009598043    2.946    0.661
       171 -10.1627    110.4472     38.4682   2.7781514716e+01   5.2139046305e+01    0.2577666     0.223203  14.96 0.0006576991    1.241    0.194
       172 -10.4848    112.2169     50.8014   3.1453581194e+01   4.9991628626e+01    0.3194945    0.2625083   4.23 0.0009391371    1.418    0.295
       173 -11.8311    117.4874     45.3786   2.8317826276e+01   4.9597221129e+01    0.6190625    0.5053229 -30.88  0.002425137    1.338    0.253
       174 -11.0937    112.7332     42.6045   2.8594850942e+01   5.1064479579e+01    0.6988384    0.2563024  57.40  0.002467162    2.713    0.631
       175  -9.3571    113.2016    249.5742   7.3864232709e+01   6.9631454106e+00    0.1798301    0.1104951  29.68 0.0009421822    1.647    0.393
       176  -8.9053     97.3438     50.2765   3.5458267905e+01   5.3280836983e+01    0.1425093    0.1010924  21.33  0.000695843    1.625    0.385
       177  -9.2905    189.0656     49.3276   1.5879561429e+01   3.1842600018e+01    0.1873618    0.1581141  84.97 0.0004309065    1.065    0.061
       178 -11.0333     28.2275     47.1117   6.0591146863e+01   6.4744658629e+01    0.5711318    0.2397133 -22.19   0.00198363    4.667    0.786
       179  -9.5493      1.8744     48.8497   7.3400538408e+01   6.6441471564e+01    0.1373001    0.1331491 -54.84  0.000786654    1.316    0.240
       180 -10.9880     20.8164     46.3721   6.3762254753e+01   6.5577629179e+01    0.3909324    0.2480002 -39.12  0.001795083    1.328    0.247
       181 -10.3444     26.2987     43.0899   6.0104327135e+01   6.5658554658e+01    0.2294856    0.1564999  18.91 0.0006090311    1.471    0.320
       182  -9.6629     82.6592     46.8465   3.8862123558e+01   5.6741077463e+01    0.2086827    0.1592358  -9.70 0.0008182302    1.435    0.303
       183  -9.9038     55.5065     50.4867   5.0094902923e+01   6.0758357367e+01    0.1824308    0.1442876 -21.30 2.517569e-05    1.184    0.156
       184  -9.9489    200.9875     45.4937   1.3343472678e+01   2.9578042302e+01    0.2025552    0.1220788  70.77 0.0006384822    1.564    0.361
       185  -9.9212    138.4334     44.5106   2.3286866104e+01   4.4797440125e+01    0.3899992    0.2018442  33.22  0.001479077    2.985    0.665
       186 -10.5217    156.0551     42.2095   1.9237944129e+01   4.0836987618e+01    0.2696464    0.2282362 -34.26  0.000822982    1.329    0.247
       187  -9.9890     56.9887     42.0288   4.6402528306e+01   6.1934991031e+01    0.2509223      0.16392  34.75  0.001401949    1.477    0.323
       188 -11.4999     78.8710     36.0195   3.6120214779e+01   5.9044037776e+01    0.7034866    0.4805348 -35.11  0.003926588    1.570    0.363
       189  -9.5077    229.3368    248.3110   5.0612066870e+01  -1.0219734224e+01    0.1230169   0.07594908   1.56 0.0007044772    1.685    0.407
       190 -10.0290    173.3616    246.9752   6.1117580226e+01  -2.0151764791e+00    0.2674763    0.1273272  23.73  0.001157182    2.503    0.600
       191 -11.8889    126.5454    241.5294   7.0073829268e+01   6.3569772217e+00     0.319693     0.250503  61.11  0.001903261    1.305    0.234
       192  -9.4845     83.6915    241.6566   7.9159513153e+01   1.2947106293e+01    0.1161927    0.1010537 -15.41 0.0007044031    1.695    0.410
       193 -11.1775    146.8094    238.3114   6.5340975775e+01   3.6758212321e+00    0.4041721    0.2920274  67.02   0.00218586    1.797    0.444
       194 -11.3807     67.6531    240.9628   8.2427809571e+01   1.5372220270e+01    0.3187454    0.2559621 -37.39  0.001803111    1.859    0.462
       195 -10.6017     13.1620     23.6087   5.9361620437e+01   7.0136445342e+01    0.3140964    0.1936799  23.65  0.002038252    1.654    0.395
       196  -9.4338    167.2127    238.1908   6.1059657889e+01   4.0406933894e-01       0.1707    0.1451093  53.65 0.0006410108    1.327    0.246
       197  -9.6962     44.7087    120.0091   7.2564732816e+01   4.7112634626e+01    0.2092247    0.1780296  85.81 0.0004941255    1.245    0.197
       198  -9.2211     15.4170    233.7917   9.2338004947e+01   2.3248649754e+01    0.1557046   0.09147918 -70.03 0.0009445109    1.715    0.417
       199  -9.7265    220.3470     39.0282   9.6359213692e+00   2.6070235671e+01    0.1790317    0.1419376 -62.04 0.0004292841    1.107    0.097
       200 -12.8575    152.8779     35.8953   1.7998642149e+01   4.2439934473e+01    0.2972216    0.2712633  72.51 0.0005299779    1.053    0.050
       201 -10.8933     61.3059     35.9694   4.2383749563e+01   6.2170087637e+01    0.4535324    0.2809731  -8.73  0.001720015    2.033    0.508
       202 -10.3424     68.1851     32.7751   3.8566580536e+01   6.1449513007e+01    0.3934972    0.2157195  46.43  0.002004839    1.793    0.442
       203 -10.5783     23.0919     37.3231   5.9575736288e+01   6.6975657630e+01    0.4496373    0.1587372  35.25  0.002028429    3.196    0.687
       204  -9.3471    195.0171     37.5446   1.2206116771e+01   3.2055332242e+01     0.188595    0.1185128  72.03 6.632286e-05    1.457    0.314
       205 -11.3566    175.4019     33.6567   1.3850406579e+01   3.7243298899e+01    0.5044452    0.3521488 -57.11  0.001066786    1.438    0.305
       206  -8.9160     94.6635     36.3003   3.1315316627e+01   5.5849008165e+01     0.128123    0.1057023 -87.69 0.0006131536    1.660    0.397
       207 -11.5200    105.9735     33.0526   2.7062192142e+01   5.3832645755e+01    0.4493871     0.258362  41.65  0.001519623    1.647    0.393
       208  -9.2113    197.3477    227.7279   5.3286514908e+01  -2.6099279717e+00    0.1203457   0.09887399  56.71 0.0003782422    1.625    0.384
       209  -9.3802     75.5003    224.4905   7.9117408908e+01   1.7707633650e+01    0.1337083    0.1121468  63.52 -9.081697e-05    1.002    0.002
       210 -10.9534     72.5371    237.9598   8.1129312771e+01   1.5301230697e+01     0.292634    0.2617956  27.53  0.001912273    1.391    0.281
       211 -11.5042     57.4490     30.3938   4.1656281188e+01   6.3592606492e+01    0.3668464    0.2878882  -3.96  0.001867802    1.198    0.166
       212 -11.6795     49.1760     30.4023   4.5018296266e+01   6.4870628654e+01    0.6958399    0.2573255  35.08  0.003068402    2.618    0.618
       213  -9.8308    241.4437     31.5112   6.0735911098e+00   2.2555870965e+01    0.1241675   0.09556291 -70.03 0.0002353664    1.013    0.013
       214  -9.2799    134.6495     31.3046   2.0002899540e+01   4.7414768496e+01    0.1399277   0.09998792 -79.05 0.0006938584    1.703    0.413
       215 -10.5518     32.7622     31.0627   5.2578602333e+01   6.6959328838e+01    0.2171207    0.2022207 -22.45 0.0003316176    1.344    0.256
       216  -9.8306     49.6515    222.6671   8.4563899172e+01   2.1636052799e+01    0.1177314   0.09811492 -35.34 0.0007048431    1.772    0.436
       217  -9.3809     44.5326    215.4895   8.5033806169e+01   2.3865907169e+01    0.1295892    0.1051695  72.32 0.0008096964    1.002    0.002
       218 -11.7014     26.3721     28.6009   5.4645496564e+01   6.8066507090e+01    0.3711106    0.2656362 -42.77  0.001585296    1.489    0.328
       219 -11.1867    189.0351     27.6387   1.0551129751e+01   3.4723923860e+01    0.3745863    0.3232015  48.68  0.001533288    1.408    0.290
       220 -11.3189    182.8186     25.7415   1.0849278248e+01   3.6430023081e+01    0.3248723    0.2622049  82.29  0.001381153    1.066    0.062
       221 -10.0046    187.1856     23.0848   9.6645230293e+00   3.5704464096e+01    0.2259253    0.1923643   3.46 0.0009335979    1.714    0.417
       222 -11.8855    126.0582     28.1746   2.0754417934e+01   4.9823240392e+01    0.4555289    0.3439499  82.28  0.002527158    1.431    0.301
       223  -9.7212    196.8256     29.1403   9.9899934462e+00   3.2706838544e+01    0.1683313    0.1454738  64.16 0.0005456842    1.277    0.217
       224  -8.9985     66.0000     27.9012   3.7410153033e+01   6.2485560071e+01    0.1869163   0.06927583 -33.66 0.0007867169    2.835    0.647
       225 -10.3917    230.5928     27.0310   6.1128404207e+00   2.5401726846e+01    0.2245073    0.1584801  75.61 0.0008240223    1.352    0.260
       226 -11.8470    144.6023     25.5642   1.6426883854e+01   4.5691234383e+01    0.7415231    0.3382632  81.36  0.002720328    3.242    0.692
       227 -10.9860    147.7521     22.1594   1.4899356976e+01   4.5309114148e+01    0.4057412    0.1904706  49.97  0.001358869    2.048    0.512
       228  -9.7350     97.9461     26.1728   2.6716011347e+01   5.6411811783e+01      0.19289    0.1711888  69.76 0.0006329762    1.242    0.195
       229  -9.1936    206.5215     25.5822   8.1083618427e+00   3.0904425391e+01    0.1297534    0.1043013 -81.94 9.258572e-05    1.020    0.020
       230 -10.8220    155.0023     23.3971   1.4100467526e+01   4.3416241794e+01    0.3998407    0.3093773 -37.72  0.002346325    1.443    0.307
       231  -9.9180    169.3162     23.6269   1.2076476513e+01   3.9921872903e+01    0.2981437    0.1355884  61.91  0.001363446    1.894    0.472
       232  -9.2083    164.4803    211.5569   5.7364050365e+01   5.6940670295e+00    0.1387852    0.1264463  31.11 0.0001385373    1.027    0.027
       233  -9.1746     61.4780    206.5190   8.0332517600e+01   2.3696967954e+01    0.1354148     0.114971  71.95 0.0008099749    1.002    0.002
       234  -9.8601     78.6656    204.3322   7.6050298299e+01   2.1738110870e+01    0.2874993    0.1859753  79.68 0.0009771301    1.734    0.423
       235  -9.8953     59.8950     22.8579   3.7592230918e+01   6.4180574804e+01    0.2542768    0.1645331 -33.75  0.001241529    1.664    0.399
       236  -9.3296    223.7683     22.3620   5.7516505056e+00   2.7448532224e+01    0.1606676    0.1001209  69.49 0.0004002482    1.536    0.349
       237 -10.9377    178.9876     20.7564   1.0077889878e+01   3.7922703258e+01    0.4500843    0.2247305  46.12  0.002034784    2.506    0.601
       238  -9.4492      4.9405     22.0080   6.3172831976e+01   7.1043361472e+01    0.1434793    0.1278417  34.15  0.001050729    1.635    0.388
       239 -11.1296      5.2438    200.7486   9.2385312933e+01   3.1401460688e+01    0.2845421   0.08011505 -68.47  0.001214558    2.896    0.655
       240  -9.7564    216.3406     20.1091   5.9461550772e+00   2.9351158354e+01    0.1790518    0.1349636 -62.76    0.0010326    1.154    0.134
       241 -12.5435      4.3686    184.1314   9.1457476359e+01   3.5277966824e+01    0.6153117    0.3647679  89.63  0.003002852    1.403    0.287
       242  -9.8566     74.5171     19.7531   3.1158677719e+01   6.1908535189e+01    0.2104726     0.154457  10.77 0.0007253286    1.407    0.289
       243  -9.4842     46.7717     20.5750   4.1876028372e+01   6.6566676317e+01     0.157043    0.1059014  43.70 0.0009406855    1.631    0.387
       244  -9.9558    199.2745     17.2720   6.9667637716e+00   3.3545609507e+01    0.2034055    0.1692766  72.31 0.0005245517    1.224    0.183
       245  -9.5495     28.1664    175.8741   8.5090459071e+01   3.5019334757e+01    0.1753976    0.1398678 -61.30 0.0005220966    1.300    0.231
       246 -10.6610     16.0013    174.6481   8.7966592623e+01   3.6497013957e+01    0.3046429    0.1528353 -86.87   0.00149946    1.836    0.455
       247  -9.3602     39.3306    173.6631   8.2035858783e+01   3.4349013910e+01    0.1462519   0.08798091  68.01 0.0007052064    1.734    0.423
       248 -11.3822      9.5235    155.6098   8.7840447646e+01   4.1640081601e+01    0.3938041    0.2185708  81.12  0.002031655    1.790    0.441
       249 -11.4573     14.1024    159.4899   8.7026017066e+01   4.0324797616e+01    0.4338726    0.2013406 -74.44  0.001684276    1.808    0.447
       250 -12.0598      9.1487    166.9534   8.8971556411e+01   3.8936563783e+01    0.6359122    0.2751651  36.80  0.003159444    2.315    0.568
       251 -10.9946    238.7257     16.3412   3.3102156152e+00   2.4993014512e+01    0.2495444    0.1394381  85.20  0.001449101    1.613    0.380
       252 -11.1626    228.6983     15.9375   4.0128924771e+00   2.7149617584e+01    0.2704765    0.1843766  79.53 0.0003562268    1.323    0.244
       253 -11.9717     11.2486    162.4969   8.8045260137e+01   3.9835246978e+01     0.455535    0.2289598  86.64  0.002215374    1.963    0.491
       254 -10.1791    147.7425     16.0408   1.3127046896e+01   4.5957644987e+01     0.349538    0.1226605  52.50  0.001414855    2.547    0.607
       255  -9.8336    120.4543     15.9407   1.7906672139e+01   5.2447160457e+01    0.1747241     0.131092 -21.85  0.000571353    1.567    0.362
       256 -11.0534     18.4767    165.2289   8.6466485456e+01   3.8546017293e+01    0.3997162    0.2110398 -58.99   0.00204889    1.759    0.432
       257  -9.9093    205.1705    163.4741   3.9670762794e+01   7.6239346716e+00    0.2581389    0.1912402 -40.28 0.0006438286    1.283    0.220
       258 -10.8962     27.8755    161.6827   8.3650080814e+01   3.8521905841e+01    0.4127076    0.1962819 -62.32  0.001957422    1.831    0.454
       259 -12.5817     22.6377    149.1971   8.3625165340e+01   4.2101525891e+01    0.6840465    0.3327752 -41.50  0.003036882    2.605    0.616
       260 -10.6719      4.1679    153.6422   8.9051457159e+01   4.2520895837e+01    0.2509531    0.1260072  40.48   0.00110692    2.072    0.517
       261  -9.9998     61.3512    151.9407   7.3072010283e+01   3.7041571266e+01    0.2422369    0.2102878  29.08 0.0004447682    1.291    0.225
       262 -10.8283     16.5672    147.8318   8.5144947342e+01   4.2965121762e+01    0.2617908      0.19764 -78.24 0.0003135812    1.110    0.099
       263 -11.3624     47.7618    147.0957   7.6210436282e+01   3.9998602245e+01    0.6000789    0.4111027 -25.30  0.002920882    2.040    0.510
       264 -11.3776     12.4595    135.6247   8.4900178162e+01   4.6277084180e+01    0.6228821    0.2442226 -49.71  0.002737686    2.470    0.595
       265 -10.7073      8.1347    148.5256   8.7514241913e+01   4.3463264668e+01    0.2783492    0.1442056 -54.67  0.001256308    1.815    0.449
       266 -11.8282      3.5264    142.1639   8.8130405515e+01   4.5330457659e+01     0.577182    0.3207478  52.28  0.003126067    1.932    0.482
       267  -9.2729     65.7420     10.5665   3.0223498246e+01   6.4528095181e+01    0.1596042    0.1077636  55.85 0.0006990037    1.601    0.376
       268 -10.4728      3.1807    148.0250   8.8791375903e+01   4.3942654534e+01    0.2342911    0.1448151 -80.26  0.001116018    1.330    0.248
       269  -9.7889    104.0540    147.0462   6.0050021271e+01   3.1409485475e+01    0.2180056    0.2120466  71.24            0    1.034    0.033
       270 -10.7396     33.1474    144.3959   8.0040387842e+01   4.2287157896e+01    0.2811151    0.2390998  88.28 0.0008443549    1.094    0.086
       271 -10.5903     79.9708    138.4830   6.5209363430e+01   3.7682040442e+01    0.3135561    0.2560222  51.31 0.0008094984    1.257    0.204
       272 -10.2375     40.4986    138.2250   7.6981712893e+01   4.3056155016e+01    0.2625947    0.2038217  88.24 0.0007820832    1.288    0.224
       273  -9.7862     32.0369    137.5132   7.9397205295e+01   4.4113154173e+01    0.2472198    0.1686555  27.69 0.0008717588    1.666    0.400
       274 -11.9950     23.2557    136.4834   8.1853197839e+01   4.5186788921e+01    0.6099266    0.3582288  42.25  0.001968332    1.837    0.456
       275 -10.8302     30.1619    132.8580   7.9281156925e+01   4.5450966626e+01    0.3651046    0.2310383 -47.46  0.001126127    1.568    0.362
       276  -9.6812     47.2774    132.8179   7.4046499778e+01   4.3640710121e+01    0.3477163    0.1045675 -61.52   0.00121668    2.825    0.646
       277  -9.2838    103.9211    130.9755   5.6590052144e+01   3.5354379375e+01    0.1801808     0.172719  53.93 0.0003548392    1.052    0.050
       278 -10.8356      9.9430    127.1284   8.4611744456e+01   4.8523161585e+01    0.4302895    0.2192785 -48.24  0.002114333    1.884    0.469
       279  -9.2430     26.5116    127.5166   7.9606397173e+01   4.7107928861e+01    0.1329365    0.1146119 -71.29 0.0001814354    1.007    0.006
       280 -10.0209     22.8760    126.9701   8.0649170713e+01   4.7560312822e+01    0.1918439    0.1646354 -70.33 0.0003964208    1.006    0.006
       281 -10.0509      2.1512    125.7387   8.6775170273e+01   4.9366465697e+01    0.2670213     0.161116  76.64  0.001453549    1.787    0.441
       282  -9.9007    231.5234     38.3408   8.3622481642e+00   2.3736713535e+01     0.264789    0.1121477 -37.79  0.001238278    2.266    0.559
       283 -10.9286    104.5116    122.3236   5.4389731197e+01   3.7312616245e+01    0.3645548    0.3160136  50.88   0.00101336    1.169    0.145
       284  -9.7928     50.0657    122.7722   7.1358075725e+01   4.5804987309e+01    0.2282128    0.1539231 -20.27  0.001077466    2.005    0.501
       285 -10.4345     56.1690    121.8969   6.9229235239e+01   4.5256732598e+01    0.2264595     0.205849  38.05 0.0004637224    1.186    0.157
