#   1 NUMBER                 Running object number                                     
#   2 MAG_AUTO               Kron-like elliptical aperture magnitude                    [mag]
#   3 X_IMAGE                Object position along x                                    [pixel]
#   4 Y_IMAGE                Object position along y                                    [pixel]
#   5 X_WORLD                Barycenter position along world x axis                     [deg]
#   6 Y_WORLD                Barycenter position along world y axis                     [deg]
#   7 A_WORLD                Profile RMS along major axis (world units)                 [deg]
#   8 B_WORLD                Profile RMS along minor axis (world units)                 [deg]
#   9 THETA_WORLD            Position angle (CCW/world-x)                               [deg]
#  10 FWHM_WORLD             FWHM assuming a gaussian core                              [deg]
#  11 ELONGATION             A_IMAGE/B_IMAGE                                           
#  12 ELLIPTICITY            1 - B_IMAGE/A_IMAGE                                       
         1 -10.0715    136.0161     36.6788   5.5698677598e+01   4.6798774788e+01      0.57525     0.258683 -45.00  0.002235364    2.616    0.618
         2 -10.1544    129.7365     20.0159   5.1224952518e+01   5.0288907544e+01    0.7754296    0.4771455 -78.21  0.003333369    2.647    0.622
         3 -12.4649    116.9509     22.3672   5.4864019322e+01   5.3056557401e+01    0.2814138    0.2699419  26.71 0.0004253944    1.081    0.075
         4 -10.4085     30.5866      3.9372   7.6434446266e+01   7.1185206929e+01    0.4292681    0.1834435 -27.73   0.00136748    2.159    0.537
         5 -11.4650      5.7773     15.9503   9.5844558690e+01   7.1846262523e+01     0.430302    0.2919961  13.50  0.001238281    1.561    0.360
         6  -9.5167     23.6491      1.3619   7.8633587568e+01   7.2354242365e+01    0.1954927    0.1123217  33.04 0.0001302901    1.825    0.452
         7 -10.3563     16.0845     17.5159   9.0833230919e+01   7.0788911847e+01    0.4603631    0.2958294 -24.53  0.001829755    1.239    0.193
         8 -10.1569     17.6362      1.7692   8.2166282055e+01   7.2968784689e+01    0.3496609    0.1762339  11.73  0.001269836    2.159    0.537
         9 -11.1184     18.2602     22.8974   9.2015424944e+01   6.9709932601e+01     0.465708    0.2386573 -45.16  0.002652904    1.697    0.411
        10 -11.1302     24.9185      6.7394   8.0850755527e+01   7.1506786416e+01    0.2092436    0.1652979 -17.75 0.0003869919    1.195    0.163
        11 -11.7739     20.4233      6.5609   8.3172781766e+01   7.2024503317e+01     0.388321    0.2212332 -25.59  0.001503423    1.460    0.315
        12 -11.5504     16.1534      7.9040   8.6226064057e+01   7.2262782150e+01    0.3798088    0.2277179 -37.67 0.0006615835    1.512    0.339
        13 -11.4167    165.8316     18.3126   4.4474464917e+01   4.1575680925e+01    0.4140559    0.3046602  42.11 0.0009387723    1.448    0.309
        14 -12.3689    107.5720     29.2004   5.9799631488e+01   5.4383330054e+01    0.6373644    0.4519724 -19.85  0.001226628    1.476    0.322
        15  -9.8746     60.8722     17.5459   6.9875867784e+01   6.5017511237e+01    0.4486014    0.2550474  14.07  0.001657757    2.084    0.520
        16 -11.0476     67.8807     15.3808   6.6238716305e+01   6.4062530033e+01    0.3352179     0.271105 -13.15 0.0003655962    1.194    0.162
        17 -10.2136     41.0084     21.1594   8.0019362426e+01   6.7500603225e+01    0.3999211    0.2345979 -48.55   0.00160726    2.321    0.569
        18 -10.8122     26.9459     21.1439   8.6797293582e+01   6.9164272554e+01     0.589273     0.291761 -13.18   0.00275301    2.718    0.632
        19 -10.5501      4.9879      9.3707   9.3375481622e+01   7.2975670813e+01    0.9025826    0.1836813  29.46   0.00362981    5.125    0.805
        20  -9.8598    199.4264     18.6878   4.0339512831e+01   3.3284207571e+01    0.3995565    0.2410588 -22.03  0.002015678    1.964    0.491
        21 -10.7007    183.3134     17.2154   4.1825105967e+01   3.7362912574e+01    0.5927429    0.3371595  33.29    0.0016899    2.539    0.606
        22 -10.4374    230.2512     15.1574   3.6515623356e+01   2.6543146237e+01    0.4464367    0.2140441 -26.36  0.001606148    2.374    0.579
        23  -9.4669    225.8376     16.7258   3.7253889705e+01   2.7352226176e+01     0.258648    0.1744761 -36.64   0.00108939    1.463    0.316
        24  -9.6512     69.6640     11.7441   6.3911332417e+01   6.4148426942e+01     0.211545    0.1283596  32.95 0.0002119718    1.476    0.323
        25  -9.5457     45.5759     15.8069   7.5413408825e+01   6.7626622742e+01    0.3658947    0.2373197  30.96  0.002205569    1.486    0.327
        26 -11.0284    175.3425     11.4606   4.1206006679e+01   3.9918298413e+01    0.5167104    0.3305199  38.06 0.0006496296    1.872    0.466
        27  -9.4209    179.4617     13.4552   4.1257342435e+01   3.8703045926e+01    0.2361726    0.1998928  82.42 0.0005323623    1.061    0.057
        28  -9.5061    209.6238     13.6847   3.8032180870e+01   3.1412557904e+01    0.2561491    0.2090361  66.42 0.0007968742    1.248    0.199
        29  -9.5595    211.8076      9.0619   3.6708911686e+01   3.1393156810e+01    0.3057755    0.2125858  69.76   0.00179484    1.363    0.266
        30 -10.8273    133.1399     12.8032   4.8037274665e+01   5.0192010804e+01    0.2307263    0.2131078  33.46 0.0003158757    1.093    0.085
        31 -10.2765     88.8631     12.9214   5.8346130423e+01   6.0252589550e+01    0.3276794    0.2089701 -42.52  0.001379536    1.985    0.496
        32 -10.7499     74.0310      1.8145   5.7789272718e+01   6.4292269322e+01    0.5029177    0.1854584  51.90  0.002257072    2.365    0.577
        33  -9.8192     68.8430      1.7254   5.9416072384e+01   6.5296508791e+01    0.2645697    0.1677322  31.05  0.001029393    1.357    0.263
        34 -10.4430     86.3583      5.5042   5.5826114969e+01   6.1482189014e+01    0.5320604    0.3976768  86.64  0.002723707    2.058    0.514
        35  -9.5675     90.7382      1.3625   5.2839399637e+01   6.0911418346e+01    0.3477912    0.2312095  68.58  0.001217149    1.717    0.418
        36  -9.3785     51.7155     13.5160   7.1646770042e+01   6.7002869417e+01    0.5826326    0.1687465 -29.00  0.001188786    3.623    0.724
        37  -9.7371     53.5516      9.8163   6.9063363177e+01   6.7155844393e+01    0.3080962    0.2275304  66.64 0.0008132152    2.588    0.614
        38  -9.7344     49.6536      8.3347   6.9936166860e+01   6.7947559384e+01    0.4495065    0.1798018  42.87  0.002143515    2.434    0.589
        39 -10.8167    147.0643     12.7773   4.5621443585e+01   4.6789206714e+01    0.5166868    0.3629425 -76.32  0.001687536    1.688    0.408
        40  -9.6802    150.5323     11.5801   4.4687588752e+01   4.6047551010e+01    0.2317652    0.2018139 -80.55 4.353666e-05    1.191    0.161
        41  -8.8621     79.1364     10.7993   6.0337682461e+01   6.2439499940e+01    0.3262627    0.1710297   6.57  0.001439336    2.633    0.620
        42  -9.6413     32.6340     12.5370   7.9871591647e+01   6.9799164942e+01    0.2062446    0.1785539  -2.05 0.0009123354    1.264    0.209
        43  -9.5790     26.8508     12.5236   8.2783481592e+01   7.0481572632e+01    0.4339144    0.1705749  38.00  0.002083119    3.044    0.672
        44  -9.0648    219.2749     11.6914   3.6665552512e+01   2.9395253876e+01    0.2289605    0.1659835 -67.88 0.0007410045    1.234    0.190
        45  -9.4185     39.6523     10.7176   7.5587597404e+01   6.9127824485e+01     0.358859    0.1924016  43.62  0.001934557    2.274    0.560
        46 -10.5432    164.8355      7.5644   4.1418886030e+01   4.2885292392e+01    0.3545763    0.2197434 -43.98 0.0003990815    1.704    0.413
        47 -10.8810    160.4006      2.7839   4.0573593591e+01   4.4404108841e+01    0.4523973     0.284875  64.97 0.0008237481    1.375    0.273
        48 -10.4253    107.2013      6.1775   5.0867419235e+01   5.6885957757e+01     0.576692    0.3535672 -10.24  0.003039575    1.833    0.454
        49  -9.3170    111.4834      6.4954   5.0047664879e+01   5.5881153054e+01    0.3572303    0.2183529 -22.74   0.00124278    1.783    0.439
        50  -9.6631    224.8702      9.0067   3.5571315747e+01   2.8416268036e+01     0.197697    0.1540207 -83.27  0.001254829    1.118    0.105
        51 -10.0617    202.7034      8.7260   3.7477649687e+01   3.3562581076e+01    0.2404954    0.1890304 -72.22 0.0001677558    1.151    0.131
        52 -10.9112    193.8127      3.6921   3.7070556981e+01   3.6175477361e+01    0.5382834    0.5152984  54.29  0.002666974    1.229    0.186
        53  -9.7322    199.1462      1.6156   3.6041005426e+01   3.5102251233e+01    0.3047902    0.1558399  71.48  0.001542951    1.732    0.423
        54  -9.0972    127.8019      8.3562   4.7464609728e+01   5.1885197811e+01    0.2973418    0.1752413  73.72 0.0008841894    1.770    0.435
        55 -12.0242    118.6810      2.6720   4.7128096844e+01   5.4524880580e+01    0.4580999    0.4094378  77.06  0.001498325    1.188    0.158
        56  -9.3737     92.1687      8.0628   5.5342887416e+01   6.0028114564e+01    0.1856703    0.1626003  27.93  0.000421029    1.044    0.042
        57 -10.5372    248.0998      4.7143   3.2929084714e+01   2.3850088399e+01    0.2875545    0.2514502  16.53  0.000323611    1.734    0.423
        58  -8.2419    142.5254      6.9860   4.4457876357e+01   4.8436147978e+01    0.1858523    0.1307296 -26.06 0.0005949397    1.580    0.367
        59 -10.1635    145.8686      2.7944   4.2580449675e+01   4.7974099673e+01    0.5189291     0.208696  57.46  0.002281435    2.035    0.509
        60  -9.2904    138.9229      6.4627   4.4866176647e+01   4.9361602460e+01    0.2761476    0.1721264  -6.22 0.0009760802    1.988    0.497
        61  -8.7198     74.1489      8.0811   6.0688831863e+01   6.3684549939e+01    0.1992975    0.1415055  23.00 0.0006085163    1.251    0.201
        62 -10.3456    237.9922      3.4428   3.3351673380e+01   2.6120592731e+01    0.2928165    0.2517888 -65.14  0.001474907    1.112    0.101
        63  -9.9943    209.1786      4.4817   3.5843801693e+01   3.2470016087e+01    0.3294223    0.2320906  54.61  0.001324416    1.556    0.357
        64  -8.8864    206.3568      1.7447   3.5430552025e+01   3.3395164889e+01     0.177054    0.1425691 -49.89 0.0002847292    1.220    0.180
        65  -9.4423    173.9211      5.4057   3.9668636982e+01   4.0845508752e+01    0.4032238    0.2004606  64.72  0.001941274    1.740    0.425
        66  -9.1556    133.2004      6.1696   4.5729721886e+01   5.0775904951e+01    0.2504356    0.1709285  71.24 0.0009367542    1.388    0.280
        67  -9.4343     62.0123      5.5582   6.3674766433e+01   6.6182121553e+01    0.2185773    0.1537513  -1.02 0.0005707857    1.320    0.243
        68  -9.2758     38.7311      3.5496   7.2280772239e+01   7.0132784291e+01    0.3010874    0.2122204 -12.66  0.001992609    1.216    0.178
        69  -8.7635     42.4050      1.2683   6.9381359805e+01   6.9849002090e+01    0.1912359    0.1268959   8.12  0.001027792    1.326    0.246
        70  -9.5185    224.2320      3.5659   3.4391608195e+01   2.9125891871e+01    0.2402444    0.1947545 -32.09 0.0008654838    1.392    0.282
        71 -11.6180    179.6662      2.2405   3.8142863735e+01   3.9727863522e+01    0.4197599    0.2391607  88.54  0.000608001    1.758    0.431
        72 -10.3934    219.0328      2.6302   3.4586858509e+01   3.0391361798e+01    0.2919805    0.2132834  79.35 0.0009350246    1.250    0.200
        73 -10.4181     49.7245      2.1917   6.6737456424e+01   6.8609458661e+01    0.2925097    0.1586407  30.72 0.0002859194    1.645    0.392
        74  -7.9979     10.5337      3.5107   8.7201018558e+01   7.3416192902e+01     0.113534    0.0824549 -15.51 0.0006485254    1.007    0.007
        75  -9.2342      3.5355      2.3694   9.0837129900e+01   7.4158278784e+01    0.2625138    0.1376114 -15.64  0.001595251    1.773    0.436
        76  -9.6193    128.0061      1.6163   4.5040033240e+01   5.2398238226e+01    0.5099835    0.1311572  66.23  0.001743256    3.441    0.709
        77  -9.1444    186.0208      1.3200   3.7230165942e+01   3.8269556776e+01    0.1867356    0.1052108  75.03 0.0009556929    1.573    0.364
        78  -9.8248      9.2963    118.0409   1.1813969372e+02   4.9721080775e+01    0.2162102    0.1708449   3.34  0.001216481    1.656    0.396
        79  -9.2868    201.3869    249.4868   9.2084632646e+01  -5.0761569101e+00    0.2256712    0.1381492  32.43 0.0009421998    1.340    0.254
        80 -10.5519     13.7661    113.6670   1.1625358621e+02   5.0478839348e+01    0.4145692    0.2570571  18.59  0.001593377    2.026    0.507
        81 -10.3086     19.4839    109.7312   1.1393709898e+02   5.1026856149e+01    0.4661768     0.270907 -71.15  0.001916637    1.436    0.303
        82 -10.9387     21.3838    119.5517   1.1478423102e+02   4.8510609492e+01    0.5219917    0.3567041  89.01  0.002990251    1.456    0.313
        83 -10.6195     27.7800    115.7476   1.1229536600e+02   4.8921569474e+01    0.4512132    0.3586348 -68.65  0.001571151    1.046    0.044
        84  -9.7425     93.5883    119.1316   9.2784092211e+01   3.9744064310e+01    0.2822631    0.2288908 -13.52  0.001247556    1.495    0.331
        85  -9.0631     61.8476    119.8536   1.0254467565e+02   4.4311504005e+01    0.1932002    0.1577241 -89.41 0.0004951359    1.323    0.244
        86  -8.9644     44.6544    119.8941   1.0781869667e+02   4.6310077853e+01    0.2133793    0.1874698  -7.07 0.0006614216    1.367    0.269
        87 -10.7802     54.6982    118.0824   1.0439713017e+02   4.5630569489e+01    0.2188149    0.2131774 -65.77 0.0002226689    1.107    0.097
        88  -9.0761     67.4445    118.4752   1.0054436496e+02   4.3911149713e+01    0.2451597    0.1228025  44.73  0.001024564    2.250    0.556
        89  -9.1597    123.5489    120.9660   8.4715809573e+01   3.3715898261e+01    0.2250568     0.208538  43.51 0.0003391896    1.108    0.097
        90  -9.1951     83.6822    117.3192   9.5327812228e+01   4.1806976201e+01    0.2340616    0.1842711  39.88 0.0006331819    1.358    0.263
        91  -9.3681     61.9155    114.9906   1.0153002128e+02   4.5497118721e+01    0.2114077     0.190258 -65.39 0.0003919172    1.042    0.041
        92 -10.4236     62.9650    110.9344   1.0033360572e+02   4.6351080638e+01    0.2903253    0.1998454 -46.71  0.001471769    1.342    0.255
        93  -8.3275    112.5111    114.5543   8.6154023437e+01   3.7379494719e+01    0.1531606    0.1488549 -50.28 4.029933e-05    1.020    0.020
        94  -8.8686     97.1369    113.8392   9.0449359573e+01   4.0393238302e+01    0.2160505    0.1801117 -16.45  0.001078639    1.375    0.273
        95  -9.6395     32.9774    113.1028   1.1025871470e+02   4.9114904788e+01    0.4631206    0.2381296  77.62  0.001793531    3.396    0.706
        96  -8.6856    121.7837    111.8349   8.2844947587e+01   3.6157945341e+01    0.2177184    0.1872804 -81.52  0.001060819    1.366    0.268
        97  -8.5365     48.9880    111.9720   1.0499801358e+02   4.7785436322e+01    0.1678162    0.1450748 -60.00 0.0004941135    1.004    0.004
        98  -8.9296    105.8072    109.8422   8.6869522780e+01   3.9751067769e+01    0.2030905    0.1800395  88.71 0.0002296352    1.302    0.232
        99  -9.9375    129.1017    109.1655   8.0135602521e+01   3.5234112604e+01     0.370578    0.2083505  51.02  0.001462603    1.943    0.485
       100  -9.5867     37.1470    107.7824   1.0799476578e+02   5.0024372513e+01    0.3894546    0.1532137 -53.96  0.001671915    2.049    0.512
       101  -9.4868     35.8381    103.6440   1.0764580415e+02   5.1148181109e+01    0.2671418    0.1788582  32.08 0.0006709104    1.724    0.420
       102 -10.3358    137.3592    107.3585   7.7462053327e+01   3.3852364864e+01    0.2903897    0.2706445  83.18 0.0005848254    1.183    0.154
       103  -9.7787    117.5794    106.2193   8.2513599680e+01   3.8278262623e+01     0.463914    0.2641777 -28.99   0.00101862    2.304    0.566
       104  -8.8144      8.1561    107.2554   1.1710106422e+02   5.2363470364e+01    0.2696495    0.1427282 -82.13  0.001396125    1.762    0.432
       105  -8.7497    153.8621    107.1435   7.3282161823e+01   3.0212760496e+01    0.2116559     0.184443   4.88            0    1.290    0.225
       106  -9.7454     52.0152    106.1465   1.0283529261e+02   4.8860273197e+01    0.5851116    0.3148607 -79.71 0.0007636006    2.685    0.628
       107  -8.8875     48.0000    102.6591   1.0341846841e+02   5.0154396374e+01    0.4190001    0.1488704 -63.07  0.001065514    2.665    0.625
       108  -9.4782     50.8422     99.0935   1.0168685541e+02   5.0690634537e+01    0.2393402     0.209222 -28.61   0.00027259    1.175    0.149
       109  -9.5994     74.5234    104.6175   9.5170904605e+01   4.6262782531e+01    0.2848676    0.1993944 -52.89   0.00107831    1.304    0.233
       110 -10.5923    101.5099    100.0503   8.5520862486e+01   4.2799823728e+01    0.6870982    0.4385477 -43.31  0.002057766    1.500    0.333
       111 -11.4911    109.4637     98.6775   8.2764595816e+01   4.1582940294e+01    0.9642519    0.6093633 -62.67  0.003944649    2.013    0.503
       112  -9.8921    104.2450     90.9893   8.2110022202e+01   4.4289802813e+01      0.25807    0.2165845  34.43   0.00131581    1.232    0.189
       113  -9.2718    101.6681     88.7114   8.2223029531e+01   4.5278476267e+01    0.2398203    0.2127451 -10.72 0.0002867435    1.161    0.139
       114  -9.9337    175.2069    102.6881   6.7246110955e+01   2.6189801162e+01    0.3580942    0.2666574  10.35 0.0001393745    1.820    0.451
       115 -10.2265     67.6850    103.1291   9.7025870990e+01   4.7597816446e+01    0.4736253    0.2019394  33.83  0.001886944    2.541    0.606
       116  -8.5783     29.4405    102.7384   1.0958571122e+02   5.1931863465e+01    0.1911076   0.09759039 -54.97 0.0009015952    1.583    0.368
       117  -8.6882     20.5388    101.9460   1.1236919672e+02   5.2818305812e+01    0.1887345   0.06939399 -48.74 0.0004232576    2.323    0.570
       118 -10.1155     57.1931     99.6589   9.9678597653e+01   4.9800602297e+01     0.278543    0.2058258 -49.07 0.0003687118    1.192    0.161
       119 -10.2876     77.3864     98.6758   9.2744018521e+01   4.7231390037e+01    0.4296507    0.3058733 -75.88  0.001793494    1.818    0.450
       120 -10.2531     23.5050     95.4709   1.1024992091e+02   5.4140035185e+01    0.2410286     0.200342 -61.08 0.0007994849    1.028    0.027
       121  -8.4004     12.2575     93.6360   1.1374911095e+02   5.5338840396e+01    0.1223185   0.08541279  83.17   0.00069711    1.631    0.387
       122  -9.6803      6.2832     93.9739   1.1580693098e+02   5.5601399142e+01    0.2780322     0.178261 -73.22  0.001167433    1.300    0.231
       123  -9.1486     16.7310     98.6179   1.1307197606e+02   5.3876677185e+01    0.3272159    0.1838663 -42.17  0.001757808    1.711    0.416
       124  -9.0260     33.9110     97.8352   1.0716169700e+02   5.2717543132e+01    0.1954853    0.1502996 -44.36  0.001152005    1.191    0.160
       125  -8.3323     27.2810     98.3011   1.0949309753e+02   5.3172160905e+01    0.1331965   0.08139886 -42.40 0.0002361772    1.547    0.354
       126  -8.8533    141.2913     97.6980   7.3756502826e+01   3.5024797255e+01    0.1548207    0.1257013 -80.30 0.0002339682    1.568    0.362
       127  -8.5121     67.3401     97.7378   9.5817523607e+01   4.8922843224e+01    0.1367215    0.1101123  71.81 0.0002860863    1.590    0.371
       128  -9.4370    135.4617     96.4392   7.4896867571e+01   3.6592658179e+01    0.1548768    0.1517537 -17.90 8.578628e-05    1.005    0.005
       129  -9.1658     42.4461     95.4992   1.0375416872e+02   5.2454407212e+01    0.2284541    0.1719158  73.66  0.001106353    1.726    0.420
       130 -10.0969    124.4699     98.4125   7.8413041664e+01   3.8566271794e+01    0.4738588    0.2754997  33.04  0.001737405    1.987    0.497
       131  -8.8826    179.1301     93.7676   6.4018129749e+01   2.6973862266e+01    0.2929289    0.2003394  -9.89 0.0007535592    2.080    0.519
       132  -9.9430     51.9791     93.9807   1.0011689170e+02   5.1771289457e+01    0.2024921     0.179247 -50.53            0    1.027    0.026
       133 -10.0356     47.0590     93.2839   1.0165889510e+02   5.2490694320e+01    0.3555494     0.177725 -44.91  0.001623649    1.804    0.446
       134  -9.4359     32.8523     92.4428   1.0643090987e+02   5.4091119641e+01    0.4213436    0.2339859 -40.63  0.001849463    1.724    0.420
       135  -9.3878     27.5451     91.5571   1.0810579347e+02   5.4748604200e+01    0.1992969    0.1828957 -60.76 0.0004793109    1.117    0.104
       136 -10.9972     30.0749     85.2184   1.0587813308e+02   5.6019987303e+01     0.690254    0.3377362 -33.53   0.00239831    2.297    0.565
       137  -9.6748    116.8354     91.7276   7.8618169225e+01   4.1601640770e+01    0.2713705    0.2531427  -5.41 0.0002254862    1.084    0.078
       138 -10.1790    124.1900     88.3280   7.5539944885e+01   4.0750864524e+01    0.4742464    0.2901694 -47.08  0.001463896    1.655    0.396
       139 -10.2791    129.5949     85.7299   7.3289787784e+01   4.0091593342e+01    0.4064072    0.3188669  10.13  0.001184287    1.552    0.356
       140  -9.6406     87.7094     88.9821   8.6712846307e+01   4.7757250988e+01    0.4222114    0.2588142 -44.45  0.001251174    1.525    0.344
       141  -9.4959     87.6546     84.3270   8.5359025986e+01   4.8786583976e+01    0.4369969    0.3052403  87.37  0.001772492    2.754    0.637
       142  -8.7063     97.4113     88.2399   8.3402706400e+01   4.6183188193e+01    0.2815281    0.1419495 -56.83   0.00103838    2.451    0.592
       143  -9.0591     94.1513     86.8524   8.4018200784e+01   4.7083638853e+01    0.2664967    0.2095247  26.26            0    1.356    0.262
       144 -10.3696     55.7977     87.1846   9.7090781751e+01   5.2893304676e+01    0.4131722    0.2563149  49.15  0.001977701    2.079    0.519
       145  -9.4810     80.1950     84.0342   8.7749073095e+01   5.0105639734e+01    0.5056981     0.413283 -14.76  0.002689187    1.296    0.228
       146 -10.2182     69.2344     87.0512   9.2352960690e+01   5.1119701804e+01    0.6555707    0.4369806  10.06  0.002461364    1.936    0.483
       147  -9.3895     72.3113     82.7202   9.0057267019e+01   5.1631732170e+01    0.2649236    0.1878542  52.51  0.000704635    1.784    0.439
       148  -9.6350     73.8389     79.6264   8.8612184019e+01   5.2074922188e+01     0.437725    0.2885907 -60.41  0.001856474    1.743    0.426
       149  -9.6322     48.2825     87.8765   9.9937165078e+01   5.3618543705e+01    0.2303776    0.2009325  17.92 -0.000430966    1.290    0.225
       150  -9.6517     48.2804     83.5707   9.8854855422e+01   5.4608551795e+01    0.3332313    0.2881992 -83.35  0.001976328    1.375    0.273
       151  -9.9284     43.6477     88.0983   1.0164480396e+02   5.4068663771e+01     0.221222     0.198109  14.48 0.0004846139    1.267    0.211
       152 -10.0031     16.7219     86.2969   1.1090626156e+02   5.6770675061e+01    0.4282443    0.1875568 -50.86  0.002109999    1.788    0.441
       153  -9.0829    189.2469     87.0933   6.0236513229e+01   2.5798707720e+01    0.2154747    0.2016201  -3.49 0.0005574671    1.155    0.134
       154  -8.3650     21.4017     87.5367   1.0947821261e+02   5.6159854468e+01    0.1288511    0.1027635 -57.22 0.0001808689    1.019    0.018
       155  -8.9330    181.1796     86.1591   6.1526573689e+01   2.7884551570e+01    0.2079945    0.1778548 -79.96 0.0003757832    1.314    0.239
       156 -10.4107    155.2146     84.8773   6.6676345362e+01   3.4334779620e+01    0.3170597    0.2820909 -33.29 0.0002581972    1.119    0.106
       157 -10.6085    151.4602     79.7245   6.6018920488e+01   3.6192752235e+01    0.4223028    0.4044212  44.06 0.0009116498    1.047    0.045
       158  -9.0840     53.6529     81.5962   9.6379445851e+01   5.4427173927e+01    0.3023543    0.1899798 -30.95  0.001148965    1.669    0.401
       159 -10.3930     63.4143     75.8957   9.1201128484e+01   5.4414638143e+01    0.4951974    0.4373842  45.41  0.002340941    1.343    0.255
       160  -9.8615     59.9570     83.1326   9.4525942879e+01   5.3284176325e+01     0.390089    0.2270488 -52.89 0.0008323578    1.557    0.358
       161  -9.6090     35.4890     82.4472   1.0326512234e+02   5.6178918520e+01    0.2507348    0.1980993 -53.26 0.0005622885    1.075    0.070
       162  -8.0043     38.3941     79.5222   1.0147455066e+02   5.6568999171e+01    0.1919788    0.1595437 -26.40  0.000488385    1.180    0.153
       163  -9.1509    133.0361     81.7034   7.1155084396e+01   4.0113799786e+01    0.2187987    0.1999117  34.64 0.0008661873    1.098    0.090
       164  -9.5159     20.3904     81.4495   1.0861745947e+02   5.7639800556e+01    0.3102342    0.2605663  73.17  0.001995437    1.471    0.320
       165 -11.4311     17.0227     74.5950   1.0842923219e+02   5.9427946278e+01    0.5288539    0.2418554 -54.10 0.0005365409    1.648    0.393
       166 -10.8349    178.8024     75.3984   5.8991146191e+01   3.0351158305e+01    0.5260894     0.411125   5.69  0.002499874    1.669    0.401
       167 -10.2982    167.9049     78.5509   6.2061774495e+01   3.2446394106e+01    0.4605146    0.2742857 -25.37  0.001880029    1.963    0.490
       168 -10.0941    166.0634     73.4411   6.0957863375e+01   3.3791945265e+01    0.3120517    0.2137281  49.26  0.000700895    1.464    0.317
       169  -9.3108    175.0610     75.2653   5.9676601049e+01   3.1283673381e+01    0.2301304    0.2190737 -53.74 0.0003186733    1.033    0.032
       170 -10.2426    170.5147     73.4130   6.0044892645e+01   3.2710705359e+01    0.3543082    0.3368941  33.25  0.001457799    1.097    0.088
       171  -9.7858    110.5031     77.0004   7.5940989237e+01   4.5944989557e+01    0.3058342    0.2534357 -44.66  0.001055938    1.220    0.180
       172 -10.0808    107.1974     77.5695   7.7107622414e+01   4.6509233626e+01    0.4748258    0.3076332 -17.89  0.001994864    2.033    0.508
       173  -9.3466      2.0000     76.0591   1.1438222602e+02   5.9931265160e+01    0.2657571      0.13391 -64.44  0.001300788    1.510    0.338
       174 -10.7685    157.9517     76.7810   6.3673706784e+01   3.5171917112e+01    0.2980835    0.2828165  40.11 0.0003461412    1.064    0.060
       175  -9.5234    116.3493     76.8045   7.4180023871e+01   4.4753263341e+01    0.2192228    0.1382836 -30.25  0.000403505    1.685    0.407
       176 -10.7390     46.1232     68.7191   9.5580039136e+01   5.8142712610e+01    0.6840408    0.3370045 -30.02  0.001689236    2.409    0.585
       177  -9.9344     53.8735     60.7420   9.0046411169e+01   5.8867337612e+01    0.3961645    0.2190873 -28.44  0.001653779    1.959    0.490
       178 -12.0151     52.9838     75.1341   9.4825569218e+01   5.5944597798e+01    0.2727034    0.2332206 -30.65 0.0003058609    1.052    0.049
       179 -10.4640     52.9907     70.2944   9.3401418329e+01   5.6991616017e+01    0.2989735    0.2059301 -53.76 0.0005345403    1.396    0.284
       180  -9.4211    126.8447     75.2395   7.0776881410e+01   4.2752920370e+01     0.394645    0.2284678  30.29 0.0009720774    2.187    0.543
       181  -8.8064     28.4543     75.3122   1.0420707453e+02   5.8416939677e+01    0.2484532   0.09568815 -54.48  0.001102423    1.999    0.500
       182 -11.7695    199.7481     71.8621   5.4323187974e+01   2.5899485577e+01    0.3268351    0.2841642 -20.97  0.000477861    1.247    0.198
       183 -11.2645     89.8967     71.7964   8.0690780879e+01   5.1004019422e+01    0.7167474    0.5023838 -35.12  0.002691936    1.367    0.268
       184  -9.1730     94.4396     71.2135   7.9018828079e+01   5.0276717503e+01    0.4905392    0.2290493 -43.22   0.00173645    2.074    0.518
       185  -9.2952     82.4729     74.7556   8.4133281704e+01   5.1707787219e+01     0.398608    0.2478546   2.26  0.001595782    2.627    0.619
       186  -8.7902     76.3488     74.8177   8.6261520464e+01   5.2706366793e+01    0.3638368    0.2196245   6.60  0.001466186    2.650    0.623
       187 -11.8527     79.8240     69.9475   8.3489773232e+01   5.3140917591e+01    0.2662521    0.2422937 -10.73 0.0003373904    1.034    0.033
       188  -9.9726     75.4675     65.6895   8.3606173290e+01   5.4715809076e+01    0.3737097    0.2325038 -29.94 0.0006335568    1.633    0.388
       189  -8.1458     37.3148     75.3385   1.0081801054e+02   5.7615229685e+01    0.1423005   0.08369517 -33.01 0.0007047477    1.698    0.411
       190 -10.8320    152.0966     72.3517   6.3648602250e+01   3.7373721950e+01    0.2760526    0.2490903 -45.53 0.0001670065    1.121    0.108
       191  -9.2326     68.9791     74.0566   8.8631461574e+01   5.4007121628e+01    0.2156654    0.1838824 -32.34 0.0006732594    1.050    0.048
       192  -8.8648     42.1283     80.8637   1.0042205447e+02   5.5889122890e+01     0.194194    0.1750091 -78.16  0.001203051    1.273    0.214
       193  -9.7954    138.0358     72.0801   6.6892549129e+01   4.0768540114e+01    0.3422472    0.2143148  50.55 0.0009662958    1.591    0.372
       194  -9.5576    144.8524     70.8094   6.4846450287e+01   3.9384277707e+01    0.4994791    0.2418075  58.52  0.001858075    2.299    0.565
       195 -10.6075    135.8936     64.7248   6.5077313225e+01   4.2570208469e+01    0.5946069    0.3278303  51.97  0.002485611    1.794    0.443
       196  -9.9616    143.7757     66.4555   6.3736369798e+01   4.0401054987e+01    0.3273579     0.301793  35.45 0.0008237403    1.080    0.074
       197  -9.2943    147.5244     64.5016   6.2257757274e+01   3.9831220395e+01    0.2647805    0.1998063  16.85 0.0007880691    1.649    0.394
       198  -9.1461      1.6313     79.8432   1.1516734892e+02   5.9091370600e+01     0.252633    0.1489554 -76.74  0.001450573    1.548    0.354
       199  -8.9237    101.1672     69.9061   7.6457555099e+01   4.9227782386e+01    0.2131959    0.2034447 -66.33  0.000433312    1.214    0.177
       200  -9.5317    173.6771     68.8341   5.8101903972e+01   3.2711050636e+01    0.3188011    0.2224538  30.56  0.001267708    1.781    0.439
       201  -9.4784    157.1436     68.7837   6.1451799298e+01   3.6769130824e+01    0.2260222    0.2044004 -79.47 0.0006869752    1.198    0.165
       202  -9.9115    120.4158     66.7458   6.9769851153e+01   4.5759180047e+01    0.5150816    0.3331717 -31.52  0.002333302    1.582    0.368
       203  -8.7644     63.9948     69.4618   8.9008312125e+01   5.5700705164e+01    0.1947086    0.1354472  30.37  0.000477526    1.541    0.351
       204 -10.2002     39.9620     58.0056   9.4777251499e+01   6.1063658949e+01    0.4044532    0.2764724   3.17  0.002272872    1.629    0.386
       205 -10.5387     23.3895     62.9753   1.0310103667e+02   6.1535962158e+01    0.6514757    0.4031729 -44.73  0.002279064    1.293    0.227
       206 -10.5103     31.0452     53.1171   9.6995040068e+01   6.2947276874e+01    0.7031295    0.2955168  28.59   0.00322806    2.621    0.618
       207  -8.8901     42.4093     44.5454   8.9112775137e+01   6.3418093683e+01    0.2066182    0.1718796 -20.38 0.0005930036    1.023    0.022
       208  -9.5393     22.1207     57.7475   1.0220772432e+02   6.2745489381e+01    0.3256225    0.2096793 -66.11  0.001526528    1.657    0.396
       209  -9.6459     25.1599     53.7678   9.9745649768e+01   6.3331398822e+01    0.3648281    0.1544036 -49.64  0.001312831    1.848    0.459
       210 -10.1528     47.0490     47.1250   8.8081887937e+01   6.2377981213e+01    0.4115905    0.2292088 -38.64  0.001542247    1.566    0.362
       211  -9.9327     44.3423     55.4445   9.2129373720e+01   6.1095597466e+01    0.3109425     0.213193   4.27  0.001282729    1.612    0.380
       212 -10.6873     37.7754     46.1789   9.1725584194e+01   6.3634023857e+01    0.3369702    0.2912884  71.19  0.001313506    1.855    0.461
       213 -11.3669     32.4214     64.5531   9.9834972177e+01   6.0436427274e+01    0.5355629    0.3241223 -32.99  0.002903183    1.544    0.352
       214 -10.6112     31.5339     58.7654   9.8524726611e+01   6.1741617896e+01    0.3939836    0.2735458 -63.07  0.002090474    1.562    0.360
       215  -8.5368     10.3001     69.1561   1.0986687645e+02   6.1054176276e+01    0.2054016    0.1064413 -48.26 0.0007366426    1.494    0.331
       216  -9.2405      2.2067     55.4133   1.1012781206e+02   6.4448740248e+01    0.2580576    0.1968507  44.80   0.00172563    1.794    0.443
       217  -9.4953     14.9069     64.8885   1.0705852643e+02   6.1717002302e+01    0.2231451     0.200615  -9.57  0.001466651    1.258    0.205
       218 -10.7599      2.3330     67.3699   1.1263239798e+02   6.1854482101e+01    0.3593856    0.2057263 -55.72  0.001798433    1.295    0.228
       219 -10.1345      9.3779     61.7622   1.0858777824e+02   6.2725455890e+01    0.3901281    0.2657667 -40.32  0.001502812    1.220    0.180
       220 -10.8991      1.7502     61.9484   1.1175975343e+02   6.3066759363e+01    0.3185197    0.1755938 -53.11 0.0005962393    1.334    0.251
       221 -10.4419      6.0912     59.1263   1.0934288846e+02   6.3468614629e+01    0.2946781    0.2086072 -41.39 0.0006578214    1.155    0.134
       222  -9.3388    106.2211     66.6447   7.3820286320e+01   4.8822016668e+01    0.3040988    0.2938088 -11.10  0.001071952    1.063    0.059
       223  -8.4798    170.8255     64.8522   5.7493568245e+01   3.4066617069e+01    0.1952673    0.1689708 -71.41 0.0002733599    1.233    0.189
       224 -10.3155     83.0907     62.9136   7.9991349039e+01   5.3963744725e+01    0.3747611    0.3271663 -70.36  0.001209242    1.507    0.336
       225  -9.9003    203.7990     63.3642   5.1445036446e+01   2.6283451460e+01    0.3831779    0.2528873  77.35  0.001141636    1.726    0.420
       226  -9.0995     98.5090     60.3844   7.4037080552e+01   5.1533708544e+01    0.2615398    0.1907614  39.95  0.001313563    1.372    0.271
       227 -10.5982    167.3203     56.6394   5.5736280041e+01   3.6232289832e+01    0.2708367    0.2424852  21.51 0.0002281324    1.241    0.194
       228  -9.5837    160.1931     60.9847   5.8445606509e+01   3.7312760968e+01    0.3674147    0.2361773 -36.83 0.0009821593    1.561    0.360
       229 -10.4969    162.9604     55.3508   5.6184162609e+01   3.7511040806e+01    0.6585015    0.2735666 -38.15  0.002478751    2.363    0.577
       230  -8.2477     67.3029     63.3460   8.5783858930e+01   5.6463310498e+01    0.1466111   0.09891752 -16.43  0.000703991    1.688    0.408
       231 -10.2914     70.7563     60.1319   8.3408878757e+01   5.6560631999e+01    0.3244161    0.2653435  46.20 0.0007228173    1.462    0.316
       232  -9.8269    194.1514     60.8267   5.2266599793e+01   2.8987767442e+01    0.3577787    0.2338923 -39.23 0.0002445054    1.473    0.321
       233  -9.2388     98.8431     63.6976   7.5083002697e+01   5.0862355946e+01    0.3978631    0.1828128  39.21  0.001562915    2.250    0.556
       234  -9.6132    180.9751     58.5552   5.3823996082e+01   3.2558525925e+01    0.4048196    0.1970512 -39.83  0.001240816    1.990    0.497
       235  -9.7128    152.5552     59.4668   5.9573449180e+01   3.9433334968e+01    0.2947478    0.2575541  22.33 0.0007503002    1.241    0.194
       236  -9.3585    149.7011     59.3127   6.0142262216e+01   4.0155831934e+01    0.2363373     0.188661 -58.06 0.0005216197    1.396    0.284
       237  -8.7718     15.8960     59.6843   1.0536157373e+02   6.2776916925e+01    0.1555935    0.1383969 -22.93 0.0008164081    1.186    0.157
       238  -9.6530     60.9479     58.2030   8.6430447851e+01   5.8409809215e+01    0.2540735    0.2348719 -89.25 0.0009272422    1.500    0.333
       239  -9.8282    135.9977     56.6397   6.2412352649e+01   4.3890791461e+01    0.5189202    0.3382697  26.11  0.002253194    1.933    0.483
       240  -9.5804    128.5861     57.8835   6.4651484699e+01   4.5431352043e+01    0.5235639     0.188083  52.68  0.001790686    2.750    0.636
       241 -10.1252    105.1818     57.6929   7.1045648147e+01   5.0646187939e+01    0.2489399    0.2235516 -16.50 0.0002321099    1.077    0.072
       242 -10.4644     42.4481     50.9054   9.1376387062e+01   6.2206183122e+01      0.47212    0.1923845 -44.43  0.001360569    2.077    0.519
       243 -11.9081    225.8738     55.3473   4.6401022377e+01   2.2369145849e+01    0.2791612    0.2242775 -48.54 0.0002818302    1.122    0.109
       244  -8.4531     80.2658     57.3879   7.9026044124e+01   5.5496372947e+01    0.1480488    0.1016433 -11.35  0.000698306    1.702    0.412
       245 -11.6276    118.3836     54.0078   6.5996182902e+01   4.8397225577e+01    0.7112973    0.4193237  35.68  0.002671029    1.816    0.449
       246  -9.4024     14.3379     54.8216   1.0474875999e+02   6.3907476306e+01    0.3204949    0.1535366 -60.65 0.0009431532    1.824    0.452
       247  -9.2058      8.4666     43.8896   1.0432599577e+02   6.6508389716e+01    0.2161621    0.1317533 -52.99 0.0003745045    1.319    0.242
       248 -11.1656      5.1146     37.8864   1.0412787122e+02   6.7885455888e+01    0.4461755    0.4217436 -37.51    0.0032605    1.313    0.239
       249  -9.8350      5.0683     31.8904   1.0223546728e+02   6.9040699770e+01    0.4035761    0.2151273   5.10  0.002385134    2.073    0.518
       250 -11.6329     14.5227     39.1006   9.9967679573e+01   6.7063690583e+01    0.4946901    0.3829749 -63.25  0.001516767    1.518    0.341
       251 -10.9353     11.4154     47.0300   1.0387766598e+02   6.5698543187e+01     0.758149    0.1328369 -52.19  0.002916865    3.200    0.687
       252 -10.3891      6.9737     50.4857   1.0683274332e+02   6.5246129871e+01    0.3292345    0.1943418 -66.11  0.001411033    1.639    0.390
       253  -8.3393    243.2270     55.6408   4.4447609041e+01   1.8538688001e+01    0.1668585    0.1181048  57.62 0.0005989403    1.586    0.369
       254  -8.3648    231.5927     55.1792   4.5669243483e+01   2.1119415926e+01    0.1696156    0.1244601 -26.65 0.0003743793    1.473    0.321
       255 -10.7470    191.4866     54.3835   5.0930492499e+01   3.0606628715e+01    0.2901403    0.2566586 -31.89 0.0007314816    1.179    0.152
       256  -9.3374    145.2669     53.3290   5.9206357779e+01   4.2177889799e+01     0.403196    0.2003258 -33.99   0.00163661    2.048    0.512
       257 -10.2667    149.7660     54.6288   5.8647580005e+01   4.0878185641e+01    0.3968807    0.2848916  34.64   0.00189091    1.527    0.345
       258 -10.6080    154.0143     49.1330   5.6029521580e+01   4.0657913789e+01    0.4999197    0.3970879  82.96  0.002198057    1.410    0.291
       259  -9.0313    107.7756     53.8405   6.8913766099e+01   5.0751136003e+01    0.3894898    0.2667418 -85.10 0.0008318847    3.096    0.677
       260  -9.1889     91.0903     41.1144   6.9269833068e+01   5.6214873141e+01    0.3226216    0.2872042 -77.02  0.001346242    1.570    0.363
       261 -10.0497     83.8681     45.7298   7.3444726381e+01   5.6875570449e+01    0.4198778    0.2709653 -58.76  0.001342942    2.529    0.605
       262  -9.2349     87.8758     47.2906   7.2693509487e+01   5.5864666305e+01    0.3926792    0.2144199 -48.99  0.001062191    2.313    0.568
       263  -9.3321     93.3798     54.8029   7.3679330463e+01   5.3533132096e+01    0.3538237    0.2523417   1.00  0.001248096    1.681    0.405
       264 -11.2336     94.4434     49.4979   7.1390100354e+01   5.4221375435e+01    0.4864361    0.3458837  38.29  0.001345441    1.374    0.272
       265 -10.0149     95.0689     45.1255   6.9550131204e+01   5.4799260801e+01    0.4672364    0.2727744  33.59  0.001507083    1.768    0.434
       266  -9.1317     52.5824     54.2074   8.8338663603e+01   6.0327798848e+01    0.2699493    0.1980602 -46.94  0.001234844    1.343    0.255
       267  -8.6209     53.5130     50.4554   8.6624682135e+01   6.0920764508e+01    0.1720156    0.1197204  13.19 9.728612e-05    1.523    0.344
       268  -9.7833     80.9479     50.1807   7.6143260995e+01   5.6661320258e+01    0.5413646    0.3536803 -63.43  0.002325162    2.777    0.640
       269  -9.5265     61.4800     52.1309   8.4066071079e+01   5.9490304361e+01    0.2659737    0.2475763 -82.50  0.001163234    1.515    0.340
       270 -12.4573     61.8380     43.9739   8.0847797076e+01   6.0901154046e+01    0.4890819    0.2775884 -39.16  0.000549195    1.650    0.394
       271 -10.7756     56.9875     34.2124   7.8844736846e+01   6.3254499901e+01    0.5469276    0.3012259  40.15  0.002037029    1.957    0.489
       272  -8.9473     55.7649     29.2536   7.7227157103e+01   6.4208682942e+01    0.2726961    0.2050954  23.72 0.0003670357    1.271    0.213
       273 -10.5544     65.6249     49.2615   8.1402356778e+01   5.9388691943e+01    0.3698571    0.2476289 -23.30 0.0009553342    1.469    0.319
       274 -10.4531     67.7961     44.1993   7.8634338542e+01   5.9928079128e+01    0.4464534    0.2739749  13.38  0.001964865    2.010    0.503
       275 -10.0093     51.9055     28.9403   7.8704036193e+01   6.4827067132e+01    0.2146698    0.1658409  30.64 0.0004181092    1.366    0.268
       276  -9.6905     49.3779     25.5266   7.8276389744e+01   6.5706682611e+01    0.4127056    0.2239762  36.24  0.001739087    1.885    0.469
       277  -9.4044     19.6721     50.7200   1.0124233027e+02   6.4385881191e+01    0.4605959    0.1301494 -51.96   0.00193551    2.544    0.607
       278  -8.8476     21.8645     46.0995   9.8822653871e+01   6.5145224823e+01    0.1884168    0.1290783 -31.35  0.001162021    1.218    0.179
       279  -9.0830     17.7885     46.0168   1.0065814467e+02   6.5473225569e+01    0.3273086    0.1515482 -47.36  0.001097179    1.654    0.395
       280 -10.0333     71.3690     51.6840   8.0146475030e+01   5.8038506868e+01    0.3762726    0.2517757  10.70 0.0008477441    1.753    0.430
       281  -9.2725    175.1271     50.4072   5.2488862636e+01   3.5223841557e+01     0.267034    0.2489842 -24.90  0.001012313    1.145    0.127
       282  -9.3611    181.1959     48.9255   5.1046688788e+01   3.3931259114e+01    0.2312624    0.1875488 -66.25  0.001220707    1.280    0.219
       283  -8.1678    224.6599     48.6927   4.4937735753e+01   2.3586223537e+01     0.130399    0.1044888  28.67 0.0007042694    1.684    0.406
       284  -9.3383    196.7942     48.0410   4.8413648818e+01   3.0228952646e+01    0.2359041    0.1937588  68.15 0.0004964105    1.201    0.167
       285 -11.4041    125.2346     45.6436   6.1300107287e+01   4.8120469434e+01    0.4510328    0.3356538  27.53 0.0009689563    1.435    0.303
       286 -10.2434    127.6098     39.7559   5.8663395016e+01   4.8399085927e+01    0.3234007    0.2835412  73.12   0.00179727    1.248    0.198
       287 -10.7587    130.7742     35.9293   5.6596034754e+01   4.8158531219e+01    0.4669372    0.4062233  49.23  0.001001482    1.076    0.071
       288  -9.4641     31.7398     47.8583   9.4967929122e+01   6.3927799703e+01    0.1800328    0.1513574 -13.90 0.0005106372    1.123    0.110
       289 -10.5909    232.1833     45.2157   4.3252222618e+01   2.2380283332e+01    0.3625849    0.2331444 -38.87  0.001945822    1.425    0.298
       290 -10.3762    114.5167     46.0909   6.4235953949e+01   5.0504222775e+01    0.3110757    0.2446653 -15.03 0.0009185224    1.331    0.249
       291 -10.1412     26.6737     45.0056   9.6273364467e+01   6.4953732075e+01    0.4082873    0.1400392 -41.41   0.00178047    2.398    0.583
       292  -9.6577    245.4221     45.0223   4.1821984458e+01   1.9543921880e+01    0.4056572    0.2742516 -82.83  0.002275159    1.568    0.362
       293  -9.1946    204.1836     46.1711   4.6890456436e+01   2.8709560417e+01    0.1966829    0.1858585  50.09 0.0004706446    1.189    0.159
       294  -8.1449    164.6115     46.2046   5.3098698621e+01   3.8444480525e+01    0.1842119    0.1411003 -14.66 0.0003783125    1.520    0.342
       295  -9.4264    179.3109     42.8076   4.9601584584e+01   3.5251675790e+01    0.3956646    0.2067871 -37.89  0.001739449    1.883    0.469
       296  -9.0204    175.9599     44.5248   5.0637760149e+01   3.5849722339e+01    0.2381236    0.2099016 -36.25    0.0007157    1.173    0.147
       297  -9.5821    125.0266     30.3719   5.5934206080e+01   5.0229497131e+01    0.5272846    0.3505826  85.20   0.00240535    2.168    0.539
       298  -9.7557    115.8996    248.7004   1.0835853113e+02   7.9377525052e+00    0.2066686    0.1853033  35.15 0.0006414387    1.188    0.158
       299 -12.0496    103.9672     39.4615   6.4724663736e+01   5.3794947977e+01    0.4980298    0.4010035 -30.91 0.0006682944    1.283    0.221
       300  -9.8152    199.9795     43.3660   4.6722602485e+01   3.0104476876e+01    0.2414506    0.1974821 -36.17 0.0003316364    1.243    0.196
       301  -8.0843    192.6845     44.7227   4.8110555450e+01   3.1691414477e+01    0.1375686    0.1064498  34.37 0.0003989745    1.568    0.362
       302  -9.0016    186.7629     43.8628   4.8748851584e+01   3.3263186162e+01    0.2849213     0.137884  51.74  0.001044767    2.080    0.519
       303  -9.4333    149.9751     43.5560   5.5067407907e+01   4.2452384420e+01    0.4541128    0.2745105  19.94  0.001808017    2.587    0.613
       304  -8.8952    145.4108     42.5850   5.5683532444e+01   4.3711478158e+01    0.4089286    0.2239766  71.10  0.001424681    2.218    0.549
       305  -9.7325     53.2437     43.0170   8.3942011827e+01   6.2312761097e+01    0.2305226    0.2177609 -70.29 0.0004826855    1.518    0.341
       306  -9.7654     32.1915     41.9845   9.2706519120e+01   6.5008471903e+01    0.3096912    0.2611435 -45.86  0.001279008    1.292    0.226
       307 -12.1586     41.4480     37.7554   8.6936376587e+01   6.4757667146e+01      0.45319    0.2633491 -14.93  0.002299023    1.976    0.494
       308  -9.1292    192.7548     37.1800   4.6052327217e+01   3.2681439685e+01    0.2854571    0.2035034  25.89 0.0004523494    1.944    0.485
       309 -10.5045    228.1044     37.6576   4.1914389324e+01   2.4295779067e+01     0.342027    0.2045261 -44.82 0.0003309008    1.493    0.330
       310  -9.1132    158.1426     38.8961   5.2028406930e+01   4.1055742891e+01    0.3026139    0.1831143 -44.74 0.0009147079    1.748    0.428
       311  -8.9312    120.8016     39.2577   6.0138885407e+01   5.0060375183e+01    0.2439661    0.1853244 -42.25  0.001228957    1.442    0.306
       312  -9.7695    186.5823     36.8089   4.6813888741e+01   3.4245463079e+01    0.2614856    0.2272305 -82.30  0.000639699    1.108    0.097
       313  -9.6241    182.2177     38.8750   4.8033045056e+01   3.5055773768e+01    0.2471719    0.2033672 -83.96 0.0005041464    1.228    0.185
       314  -9.6533    176.4998     36.3380   4.8178219668e+01   3.6805970125e+01    0.4480642    0.2234552  74.06  0.001582036    2.237    0.553
       315  -8.5461    165.9289     39.5293   5.0844316410e+01   3.9028381358e+01    0.2050842     0.135201  64.54 0.0003729894    1.456    0.313
       316  -9.4699     82.4015     38.7488   7.1206106323e+01   5.8251160307e+01    0.2201776    0.2017173  11.35 0.0005573409    1.094    0.086
       317  -9.0043     86.7732     35.2136   6.8327292720e+01   5.7936815164e+01    0.4584199    0.2722713  -6.18  0.002045173    2.245    0.555
       318 -10.4329     77.9273     34.0750   7.0850239598e+01   5.9777925491e+01       0.7217    0.3078609  34.56  0.002822059    2.520    0.603
       319  -8.6159     75.6508     31.2939   7.0491421977e+01   6.0594686988e+01    0.2019685    0.1643965  46.33  0.000480984    1.391    0.281
       320  -9.7198     71.3553     29.8745   7.1434150577e+01   6.1564798323e+01    0.2750503    0.2344146   3.88 0.0008509688    1.005    0.005
       321  -9.3715     75.1461     27.8925   6.9224880967e+01   6.1160788902e+01    0.2585164    0.2411113  20.37 0.0009301926    1.208    0.172
       322  -9.8135     24.9244     38.6742   9.4869141713e+01   6.6316833405e+01    0.2374883    0.1559793 -34.95 0.0005656625    1.222    0.182
       323  -9.3434    238.1258     37.8314   4.0928306323e+01   2.2059539929e+01    0.2023929    0.1776977 -40.63 0.0003742682    1.196    0.164
       324  -8.6798    202.2211     38.1454   4.5054915520e+01   3.0260149175e+01    0.1987221    0.1434968 -65.49 0.0005809176    1.397    0.284
       325 -11.1902    116.5959     33.7034   5.9168031603e+01   5.1772917498e+01    0.5186427    0.3379782   8.99 0.0005707517    1.993    0.498
       326 -10.7970    208.7876     34.1673   4.3223117709e+01   2.9205632215e+01    0.5418944    0.3163291 -17.98  0.002502769    2.273    0.560
       327  -8.5968     95.4702     36.5417   6.6112462687e+01   5.6000848908e+01    0.1388923    0.1244833  14.92 0.0002129278    1.006    0.006
       328  -9.6571    217.9725     34.5158   4.2258244204e+01   2.7010900125e+01    0.4184104    0.1922633 -76.63  0.001473062    3.743    0.733
       329  -9.0699    144.3246     34.8277   5.3354006836e+01   4.5008623440e+01    0.4668002    0.1564521  45.06  0.001555192    3.192    0.687
       330 -10.4104    145.4453     29.5240   5.1386912513e+01   4.5386609357e+01    0.6175695    0.4257987  52.21  0.002377354    1.338    0.253
       331  -9.0809    140.6051     26.0502   5.1156386988e+01   4.6983713587e+01    0.2204942    0.1796859  77.76 0.0004247875    1.275    0.216
       332  -9.8511    153.5928     31.2049   5.0428999702e+01   4.3164641175e+01    0.5214379    0.2170113  52.86  0.002091269    2.169    0.539
       333  -9.1106    158.7828     29.9603   4.9132686795e+01   4.2021721139e+01    0.2942096    0.1390246 -27.68  0.001233841    2.274    0.560
       334  -9.2200     47.3908     34.6532   8.3070643058e+01   6.4538338831e+01     0.220675    0.1364822   3.65  0.001143544    1.874    0.466
       335  -7.6511     94.9959     29.2892   6.3370394225e+01   5.7082789188e+01    0.8756646    0.4176061  27.20  0.003346103    2.957    0.662
       336  -8.7335    192.3434    248.3218   9.3597790177e+01  -3.5936199312e+00    0.1260367   0.08087232   9.07 0.0007050211    1.728    0.421
       337  -9.6302    163.1877    246.5848   9.8916710305e+01   1.0746900173e+00    0.1772605    0.1475601 -28.91 0.0007896754    1.410    0.291
       338  -9.9512    123.8784     22.6067   5.3388024290e+01   5.1406524884e+01    0.4620664    0.2927149 -89.36  0.001213633    2.466    0.595
       339 -11.1008    105.0144     20.9121   5.7234852056e+01   5.5928809916e+01    0.2636917    0.2328321  61.29 0.0003180105    1.229    0.187
       340  -8.4975    235.2439     29.9602   3.9418925549e+01   2.3690017740e+01    0.1659978    0.1200822 -24.48 0.0004952272    1.605    0.377
       341 -10.8690    186.3208     30.3348   4.5056750094e+01   3.5121957040e+01    0.6134081    0.3744718  72.62  0.001744999    1.592    0.372
       342  -9.5492    178.7610     25.1761   4.4647012163e+01   3.7603186578e+01    0.4374881    0.2014947  82.54  0.001657542    2.842    0.648
       343  -9.0690    190.8247     40.7507   4.7294092489e+01   3.2684775452e+01     0.196643     0.187516  47.38  0.000487957    1.158    0.137
       344  -8.8514      1.4483    244.0476   1.2871781345e+02   2.2888989938e+01    0.1467813   0.07911323 -89.76 0.0004134277    1.536    0.349
       345 -10.0741    202.7868    242.3218   9.0731819913e+01  -4.3198494592e+00    0.2114038    0.1682932   7.23 0.0004519296    1.111    0.100
       346  -9.5173    247.3031    239.8395   8.2327486907e+01  -1.0204580196e+01    0.1640875    0.1354002 -18.70  0.001191205    1.401    0.286
       347  -9.4961    221.0363    237.6651   8.6618498675e+01  -6.3511608513e+00    0.1770073    0.1265979  19.39 0.0007999241    1.139    0.122
       348  -9.0001    167.7939    237.5547   9.6743083395e+01   1.7458525545e+00    0.1769912    0.1025723  44.48 0.0007376065    1.596    0.373
       349  -9.0106    188.3171    235.3377   9.2398753936e+01  -1.1334984152e+00    0.1294412   0.08691025   5.55 0.0007048602    1.702    0.412
       350 -12.3771     26.0483     30.9708   9.1405453380e+01   6.7609522052e+01      1.24949     0.483551  20.24    0.0056975    3.013    0.668
       351 -11.1768     19.1238     29.0672   9.4081150891e+01   6.8568753655e+01    0.2723138    0.1853099  19.86  0.000434097    1.596    0.373
       352  -8.4712    221.9899    233.0000   8.5676211730e+01  -5.8694993738e+00    0.1979275   0.05970013  37.18 0.0007714446    2.948    0.661
       353  -8.5302     32.2465    232.6503   1.2282888538e+02   2.1911153118e+01    0.1171617   0.06368107  69.44 0.0002454076    1.583    0.368
       354  -9.5110    186.5042    231.4910   9.2148674864e+01  -2.7302887542e-01    0.1290472    0.1052117  18.24 0.0008100194    1.054    0.051
       355  -9.3581    247.5370     30.3153   3.8385791761e+01   2.1006000928e+01    0.2233819    0.1951305  64.14 0.0009618805    1.351    0.260
       356 -10.7122    221.6897     26.9795   4.0046867544e+01   2.7093038372e+01    0.3878555    0.3360977  -5.42  0.002148067    1.510    0.338
       357  -8.5226    195.9269     29.0717   4.3464153275e+01   3.2924531340e+01    0.1589658    0.1424593 -62.72 0.0004643167    1.071    0.066
       358 -10.3452    164.7596     25.5454   4.6807778583e+01   4.1047263313e+01    0.4290933    0.2565758 -73.76  0.001551793    2.235    0.552
       359  -8.9366    176.5144    231.5045   9.4114631436e+01   1.3093319847e+00    0.1283085    0.1078371  25.86 0.0008104634    1.014    0.014
       360  -8.4897    163.4799    226.5217   9.5964073679e+01   4.2214236929e+00    0.1303219    0.1118306  31.91 0.0001061722    1.026    0.026
       361  -8.8035    207.5489     26.5174   4.1433238734e+01   3.0442430079e+01    0.2190176    0.1227219  71.03 0.0008710551    1.710    0.415
       362  -9.4782    205.2680     23.5830   4.0945263349e+01   3.1330666930e+01    0.2786916    0.2164952  62.41  0.001624279    1.300    0.231
       363 -11.0078      2.0411     25.2596   1.0152616655e+02   7.0441690369e+01    0.2447431    0.1464479 -52.66  0.000560909    1.452    0.311
       364  -8.8698    241.2955     25.3408   3.7839938638e+01   2.2942829306e+01    0.1137137   0.09746232  27.93 0.0007031113    1.659    0.397
       365  -9.6560    234.5190     24.7539   3.8307398589e+01   2.4485420433e+01      0.36092    0.1407865  79.40  0.001483352    2.970    0.663
       366 -10.0060    159.0297     24.5220   4.7404412937e+01   4.2593137051e+01     0.230461    0.2024732 -29.21  0.001344083    1.235    0.190
       367 -10.6834     62.1471     23.7580   7.2228541122e+01   6.3989919291e+01    0.4349381    0.2565282  25.11   0.00228342    1.703    0.413
       368  -8.6735    223.7077    225.0017   8.4008377989e+01  -5.0313092000e+00    0.1704884    0.1373254   0.50  0.000640045    1.063    0.059
       369  -8.5816    132.2343    225.6184   1.0225747690e+02   9.4644798540e+00     0.124194   0.09433135  75.74 0.0006910189    1.627    0.385
       370  -9.2706     10.1194     23.1028   9.6396223620e+01   7.0318411525e+01    0.2438111    0.1184149 -47.71  0.001385167    1.698    0.411
       371  -9.8558    172.4019     22.6896   4.4823155047e+01   3.9465170247e+01    0.5126481    0.2645955  50.46  0.001926646    1.918    0.479
       372 -10.9280    153.6868     23.0225   4.7814736409e+01   4.4090939578e+01    0.2856362     0.249936  55.22  0.000310865    1.074    0.069
       373  -9.3903    151.7028     18.6665   4.6758972386e+01   4.5051742905e+01    0.2710829    0.1929007  40.72 0.0008569318    1.448    0.309
       374  -8.1791     85.5534     23.4642   6.3856686220e+01   5.9742980877e+01    0.1359322    0.1133528  17.29 0.0003975752    1.059    0.055
       375  -8.4581      2.1809    224.3772   1.2775798641e+02   2.6526865499e+01    0.1444082   0.07372043  50.26 0.0003865277    1.596    0.373
       376  -8.4566    161.6555    223.7014   9.5904614193e+01   4.9960842748e+00    0.1327506    0.0954842   8.08 0.0007035587    1.674    0.403
       377  -8.4367    142.8008     22.2159   4.9460188504e+01   4.6873040709e+01    0.1845558    0.1506288  31.56  0.001028966    1.280    0.219
       378  -8.8040     80.2652     22.4374   6.5124503030e+01   6.0907015912e+01    0.1708383    0.1238385  56.67 0.0009345164    1.639    0.390
       379  -8.6621    196.4848    222.4951   8.8735647072e+01  -4.8184686843e-01    0.1308637    0.1077741  14.17 -1.352155e-05    1.040    0.038
       380  -9.1898     88.7675    221.0325   1.1074778420e+02   1.7028811141e+01    0.2196313    0.1649385  45.88 0.0005717003    1.187    0.158
       381  -9.3453    198.6813     14.0344   3.9225035383e+01   3.3968399401e+01     0.265659    0.1736407  86.27 0.0007581066    1.460    0.315
       382  -9.1413     36.1288     20.8128   8.2144373281e+01   6.8171185219e+01    0.2180031     0.143258 -26.46 0.0006274081    1.297    0.229
       383 -10.6401    217.6490     18.8451   3.8505231317e+01   2.8976129822e+01    0.7699503    0.2737331  77.97  0.002958939    3.165    0.684
       384  -9.6354    211.0640     19.7969   3.9386616412e+01   3.0397938281e+01    0.1978403    0.1518869 -71.23 0.0002762116    1.195    0.163
       385  -8.1354    183.4932    219.4818   9.0800724658e+01   2.0973238603e+00    0.1318567    0.1128657  20.57 8.874691e-05    1.005    0.005
       386 -10.7859     93.6881     19.9548   5.9932475162e+01   5.8487475368e+01     0.258078    0.1896702  44.67 0.0002107068    1.242    0.195
       387  -9.2567    234.7639     18.4479   3.6871936215e+01   2.5174215673e+01     0.235121    0.1135903  81.64  0.001136329    2.135    0.532
       388  -8.9514    203.0809    217.9253   8.6675205529e+01  -8.3292302567e-01    0.1907003    0.1575158  11.30 0.0003256786    1.032    0.031
       389  -9.2555    230.9479    209.4490   7.9921556855e+01  -3.9107609897e+00    0.2270418    0.1513635 -10.97 0.0003885762    1.466    0.318
       390  -9.9230    144.5490     17.0433   4.7436049627e+01   4.6987459728e+01    0.3209604    0.2097398  62.97  0.001657155    1.377    0.274
       391  -8.2671     95.3345    205.2873   1.0746713289e+02   1.9288722238e+01    0.1230034    0.1051157  -8.58 0.0003193333    1.627    0.385
       392  -9.7413     34.7301    200.7202   1.2007082010e+02   2.8190829228e+01     0.307092    0.1292695  68.30  0.001357823    2.739    0.635
       393  -9.4359    116.9399     15.2756   5.2204618275e+01   5.3805370243e+01    0.3633637    0.1844382  51.56   0.00110863    1.696    0.410
       394  -8.9094    112.3443     15.2907   5.3248157625e+01   5.4866234156e+01    0.1987812    0.1363213 -14.33 0.0005280369    1.590    0.371
       395  -8.6638    120.4236    199.2385   1.0101507973e+02   1.6553028311e+01    0.1770088    0.1318152 -75.63 0.0005784014    1.559    0.359
       396  -9.5645      6.8364    194.2939   1.2530596259e+02   3.2283914918e+01    0.2093394    0.1146898 -57.06  0.001155792    2.072    0.517
       397  -9.7362    242.8746     13.8895   3.5225605296e+01   2.3942811838e+01    0.1691195    0.1590751 -83.29 0.0004105556    1.242    0.195
       398  -8.4750     92.2391    188.4187   1.0590344966e+02   2.3433307427e+01    0.1868398    0.1175719  49.09 0.0006947373    1.506    0.336
       399  -9.4927     55.3817    181.3296   1.1363933329e+02   3.0163902266e+01    0.2325656    0.1889702  75.61 0.0003482319    1.093    0.085
       400  -9.2618    139.3743     13.8127   4.7260304973e+01   4.8578136061e+01    0.2604722    0.1646575  55.59 0.0006420084    1.389    0.280
       401  -9.4221      7.4634    174.4939   1.2387554026e+02   3.6594039436e+01    0.1196193   0.09186506  87.17 0.0008095132    1.004    0.004
       402 -10.3763     17.5105    169.0323   1.2120270246e+02   3.6999745452e+01    0.2181515    0.1850282   8.77  0.001476883    1.653    0.395
       403 -10.6084      6.5392    167.4737   1.2356852434e+02   3.8260137525e+01    0.2962647    0.2194041 -20.58  0.001879321    2.104    0.525
       404 -10.5962     15.0574    165.8979   1.2150196759e+02   3.7935012792e+01    0.3202516    0.2022516 -30.89  0.001583487    2.510    0.602
       405 -11.6889     37.7566    159.4135   1.1538375461e+02   3.7345171725e+01    0.6211087    0.3562331  60.56  0.002707404    1.842    0.457
       406 -12.2647     30.4457    154.8678   1.1670537345e+02   3.9163207395e+01    0.7531565    0.4345672  51.47  0.003622537    1.785    0.440
       407 -10.6748     11.6403    151.8137   1.2107794731e+02   4.1503511483e+01    0.3648934    0.2694568  50.77  0.002371951    1.426    0.299
       408 -11.5422     14.5736    143.4618   1.1953298734e+02   4.3261227386e+01    0.7830774     0.440416 -22.44  0.003803307    3.045    0.672
       409  -9.3203      5.3774    141.7498   1.2171771956e+02   4.4329365237e+01    0.2762126    0.1296295 -60.72   0.00108178    1.787    0.440
       410  -8.4491    154.5746     13.4974   4.4671915208e+01   4.4862520329e+01    0.1335793    0.1213858  69.19 0.0001579611    1.011    0.011
       411 -10.7085      2.3583    153.3605   1.2344915240e+02   4.1816797152e+01    0.6423681    0.1375243 -68.32  0.002542094    3.138    0.681
       412 -10.7840      4.7914    146.9154   1.2232575914e+02   4.3153302266e+01    0.4394086    0.2233207  69.95  0.001374183    2.051    0.513
       413 -10.4671     45.6977    151.7814   1.1239984461e+02   3.8344376523e+01    0.3514813    0.1957735 -51.64  0.001730775    1.795    0.443
       414  -8.9705    230.0095    147.9857   6.7650519652e+01   6.1160027292e+00    0.1678571    0.1522904  -6.28 0.0004461021    1.059    0.055
       415 -10.6313     24.0209    162.6225   1.1909286507e+02   3.7916163403e+01    0.3597064    0.1931244  37.85  0.001954724    1.948    0.487
       416  -9.3920     54.1155    146.0460   1.0933757510e+02   3.8785668378e+01    0.2001807    0.1737569 -71.85 0.0003166075    1.043    0.041
       417  -9.0711     41.7651    139.3243   1.1174181678e+02   4.1820693090e+01    0.1990684    0.1536046  65.07 0.0006807065    1.354    0.262
       418  -9.5483    235.9785    136.9985   6.4186348400e+01   6.8923162629e+00    0.2156442    0.1908844 -25.21 0.0005304573    1.025    0.025
       419  -9.5017     34.5995    136.5906   1.1334703699e+02   4.3208394395e+01    0.2542821    0.2052999  61.22 0.0008583097    1.304    0.233
       420  -8.4067    230.6482    136.7261   6.5028934074e+01   7.9450096133e+00    0.1421285    0.1047436   5.72  0.000700209    1.637    0.389
       421  -9.3390     15.6819    135.0232   1.1833677679e+02   4.5200719077e+01    0.1817863    0.1334352 -70.30 0.0005364457    1.116    0.104
       422 -10.4483      8.2514    133.0863   1.2012349344e+02   4.6192376460e+01    0.3816593    0.1956368 -32.30  0.001737788    2.833    0.647
       423  -9.9644      2.3798    134.0304   1.2177056196e+02   4.6346509189e+01    0.2800229    0.1599317  69.16  0.001562523    1.824    0.452
       424  -9.9715      3.2850    130.3475   1.2117413187e+02   4.7162286170e+01    0.2599219    0.1287068 -60.34 0.0009251803    1.655    0.396
       425 -10.5108     43.0316    131.2599   1.1017998827e+02   4.3676659345e+01    0.5398427    0.2215744 -49.29  0.002190208    2.357    0.576
       426  -8.4284    248.6905    133.6471   6.1390519293e+01   5.1273271587e+00    0.1405171   0.09860875  -4.56 0.0003011978    1.721    0.419
       427  -9.5599     61.8670    131.5216   1.0475638473e+02   4.1423977348e+01    0.3019532    0.2067595 -87.76   0.00147619    1.672    0.402
       428 -10.7347     36.0099    122.5875   1.1087989699e+02   4.6513480106e+01    0.8453209     0.166605  35.56  0.002835776    4.543    0.780
       429 -11.5631     28.7270    131.9983   1.1436680573e+02   4.4872215524e+01    0.2378706    0.2054253 -78.91  0.000324579    1.046    0.044
       430 -10.5947     34.0585    128.6445   1.1237536457e+02   4.5209674731e+01     0.434857    0.2976485 -11.13  0.002306643    2.101    0.524
       431  -9.1853     30.4163    125.5006   1.1297422501e+02   4.6312437969e+01    0.2296604    0.1616098 -65.13 0.0006186911    1.182    0.154
       432  -8.9225     23.8496    133.3259   1.1590168731e+02   4.4966064760e+01    0.1643782    0.1501964 -71.35  0.000464456    1.140    0.123
       433 -10.0766     20.1170    131.2123   1.1667489758e+02   4.5780589380e+01    0.2143312    0.1496142 -72.43 0.0004317931    1.163    0.140
       434 -10.0112     12.8407    131.0578   1.1866323802e+02   4.6361326794e+01    0.2016248    0.1455063  69.47  0.001236003    1.421    0.296
       435  -9.4896     12.8207    127.1807   1.1822495003e+02   4.7294339609e+01    0.2326376     0.109534 -56.78   0.00102737    1.784    0.439
       436  -8.8015    217.6537    125.1964   6.4643651244e+01   1.2561571668e+01    0.2200607    0.1278152 -29.05   0.00095326    1.742    0.426
       437  -9.2135     59.8292    125.2245   1.0419777287e+02   4.3241568343e+01    0.2108701     0.179109 -89.71 0.0007328885    1.209    0.173
       438 -10.5793      5.7723    123.5683   1.1978532006e+02   4.8620809563e+01    0.3685773    0.2637217  16.55  0.002344997    1.810    0.448
       439  -8.8520     10.9976     85.7318   1.1283629377e+02   5.7255908682e+01    0.3558777    0.1178453 -60.90  0.001586886    2.139    0.533
       440 -10.4395      2.5986    115.7539   1.1981475934e+02   5.0663633825e+01    0.4220236    0.2489698 -79.63  0.002443303    1.393    0.282
       441  -9.9649      4.3221    111.4368   1.1879994648e+02   5.1590986171e+01    0.3544331    0.1667429 -70.31   0.00115978    1.627    0.385
       442  -9.6357      3.4828    103.9800   1.1811540141e+02   5.3400152554e+01    0.5428674    0.1732599 -76.44  0.002185212    2.859    0.650
       443  -9.4891      1.9638     92.9266   1.1708687354e+02   5.6065954523e+01    0.1945584    0.1732851  44.14 0.0009089416    1.402    0.287
       444  -9.1022      7.6897     89.5557   1.1463843071e+02   5.6555382388e+01     0.218262    0.1721478  82.27  0.000747287    1.412    0.292
       445 -10.5011      6.4787     98.3967   1.1639723479e+02   5.4553676963e+01     0.468629    0.2518332  31.36  0.002604442    2.234    0.552
       446  -8.8408     72.0154    123.7075   1.0024325079e+02   4.1990783111e+01    0.1910292    0.1866053  77.16 0.0004296823    1.094    0.086
       447  -8.8697    241.3150    123.6632   6.0323810312e+01   8.1488867474e+00    0.1396658    0.1028518 -61.20 0.0006167765    1.695    0.410
       448  -9.2780    236.7401    121.3630   6.0526151291e+01   9.4165824198e+00    0.1872626     0.129249  37.74 0.0009492105    1.652    0.395
