#   1 NUMBER                 Running object number                                     
#   2 MAG_AUTO               Kron-like elliptical aperture magnitude                    [mag]
#   3 X_IMAGE                Object position along x                                    [pixel]
#   4 Y_IMAGE                Object position along y                                    [pixel]
#   5 X_WORLD                Barycenter position along world x axis                     [deg]
#   6 Y_WORLD                Barycenter position along world y axis                     [deg]
#   7 A_WORLD                Profile RMS along major axis (world units)                 [deg]
#   8 B_WORLD                Profile RMS along minor axis (world units)                 [deg]
#   9 THETA_WORLD            Position angle (CCW/world-x)                               [deg]
#  10 FWHM_WORLD             FWHM assuming a gaussian core                              [deg]
#  11 ELONGATION             A_IMAGE/B_IMAGE                                           
#  12 ELLIPTICITY            1 - B_IMAGE/A_IMAGE                                       
         1 -12.3889    187.4109     31.6914   6.3778362553e+01   3.4389122044e+01    0.8722519    0.8631884 -81.49  0.003609784    1.081    0.075
         2 -12.3122    195.6556     20.2769   5.9362968965e+01   3.3649502335e+01    0.7344714    0.6615501  13.14  0.001646763    1.301    0.231
         3 -19.3279     12.4496    131.3932   1.3170663947e+02   4.6027923858e+01     16.58999     1.655135 -70.53   0.04007772    9.580    0.896
         4 -11.3738     99.2659    249.1481   1.2722261839e+02   1.2619770714e+01    0.8450927    0.2463856  44.16  0.001683259    2.812    0.644
         5 -10.5535     94.1112    246.7283   1.2784113496e+02   1.3773968842e+01    0.3673128    0.1762562 -69.83   0.00211076    2.363    0.577
         6 -13.4081    136.9330    247.2244   1.2071636132e+02   6.9824791809e+00     1.457494    0.9394149  44.18  0.009207434    1.313    0.239
         7 -11.3085    144.8529    228.6261   1.1703647820e+02   8.5452953835e+00    0.3869921    0.2342156  40.03  0.002166548    1.524    0.344
         8  -9.6573     83.1353    229.1432   1.2803155134e+02   1.8350496552e+01     0.157735    0.1359957  70.94 0.0004392624    1.223    0.182
         9  -9.9015     73.3027    225.8533   1.2940155646e+02   2.0319100910e+01    0.2391476    0.0950847  54.52  0.001227107    2.147    0.534
        10 -11.1860    101.3281    231.2985   1.2511034886e+02   1.5266470795e+01    0.5298821    0.2212025 -57.53  0.002712266    2.704    0.630
        11  -8.1261    115.0000    210.9460   1.2027120593e+02   1.6699739948e+01    0.1830037   0.06990911 -57.89  0.000645726    2.876    0.652
        12  -8.7985    108.1996    202.5760   1.2049145080e+02   1.9386525282e+01    0.1753841    0.1137997  36.82 0.0009521419    1.724    0.420
        13 -10.3820    197.4127    197.8087   1.0232916542e+02   3.7675269198e+00    0.5584037    0.3351352  46.95  0.002500173    1.501    0.334
        14  -8.8376     96.2836    241.3211   1.2697526810e+02   1.4338842091e+01   0.09401764   0.08931465  34.82 0.0002710739    1.591    0.372
        15  -9.1375    208.3053    185.3511   9.7926141361e+01   3.6220116355e+00     0.226066     0.157903  14.37  0.001123253    1.741    0.426
        16 -10.3599     79.0538    181.9761   1.2360662753e+02   2.7979502698e+01     0.306869    0.2263445 -47.39 0.0008483078    1.725    0.420
        17 -10.9503     83.1728    175.8893   1.2196548278e+02   2.8644090482e+01    0.5340269    0.2501248 -50.26  0.002482739    2.445    0.591
        18 -10.7019    164.3743    237.1706   1.1466645185e+02   3.8180519588e+00    0.3893709     0.118941 -49.89  0.001577632    4.204    0.762
        19  -8.9904    184.9665    168.3332   9.9161808279e+01   1.1307925551e+01    0.2568475    0.2015395 -66.99 0.0009270484    1.598    0.374
        20 -10.7546     90.2628    166.1225   1.1906364721e+02   2.9639101854e+01    0.3968879    0.2502911  56.94 0.0004492774    1.567    0.362
        21 -12.0362     78.9154    161.7128   1.2088159477e+02   3.2267449637e+01    0.4536863    0.4137199  54.53  0.001400422    1.227    0.185
        22  -9.7003    106.8190    235.5475   1.2460610850e+02   1.3693962689e+01    0.1941187     0.145287  53.52 0.0004678429    1.151    0.131
        23  -8.8416    184.3064    234.6639   1.1075648389e+02   6.7407621107e-01     0.119692   0.08969966  69.23 0.0007040867    1.673    0.402
        24 -10.3957     95.3681    159.3163   1.1687593589e+02   3.0298047468e+01    0.4160149    0.3071067 -32.09  0.001488267    1.943    0.485
        25 -10.4684     95.5545    142.8961   1.1401191723e+02   3.3838601381e+01    0.2617854    0.2271194 -48.90  0.000542001    1.233    0.189
        26  -9.1996    107.8960    141.6298   1.1085068965e+02   3.2053132599e+01     0.401373    0.2107935 -37.42  0.001611764    2.658    0.624
        27 -11.3575     70.7657    135.1302   1.1857612732e+02   3.9197951319e+01    0.5628907    0.2953229  55.39  0.002670891    2.252    0.556
        28  -9.5348    114.5257    132.0162   1.0731757620e+02   3.2966295414e+01    0.2486102    0.2053164  23.31 0.0007571468    1.462    0.316
        29  -8.8491    106.1415    130.8649   1.0912364835e+02   3.4708201914e+01    0.2555569    0.1913666 -68.38  0.001330691    1.369    0.269
        30  -9.1065    102.3338    128.4996   1.0957369305e+02   3.5878636267e+01    0.2330353    0.2204918 -60.68 0.0006072005    1.067    0.063
        31 -11.5862     95.8979    225.7693   1.2547959733e+02   1.7060843860e+01    0.5942628    0.2910352  46.37  0.003267233    1.749    0.428
        32  -8.7450    110.0278    120.4481   1.0591683142e+02   3.6290827060e+01    0.2278702    0.1751492 -52.23 0.0006012152    1.251    0.200
        33 -12.0768    115.8370    230.8419   1.2251534711e+02   1.3055356139e+01     0.565195    0.3568061  55.73  0.003239606    1.291    0.225
        34 -12.4633    109.1248    227.0724   1.2328020795e+02   1.4776535030e+01    0.7532887    0.5514128  46.20  0.004898273    1.306    0.234
        35 -11.5070    127.4535    230.8508   1.2045129882e+02   1.1146641573e+01    0.3687352    0.2472591  63.83  0.002245661    1.363    0.266
        36 -11.7317    177.2662     40.8965   6.8158020218e+01   3.5774007603e+01    0.5453395    0.4105617 -13.55  0.001584474    1.551    0.355
        37 -12.4756    119.3685    249.1085   1.2389405331e+02   9.5325586448e+00     1.024184    0.5043316  44.87  0.005377136    1.671    0.402
        38 -10.6429    126.7590    249.0168   1.2264307017e+02   8.3675941191e+00    0.5540683    0.2385601  46.61  0.002935061    1.817    0.450
