#   1 NUMBER                 Running object number                                     
#   2 MAG_AUTO               Kron-like elliptical aperture magnitude                    [mag]
#   3 X_IMAGE                Object position along x                                    [pixel]
#   4 Y_IMAGE                Object position along y                                    [pixel]
#   5 X_WORLD                Barycenter position along world x axis                     [deg]
#   6 Y_WORLD                Barycenter position along world y axis                     [deg]
#   7 A_WORLD                Profile RMS along major axis (world units)                 [deg]
#   8 B_WORLD                Profile RMS along minor axis (world units)                 [deg]
#   9 THETA_WORLD            Position angle (CCW/world-x)                               [deg]
#  10 FWHM_WORLD             FWHM assuming a gaussian core                              [deg]
#  11 ELONGATION             A_IMAGE/B_IMAGE                                           
#  12 ELLIPTICITY            1 - B_IMAGE/A_IMAGE                                       
         1 -10.8714     82.6375     35.2721   5.6091522359e+01   5.9417604344e+01    0.8146424    0.3505971 -47.79  0.003002974    2.701    0.630
         2 -11.8064     56.9331     15.9181   5.6130967207e+01   6.7440989306e+01     1.413145    0.8858783   5.38  0.006672728    2.170    0.539
         3 -10.4518      1.9530     21.8269   8.8660249297e+01   7.2781769763e+01    0.5388172    0.1516487 -60.40  0.002343088    2.494    0.599
         4 -12.2458     45.9889      9.3035   5.7163741322e+01   7.0297486664e+01    0.2981888    0.2256061 -18.48 0.0003206009    1.149    0.130
         5 -10.8404     47.2360     27.5435   6.6573695274e+01   6.7008419865e+01    0.5313834    0.2449684 -50.72  0.002303593    2.244    0.554
         6 -10.9448     29.5650     26.8923   7.5005758347e+01   6.9412842964e+01    0.7057249     0.274552 -50.27  0.003141537    2.111    0.526
         7 -11.4964     36.8488     18.2035   6.6887840985e+01   7.0182327492e+01    0.9792964    0.5131598   5.00  0.003429542    4.822    0.793
         8 -11.8929     28.4367     18.4068   7.1511286404e+01   7.1199764710e+01    0.8643031    0.3952552 -24.62  0.003316655    3.606    0.723
         9 -11.0638     47.0056     19.7314   6.2688347825e+01   6.8451382623e+01     0.427466    0.2769334  57.00  0.002139337    2.390    0.582
        10 -11.1231      9.8664     16.2143   8.1460938599e+01   7.3429090037e+01    0.7694519    0.2162994 -45.32  0.002748272    2.656    0.623
        11 -11.9882     23.7852     12.1212   7.0780729984e+01   7.2897909160e+01    0.3784994    0.2868044 -14.40 0.0004192583    1.286    0.223
        12 -12.3721     16.0932     13.4906   7.6217600433e+01   7.3435887349e+01    0.2392091    0.1951208 -36.32 0.0002769874    1.050    0.047
        13 -11.8357    238.5155     19.2577   2.2989150489e+01   2.2619880589e+01    0.8376423    0.6302316 -63.63  0.003269206    1.318    0.241
        14 -10.3025    222.1918     17.7840   2.3902450420e+01   2.6609649237e+01    0.6033956    0.1858991 -22.68  0.002117242    3.016    0.668
        15 -12.3943    128.6166      4.8829   3.0501524139e+01   5.2380918141e+01    0.9879991    0.4180271  55.82  0.003929193    2.128    0.530
        16 -12.4544    122.1244     11.3758   3.4517847605e+01   5.3447730153e+01    0.9505908    0.5274224  14.47 0.0008554484    2.397    0.583
        17  -9.9207    116.9535      8.9215   3.4436466157e+01   5.5023446495e+01    0.3133978    0.2467104 -66.76 0.0008856376    1.513    0.339
        18 -12.4264    111.8525     18.9896   4.0150244238e+01   5.5190358628e+01    0.5907688    0.4208374   7.03  0.002835325    1.574    0.365
        19 -10.8817    153.6925      3.1273   2.6156925310e+01   4.5838778195e+01    0.5044404    0.3155682  41.79  0.001088075    1.671    0.401
        20 -11.4446    150.5886     18.3513   3.2402097074e+01   4.5193231466e+01    0.4734487    0.3257083 -24.06  0.001924863    1.436    0.304
        21 -11.3056    155.5547     14.8220   3.0316519360e+01   4.4234748225e+01    0.4426471    0.3856165  19.40  0.001111343    1.215    0.177
        22 -11.3562    155.0496      9.7281   2.8473402921e+01   4.4876665563e+01    0.7866361     0.398237  67.40  0.003297746    1.909    0.476
        23 -11.7160    100.5812     16.2035   4.1626480447e+01   5.8265410078e+01    0.4911363    0.3122318  38.13  0.001083751    1.607    0.378
        24 -11.1495     93.2968     11.0011   4.0965084283e+01   6.0592602732e+01    0.5301617    0.3673285  63.26  0.001855951    1.578    0.366
        25 -12.0139     89.7752      3.5851   3.8012713442e+01   6.2202210541e+01    0.5810407    0.4039029  53.25  0.002434281    1.412    0.292
        26  -9.4560     86.5435     16.0260   4.5485065167e+01   6.1513612835e+01    0.3860689    0.1963264 -58.68  0.001222323    4.578    0.782
        27 -10.8713     75.6353     13.3049   4.7545008051e+01   6.4213062663e+01    0.5632588    0.2551098 -34.84  0.002414276    2.079    0.519
        28 -11.3627    196.4023      2.8594   2.1677058922e+01   3.4510967527e+01    0.8468707    0.5852746  65.07  0.003966516    1.463    0.317
        29 -10.4056    188.7091      8.0120   2.4000651735e+01   3.6044490445e+01    0.4325903    0.3229745  72.80  0.002261638    1.344    0.256
        30 -12.5213    187.1037     13.6771   2.5996950426e+01   3.5917771649e+01    0.3400173    0.2932436 -58.56 0.0003645211    1.129    0.114
        31 -11.7106    182.6003     12.2468   2.6013036079e+01   3.7248506022e+01    0.5018378    0.3557996  12.15  0.001499019    1.692    0.409
        32 -11.3292    247.1113     12.8465   2.0707086762e+01   2.1335206726e+01    0.2481519    0.2107616 -39.68 0.0003168627    1.023    0.023
        33 -10.5338    143.6947     11.9836   3.1003024623e+01   4.7706045077e+01     0.555599    0.3937142 -28.57  0.001943921    1.393    0.282
        34 -11.3460    209.8907      8.7471   2.2330105906e+01   3.0537147339e+01     0.613602    0.4477483  21.35   0.00169639    1.689    0.408
        35 -11.3084    216.6605      6.4502   2.1130678072e+01   2.9074867748e+01    0.5107062    0.3043655  -6.73  0.002407672    1.958    0.489
        36  -9.9262    102.4911      8.5701   3.7418831747e+01   5.8668111811e+01    0.4132532    0.3169583  85.11  0.002126254    1.606    0.377
        37 -10.8975    106.1610      3.5177   3.4111189793e+01   5.8260013980e+01    0.6986426    0.4523386 -77.90    0.0031482    2.203    0.546
        38  -9.5718     99.0962      4.1714   3.6014202620e+01   5.9931878355e+01    0.2111789     0.168022  28.09 0.0002904964    1.208    0.172
        39 -11.2344      2.7698      4.2524   8.0276004432e+01   7.6313957508e+01    0.5453045    0.2886883 -64.27  0.002913679    2.165    0.538
        40 -10.7358      8.5154      8.4141   7.8475392201e+01   7.5076231383e+01    0.3811457    0.1857215 -39.22  0.001420511    1.671    0.402
        41 -11.5826     13.5979      3.5663   7.2171350279e+01   7.5513550339e+01    0.6066614    0.3621263  30.16  0.003642781    1.978    0.495
        42 -10.1285     34.8578      8.5971   6.2377703410e+01   7.2097562896e+01    0.3165161    0.2059728 -12.55  0.001175156    1.653    0.395
        43 -11.4740    167.6902      5.2280   2.5262576648e+01   4.1887806460e+01    0.6168237    0.4756582 -26.88  0.003137077    1.284    0.221
        44 -10.1561     77.6247      6.9858   4.3384546237e+01   6.4568896278e+01    0.3182805    0.2487691  -7.67  0.001237533    1.194    0.162
        45  -9.3618    179.2021      7.1067   2.4660990767e+01   3.8639837831e+01    0.2034226    0.1517745 -50.57 0.0004285822    1.317    0.241
        46  -9.1191    137.5165      7.7942   3.0281338861e+01   4.9760057287e+01    0.2691068    0.1297513 -27.40  0.001100774    1.991    0.498
        47  -9.0648     40.9681      5.2416   5.7049431554e+01   7.1700797952e+01    0.1637257    0.1426465   3.21 0.0002916081    1.125    0.111
        48 -10.0280    176.2171     12.1711   2.6702289791e+01   3.8953191733e+01     0.490465    0.2698498 -69.50  0.001282247    2.245    0.555
        49  -9.5332    204.2687      2.3757   2.0892130719e+01   3.2541191424e+01    0.2459998    0.1707353  -4.50  0.001246764    1.632    0.387
        50  -9.2423     33.5638      3.1343   5.9546402711e+01   7.3132006723e+01    0.2096388   0.08340728  43.24 0.0006729105    2.923    0.658
        51  -9.3512    245.9249      1.8048   1.7971750541e+01   2.2650681105e+01    0.1802033    0.1726871  28.47  0.001208543    1.262    0.207
        52  -9.2132    119.7660      2.0353   3.0765106692e+01   5.4937774476e+01    0.1966198    0.1825311  11.48  0.000440848    1.053    0.051
        53  -8.9531     25.8503      1.2640   6.2722481635e+01   7.4482302285e+01    0.2415982    0.1029079  34.25  0.001158083    2.656    0.624
        54  -8.8701     93.4569    194.7813   9.0681564760e+01   2.3751000025e+01    0.1536219    0.1084346 -50.61 0.0009469446    1.759    0.431
        55  -8.9961    157.9680    250.5563   8.5082487969e+01   6.2866719166e+00    0.1571895   0.07757398  38.99 5.076326e-05    1.488    0.328
        56  -9.1279     84.0542    250.5721   9.7317902733e+01   1.6055233053e+01    0.1507343    0.0742288  42.18 0.0003370889    1.502    0.334
        57  -8.5905     68.6137    250.5405   9.9854334653e+01   1.7919087051e+01    0.1007784   0.07005105  56.54 1.168884e-05    1.041    0.040
        58 -10.1098     15.7366    249.6069   1.0825062054e+02   2.3707513602e+01    0.1842894    0.1779257 -76.64  0.001146876    1.767    0.434
        59  -9.2762      2.1455    250.0600   1.1034039692e+02   2.4897850910e+01    0.1233616     0.098744  65.68 0.0005190729    1.328    0.247
        60  -9.2000    172.9846    191.9959   7.4720009864e+01   1.1615032941e+01    0.1518728     0.125796  31.72 0.0003889411    1.025    0.024
        61  -9.3458    164.8000    189.1989   7.5805317377e+01   1.3397293035e+01    0.1840169    0.1568938  48.57 0.0006993567    1.185    0.156
        62  -9.4995     63.0098    188.4777   9.6268201456e+01   2.9024453698e+01    0.1670546    0.1362978  74.07 0.0004841145    1.061    0.057
        63  -9.1413    132.5063    188.0233   8.1930820169e+01   1.8951081268e+01    0.1677025    0.1244252 -50.90 0.0005393923    1.550    0.355
        64  -9.3013      1.2278    184.2149   1.0847730339e+02   3.6278320387e+01    0.1954613   0.06419558 -76.19 0.0009416946    2.620    0.618
        65  -9.4321     28.2149    183.9953   1.0307704821e+02   3.3845572630e+01    0.1543851     0.130389 -87.76  0.000485296    1.267    0.211
        66  -8.4907     53.3239    183.3243   9.7826480153e+01   3.1214800610e+01    0.1034013   0.09001552 -40.09 0.0007047952    1.686    0.407
        67  -8.8147     20.9729    183.7337   1.0453190740e+02   3.4610488975e+01     0.129017    0.0833364  42.32 0.0004732673    1.476    0.322
        68  -8.6920    142.5859    180.5080   7.8768987806e+01   1.8551600886e+01    0.1258686    0.1128443  40.57 0.0001184574    1.023    0.022
        69 -10.3276    110.7383    179.4082   8.5196370265e+01   2.3982525079e+01    0.2228058    0.1943855  65.59 0.0004015664    1.061    0.058
        70  -9.6541    138.3404    178.8452   7.9368970286e+01   1.9556709916e+01    0.2031823    0.1543963  49.91 0.0003280921    1.207    0.171
        71  -8.3676      8.6944    179.6762   1.0680141519e+02   3.6534349583e+01   0.09620415    0.0755626 -61.77 0.0002862012    1.643    0.391
        72  -9.1940     34.2732    177.6337   1.0138925123e+02   3.4491687770e+01     0.173822    0.1205627 -62.00 0.0007018837    1.658    0.397
        73 -10.7994    100.9936    175.9874   8.6811373618e+01   2.6147403587e+01    0.1794449    0.1569152  62.19  0.001169017    1.010    0.010
        74  -9.1362    102.9047    173.3024   8.6030555989e+01   2.6371498193e+01    0.3277538    0.1208216  43.01    0.0012497    2.385    0.581
        75  -8.5232    128.5312    175.5484   8.0883300263e+01   2.1794801464e+01    0.1286688    0.1140651  50.51 9.402807e-05    1.006    0.006
        76  -8.3984     25.2640    174.2876   1.0306750931e+02   3.6087133264e+01   0.09706705   0.08010973 -64.29            0    1.494    0.331
        77  -9.3447    170.9662    173.2857   7.1935720236e+01   1.4788163758e+01    0.1823261    0.1499581  33.28 0.0002958927    1.084    0.077
        78 -10.8219     36.6356    172.5599   1.0050238921e+02   3.5277077974e+01     0.203345    0.1669074  83.17 0.0003767787    1.111    0.100
        79  -9.0987    118.3343    171.0309   8.2354715563e+01   2.4329405082e+01    0.2498382      0.11281 -47.48  0.001111861    2.523    0.604
        80 -10.9088     68.4082    171.2774   9.3385502163e+01   3.1752171568e+01    0.3057427    0.2312023  35.87 0.0001864902    1.440    0.306
        81  -9.2987     87.9194    171.3279   8.9057836245e+01   2.9026047668e+01     0.176139    0.1418103  50.64 0.0004040135    1.138    0.122
        82 -10.1946     54.0760    168.6345   9.6308520405e+01   3.4109790523e+01    0.2242919    0.1664407 -77.26  0.000468971    1.283    0.221
        83  -9.4307    147.9242    167.5032   7.5514900896e+01   1.9866929184e+01    0.1947205    0.1199436  42.70  0.000348406    1.477    0.323
        84  -8.9309     39.9240    168.0000   9.9409751923e+01   3.5869255505e+01    0.1791212   0.06156676  33.12 0.0008006985    2.930    0.659
        85 -10.0121     10.3430    163.3849   1.0561526745e+02   3.9709155176e+01    0.1870949    0.1507992  65.12 0.0006200182    1.160    0.138
        86  -8.9315     28.3168    163.6501   1.0165302353e+02   3.7996587178e+01    0.1288548   0.06670553  66.40 0.0007047547    1.732    0.423
        87  -9.4649    113.9024    159.0421   8.1431168782e+01   2.7398716994e+01    0.1955923    0.1771792  62.04 0.0003376073    1.009    0.008
        88 -10.0933     10.5973    155.8554   1.0511820630e+02   4.1280208894e+01    0.2332036    0.1045381  50.16  0.001316964    1.903    0.475
        89 -10.6589     80.6166    152.2110   8.8149065725e+01   3.4081435487e+01    0.2229489    0.1942661  64.42 0.0002535118    1.064    0.060
        90  -9.0883    175.1290    150.8080   6.6805519615e+01   1.7664521828e+01    0.1889205    0.1535793   8.79 0.0004501384    1.312    0.238
        91 -10.8122    125.4438    147.6321   7.6792623271e+01   2.7662989490e+01    0.3135169     0.247051  85.15  0.001465868    1.514    0.339
        92  -9.9539     17.5431    149.8651   1.0310995258e+02   4.1979779538e+01    0.2489337    0.1395957  24.32  0.001431786    2.270    0.559
        93 -10.6940     36.6780    144.5798   9.8004781866e+01   4.1307271017e+01    0.4080178    0.2001875 -82.80  0.002069703    1.899    0.473
        94 -10.2817     30.9582    146.9719   9.9645632409e+01   4.1358019326e+01    0.1945049    0.1598349  70.61  0.000326568    1.096    0.088
        95 -10.3705     11.7054    145.5098   1.0419160921e+02   4.3434497276e+01     0.235005     0.162165 -76.61 0.0005238004    1.289    0.224
        96  -8.8213     18.2875    145.6719   1.0261806940e+02   4.2837821549e+01    0.1253583   0.06894641  68.59 0.0002580212    1.614    0.380
        97 -10.2881      2.1192    143.5012   1.0635410904e+02   4.4623068789e+01    0.3334702    0.1515217 -82.09 0.0009480691    1.758    0.431
        98  -9.6355     44.4293    141.5735   9.5732664519e+01   4.1143358285e+01    0.2573198    0.1853629  46.44  0.001343268    1.383    0.277
        99 -10.5365     21.1110    141.7023   1.0160746866e+02   4.3471649047e+01    0.3305941    0.1352667  46.61  0.001522059    2.214    0.548
       100 -11.4586     28.6472    139.1414   9.9485133479e+01   4.3346633754e+01    0.5005891    0.2376313 -80.46   0.00134922    1.851    0.460
       101  -9.5375     12.0706    139.5494   1.0367942926e+02   4.4727828334e+01    0.1542835    0.1061867  40.70 0.0005220102    1.537    0.349
       102 -10.7779     38.2390    137.0334   9.6806109313e+01   4.2855524289e+01    0.3011798    0.2445341 -18.73  0.001862965    1.874    0.466
       103 -11.7215     15.0120    131.7226   1.0231811252e+02   4.6257012531e+01    0.5732974     0.261926 -65.41  0.002109317    1.912    0.477
       104  -9.2982     11.9798    129.0069   1.0288436986e+02   4.7121716989e+01    0.1805538    0.1377794  82.77  0.000343721    1.041    0.039
       105  -9.6404    145.1861    135.0159   6.9751835235e+01   2.6399232563e+01    0.2003621    0.1951055  36.90 0.0003808761    1.007    0.007
       106  -8.3730     74.2853    134.2464   8.6998658276e+01   3.8993116628e+01     0.117668     0.104132 -29.53 0.0002073038    1.464    0.317
       107  -9.7375     46.9765    136.2610   9.4442797777e+01   4.2067088509e+01    0.2123349     0.156884 -80.00 0.0003612071    1.180    0.152
       108 -11.1680     23.9089    126.4263   9.9463224594e+01   4.6713556818e+01    0.4977657    0.2661222 -75.61  0.002725247    1.552    0.356
       109 -11.2135     48.9489    126.6914   9.2651317614e+01   4.4061037719e+01     0.428302    0.2766667  23.06  0.001486287    2.029    0.507
       110 -10.8864     45.6122    124.7493   9.3301623648e+01   4.4902449549e+01    0.3410708    0.2254443 -80.07 0.0009131379    1.345    0.256
       111  -8.3454     37.6415    126.2358   9.5695291357e+01   4.5422493940e+01    0.1286398   0.08025804  63.37  0.000321309    1.583    0.368
       112 -10.6700    229.8359    122.9773   5.0854376814e+01   1.1208198342e+01    0.5444395    0.3262765 -44.89   0.00263694    1.953    0.488
       113 -10.1596     32.0842    123.1247   9.6851396766e+01   4.6717299010e+01    0.3438515    0.1916849 -46.48  0.001753653    2.198    0.545
       114 -10.0269      1.7978    123.6407   1.0516322812e+02   4.9092414836e+01    0.2297031    0.1367038 -60.03 0.0008185106    1.682    0.405
       115 -10.8900     93.9963    122.9644   7.9727512633e+01   3.8486982121e+01    0.2157487     0.201081  73.38            0    1.053    0.050
       116  -8.9165     59.7047    123.2242   8.9153626596e+01   4.3547682222e+01    0.2088381    0.1470247  89.25 0.0005711261    1.413    0.292
       117 -10.7620     11.4988    122.0445   1.0242229861e+02   4.8763589216e+01    0.3228407     0.238604  47.57  0.001429629    1.419    0.295
       118 -11.7374      4.5640    116.4699   1.0386368530e+02   5.0557177767e+01    0.5485016    0.2367493  44.10  0.002033425    2.266    0.559
       119 -11.4509      2.3996    111.8821   1.0409828978e+02   5.1767336259e+01    0.3649017     0.320408   6.32  0.001018686    1.586    0.370
       120  -9.5118     83.3150    119.2778   8.1881656465e+01   4.1072908126e+01    0.2334532    0.2092136 -44.81 0.0006272934    1.239    0.193
       121 -10.1929     59.1569    118.5652   8.8541804146e+01   4.4718639208e+01    0.3576183    0.1751529  48.00 0.0007236731    2.119    0.528
       122 -10.6791     45.6362    109.0833   9.0934924795e+01   4.8631394763e+01    0.3182454     0.234605  45.35  0.001615992    1.450    0.310
       123 -10.5347     45.8480    117.4498   9.2184875898e+01   4.6604398300e+01    0.3503743    0.2241519 -39.61  0.001796055    2.053    0.513
       124  -9.5080     44.1956    113.6354   9.2087955069e+01   4.7701620834e+01    0.2180378    0.1861708 -89.82 0.0005570948    1.039    0.037
       125 -10.4130    232.9651    117.1040   4.8997528322e+01   1.1410031865e+01    0.2182508    0.1866345   8.27 0.0003446331    1.101    0.092
       126  -9.8666     67.1554    117.2010   8.6021088889e+01   4.3964362022e+01    0.3068554    0.2197172  44.34  0.001669004    1.456    0.313
       127  -9.0032     30.6593    117.3137   9.6543114375e+01   4.8229291600e+01    0.1347941   0.08067259  68.91 0.0007047129    1.701    0.412
       128  -9.5043     26.7535    116.4223   9.7557362833e+01   4.8806912569e+01    0.1482156    0.1255772   5.60 0.0009543746    1.637    0.389
       129  -9.7809     38.0095    114.9862   9.4102699980e+01   4.8047363564e+01    0.2143506    0.1310575  67.92  0.001122116    1.726    0.421
       130  -9.8783     12.0068    115.2338   1.0165565613e+02   5.0314190894e+01    0.1756465     0.139794 -68.33 0.0004382383    1.231    0.188
       131  -9.8151    245.9805    113.2818   4.6198531059e+01   9.4287136350e+00    0.2582773    0.1570859 -12.46  0.001296766    1.634    0.388
       132  -8.9627     80.9935    112.5079   8.1154133154e+01   4.3011664019e+01    0.1919287    0.1396053  39.22 0.0003682875    1.479    0.324
       133  -8.9418     62.5138    112.5102   8.6504144062e+01   4.5713036685e+01    0.1371878    0.1202331 -80.50 0.0003632841    1.002    0.002
       134 -10.4359     34.7922    108.8599   9.4181428001e+01   4.9844392705e+01    0.4871261    0.2087822 -72.36  0.001841156    2.031    0.508
       135  -9.0589     33.7245    103.6912   9.3738514537e+01   5.1195609067e+01    0.1802302    0.1582209  82.45  0.000382608    1.113    0.101
       136 -10.9938     21.2995    109.5391   9.8331334567e+01   5.0923397913e+01    0.3206511    0.2571756  74.83  0.002104852    1.162    0.140
       137  -9.9241     17.4680    107.4318   9.9232439629e+01   5.1738950719e+01    0.2938812    0.1241288 -89.02  0.001030999    2.428    0.588
       138  -9.1669    118.9421    107.9755   6.9730064947e+01   3.7214393084e+01    0.2248359    0.2066356  56.66  0.001222892    1.107    0.096
       139  -9.6692     72.2536    107.7975   8.2709353765e+01   4.5454970368e+01    0.2387832    0.1743235  52.80 0.0007592069    1.437    0.304
       140 -10.9620     65.6070    105.0334   8.4129321577e+01   4.7070106033e+01    0.4452752    0.3607149 -89.97  0.001793376    1.223    0.183
       141  -9.0178     12.0393    107.4967   1.0086900286e+02   5.2137298946e+01    0.1548618    0.1213791  31.06  0.000631283    1.557    0.358
       142  -8.5898    131.5466    105.5630   6.5924605121e+01   3.5130781437e+01    0.1486783    0.1441477 -73.99 0.0001611809    1.036    0.035
       143 -10.4189     76.2798    104.0509   8.0708801915e+01   4.5730594459e+01     0.245787    0.2263946  67.52 0.0002384932    1.121    0.108
       144 -11.2567     80.8841    103.0777   7.9119978096e+01   4.5233608919e+01    0.3067108    0.2817023 -29.23 -0.0009232552    1.258    0.205
       145  -9.5164    118.0147    103.1975   6.8746261639e+01   3.8429178329e+01    0.2512335    0.2033648  22.49 0.0003855561    1.482    0.325
       146  -8.7558    106.2167    103.3778   7.1955288622e+01   4.0706095588e+01    0.1860203    0.1378353  56.19 0.0001643298    1.443    0.307
       147 -10.2552     57.3181    104.0623   8.6468752694e+01   4.8420195203e+01    0.3196577    0.2076278 -66.08    0.0010644    1.364    0.267
       148 -11.3992     44.4306    100.8986   8.9907122627e+01   5.0742275541e+01    0.4133892    0.3392415  73.16  0.001988059    1.225    0.183
       149 -10.8877     50.3743     96.0964   8.7093704562e+01   5.1209576620e+01    0.3857282    0.2234166 -31.04 0.0009736368    2.710    0.631
       150 -10.4495     52.8118    100.4672   8.7175854201e+01   4.9856192076e+01    0.2867271    0.1872678 -46.46  0.001113222    1.608    0.378
       151 -11.6666    101.6313     97.9056   7.1820801144e+01   4.2795007254e+01    0.2570773    0.2458237 -70.28 0.0002007319    1.018    0.018
       152 -10.3363     70.0744     96.5737   8.0913130268e+01   4.8439005315e+01    0.3562115    0.3087031 -63.49  0.001403815    1.045    0.043
       153  -8.9816    106.8670     97.8243   7.0333410583e+01   4.1811531492e+01    0.1964461    0.1689287  87.64 -0.000430966    1.286    0.223
       154 -10.0134     96.7121     95.7919   7.2673119347e+01   4.4185502252e+01    0.3576892    0.2084133 -54.85  0.001572305    1.657    0.397
       155 -10.3486     61.3534     97.2178   8.3805202980e+01   4.9527087374e+01    0.3223548    0.2241312  81.06  0.001041164    1.712    0.416
       156 -11.4823    116.2843     93.5247   6.6584407489e+01   4.0859602685e+01     0.345884    0.2704148  51.15  0.001714437    1.335    0.251
       157 -11.1935     29.9956     93.2248   9.3273618754e+01   5.4085909783e+01    0.4748409    0.2280557 -45.22 0.0003473394    2.333    0.571
       158 -12.0135     34.7807     89.8600   9.1074402792e+01   5.4441339691e+01    0.3562962    0.2377441 -79.20            0    1.359    0.264
       159 -10.7639     28.0940     85.0995   9.2518612524e+01   5.6229728013e+01    0.5136583    0.2448148  40.42   0.00251053    2.320    0.569
       160  -9.7138     16.2097     95.0128   9.8089784613e+01   5.4812459386e+01    0.1872341    0.1664913  80.45 0.0004279765    1.165    0.141
       161  -9.0807     80.5230     94.1303   7.7081301213e+01   4.7382533722e+01    0.2918358     0.179175  56.18  0.001320779    1.923    0.480
       162 -10.3268     46.1420     93.8790   8.8036208427e+01   5.2246055847e+01    0.2142737    0.1653848  79.98 0.0008915775    1.347    0.257
       163 -10.0405      5.1891     93.8392   1.0153127529e+02   5.5849157686e+01    0.3492182     0.199576   1.78  0.001791369    2.685    0.628
       164 -10.3237    126.4092     91.3397   6.3302315731e+01   3.9175025283e+01     0.255185    0.2435787 -85.15 0.0003153594    1.089    0.082
       165  -9.5537     92.3141     91.5619   7.2837647267e+01   4.5944027883e+01    0.2592492    0.1417748  47.12  0.000976712    1.963    0.491
       166  -9.7414     56.2630     89.4778   8.3744542540e+01   5.2062746048e+01    0.3498721    0.2167646  74.10  0.001579355    2.262    0.558
       167 -10.7374     86.6248     86.9295   7.3298261140e+01   4.8009683660e+01    0.4119016    0.3549027 -42.22 0.0007088829    1.153    0.133
       168  -9.7637     50.8248     89.1224   8.5487144501e+01   5.2837483116e+01    0.1991449    0.1666157 -82.07 0.0002981682    1.130    0.115
       169  -9.7617     13.1947     88.4803   9.8213111294e+01   5.6604663049e+01    0.2301912    0.1435455  72.56 0.0005867648    1.658    0.397
       170  -9.7666    139.0967     87.1494   5.8918971571e+01   3.7189523035e+01    0.2472322    0.2060466 -41.52 0.0002479194    1.162    0.140
       171  -9.8976    120.8448     87.5973   6.3657511677e+01   4.1151602013e+01     0.321133    0.2586296  78.26 9.778717e-05    1.508    0.337
       172 -10.1090    116.0024     84.9358   6.4162801230e+01   4.2740166352e+01    0.2826065    0.2317117 -67.68 0.0003077488    1.344    0.256
       173  -8.5000    111.7282     88.2810   6.6325729697e+01   4.2920487532e+01    0.1455846    0.1173768 -82.07 0.0002022475    1.496    0.331
       174 -10.6455    131.2242     85.9228   6.0482723819e+01   3.9215737011e+01    0.2495841    0.2369587  54.25 0.0002937704    1.092    0.085
       175  -9.9443    102.7121     85.1307   6.7957545342e+01   4.5415196587e+01    0.3012969    0.2289968 -50.65 0.0006725789    1.247    0.198
       176  -8.4513    124.6249     84.6767   6.1791201831e+01   4.0933331252e+01    0.1609581    0.1222146   5.97 0.0007028454    1.820    0.451
       177 -10.9095     83.4605     74.6315   7.0699252432e+01   5.1340959976e+01    0.3400832    0.2734901 -44.35 0.0005423037    1.159    0.137
       178 -11.1175     76.5790     82.2296   7.5181352833e+01   5.0788613450e+01    0.5434206    0.4039286  28.33  0.002782455    1.601    0.376
       179 -10.5140     71.0129     82.1417   7.6990320267e+01   5.1694781822e+01    0.2534401    0.2043098 -55.77 0.0002546829    1.113    0.101
       180 -10.1018     73.0164     77.0711   7.4894039790e+01   5.2551501051e+01    0.2833701     0.186048 -55.92 0.0005619933    1.393    0.282
       181 -10.9714     77.5874     74.7257   7.2663934935e+01   5.2334372850e+01    0.4606884    0.3856476  63.83  0.001647667    1.366    0.268
       182  -9.8742     20.2898     82.0734   9.4759088540e+01   5.7621807525e+01    0.2776804    0.2254628 -71.28  0.001181105    1.031    0.030
       183  -9.1313     13.2331     83.4404   9.7483046216e+01   5.7815643565e+01     0.193737    0.1275355   5.28  0.001114675    2.136    0.532
       184  -8.7581      1.6923     83.0108   1.0147049246e+02   5.8635335683e+01    0.1656594    0.1203874 -80.58 0.0002431816    1.064    0.060
       185  -8.9981    143.4285     81.7456   5.6256320108e+01   3.7227954006e+01    0.2025857    0.1475804 -24.23 8.892854e-05    1.485    0.327
       186  -8.3586    120.7039     82.2336   6.2075767802e+01   4.2291746006e+01    0.1435808    0.1189899 -89.40            0    1.466    0.318
       187  -9.7740    104.6378     79.6274   6.5735815577e+01   4.6220280886e+01    0.4088203    0.1939915 -46.53  0.001355085    1.994    0.498
       188 -10.9117    104.6562     74.1593   6.3996823028e+01   4.7374677747e+01    0.4971995    0.3763812  82.90 0.0009827537    1.810    0.448
       189  -9.5306     92.1186     80.4425   6.9730738734e+01   4.8476714702e+01    0.2732355    0.2190647 -76.55 0.0007146674    1.431    0.301
       190  -9.7831     54.0005     80.9396   8.2491547507e+01   5.4398911730e+01    0.2093912    0.1811271 -57.69 0.0004240804    1.052    0.050
       191  -9.3365     45.1460     80.5426   8.5528520050e+01   5.5579399825e+01    0.3143913    0.1944594  60.89   0.00153387    2.051    0.512
       192 -10.6143    101.9751     68.9927   6.3078095259e+01   4.9002509696e+01    0.3251404    0.2232848 -38.79            0    1.393    0.282
       193  -8.3852    154.7481     79.3276   5.2964284900e+01   3.4981525403e+01     0.155326      0.11751 -61.35 0.0002238353    1.548    0.354
       194  -9.2023    121.7845     78.0300   6.0474375951e+01   4.2909835811e+01    0.2116251    0.1850624 -41.18 0.0003285749    1.095    0.087
       195 -10.1921     60.4041     76.5343   7.9093108899e+01   5.4575412115e+01    0.3324685    0.2383859 -19.39 0.0008777922    1.929    0.481
       196  -8.9921      3.2971     78.2932   1.0031364429e+02   5.9672655381e+01     0.157557    0.1509748 -87.44 0.0002806153    1.252    0.201
       197 -10.3069      4.7206     75.6669   9.9436710793e+01   6.0220139706e+01    0.3475733    0.1952918 -79.37  0.001063457    1.435    0.303
       198 -10.1811     35.0524     51.3359   8.1620386069e+01   6.3553457898e+01    0.2319732    0.1622116 -56.01 0.0002880928    1.192    0.161
       199 -11.2810     30.7734     53.7412   8.4224623182e+01   6.3443709294e+01     0.614004    0.3896688  77.25  0.001661511    2.469    0.595
       200  -9.4446     26.9087     56.1937   8.6591416113e+01   6.3241768990e+01    0.1940586    0.1804944 -23.80 0.0005792374    1.232    0.188
       201 -11.1818     47.3472     73.8598   8.3099477670e+01   5.6914744730e+01    0.6571587    0.3983649  67.88  0.002834097    2.454    0.593
       202 -10.2736     48.2905     66.5320   8.0759733658e+01   5.8522615323e+01    0.2730055    0.2493638  21.68  0.001241194    1.287    0.223
       203 -11.0678     41.6198     65.2176   8.2989276748e+01   5.9624827045e+01    0.8255236     0.369729 -52.98  0.003489848    1.837    0.456
       204 -10.1607     33.1585     71.9432   8.7976053195e+01   5.8926530318e+01    0.2414463    0.2045045 -55.08 0.0002976522    1.103    0.093
       205 -10.6012     35.1302     67.4017   8.6120704015e+01   5.9810832503e+01    0.4678574     0.218946 -68.16  0.001790408    2.014    0.504
       206 -10.6597     33.4466     62.4842   8.5530702139e+01   6.1142859678e+01    0.3720231    0.2986195  -9.74  0.001466856    1.550    0.355
       207 -11.2530     17.2442     71.2546   9.3969530426e+01   6.0461243584e+01    0.4396806    0.2201241 -55.76  0.001277116    1.636    0.389
       208  -8.5150     11.4800     75.4269   9.6887803512e+01   5.9862293793e+01     0.126212   0.09813792 -66.59 0.0002912552    1.078    0.072
       209  -8.5169    136.2526     74.3715   5.5635619896e+01   4.0313530198e+01    0.2570285    0.1569833 -30.46 0.0005306325    1.700    0.412
       210  -9.5539    140.1752     72.5912   5.4122780836e+01   3.9715963273e+01    0.2459982    0.2061412 -47.20 0.0002968695    1.185    0.156
       211 -11.1092    136.9565     69.5170   5.3874991511e+01   4.1053612152e+01    0.2996173    0.2613293 -25.82 0.0003023899    1.138    0.121
       212  -9.8638     56.8456     72.6987   7.9305664630e+01   5.5966383421e+01    0.3330243     0.177128 -41.55  0.000915519    1.954    0.488
       213  -8.8688    117.5305     72.9273   5.9963920004e+01   4.4877109211e+01    0.2177184    0.1463473 -39.78 8.605749e-05    1.422    0.297
       214  -8.6552    128.8484     70.8041   5.6295264390e+01   4.2724620459e+01    0.2023751    0.1754723 -67.47 0.0002465795    1.276    0.216
       215  -9.9936     97.0410     69.6430   6.4789749628e+01   4.9865926243e+01    0.3572551    0.2051122 -40.76  0.001084121    1.658    0.397
       216  -9.7819     63.7974     70.1128   7.6044004612e+01   5.5572959898e+01    0.3225152     0.242913 -79.95  0.001188633    1.569    0.363
       217  -9.9481     89.8204     67.1897   6.6229177688e+01   5.1792179196e+01    0.3784448     0.231833 -60.00  0.001624159    1.900    0.474
       218 -10.0506     90.6746     62.1420   6.4204542609e+01   5.2686186400e+01    0.4433278    0.3230363  86.82  0.001325105    2.129    0.530
       219  -9.9247     91.5974     57.8247   6.2343460561e+01   5.3385002357e+01    0.3408129    0.2936908  89.73  0.001425955    1.430    0.301
       220 -10.0553     95.4830     56.0384   6.0445296194e+01   5.2953237760e+01    0.4505028    0.3560975  88.85  0.002181234    1.741    0.426
       221 -10.2620      2.5194     66.5211   9.8932188235e+01   6.2520936103e+01     0.465619    0.2447851 -87.30  0.002475054    1.765    0.433
       222 -11.8317     70.5051     63.9761   7.1695463485e+01   5.5909324395e+01    0.4123389    0.3628706  66.87 0.0005167061    1.323    0.244
       223 -10.0798     76.8635     65.9521   7.0121926810e+01   5.4410138705e+01    0.3014885    0.2139168  46.84 0.0008228942    1.573    0.364
       224  -8.9746      9.9652     66.6448   9.5987738075e+01   6.2062686630e+01    0.2549478    0.1549875  68.49   0.00139164    1.943    0.485
       225  -8.7430    121.3240     66.2900   5.6709756114e+01   4.5324330631e+01    0.1609052    0.1506979 -56.46 0.0003159135    1.091    0.083
       226  -8.9229    119.0033     63.9975   5.6529686063e+01   4.6292500184e+01    0.2128405    0.1767635 -63.67            0    1.346    0.257
       227  -9.2371    116.2400     60.9890   5.6207938142e+01   4.7492543770e+01     0.328116    0.2589196  86.11 0.0009255504    1.658    0.397
       228 -11.1954    110.9900     65.8611   5.9384621574e+01   4.7721774464e+01    0.2761607    0.2315061 -32.85 0.0002954658    1.156    0.135
       229  -9.9055    108.2266     62.7760   5.9087519017e+01   4.8931815292e+01    0.3252498    0.2437085 -24.94 0.0008174863    1.421    0.296
       230  -9.8840     58.6286     66.1718   7.6737319154e+01   5.7227068142e+01    0.3795149     0.249601  22.41   0.00138424    1.952    0.488
       231 -11.8512     60.0192     57.4011   7.3359123336e+01   5.8994605833e+01    0.6393766    0.4466666  54.04  0.003274397    1.786    0.440
       232  -8.9148    130.8757     74.8743   5.7121033918e+01   4.1472645359e+01    0.2204971    0.2008465  -3.65  0.000327274    1.177    0.150
       233  -9.9022    194.6525     63.0514   4.0551182126e+01   2.7788245045e+01    0.4909927    0.2895736   3.38  0.001216891    2.691    0.628
       234  -9.6137    153.0455     63.1824   4.8149316977e+01   3.8224197169e+01    0.3200549    0.2147562 -20.51 0.0006802746    1.623    0.384
       235 -10.8606    147.1151     61.6380   4.8898566792e+01   3.9968221213e+01     0.271013    0.2312239 -48.16 0.0003852538    1.181    0.153
       236 -12.9008    150.7880     57.6900   4.6764539601e+01   3.9705306099e+01    0.3778333    0.3378331  -7.83  0.000468511    1.157    0.136
       237  -9.9702     83.1265     63.1252   6.7030457184e+01   5.3908038755e+01    0.2346558    0.1936658 -46.87 0.0003688799    1.113    0.101
       238 -10.0523    219.0175     59.2989   3.6001412837e+01   2.2429363109e+01    0.3246573    0.1848211 -25.65  0.000586057    1.612    0.380
       239 -10.2437    101.3151     59.9397   6.0098995540e+01   5.0970411109e+01    0.4518499    0.3275323  11.93  0.001551068    1.909    0.476
       240  -8.7899     10.1597     61.3622   9.4923218765e+01   6.3307119231e+01    0.1497107     0.110305  40.74 0.0004859636    1.637    0.389
       241  -9.6959      4.0985     59.2537   9.7073576523e+01   6.4159752966e+01    0.1802379    0.1330431 -55.56 0.0004093759    1.190    0.160
       242 -10.3643      8.8865     56.3779   9.4464835301e+01   6.4563918292e+01    0.4102605    0.2135702 -34.32 0.0008725607    2.226    0.551
       243 -10.2727    161.3655     55.5974   4.3936353187e+01   3.7343802767e+01    0.4660464       0.2956 -19.90  0.001163904    1.701    0.412
       244 -10.0036     81.1060     43.7744   6.0322735197e+01   5.8183984933e+01    0.4258547    0.2933569  15.62  0.001966404    1.959    0.490
       245 -11.6038     79.4535     55.4322   6.5514695802e+01   5.6190880231e+01    0.6325691    0.3574991  35.02  0.002004653    2.067    0.516
       246 -11.4245     84.5174     49.4049   6.1450035686e+01   5.6444848861e+01    0.5452862    0.4703646   2.00   0.00177882    1.271    0.213
       247 -10.3604     90.5798     44.0314   5.7253056470e+01   5.6239803096e+01    0.3798352    0.2543077  30.94 0.0008718491    1.738    0.425
       248 -10.4521     91.1113     40.1575   5.5443380837e+01   5.6820804723e+01    0.3589377    0.2727302  23.30  0.001795067    1.495    0.331
       249 -10.3589    246.0867     55.7260   3.1887069144e+01   1.6796977204e+01    0.2389722    0.1835266 -30.61 0.0002486276    1.107    0.097
       250  -9.1426    239.1830     56.1461   3.2738666360e+01   1.8245177306e+01    0.1966622     0.146581 -47.49 0.0007211854    1.306    0.235
       251 -10.2392    200.7156     54.8876   3.7202956641e+01   2.7445515066e+01    0.3243366    0.2693695 -10.63 0.0006688309    1.232    0.188
       252 -10.1441    201.3407     50.0939   3.5678364333e+01   2.7940436377e+01    0.3091646    0.2515469  83.93  0.001569253    1.381    0.276
       253  -9.7184    184.8532     54.2736   3.9402130685e+01   3.1520753849e+01    0.3728068    0.1898284 -45.94  0.001042405    2.036    0.509
       254 -10.8019    121.9156     48.3622   5.0015481000e+01   4.8421920380e+01     0.326605    0.2816048  85.88 0.0003497826    1.365    0.267
       255 -10.7875    128.0486     53.4661   5.0410478831e+01   4.6070098526e+01    0.3866807    0.3006689  49.12 0.0008790285    1.325    0.245
       256 -10.4460    126.8667     49.8918   4.9366522036e+01   4.6964678406e+01    0.2313271    0.2169727 -41.36   0.00122466    1.061    0.058
       257  -9.5540     45.1236     48.7666   7.6384049815e+01   6.2948729943e+01    0.2761964     0.144786 -35.47  0.001236608    2.089    0.521
       258  -8.5361    135.7156     53.6947   4.8669208687e+01   4.4148912914e+01      0.15525    0.1198684  13.90 0.0002820225    1.562    0.360
       259  -9.1624     69.5126     53.4989   6.8365791481e+01   5.8333213192e+01    0.2611349    0.1432407  40.54 0.0007939981    2.032    0.508
       260 -10.4417     32.7296     45.4444   8.0725469249e+01   6.5123686722e+01    0.5781315    0.2717867 -35.15  0.002509706    2.504    0.601
       261 -10.4657     23.8423     50.7992   8.6448880712e+01   6.4764448515e+01    0.2344631    0.1858471 -47.07 0.0003322353    1.127    0.113
       262  -9.9361     26.5182     47.5763   8.4273488671e+01   6.5260635474e+01     0.250648    0.1934191 -77.68  0.001203438    1.377    0.274
       263  -9.7730      5.9725     51.3161   9.4694401183e+01   6.5921750837e+01    0.2794072    0.1929534  53.38  0.001712073    1.780    0.438
       264 -10.5275      1.9581     51.5399   9.6557930345e+01   6.6082971438e+01    0.9656597    0.1689547 -45.76  0.003127593    5.126    0.805
       265 -10.0154     63.7541     49.0513   6.8864298542e+01   6.0207896819e+01     0.341275    0.2556722 -77.67 0.0009835511    1.876    0.467
       266 -10.8635    211.9923     49.4983   3.4101575586e+01   2.5396392161e+01    0.3786851    0.2654486  72.56  0.001416493    1.605    0.377
       267 -10.5545    176.0321     55.3461   4.1199561174e+01   3.3618060934e+01     0.465618    0.2827887 -52.03   0.00100897    1.842    0.457
       268 -11.7998    137.4300     47.2012   4.5896743143e+01   4.4777398353e+01    0.3883393    0.3104747 -56.63 0.0008085644    1.371    0.270
       269  -9.6452    106.0325     50.2026   5.5027474481e+01   5.1790873729e+01    0.2991251    0.2127369 -88.21   0.00126501    2.254    0.556
       270  -8.6899     73.1993     50.3994   6.5826829142e+01   5.8342224698e+01    0.1718031    0.1386626  55.85 0.0002450242    1.475    0.322
       271  -8.9895     55.4227     49.7552   7.2443472995e+01   6.1332545363e+01    0.1982726    0.1127053 -40.45  0.000928276    1.622    0.384
       272 -10.6850    246.3221     48.0832   2.9882905345e+01   1.7664119228e+01      0.31925    0.2418946   3.81  0.001060677    1.508    0.337
       273  -8.8955    111.4416     49.5502   5.3245924175e+01   5.0682658710e+01    0.1511832    0.1430517 -30.25  7.77599e-05    1.021    0.021
       274  -9.3282    213.8722     58.1569   3.6351035309e+01   2.3799621677e+01    0.2274628     0.179662 -45.33 0.0007258021    1.226    0.184
       275  -9.3918    232.9494     48.1695   3.1282963343e+01   2.0624910501e+01    0.2202549    0.1658938 -50.65 0.0004964974    1.306    0.235
       276  -9.2599    151.5387     47.0002   4.2869246242e+01   4.1196406779e+01    0.2448524    0.1491172 -28.62  0.001032556    1.599    0.375
       277 -12.1118    163.2469     42.3823   3.9067540115e+01   3.8812663092e+01    0.3637499    0.3112196 -68.92 0.0002692952    1.270    0.213
       278 -10.7652    108.8533     43.3454   5.1490248374e+01   5.2350423862e+01    0.3347064    0.2682864  62.75 0.0004016288    1.397    0.284
       279 -10.9353     54.3336     36.8412   6.7692137884e+01   6.4158879905e+01    0.3413409    0.2768557 -58.06 0.0003808876    1.355    0.262
       280 -11.9825     57.0590     41.7399   6.8627427472e+01   6.2762011618e+01    0.4368019    0.3408794  18.38 0.0003420445    1.483    0.326
       281 -11.3278     62.9373     37.6045   6.4459718742e+01   6.2635763873e+01     0.604448    0.4415936  62.27 0.0008429673    1.935    0.483
       282 -10.0784    141.6048     42.9821   4.3424044329e+01   4.4363180268e+01    0.4148161    0.2090959  51.98  0.000707612    1.974    0.493
       283  -9.1078    147.0024     41.4507   4.1755046700e+01   4.3194439340e+01    0.2276408    0.1527413  62.02 0.0003356343    1.545    0.353
       284 -10.9519     17.9777     41.4299   8.6431523968e+01   6.7386375338e+01    0.3490856    0.2142247 -67.71  0.001214287    1.477    0.323
       285  -9.2540     97.9564     41.6245   5.3936446537e+01   5.5095631264e+01    0.1940894    0.1842164  36.58  0.001079448    1.114    0.102
       286  -8.8378    218.1810     41.6074   3.1085143191e+01   2.4891285257e+01    0.1868598    0.1310225  53.88 0.0005111682    1.548    0.354
       287  -8.8526    204.5534     41.5172   3.2678582757e+01   2.8250662820e+01    0.1492091    0.1327039 -43.95 6.027011e-05    1.061    0.057
       288  -9.4971     28.4674     40.8543   8.1135900587e+01   6.6576176340e+01    0.2723377    0.1658715 -33.44  0.001091643    1.693    0.409
       289  -9.2265     27.2869     36.7703   8.0230595588e+01   6.7584501418e+01    0.2815599    0.1636993  17.82  0.001479457    2.177    0.541
       290  -9.8869    230.6667     39.5252   2.9164147844e+01   2.2187605715e+01    0.2674656     0.208942 -44.31 0.0006194313    1.169    0.145
       291  -9.1836     76.2828     40.0677   6.0452433456e+01   5.9796935530e+01    0.2118452    0.1707034 -39.83  0.001141899    1.153    0.132
       292 -10.0300     43.9734     39.1812   7.3246329193e+01   6.5149314457e+01    0.2509991    0.1587325 -44.97 0.0004498009    1.336    0.251
       293 -11.5318    140.2773     37.8551   4.1764044052e+01   4.5456675434e+01    0.2896556    0.2557315 -25.55 0.0002059723    1.104    0.094
       294 -10.1885    127.4792     37.6077   4.4450014458e+01   4.8758571172e+01    0.4221518    0.2936817  60.88  0.001956622    1.509    0.338
       295  -9.7845    219.7176    247.0200   7.4854562686e+01  -1.7248986853e+00    0.1467928    0.1055356  21.18 0.0008506693    1.036    0.035
       296  -9.3506     85.9539     33.6445   5.4238549575e+01   5.9014845695e+01    0.2352473    0.1843114 -17.89 0.0004112191    1.259    0.206
       297  -8.9983     77.2998     29.2994   5.5170166749e+01   6.1493803415e+01    0.1890975    0.1560674 -48.00 0.0002658207    1.316    0.240
       298 -10.4364     80.8167     26.5807   5.2633649630e+01   6.1221939266e+01    0.3726199    0.2997543  40.85  0.001576222    1.301    0.231
       299 -11.0363     72.1047     36.6714   6.0489752398e+01   6.1200675267e+01    0.4975305    0.3180587   0.56  0.001746441    2.512    0.602
       300  -9.9286      2.6456     38.1425   9.3215518130e+01   6.9136645486e+01    0.2621951    0.1853034  19.61 0.0008098474    1.786    0.440
       301 -10.5082    201.9153     37.3422   3.1742796129e+01   2.9432720284e+01    0.2729172    0.2211563 -39.22 0.0003759051    1.144    0.126
       302  -8.4478    148.7060     38.3005   4.0259317812e+01   4.3199830999e+01    0.1565061    0.1145196 -60.04 0.0003891459    1.570    0.363
       303 -10.1147    241.0832     36.3840   2.7314295265e+01   2.0177115190e+01    0.2584408    0.1700758 -35.17 0.0003147633    1.289    0.224
       304 -10.4710    194.0948     36.4309   3.2447536677e+01   3.1538620600e+01    0.3791427    0.2517832 -53.29  0.001265324    1.568    0.362
       305  -9.2762    182.1469    247.1473   8.0769736947e+01   3.3327436278e+00    0.2081195   0.09425484  34.12  0.001243413    1.719    0.418
       306 -11.3593     40.3919     33.1442   7.2370329208e+01   6.6853685117e+01    0.3381909    0.2890138 -13.13  0.002118219    1.204    0.170
       307  -9.2232    161.2989    247.3212   8.4183868011e+01   6.1993618426e+00    0.1023697   0.06963692  17.96 0.0003274432    1.623    0.384
       308  -8.6385     76.9899    246.9792   9.8243864726e+01   1.7432494336e+01    0.1235852   0.08728714  52.96 0.0003551718    1.013    0.013
       309  -9.6734      4.6843    246.1578   1.0985506464e+02   2.5259361510e+01    0.2483228   0.08372699  45.69  0.001665486    1.875    0.467
       310 -11.3383     35.0115     27.5038   7.2479171141e+01   6.8656248737e+01    0.4579446    0.2874821 -32.25  0.001376783    1.497    0.332
       311 -10.7596    106.2107    244.2023   9.3114141938e+01   1.4119817432e+01    0.2359693    0.1926691  65.56 0.0008130363    1.217    0.178
       312 -10.3346     29.9098    244.7206   1.0584151963e+02   2.3049184751e+01    0.1987063    0.1232418  65.79 0.0005318432    1.187    0.157
       313  -8.5804    223.6370    245.2997   7.4029561587e+01  -2.0831087518e+00   0.09240436   0.07221606  45.42 0.0007034721    1.722    0.419
       314  -9.9425    165.8654    243.4036   8.2987962381e+01   6.0148139679e+00    0.1868769    0.1384876  51.10 0.0006721668    1.402    0.287
       315 -10.4260    247.8018    240.9519   6.9829111841e+01  -4.8038567917e+00    0.1974987     0.123581 -25.92  0.001488627    1.862    0.463
       316  -9.8465      5.2980     15.9947   8.4271035014e+01   7.3803193831e+01    0.2021768    0.1483246 -47.68 0.0003088357    1.039    0.037
       317  -9.9524     41.8987    241.9690   1.0377066375e+02   2.2214944453e+01    0.2202739    0.1214091  87.88  0.001295112    1.798    0.444
       318  -9.6726     52.1318    238.6531   1.0189499704e+02   2.1600721288e+01    0.1622458    0.1405503  68.06 0.0005323606    1.300    0.231
       319  -8.8080     32.9497     37.4832   7.7728538650e+01   6.6836901820e+01    0.1595193    0.1296497  20.95 -0.0001451445    1.442    0.307
       320  -9.5393    161.6558     35.6970   3.6990755007e+01   4.0141042143e+01    0.3309664    0.2428299 -73.54  0.001524145    1.628    0.386
       321 -11.1656    246.5618     32.5569   2.5829402522e+01   1.9390929170e+01     0.444282    0.2427237 -39.58  0.001415901    1.540    0.351
       322 -10.6244    169.7569     33.8485   3.5038538991e+01   3.8233346843e+01    0.3256331    0.2743217 -22.50 0.0005458558    1.170    0.145
       323  -9.3632    106.7807     34.8711   4.8509800915e+01   5.4206107999e+01    0.2162298    0.1871784   5.45 0.0003181997    1.189    0.159
       324 -10.2353    153.6242     31.7756   3.6946016945e+01   4.2781631343e+01    0.5546451    0.2922651  61.86  0.001378825    1.895    0.472
       325  -9.7180     97.0684     33.1514   5.0527808481e+01   5.6696813542e+01    0.2069192    0.1978728 -15.21 0.0002811357    1.049    0.046
       326  -9.1138     16.7994     32.8608   8.4183106300e+01   6.9379411551e+01    0.1934578    0.1345724 -43.02 0.0005023233    1.210    0.173
       327 -11.2696    236.4575     29.7756   2.5967668868e+01   2.1965520381e+01      0.52697    0.4067702 -23.94  0.002077132    1.196    0.164
       328  -9.1421      4.8140    238.8273   1.0963733958e+02   2.6383336361e+01    0.1347993   0.09902928  63.87 0.0007449102    1.157    0.136
       329 -11.2618    132.0892     29.5351   4.0192055680e+01   4.8721839319e+01    0.3816644    0.2795992 -13.99  0.001815702    1.422    0.297
       330 -10.3737     18.0088     48.9140   8.8588759936e+01   6.5677971136e+01    0.3828882    0.2580238 -59.59  0.001130662    1.173    0.147
       331  -9.5499    215.9296     29.1184   2.7728027793e+01   2.6909378489e+01     0.246644    0.1920771 -29.84   0.00073111    1.174    0.148
       332  -9.7297    110.3480     29.4259   4.5193039098e+01   5.4172668119e+01     0.274811    0.2581824 -50.42 0.0009036214    1.146    0.128
       333 -10.1878    179.5099     28.4965   3.1808434728e+01   3.6306370176e+01    0.2542368    0.2446232  75.70 0.0005515389    1.067    0.063
       334  -9.1235     69.4028     29.1850   5.8022331989e+01   6.3027473323e+01    0.2054665     0.119565 -45.33  0.000948416    1.736    0.424
       335  -9.7116     66.1951     25.8508   5.7620999715e+01   6.4182639774e+01    0.4021086    0.2626455 -38.29  0.001444299    1.410    0.291
       336 -10.5486     16.1060     27.8183   8.2677160885e+01   7.0521610537e+01    0.4074754     0.269096 -38.12  0.002458953    1.329    0.247
       337  -9.5666    115.2312     34.3502   4.6065033930e+01   5.2271296041e+01    0.4361438    0.1295814 -37.11  0.001377741    3.074    0.675
       338  -9.9698    207.0125     25.4782   2.7575006141e+01   2.9533424986e+01    0.2683197    0.1991897 -20.52 0.0005281797    1.320    0.243
       339  -9.9689    183.5657     25.2715   3.0207477818e+01   3.5610089724e+01    0.2820763    0.1906459 -45.45  0.001315978    1.443    0.307
       340  -9.4311    121.3340     26.3386   4.1202474635e+01   5.1888474540e+01    0.2835381     0.192067  64.20 0.0009730727    1.565    0.361
       341 -10.1702     72.9998     25.3663   5.4796698069e+01   6.2978634401e+01     0.264097    0.2495272  23.28 0.0007553754    1.147    0.128
       342  -9.4945     76.0500     22.1183   5.2059283830e+01   6.2880824444e+01     0.329971    0.2401669 -45.94  0.001447703    1.506    0.336
       343 -10.1314     99.1387     23.4397   4.5471370991e+01   5.7664896660e+01    0.3770995    0.2796676  39.78  0.001915272    1.361    0.265
       344 -10.1415    224.6272     23.1269   2.5192028846e+01   2.5461373064e+01    0.3203517     0.228857  62.69 0.0008416788    1.515    0.340
       345  -9.4235     15.0413    237.9986   1.0798150857e+02   2.5563906121e+01    0.1192102    0.1117694 -81.99 0.0006222203    1.663    0.399
       346  -9.9665    212.2823     22.7996   2.6247727139e+01   2.8508929898e+01    0.3343139    0.2410211  -6.00  0.001152756    1.542    0.352
       347 -10.1878    158.7587     22.7902   3.2795134285e+01   4.2506113251e+01    0.2989793     0.231688  46.39 0.0006468105    1.319    0.242
       348 -10.4409    164.3561     22.1274   3.1722303524e+01   4.1081063052e+01    0.4829179    0.2957646  40.64  0.001978186    1.795    0.443
       349  -9.5008    168.6791     21.2923   3.0816033942e+01   4.0016237680e+01    0.2214919    0.1975245 -55.18 0.0002760171    1.120    0.107
       350 -10.3048    179.4805     21.5599   2.9487431400e+01   3.7105973479e+01    0.3759987    0.2956633 -60.70  0.001764337    1.310    0.237
       351  -9.7493    142.9966     21.2991   3.4808014030e+01   4.6887194474e+01    0.2134919    0.1968933  64.24 0.0007635556    1.095    0.087
       352  -9.7553    125.5075    237.0137   8.9139150498e+01   1.2495382747e+01    0.1746914    0.1173092  43.03 0.0007389949    1.132    0.117
       353 -12.0064    119.3640    230.9405   8.9604782519e+01   1.4205302385e+01    0.3367849    0.2569144 -50.14 0.0004009843    1.710    0.415
       354 -10.3672    121.8194    224.7157   8.8522614248e+01   1.4762911188e+01    0.2609406    0.1667081 -70.62  0.001616762    2.104    0.525
       355  -8.6485     98.7587    237.0160   9.3782376508e+01   1.6127052617e+01    0.1114398   0.08744107 -78.77 0.0003159597    1.517    0.341
       356  -9.2087    248.8834     22.3320   2.3009198419e+01   1.9980526800e+01    0.1713059    0.1571264 -78.02 0.0008667164    1.181    0.153
       357  -8.7513    187.9480     21.9955   2.8602732073e+01   3.4823729116e+01    0.1755245    0.1582459 -32.97 0.0003495843    1.066    0.062
       358  -8.7457     92.8043     22.6520   4.6911800157e+01   5.9221898511e+01     0.198942    0.1388631  67.32 0.0009497259    1.757    0.431
       359  -8.7272    197.8235    235.5931   7.6780954930e+01   2.3734115878e+00    0.1450581   0.08217372  43.12 0.0004835029    1.569    0.363
       360  -8.7566     89.3032    235.3080   9.5286828582e+01   1.7613979435e+01   0.09217196   0.07916959  19.23 0.0002612213    1.604    0.376
       361  -9.5627     27.9707    234.2173   1.0572157563e+02   2.4893678456e+01    0.1670225   0.08821484  58.80  0.001207087    1.345    0.257
       362  -9.7344      5.2653    234.4040   1.0944065435e+02   2.7044780805e+01    0.1675803   0.08069276  32.73  0.001141304    2.184    0.542
       363  -9.3714    131.6240     19.5527   3.6187368025e+01   5.0085358605e+01     0.377322    0.1523299  68.15  0.001323191    2.717    0.632
       364  -8.8846     68.9925     18.9410   5.2967891085e+01   6.4754435751e+01    0.1710521    0.1374674 -22.90 0.0004166922    1.121    0.108
       365  -9.7005    159.5085    242.9620   8.3992766236e+01   6.9596206965e+00    0.1281853    0.1075291 -36.71  0.001023823    1.566    0.361
       366 -11.6006    140.5500    227.1933   8.5451105744e+01   1.1698640876e+01    0.2320754    0.1713799  41.57 0.0003148053    1.058    0.055
       367  -9.3544     19.6257    227.6914   1.0685135969e+02   2.6787766203e+01    0.1480547    0.1098885 -68.65 0.0007799267    1.754    0.430
       368 -10.5119    193.4973     16.7826   2.6315285967e+01   3.3929050701e+01    0.2717333    0.2361936 -80.12 0.0003044184    1.160    0.138
       369  -8.9289    197.3077     16.6548   2.5880681139e+01   3.2955015544e+01    0.2379274    0.1392015 -55.11 0.0007090953    1.770    0.435
       370 -10.6689     23.5775    224.2360   1.0603787076e+02   2.6973553998e+01    0.2045506    0.1853063  64.63 0.0001638611    1.437    0.304
       371  -8.7441    160.9722    225.0430   8.1602581400e+01   8.9715883569e+00    0.1327044    0.1084637  34.78 0.0004607186    1.045    0.043
       372  -9.6716     98.0228    225.2899   9.2879247662e+01   1.7993451044e+01    0.1591092    0.1162471  48.99 0.0005356108    1.065    0.061
       373  -9.8876      7.5275    225.0143   1.0878429069e+02   2.8373674076e+01    0.1357013   0.07631855  87.33 0.0005447525    1.538    0.350
       374 -12.0370     77.1990    219.1856   9.6150048061e+01   2.1718015469e+01    0.7004485    0.3945425  34.25  0.003616327    1.776    0.437
       375 -11.6036     73.0070    213.5045   9.6464023681e+01   2.3208770588e+01    0.6170074    0.3257012  39.34  0.003750045    1.647    0.393
       376 -11.2422    108.2386    220.2007   9.0526045335e+01   1.7375885168e+01    0.3439341    0.1840297  49.21  0.001079658    1.521    0.342
       377 -11.5546    118.7670    216.2397   8.8161448242e+01   1.6483446309e+01    0.3854887    0.2877265  86.30  0.002600219    1.645    0.392
       378  -9.1449    132.8729     13.6980   3.3512300568e+01   5.0403844471e+01    0.2017165    0.1883089  63.82  0.000447286    1.081    0.075
       379  -8.7399    201.2645     12.6290   2.4251962731e+01   3.2344663669e+01      0.15515   0.09073581 -49.95  0.000427307    1.660    0.398
       380  -9.4479     11.9982    216.9939   1.0774579934e+02   2.9321343382e+01    0.1228261   0.08387368  70.88 0.0003313033    1.083    0.076
       381  -9.4192     99.6866    215.7997   9.1670407362e+01   1.9271401241e+01    0.1483821    0.1400526 -65.95 0.0006992515    1.353    0.261
       382 -11.1524     91.2888    214.4087   9.3109683089e+01   2.0652935000e+01    0.4159172    0.1758257  42.35  0.002240558    1.876    0.467
       383 -11.5191    148.8873    210.7966   8.1925967378e+01   1.2762288079e+01    0.2583437    0.2298492   0.60 0.0004075605    1.307    0.235
       384  -9.4753     23.4947    213.0436   1.0555334885e+02   2.8903239093e+01    0.1633955    0.1383546  34.08 0.0009458158    1.577    0.366
       385  -8.7910     42.0312    219.4832   1.0256521164e+02   2.5849258103e+01    0.1454465   0.08364829  42.57 0.0003492062    1.468    0.319
       386  -9.3736     38.4672    210.7229   1.0270769737e+02   2.7761045729e+01     0.135451   0.08878451 -70.07 0.0008982447    1.696    0.411
       387  -8.8752    209.1193    210.1464   7.1262124771e+01   3.5248521169e+00    0.1411057    0.1237873  31.01 0.0003851104    1.294    0.227
       388  -8.7720     42.0131    208.0189   1.0188572154e+02   2.7856242231e+01    0.1313074   0.09765012  67.83 0.0003951779    1.036    0.035
       389 -10.5308    123.5365     30.8811   4.2614290685e+01   5.0718121544e+01    0.4346912    0.2962111  29.64  0.001484272    1.669    0.401
       390  -9.5753    193.4256    206.7925   7.3393909451e+01   6.3312908349e+00    0.1560785     0.104543 -16.22 0.0009602041    1.731    0.422
       391 -11.2063     90.0801    204.5811   9.2384817878e+01   2.2487342345e+01    0.4340982    0.2664656  86.59  0.001988431    1.975    0.494
       392  -9.8259     73.6629    205.2738   9.5640344795e+01   2.4558721722e+01    0.2597752     0.179654  27.58  0.001655885    1.783    0.439
       393  -8.7493     61.5398    206.5056   9.8078464332e+01   2.5860692712e+01    0.1119647   0.08747702  62.70 0.0001980661    1.025    0.025
       394 -11.2068     11.4222    202.4138   1.0727808770e+02   3.1962455697e+01    0.2517075    0.1590194  70.62  0.001259661    1.163    0.140
       395  -9.3515     17.6469    202.2881   1.0612294802e+02   3.1403444069e+01    0.1155897   0.05286713  60.05 0.0004799853    1.671    0.401
       396  -9.7712    135.8653    198.6247   8.2751380736e+01   1.6662161280e+01    0.2387955    0.1740138 -62.14  0.001077128    1.680    0.405
       397 -10.7536    167.1562    198.1496   7.6758452973e+01   1.1686753632e+01    0.2088227     0.182702  24.03 0.0002764626    1.073    0.068
       398 -10.0435     58.0591    196.6793   9.7976780233e+01   2.8078540341e+01    0.2033701    0.1416502  65.99  0.000433747    1.178    0.151
       399 -10.1443    103.5992    194.3105   8.8581215660e+01   2.2360151652e+01      0.27792    0.2195801 -14.59  0.001687676    2.042    0.510
