#   1 NUMBER                 Running object number                                     
#   2 MAG_AUTO               Kron-like elliptical aperture magnitude                    [mag]
#   3 X_IMAGE                Object position along x                                    [pixel]
#   4 Y_IMAGE                Object position along y                                    [pixel]
#   5 X_WORLD                Barycenter position along world x axis                     [deg]
#   6 Y_WORLD                Barycenter position along world y axis                     [deg]
#   7 A_WORLD                Profile RMS along major axis (world units)                 [deg]
#   8 B_WORLD                Profile RMS along minor axis (world units)                 [deg]
#   9 THETA_WORLD            Position angle (CCW/world-x)                               [deg]
#  10 FWHM_WORLD             FWHM assuming a gaussian core                              [deg]
#  11 ELONGATION             A_IMAGE/B_IMAGE                                           
#  12 ELLIPTICITY            1 - B_IMAGE/A_IMAGE                                       
         1 -11.4442    244.3582     30.1696   4.8021309430e+01   2.0740882552e+01    0.6822092    0.1978683 -34.85  0.002659582    2.578    0.612
         2  -8.7319    125.9923     11.5204   5.6824650465e+01   5.2498813704e+01    0.2317242    0.1922138 -21.56 0.0005402523    1.195    0.163
         3 -10.1980    161.5923      9.9326   5.0445962760e+01   4.3156495958e+01    0.4385338    0.2071119 -48.29  0.001693151    2.333    0.571
         4  -9.4127    111.4467      5.5985   5.7092756518e+01   5.6883109871e+01    0.3076853    0.2898754 -47.19  0.001750618    1.154    0.134
         5  -8.9541     15.0000      2.9614   9.7599090496e+01   7.5706091781e+01    0.2109987   0.05894362 -52.42 0.0008095739    2.992    0.666
         6  -8.9939    182.0379      2.0001   4.5343830773e+01   3.8440319042e+01    0.1734524    0.1638011 -87.91 0.0007745542    1.059    0.056
         7  -8.0949      6.3700      2.1867   1.0384939733e+02   7.6574207254e+01    0.1673168    0.1013601 -65.55 0.0009354558    1.724    0.420
         8  -8.5412    185.4679    210.5191   9.6887445894e+01   8.7008401096e+00    0.1140338   0.08861622  26.04 0.0001904704    1.034    0.033
         9  -8.0321    115.6989    250.3033   1.1346194540e+02   1.3204596603e+01     0.100392   0.05960239  53.90 0.0003154762    1.590    0.371
        10  -9.6083    149.0419    204.7175   1.0268690061e+02   1.4791412899e+01    0.3956709    0.2172802  56.67  0.002045414    2.497    0.600
        11  -9.9625    123.9968    205.9796   1.0762154771e+02   1.8225542558e+01    0.1639012    0.1331551  41.26            0    1.010    0.010
        12  -9.8365    249.7519    199.9539   8.4837173306e+01   8.1335740413e-01    0.3175189   0.07163071 -32.66  0.001320702    4.650    0.785
        13 -10.3235    232.4836    193.9912   8.6499583044e+01   3.7633269783e+00    0.3056187    0.1407714 -34.41  0.001699536    2.468    0.595
        14  -8.4005    207.3215    190.6509   9.0068729186e+01   7.8191790358e+00     0.102116   0.09378796  62.95 0.0007048845    1.742    0.426
        15  -9.3580    130.1596    189.7973   1.0438702972e+02   1.9853839192e+01    0.2453458    0.1641587  49.99 0.0008437249    1.403    0.287
        16  -9.6912    248.7016    181.3666   8.1837573665e+01   2.7551308951e+00    0.2329728    0.1825628 -70.18  0.001172215    4.560    0.781
        17  -8.4260    205.5204    181.4626   8.8828270672e+01   9.2019419771e+00    0.1230143   0.09618261  15.64 0.0001376791    1.039    0.038
        18  -8.6049     43.2701    172.9908   1.2124391717e+02   3.4369024221e+01    0.1429923   0.09023381 -81.79 0.0008938081    1.527    0.345
        19  -8.8088    229.8386    168.4184   8.2416946055e+01   6.9480192628e+00    0.3033335    0.2258624  21.15 0.0009592703    1.133    0.117
        20 -10.8350    221.2635    166.8650   8.3526207656e+01   8.4851375649e+00    0.5837322    0.4773838  67.99  0.003545032    2.192    0.544
        21  -8.5552     88.1594    170.1934   1.1084820983e+02   2.9450670781e+01    0.1756722     0.127398  61.92 0.0006729908    1.322    0.243
        22  -9.4052     70.0182    169.3013   1.1486995189e+02   3.2018443853e+01    0.2237451    0.1445514  70.52 0.0006481454    1.580    0.367
        23  -8.5267    111.2747    167.3556   1.0527552024e+02   2.6614799753e+01    0.1786042    0.1030043  45.33 0.0006586772    1.550    0.355
        24  -8.4339    190.4322    164.1839   8.8429460660e+01   1.3943641183e+01    0.1631626    0.1192501 -43.46  0.000687419    1.674    0.403
        25 -10.2387    249.1065    154.4054   7.6748613616e+01   5.5327233844e+00    0.2376406    0.1555474 -24.62  0.001476546    1.435    0.303
        26  -8.3705     50.0195    149.5242   1.1758774870e+02   3.8490629623e+01    0.1842924   0.07195827  52.20 0.0008096354    2.502    0.600
        27 -10.4248    238.3177    134.8582   7.4365973451e+01   9.5377082980e+00    0.2046388     0.176492  38.67  0.001334246    1.383    0.277
        28 -10.5178    207.3913    131.7018   7.8725758263e+01   1.5497278806e+01    0.4600381    0.2247778 -31.67  0.002122834    1.981    0.495
        29  -9.6383    155.3210    125.8313   8.7651044545e+01   2.6584237960e+01    0.2832932    0.1249463 -48.06  0.001091283    2.588    0.614
        30  -9.1600     74.9776    125.8109   1.0787532056e+02   4.0617031559e+01    0.2573605    0.1875777 -79.05 0.0009807076    1.392    0.282
        31  -9.5432    119.9599    121.8505   9.5123075719e+01   3.4139987329e+01    0.3832985    0.2168115 -59.74  0.001661584    2.095    0.523
        32 -10.1772    250.0611    113.7113   6.8018085599e+01   1.0036507513e+01    0.2565117    0.1637879 -14.28  0.001226392    1.370    0.270
        33  -9.3680    244.2849    111.2447   6.8259777374e+01   1.1357258941e+01    0.2652684    0.1255269 -42.52  0.001169953    2.557    0.609
        34  -8.8443    192.5040    111.4577   7.6685504004e+01   2.1423239370e+01    0.2510882     0.121149 -42.65  0.001026623    2.252    0.556
        35 -10.3738    184.4592    105.9644   7.6829148641e+01   2.3973412055e+01    0.5512767    0.4022892  81.76  0.001550994    2.253    0.556
        36  -8.9398    238.2841    103.8630   6.7388340348e+01   1.3371797205e+01    0.2541249    0.1899386  38.19 0.0009250615    1.402    0.287
        37  -9.9787     47.3623    103.2024   1.1237036465e+02   4.9396966409e+01    0.4343535    0.2187807 -73.38  0.001150558    1.902    0.474
        38 -10.2858    246.0345     96.7412   6.4635132739e+01   1.2793722739e+01    0.3798948    0.2642641 -65.21  0.001914676    2.479    0.597
        39  -9.0028    131.1462     97.9635   8.6521108466e+01   3.6823171977e+01    0.2233051    0.1986688 -83.03 0.0004769735    1.303    0.232
        40  -9.8855    213.5024     88.3627   6.7221787303e+01   2.0389225742e+01    0.3807487    0.2249882 -44.31  0.001757237    1.855    0.461
        41  -8.2145    158.3220     92.3279   7.8559535073e+01   3.2000689611e+01    0.1567856    0.1156582   9.72 0.0007048505    1.690    0.408
        42  -9.9718    243.2643     81.5713   6.1313113001e+01   1.5159287532e+01    0.4548682    0.0426043 -32.34  0.001207084    5.401    0.815
        43  -8.2478    197.3560     83.2413   6.8471957447e+01   2.4654186376e+01    0.2121436    0.1220518 -37.72 0.0006091667    1.672    0.402
        44  -9.6111    121.6351     80.6819   8.4109266264e+01   4.2306375013e+01    0.3038291    0.2893917  81.83 0.0008699337    1.134    0.118
        45  -8.4158     16.6248     78.8092   1.1926423201e+02   5.8105512067e+01    0.1827852    0.1021198 -85.65 0.0009408992    1.642    0.391
        46 -10.5623    249.6506     75.5717   5.9054359966e+01   1.4624781091e+01    0.2589211    0.2082865 -12.45 0.0005022319    1.074    0.068
        47  -8.8389    183.8356     71.1271   6.7363310044e+01   2.9583964791e+01    0.2297525    0.2002505 -42.35  0.001216049    1.175    0.149
        48 -10.2151    206.5370     68.2336   6.2831269307e+01   2.4697165015e+01    0.5017697    0.3425318 -73.55  0.002262702    2.218    0.549
        49  -9.2590    141.3730     68.0542   7.5113545584e+01   4.0252595242e+01     0.427166    0.2860373 -69.06  0.001718313    2.294    0.564
        50  -9.5192     47.5830     63.3538   1.0385622159e+02   5.8975402730e+01     0.292142    0.2248646 -79.34 0.0007582948    1.375    0.273
        51  -8.4970    249.5300     58.4918   5.4807711917e+01   1.6610588308e+01    0.1333515    0.1119615 -20.65 0.0008098638    1.006    0.005
        52  -9.7959    107.8104     57.6010   8.0413842705e+01   4.9866268752e+01    0.2628326    0.2339957 -48.53 0.0003131121    1.133    0.117
        53  -9.0598    228.3213     57.6749   5.6984209276e+01   2.1162505148e+01     0.144215    0.0959537 -51.79 0.0003033205    1.682    0.405
        54  -8.4165    197.6566     59.3431   6.1606338787e+01   2.7979842075e+01    0.1567882    0.1066438 -57.47 0.0007047099    1.786    0.440
        55  -9.2961    177.6362     53.3225   6.2972383471e+01   3.3705752063e+01    0.2449892     0.234097 -14.65 0.0003534572    1.009    0.009
        56  -9.2052    122.1080     49.3588   7.3362593388e+01   4.8116530665e+01    0.2682676    0.2145415 -18.28 0.0008582616    1.290    0.225
        57  -9.6543    226.4460     42.3748   5.3021096740e+01   2.3372521446e+01    0.3306707     0.160689 -44.97   0.00143259    2.053    0.513
        58  -8.7651     73.4902     42.9081   8.6379771255e+01   5.9636446729e+01    0.2135988    0.1327381 -44.76 0.0004177259    1.491    0.330
        59 -10.6707    147.8563     41.0166   6.4289078590e+01   4.3041872128e+01    0.4873243    0.3497548 -76.42  0.002068287    1.873    0.466
        60  -8.9679     96.1192     39.0946   7.6780376055e+01   5.5846257436e+01    0.2314883    0.2161871 -34.55  0.001275552    1.070    0.065
        61  -8.7662    194.9851     38.7711   5.5750641654e+01   3.1283815962e+01    0.1905847    0.1222796  64.95  0.000675844    1.659    0.397
        62  -9.4357    179.6110     36.5748   5.7214583373e+01   3.5441926641e+01    0.3062626    0.2673001 -82.14  0.000821058    1.264    0.209
        63  -8.8777    173.5787     35.8880   5.7903181430e+01   3.7081796452e+01    0.3017415    0.2006211 -87.45  0.001311455    1.960    0.490
        64  -9.1012    162.1399     35.7187   5.9715569135e+01   4.0073722534e+01    0.2850147    0.1961109 -37.48  0.001195028    1.412    0.292
        65 -11.2844    214.0138    239.0124   9.6062104306e+01   1.8465653976e+00    0.5664397    0.3875052  33.82  0.004406096    1.311    0.237
        66  -9.3857    226.6975     30.5382   4.9713976113e+01   2.4614613949e+01    0.2361472    0.1662609 -12.43  0.001242768    1.403    0.287
        67  -8.3548    118.2002     30.0888   6.6642454778e+01   5.2140409298e+01     0.198855    0.1731941 -55.76 0.0004312518    1.271    0.213
        68 -10.0029    213.1539     26.8202   5.0001319629e+01   2.8188089949e+01    0.5357252    0.1971696 -24.23  0.002039587    2.417    0.586
        69  -8.9757    195.9589     26.3410   5.1746364833e+01   3.2475248098e+01    0.2875095    0.1778583 -47.29  0.001330773    1.624    0.384
        70  -9.2206    127.5882     23.7861   6.1781103314e+01   5.0632867438e+01    0.2205457    0.1311732 -37.00 0.0009466949    1.661    0.398
        71 -10.5234    245.0039     20.8259   4.5538103454e+01   2.1531336163e+01    0.3858033    0.1744874 -23.27  0.001496247    1.898    0.473
        72  -8.5396    225.6708     14.3160   4.5285002949e+01   2.6482000118e+01     0.146425    0.0861152 -52.00 0.0007045663    1.679    0.404
        73  -8.7745    105.9717     14.0223   6.2452714693e+01   5.7320346661e+01    0.2254483    0.1697905 -56.23 0.0004069151    1.598    0.374
        74  -9.8773    177.0477    241.0685   1.0224785774e+02   6.4228212623e+00    0.2486725    0.1751176  32.74   0.00103334    1.084    0.077
        75 -10.0530    209.8770    224.4055   9.4755647370e+01   3.7839279264e+00    0.2132929    0.1763637 -34.22  0.001678205    1.748    0.428
        76  -9.7851    153.1255    225.2839   1.0448877676e+02   1.1469877555e+01    0.1856539    0.1145359  26.45  0.001209668    1.456    0.313
        77  -8.7936    181.6770    223.3217   9.9283247206e+01   7.7490969838e+00    0.1011149   0.07745639  52.15 0.0007046238    1.678    0.404
        78  -8.5242    120.4864    218.5136   1.0966562302e+02   1.6855722538e+01    0.1117839   0.08732328  40.59 0.0001045452    1.010    0.010
