#   1 NUMBER                 Running object number                                     
#   2 MAG_AUTO               Kron-like elliptical aperture magnitude                    [mag]
#   3 X_IMAGE                Object position along x                                    [pixel]
#   4 Y_IMAGE                Object position along y                                    [pixel]
#   5 X_WORLD                Barycenter position along world x axis                     [deg]
#   6 Y_WORLD                Barycenter position along world y axis                     [deg]
#   7 A_WORLD                Profile RMS along major axis (world units)                 [deg]
#   8 B_WORLD                Profile RMS along minor axis (world units)                 [deg]
#   9 THETA_WORLD            Position angle (CCW/world-x)                               [deg]
#  10 FWHM_WORLD             FWHM assuming a gaussian core                              [deg]
#  11 ELONGATION             A_IMAGE/B_IMAGE                                           
#  12 ELLIPTICITY            1 - B_IMAGE/A_IMAGE                                       
         1 -11.4866     66.7928     14.6926   3.3142792527e+01   6.4487197726e+01    0.2934611     0.144034 -23.64  0.001347729    2.077    0.519
         2 -12.4918     74.9279     14.3951   2.9968723449e+01   6.3108881141e+01    0.2646506    0.2314822 -73.82  0.001559033    1.798    0.444
         3 -11.1425     99.3372     10.6162   2.0378088733e+01   5.8674232044e+01     0.199342    0.1628565 -58.23 0.0006356242    1.666    0.400
         4 -11.0047     55.5828     11.2103   3.5963585207e+01   6.6770832894e+01     0.178537    0.1035682 -21.79 0.0009376325    1.625    0.384
         5 -12.5381     82.4066      9.0535   2.4830599468e+01   6.2377337261e+01     0.417094    0.2315852  60.40   0.00187176    2.412    0.585
         6 -12.0185     90.2922      5.3686   2.0583032012e+01   6.1193751632e+01    0.5336738    0.2659133 -48.94  0.002071121    3.495    0.714
         7 -10.6767    114.4115      7.1990   1.4946397596e+01   5.5591937495e+01    0.1778931    0.1270921 -31.71 0.0002855916    1.504    0.335
         8 -10.6534    103.5150      7.4553   1.7809030107e+01   5.8091250143e+01    0.1403303    0.1212221  23.48 3.616664e-05    1.016    0.016
         9 -11.5355    122.0991      5.0469   1.2285362496e+01   5.3943863418e+01    0.2109388    0.1860739  30.85 0.0002906906    1.026    0.025
        10 -12.3375    100.2009      2.4811   1.6432283454e+01   5.9339949654e+01    0.4235629     0.201955  50.13  0.001922443    1.855    0.461
        11 -11.0971    144.2797      2.0253   6.8074154954e+00   4.8578161767e+01    0.1863745    0.1752218  21.91 0.0002798446    1.088    0.081
        12 -11.3755    167.4449    242.9634   6.1231010781e+01   4.2766501926e+00    0.1753313    0.1196302  41.44 0.0003750338    1.086    0.079
        13 -12.5644    245.3049    249.7741   4.9207079434e+01  -8.2542868600e+00    0.1966073     0.139157  25.63 0.0004500238    1.082    0.076
        14 -11.9086    237.3243    248.8475   5.0342139580e+01  -7.0391676441e+00    0.2645898    0.1931784 -12.51  0.002017723    1.525    0.344
        15 -11.6665    124.7666    250.0105   6.9287125394e+01   9.8971768091e+00    0.1558882    0.1270931  34.85    0.0011909    1.351    0.260
        16 -12.4041    114.5370    249.4990   7.0957204488e+01   1.1459942299e+01    0.2087729    0.1334973  51.51 0.0006858709    1.146    0.128
        17 -12.5620     99.0470    248.5893   7.3462360729e+01   1.3783195175e+01    0.2538717    0.2131373 -20.37   0.00121281    2.211    0.548
        18 -11.3923     84.8883    250.5581   7.5940273837e+01   1.5415382552e+01    0.2835105   0.08011565  40.81  0.001366906    2.796    0.642
        19 -10.2971     66.2841    250.3007   7.8911344959e+01   1.7837490404e+01   0.08275869   0.07469068  46.90 0.0002904012    1.552    0.356
        20 -10.3916     55.5623    250.5677   8.0614883658e+01   1.9096969708e+01    0.1007534   0.06997089  61.13 0.0002419266    1.028    0.027
        21 -13.4616     45.9667    222.2903   8.0489326182e+01   2.4767441354e+01    0.7622779    0.6478661 -66.52  0.006222631    1.631    0.387
        22 -13.6380     34.9503    227.3971   8.2623780364e+01   2.5133457549e+01    0.4551965    0.3284533 -85.30  0.003692938    1.377    0.274
        23 -12.8001     26.8455    223.2112   8.3732365220e+01   2.6696297325e+01    0.3194019    0.1651603  56.16  0.001206781    1.417    0.294
        24 -13.8318     11.2426    194.5672   8.4947045990e+01   3.3301219981e+01    0.3513603    0.2544372  64.50  0.002090154    1.131    0.116
        25 -14.4876      7.9165    185.4969   8.5084739996e+01   3.5295758052e+01     1.092081     0.427783  58.09  0.006453302    2.075    0.518
        26 -13.7040      7.6426    202.4285   8.5944653482e+01   3.2189161642e+01    0.5344319    0.3087345  45.57  0.003969786    1.568    0.362
        27 -14.8830     15.8666    212.7252   8.5034258932e+01   2.9598446503e+01    0.8332351    0.6087303  51.31  0.006855954    1.338    0.252
        28 -17.3446      9.6475    235.4272   8.6964201414e+01   2.6384853637e+01      1.75297     1.097646  87.16   0.01465102    1.342    0.255
        29 -14.8199      3.8196    211.7436   8.6972948186e+01   3.0881915024e+01    0.4703904     0.218158  71.58  0.003218012    1.642    0.391
        30 -11.2133     60.8940    242.3700   7.9275292783e+01   1.9714066444e+01    0.1656233    0.1022174  73.55 0.0007100563    1.384    0.278
        31 -12.1758    199.1521    241.3543   5.5591790383e+01  -5.3518039851e-01    0.2144683    0.1468866  35.17 0.0003173476    1.074    0.069
        32 -11.3195    143.0070    242.1044   6.5360266295e+01   8.2147251832e+00    0.1730983    0.1259077  45.74 0.0003062015    1.023    0.023
        33 -12.7169    117.9228    240.4924   6.9539379986e+01   1.2250483640e+01     0.184452    0.1400104  49.93 0.0004227087    1.055    0.052
        34 -11.3535    114.4939    240.5122   7.0133367826e+01   1.2753857990e+01    0.1805744   0.07730754  49.34 0.0008728261    1.784    0.439
        35 -12.9734    107.1910    239.8394   7.1328832560e+01   1.3917472505e+01    0.2542139    0.2017989 -46.04     0.001075    1.860    0.462
        36 -10.8703     70.5124    240.4345   7.7573479937e+01   1.8817834976e+01    0.2145349    0.1703455 -62.19  0.001307589    1.741    0.425
        37 -12.7190     70.3507    235.5039   7.7252214902e+01   1.9617608555e+01    0.3677667    0.2684644 -38.28  0.002448114    2.722    0.633
        38 -12.8089     73.1363    230.2524   7.6390729766e+01   2.0106676647e+01    0.3299277    0.1825817 -82.06  0.001090588    1.968    0.492
        39 -12.6189    139.2212    247.7536   6.6614704515e+01   8.0379868359e+00    0.2836599    0.2327856  71.82  0.001466558    1.364    0.267
        40 -11.8647    148.2390    239.0779   6.4109868938e+01   7.8079127566e+00    0.2381524    0.1321861  41.70   0.00083816    1.370    0.270
        41 -10.5090     89.4962    241.3998   7.4476661440e+01   1.6166499585e+01    0.1090391   0.07891229  55.54 0.0001846996    1.032    0.031
        42 -11.8316     79.2366    237.0660   7.5869369887e+01   1.8215125729e+01    0.1853914    0.1299341  56.43            0    1.052    0.049
        43 -12.4769     52.7018    236.8472   8.0264367108e+01   2.1572284576e+01    0.2386859     0.150702  36.46  0.001234364    1.781    0.438
        44 -13.0226     62.5529    233.6613   7.8432019991e+01   2.0894668378e+01    0.4395146    0.1976428  74.49  0.001374256    2.561    0.609
        45 -10.8096    246.6876    234.6945   4.6734400607e+01  -7.0920678536e+00    0.1165846   0.06532013  17.40  0.000283542    1.618    0.382
        46 -11.0849    144.8007    234.3711   6.4173642032e+01   8.9974330423e+00    0.1589453   0.08779519  37.14 0.0009154024    1.550    0.355
        47 -13.2300    102.6791    237.8808   7.1929013407e+01   1.4860492522e+01    0.3340974    0.2143715  30.04  0.002102446    1.941    0.485
        48 -11.1124     39.0395    233.9088   8.2309909966e+01   2.3611223151e+01    0.1611971   0.07862007  64.59 0.0004998696    1.605    0.377
        49 -11.1591    181.5194    231.4975   5.7301991937e+01   3.4494450781e+00    0.2219751    0.1616777  -1.41  0.001422047    1.799    0.444
        50 -12.1773    178.2124    228.5123   5.7481025232e+01   4.3701986350e+00    0.2070403    0.1662843  37.13 0.0002679166    1.052    0.049
        51 -11.4868     53.2647    231.4532   7.9837766781e+01   2.2381014401e+01    0.1646354    0.1155068  88.67 0.0004971551    1.334    0.250
        52 -11.6639    219.3807    230.7791   5.0645907895e+01  -2.5579073290e+00    0.1597758     0.123392  32.11  0.001126271    1.137    0.120
        53 -11.6388    130.0000    230.9644   6.6427624314e+01   1.1813835927e+01    0.1532232   0.06730487 -55.33 0.0006084506    2.903    0.656
        54 -10.4859     67.7231    231.2678   7.7391889544e+01   2.0635953426e+01    0.1075227    0.0597973  63.41            0    1.482    0.325
        55 -12.6950    231.7403    227.6757   4.8093655784e+01  -4.1566915251e+00    0.2529544    0.1806834   1.41 0.0004632379    1.371    0.270
        56 -11.4739    194.7189    228.5366   5.4567134976e+01   1.6573744838e+00    0.2321723    0.1594792   7.93  0.001435264    1.737    0.424
        57 -11.0174    150.2883    229.6310   6.2629008796e+01   8.7851795258e+00    0.1160366   0.08051477  66.65 0.0007022385    1.709    0.415
        58 -12.3392    112.3099    228.1250   6.9300512576e+01   1.4952086822e+01    0.2094032    0.1648838  33.19  0.001459277    1.436    0.304
        59 -13.6639    115.0441    223.7792   6.8354359332e+01   1.5222376618e+01    0.4506108    0.2266721  62.75  0.002315523    2.302    0.566
        60 -11.2158     82.5305    229.1313   7.4673793717e+01   1.9043982001e+01    0.2692999   0.07439197  49.96  0.001036922    2.817    0.645
        61 -12.8708    105.5459    226.7863   7.0381733967e+01   1.6168489079e+01    0.2234478    0.2084682 -81.88  0.001745828    1.354    0.262
        62 -12.4197     91.5175    226.5740   7.2869990939e+01   1.8221496676e+01    0.2674138     0.197633 -71.13  0.001718553    1.556    0.357
        63 -11.5221    100.4613    227.0026   7.1314197074e+01   1.6876595520e+01    0.1468895    0.1072374 -74.73 0.0004257338    1.564    0.361
        64 -11.7242    222.4244    225.4917   4.9322597351e+01  -2.4658421237e+00    0.1995523      0.15085  26.68 0.0001329713    1.029    0.028
        65 -10.6511     52.2380    226.3458   7.9683358402e+01   2.3350150524e+01   0.08602539   0.07613012 -72.52 0.0001986654    1.562    0.360
        66 -12.1592     68.0462    224.2929   7.6820274195e+01   2.1749568289e+01    0.2793236    0.1347327 -72.57 0.0008125785    2.217    0.549
        67 -11.0614    212.9749    222.3330   5.0455812864e+01  -5.9219559891e-01    0.2425713    0.1365943   1.25  0.001196845    2.767    0.639
        68 -12.2231    160.1716    222.3352   5.9905121771e+01   8.1945699868e+00    0.3817779    0.1728086  45.83  0.001214466    1.770    0.435
        69 -12.1652     95.7884    223.0478   7.1779774132e+01   1.8191996604e+01    0.1544001    0.1219271  66.15 0.0003159895    1.087    0.080
        70 -11.2147    188.8203    222.0127   5.4667303251e+01   3.4424240785e+00    0.1708468    0.1401394  87.00  0.001081513    1.991    0.498
        71 -12.8670    124.5378    221.4588   6.6357439193e+01   1.4118424583e+01    0.2749577    0.1726173  51.21 0.0008777293    1.281    0.219
        72 -12.5278     77.3776    219.8321   7.4810417012e+01   2.1283932627e+01    0.2875029    0.1829782 -76.46  0.001588238    1.665    0.399
        73 -12.2264    237.7582    220.2984   4.5915392471e+01  -4.3211279350e+00    0.2286826    0.1621043 -25.87  0.001539298    1.634    0.388
        74 -11.5335    222.9718    220.2865   4.8411868608e+01  -1.9789014127e+00    0.1898855     0.148578  14.39  0.001312501    1.125    0.111
        75 -12.8399    173.0911    219.6991   5.7180432390e+01   6.3946925329e+00    0.2710579    0.2343928   2.06 0.0006968254    1.344    0.256
        76 -12.4235     99.9413    220.1929   7.0747970733e+01   1.8061287118e+01    0.2097257    0.1817791  63.77  0.001194825    1.152    0.132
        77 -12.3374     87.4984    220.7567   7.3066869645e+01   1.9745077912e+01     0.195859     0.123948  47.75 0.0003625143    1.278    0.217
        78 -11.2714    246.4556    220.4964   4.4511074178e+01  -5.6779460555e+00    0.1171325   0.08731486  19.99 4.714515e-05    1.031    0.030
        79 -10.7465     32.7176    220.3969   8.2613234888e+01   2.6559079007e+01    0.1188162   0.08708046  41.21 0.0003516693    1.542    0.352
        80 -12.0013    193.3764    219.1785   5.3431038618e+01   3.0389894909e+00    0.1424238    0.1166553 -50.66 0.0008740227    1.707    0.414
        81 -12.3448    129.9795    217.1270   6.4840024760e+01   1.3935857725e+01    0.1879735    0.1688021  88.50 0.0006778447    1.266    0.210
        82 -12.3342     65.2518    216.2091   7.6691882882e+01   2.3488236586e+01    0.2680061    0.2146516 -65.38   0.00200769    1.567    0.362
        83 -11.1179     59.9175    215.3175   7.7577962136e+01   2.4311682125e+01    0.2099696    0.1108457  55.37 0.0008019855    1.490    0.329
        84 -13.2437    108.2205    215.9027   6.8773427798e+01   1.7540147763e+01    0.2937313    0.2232997  65.07  0.001304839    1.163    0.141
        85 -10.8865     53.1918    216.7084   7.8870508627e+01   2.4885109872e+01    0.1852206    0.1028432  47.87  0.001215739    1.460    0.315
        86 -13.3936     85.4898    211.3788   7.2565765755e+01   2.1633327828e+01    0.5315585    0.3709741  69.53  0.002062919    1.264    0.209
        87 -12.6214     79.1558    212.7872   7.3873010254e+01   2.2260123576e+01    0.3250338    0.1829151  58.83 0.0007255047    1.497    0.332
        88 -12.3985     75.6164    212.1806   7.4472437798e+01   2.2843599321e+01    0.5379975    0.2928364  23.95  0.002499743    3.533    0.717
        89 -13.0053    144.9760    215.9768   6.1885258813e+01   1.1660501598e+01     0.433085    0.2954528  52.62  0.001712941    1.275    0.216
        90 -11.4598     35.8749    214.3533   8.1732438474e+01   2.7269047967e+01    0.3042754    0.1224739  66.65  0.001679621    2.314    0.568
        91 -11.7121     30.9846    212.3280   8.2456065359e+01   2.8148325010e+01    0.1758112    0.1161939  70.12  0.001320162    1.116    0.104
        92 -13.4389    140.2064    211.0178   6.2140188613e+01   1.3227229017e+01    0.4836535     0.371682 -85.53  0.003044289    1.669    0.401
        93 -12.3562    113.4330    210.1724   6.7151415337e+01   1.7700039916e+01    0.2740636    0.1402731  47.43   0.00078965    1.582    0.368
        94 -12.5067    120.5307    214.4510   6.6299207423e+01   1.5873434762e+01    0.1989517    0.1516934  53.15 0.0005991677    1.050    0.047
        95 -11.8187    117.5418    212.5041   6.6638513836e+01   1.6665521774e+01    0.1935664    0.1222007  62.83  0.000864744    1.565    0.361
        96 -11.8499    247.5670    212.8698   4.3056163800e+01  -5.0664845850e+00    0.2076674    0.1412475  35.04 0.0005269718    1.299    0.230
        97 -10.9704     41.0214    213.0266   8.0758432847e+01   2.6936991629e+01    0.1261443   0.09163004  74.60 0.0003721689    1.070    0.065
        98 -10.7525    215.5442    212.5253   4.8450227018e+01   1.3699793813e-01     0.123917    0.0965357  26.43  3.17573e-05    1.010    0.010
        99 -11.3931     46.8581    210.1373   7.9536903641e+01   2.6789114467e+01    0.3254161    0.1543476  76.71  0.001852336    2.140    0.533
       100 -13.0329    229.3262    207.3882   4.5195454355e+01  -1.5479505513e+00     0.364997    0.2827052 -26.95  0.001723749    1.511    0.338
       101 -11.3351     38.0556    209.3072   8.1043828528e+01   2.7927071675e+01    0.1455036    0.1048297  57.65 0.0005841409    1.162    0.139
       102 -12.4484    125.0820    212.9086   6.5255638453e+01   1.5400755805e+01     0.196616    0.1576338  53.86 0.0003060891    1.021    0.021
       103 -12.4474    180.3457    207.6448   5.4057539185e+01   6.8247018752e+00    0.2276948    0.1541808  47.47   0.00117853    1.324    0.245
       104 -12.7471    108.4975    207.0472   6.7740323242e+01   1.9000776995e+01    0.2948568    0.2169354  16.16  0.001707923    2.145    0.534
       105 -12.2353    103.0132    206.5757   6.8744187368e+01   1.9921332539e+01     0.315597    0.2113457  31.55  0.001153744    1.727    0.421
       106 -11.6023     69.2979    207.4263   7.5230377921e+01   2.4523870736e+01    0.3451186    0.1665491  32.70  0.001735508    2.478    0.596
       107 -11.5743     63.8704    208.1037   7.6294174549e+01   2.5098337915e+01    0.1708262    0.1160971  63.46  0.000505683    1.163    0.140
       108 -12.4400     33.7238    206.1863   8.1614950722e+01   2.8957064603e+01    0.2427084    0.1577776 -80.60 0.0009762524    1.435    0.303
       109 -11.5694     36.3178    203.2645   8.0967788106e+01   2.9210841000e+01    0.1617587     0.122477  82.58 0.0002237016    1.128    0.114
       110 -12.8254    159.8548    206.4416   5.7751454231e+01   1.0585732502e+01    0.3144683    0.2046946  41.63 0.0006018529    1.256    0.204
       111 -13.2130    135.2709    199.1745   6.1504236791e+01   1.6000550015e+01    0.3630126    0.2268962  67.13  0.001885694    1.977    0.494
       112 -13.0407    145.3159    203.3373   6.0112360113e+01   1.3591906107e+01     0.484813    0.2421245 -44.68    0.0024264    2.491    0.599
       113 -12.7666    141.8685    198.3089   6.0075717823e+01   1.5013571206e+01    0.3482594    0.2306417 -73.90  0.001861934    2.154    0.536
       114 -11.3801    205.0907    206.1818   4.9272001104e+01   2.7037293064e+00    0.1838058    0.1366033  25.21 0.0002454854    1.144    0.126
       115 -12.2631    123.8634    205.2623   6.4548649404e+01   1.6868743146e+01    0.2420618    0.1517454 -44.57  0.000735069    2.094    0.522
       116 -11.9005    117.0940    205.5435   6.5899535748e+01   1.7911192564e+01      0.24403    0.1444083  55.41  0.001370068    1.506    0.336
       117 -10.9212     55.0795    205.6516   7.7719961947e+01   2.6629129079e+01    0.1463802    0.1088205  61.15 0.0004099545    1.082    0.076
       118 -12.6395     48.7096    204.6510   7.8813905933e+01   2.7566869897e+01    0.2089051    0.1703735 -85.43 0.0006837511    1.282    0.220
       119 -12.3348     99.2277    185.1558   6.6972011690e+01   2.4426585731e+01     0.291828    0.1939337 -65.86  0.001249407    1.606    0.377
       120 -13.0842     93.9478    183.6929   6.7890271510e+01   2.5514053961e+01    0.3786782    0.2671717 -57.93  0.001599294    1.580    0.367
       121 -13.0762     89.6207    183.0977   6.8721400977e+01   2.6275562354e+01    0.5162898    0.2385551 -65.95 0.0009145752    2.317    0.568
       122 -13.1809     90.1607    201.2879   7.0662174163e+01   2.2769064262e+01    0.5178355    0.2934063 -47.26   0.00216079    2.507    0.601
       123 -12.2402    100.0158    195.0184   6.8012774233e+01   2.2452261392e+01    0.2907587    0.2529376 -84.50 0.0009829272    1.211    0.174
       124 -13.3311     93.5605    193.4594   6.9128520031e+01   2.3713311916e+01    0.6699031    0.3262711  59.12   0.00330536    2.106    0.525
       125 -11.4303    166.9625    203.0171   5.5879662537e+01   9.8593147034e+00    0.1938811     0.140943  16.38 0.0004009307    1.646    0.392
       126 -11.2802    212.4497    200.2284   4.6940806616e+01   2.1915173052e+00    0.1529514    0.1205756 -44.25 0.0009404467    1.706    0.414
       127 -12.8922     83.0749    195.7730   7.1474013435e+01   2.4798095135e+01    0.7496232    0.4014883  72.67  0.003860615    2.210    0.547
       128 -13.1389     76.5695    179.1595   7.0997628649e+01   2.8917551156e+01    0.4458942    0.2945404 -52.44  0.002523961    1.821    0.451
       129 -12.8927     64.7035    182.2443   7.3790302750e+01   2.9882896933e+01    0.4447431    0.2633066 -62.14   0.00253666    1.763    0.433
       130 -13.6708     70.1165    186.6961   7.3134875370e+01   2.8303214894e+01      0.56034    0.2667117  58.52  0.001460436    2.017    0.504
       131 -12.8806     75.4893    186.0417   7.1974170921e+01   2.7708853385e+01    0.3439077     0.245968 -76.52  0.001697584    1.377    0.274
       132 -11.7598     62.8473    176.9240   7.3635691490e+01   3.1182881997e+01    0.2655451     0.183487  44.47 0.0007711756    1.400    0.286
       133 -11.6457     51.0264    199.0296   7.7961311244e+01   2.8333748275e+01    0.1677978    0.1339881  72.10   0.00046611    1.075    0.070
       134 -11.5325     39.7229    197.5801   7.9963564177e+01   2.9892193264e+01    0.2495518    0.1125828  62.25 0.0007846832    1.957    0.489
       135 -13.1524    122.6613    196.5856   6.3665473887e+01   1.8564692572e+01    0.4447175    0.2111237  53.52  0.002063071    2.018    0.505
       136 -12.5602    120.6436    191.3716   6.3373368962e+01   1.9829474428e+01    0.2446765    0.2090576  80.02 0.0002641066    1.189    0.159
       137 -13.4014    120.3783    186.5436   6.2761058472e+01   2.0754783166e+01    0.4408387    0.2340972  43.04 0.0005775927    1.644    0.392
       138 -14.4334    118.6126    180.1608   6.2219199287e+01   2.2244522474e+01     1.128497     0.448252  59.86  0.003524688    4.837    0.793
       139 -11.0888     30.4567    196.8486   8.1620039923e+01   3.1017145569e+01    0.1356743   0.08391736 -68.14 0.0008412527    1.693    0.409
       140 -12.5424     26.8612    193.7752   8.2085834959e+01   3.1960081206e+01    0.3882168    0.1298823 -71.20  0.001756366    2.649    0.623
       141 -12.1633     26.1796    185.4830   8.1683774296e+01   3.3609792661e+01    0.3136042    0.2856664 -50.26  0.002514415    1.647    0.393
       142 -11.2424    245.6244    195.7628   4.0375301183e+01  -2.8928154963e+00    0.1575418    0.1075004 -32.38 0.0009518088    1.713    0.416
       143 -12.2937    193.8173    193.3725   4.9192330036e+01   6.4471602504e+00    0.3554713    0.2490598   2.66   0.00135742    1.761    0.432
       144 -12.5812    189.9173    193.3106   4.9919615744e+01   7.1671988953e+00    0.3813837    0.3133431  31.61  0.001510678    1.013    0.013
       145 -11.4644    178.3006    196.2953   5.2639301608e+01   8.8411660084e+00    0.1281663    0.0918385  17.47 0.0006991886    1.573    0.364
       146 -12.7314    152.0387    195.4213   5.7634017985e+01   1.3707444871e+01     0.303333    0.2044972  42.63 0.0008296458    1.248    0.199
       147 -10.9812      1.4849    195.7103   8.6703075164e+01   3.3942359390e+01     0.127511   0.07501311 -76.24 0.0009293542    1.574    0.365
       148 -11.2149    202.3134    195.3115   4.7940854605e+01   4.6388149326e+00    0.1324528    0.0882075  16.25 0.0004536427    1.633    0.388
       149 -11.2608    239.2421    193.4475   4.1032327987e+01  -1.5673787525e+00    0.1734712    0.1378509 -16.87 0.0003576526    1.317    0.241
       150 -11.1995    217.9600    193.9843   4.4855116678e+01   2.0300396503e+00    0.1745953    0.1555843  65.85  0.000550644    1.622    0.384
       151 -11.9201     69.5729    193.9006   7.3951039653e+01   2.6989505737e+01    0.1650487    0.1372702  60.45 0.0004260981    1.133    0.117
       152 -11.1401    212.4995    192.9911   4.5664163893e+01   3.1278598225e+00    0.1548322    0.1136974 -61.95 0.0008095029    2.455    0.593
       153 -12.5875    162.5139    192.4931   5.5102023428e+01   1.2300437595e+01    0.2935308    0.2417536  62.88  0.001057669    1.322    0.243
       154 -10.1849     40.6377    191.2882   7.9338674357e+01   3.0982114133e+01    0.1206805   0.06208237  63.97 0.0007024202    1.692    0.409
       155 -11.2608    234.4968    190.4885   4.1304500410e+01  -4.0719679125e-01     0.127731    0.1028504  18.57 0.0008104612    1.024    0.023
       156 -12.9775    134.6564    189.2676   6.0213678715e+01   1.7820146780e+01    0.3353614    0.2535515 -22.86 0.0008624152    1.953    0.488
       157 -12.3600     50.4611    189.9977   7.7345182355e+01   3.0113695004e+01    0.2372179    0.1724824  44.39 0.0005102633    1.389    0.280
       158 -14.2429     50.4506    183.5911   7.6803939794e+01   3.1363461058e+01    0.4176834    0.3095858 -79.70  0.002401583    1.269    0.212
       159 -11.0494    174.1781    188.8505   5.2201607262e+01   1.0738632918e+01     0.184189    0.1443454  21.00 0.0007569859    1.315    0.239
       160 -11.8968    156.4862    188.4967   5.5663507260e+01   1.4052906902e+01    0.1956403    0.1681209  42.30  0.001153403    1.012    0.012
       161 -11.4461    156.7904    185.3932   5.5097925326e+01   1.4517763251e+01    0.1942187    0.1120806  36.22 0.0009495749    1.623    0.384
       162 -12.5616    109.3633    187.4830   6.5169388961e+01   2.2389096171e+01    0.3442656    0.1835074  58.34  0.001456415    1.922    0.480
       163 -11.3536     41.7512    205.1970   8.0116409914e+01   2.8260939981e+01    0.1929825    0.1083768  54.27  0.001130436    1.411    0.291
       164 -10.5574     31.4259    188.5226   8.0892139454e+01   3.2494249758e+01    0.1086526   0.08335919  77.46 0.0001392841    1.047    0.045
       165 -11.6956    225.1437    204.1542   4.5366842630e+01  -4.7075204640e-01     0.193107    0.1778821  -0.80 0.0005919063    1.313    0.238
       166 -12.5000    194.5460    186.8896   4.7916343014e+01   7.2514622358e+00    0.2707392    0.1996716  43.29  0.000833249    1.228    0.186
       167 -11.7421     43.6022    186.8681   7.8428733108e+01   3.1505607241e+01    0.1951839     0.130536  56.32 0.0004342253    1.260    0.206
       168 -11.7567    247.5221    185.7677   3.8204923150e+01  -2.0483869139e+00    0.2371423    0.1461899  34.40 0.0009771917    1.407    0.289
       169 -12.3581    164.5740    185.2454   5.3502079868e+01   1.3101644777e+01    0.2520068    0.2287241  67.35 0.0004199113    1.228    0.186
       170 -11.8707    167.6239    181.7998   5.2300209886e+01   1.3098918243e+01    0.1903919    0.1373079 -40.53 0.0007429488    1.599    0.375
       171 -12.0899    199.8117    181.9466   4.6016690249e+01   6.9916395090e+00    0.3480833     0.159831  46.84  0.001336835    2.021    0.505
       172 -11.8922    143.0790    181.4677   5.7277178978e+01   1.7707509113e+01    0.3556869    0.1185114  40.23  0.001323627    2.763    0.638
       173 -11.1637     37.4820    181.1938   7.9186559075e+01   3.3286680309e+01    0.1748967    0.1112707  50.06 0.0006572468    1.405    0.288
       174 -11.4715     57.5225    177.1283   7.4766218468e+01   3.1805102093e+01     0.247776    0.1433509  66.49  0.001426659    1.626    0.385
       175 -12.7595     22.8792    175.8655   8.1679152423e+01   3.5812920630e+01    0.3415925    0.2126336 -65.81  0.001769383    1.644    0.392
       176 -11.7198    166.2103    177.4133   5.1819224994e+01   1.4099109054e+01    0.1999502    0.1157248  52.11 0.0008848792    1.710    0.415
       177 -13.4710    148.2779    176.2482   5.5331487675e+01   1.7685020731e+01    0.3973906    0.2810207  62.53  0.001173826    1.556    0.357
       178 -12.0552    137.4975    177.0435   5.7736088960e+01   1.9519811115e+01    0.1852309     0.134432 -54.74 0.0005278636    1.555    0.357
       179 -10.9293     84.2845    177.0068   6.9112068021e+01   2.8258401866e+01    0.1719793    0.1440978  85.50 0.0003807062    1.100    0.091
       180 -12.0767      3.2585    174.2471   8.5368808567e+01   3.7847501028e+01    0.2910546    0.1553702 -86.14  0.001748691    1.475    0.322
       181 -12.5774    106.1737    175.9845   6.4280692627e+01   2.5107852160e+01    0.2337711    0.1700853  47.81 0.0008621168    1.232    0.189
       182 -12.2199     48.2202    174.7425   7.6469945448e+01   3.3389482683e+01    0.3878095     0.163542  66.68  0.001256188    2.808    0.644
       183 -11.2775    224.8401    175.6105   4.0183583114e+01   3.2208789853e+00    0.1827754    0.1163774  49.90 0.0009441597    1.715    0.417
       184 -12.7470    127.0638    174.1827   5.9507135915e+01   2.1920224677e+01    0.2934594    0.1951159 -77.47  0.001475231    1.984    0.496
       185 -13.5530    130.2212    169.6966   5.8099464382e+01   2.2214126815e+01    0.5211616     0.252289  38.64  0.002302973    1.993    0.498
       186 -13.2568    125.6137    166.9834   5.8662161998e+01   2.3565607439e+01    0.5016241    0.2780001  37.66  0.002367675    1.781    0.439
       187 -12.9304     99.6102    173.4097   6.5343602079e+01   2.6664774849e+01    0.4076564    0.2717646   6.62  0.001762978    3.454    0.711
       188 -12.6292     91.3821    169.8119   6.6654391454e+01   2.8661196763e+01    0.2661604    0.2201499 -49.45  0.001650307    1.459    0.315
       189 -13.8416      4.0768    149.7039   8.3776661499e+01   4.2716373269e+01    0.7946498    0.3361899 -86.74  0.004449975    1.951    0.488
       190 -12.0830      1.4421    137.2933   8.3516057026e+01   4.5495431606e+01     0.267644     0.100241 -67.33 0.0007240742    2.127    0.530
       191 -13.8850     33.6207    148.5113   7.7165627819e+01   4.0435762279e+01    0.4606827    0.2282319  30.79  0.001551256    2.337    0.572
       192 -13.6895     25.6792    169.9109   8.0697417076e+01   3.6738950542e+01    0.6783088    0.2636872  55.76  0.003410034    2.337    0.572
       193 -15.4502     12.4463    138.7690   8.1133228801e+01   4.4384569261e+01     1.185197    0.5862707 -82.94  0.006918641    1.651    0.394
       194 -12.3289     23.9362    163.4856   8.0573415399e+01   3.8213400737e+01    0.2117404    0.1787232  75.04 0.0004121051    1.156    0.135
       195 -13.0298     22.4652    160.2709   8.0635369678e+01   3.9011502440e+01    0.3669762    0.1875831  24.86  0.001711677    2.652    0.623
       196 -12.9698     21.2744    153.2430   8.0336844136e+01   4.0583057262e+01    0.3506351    0.2119494 -51.08  0.002157125    2.042    0.510
       197 -13.0407     21.4075    148.8175   7.9943559304e+01   4.1505164763e+01    0.2761151    0.2504365 -53.22 0.0004203902    1.448    0.310
       198 -11.0730     13.0607    173.9240   8.3472418687e+01   3.7090137339e+01    0.1989482    0.1017443 -59.13  0.001190003    2.206    0.547
       199 -11.3838    234.9487    171.7342   3.7630671148e+01   1.8913905555e+00    0.2683565    0.1590743  24.37   0.00136382    1.672    0.402
       200 -12.5986    197.2139    170.1080   4.4265338156e+01   9.2696201177e+00    0.2804048    0.1856242 -18.72  0.001407438    1.796    0.443
       201 -12.2346     75.4006    169.3705   7.0106603391e+01   3.1063518983e+01    0.3473022    0.1864835  82.65  0.001625067    2.453    0.592
       202 -12.1285     62.3086    170.7366   7.3100432444e+01   3.2510929021e+01    0.2552456    0.1843838  64.81  0.001019883    1.208    0.172
       203 -12.9086    152.7654    168.7470   5.3075399270e+01   1.8189963771e+01    0.3179223    0.2054193 -58.26  0.001166287    1.895    0.472
       204 -13.4442    151.5834    164.8949   5.2628798360e+01   1.9121921281e+01    0.3661806    0.2865288  34.39 0.0006552034    1.239    0.193
       205 -12.6040    106.3516    167.2958   6.2981999664e+01   2.6807998461e+01    0.2361991     0.212811  55.70 0.0002741106    1.090    0.083
       206 -13.3439     55.7375    165.3442   7.3947745999e+01   3.4439056498e+01    0.4376807    0.4070618 -52.52  0.002033791    1.419    0.295
       207 -12.0359      3.0109    142.3307   8.3515627421e+01   4.4328115770e+01    0.2470637     0.162144  26.33  0.001288212    1.961    0.490
       208 -14.3940     27.0701    151.1118   7.8882414247e+01   4.0506875844e+01    0.8673509     0.352826 -85.74   0.00418358    2.448    0.591
       209 -13.2038     10.8863    167.5368   8.3508654565e+01   3.8546110435e+01    0.3800859    0.3031583  75.35   0.00300566    1.120    0.107
       210 -11.8749     15.6768    167.0416   8.2518944736e+01   3.8234902508e+01    0.2530124    0.1228354  78.75  0.001474692    1.843    0.457
       211 -12.6667    172.0592    166.4510   4.8599037543e+01   1.4829607165e+01    0.2585507    0.2480067  46.07   0.00157373    1.111    0.100
       212 -13.1776     87.8192    164.9458   6.6786822476e+01   3.0196805183e+01    0.3144278    0.2471896  56.35  0.001367935    1.151    0.131
       213 -12.6997     83.9228    163.1968   6.7425730800e+01   3.1135882071e+01    0.2819521    0.1914053 -67.17 0.0003228994    1.457    0.314
       214 -11.6768     41.3608    168.2464   7.7315189556e+01   3.5480245335e+01    0.2354423    0.1587302  61.38  0.001542019    1.290    0.225
       215 -11.2914    206.0095    163.9896   4.1352828356e+01   8.4801052547e+00    0.1717499    0.1478195  24.62 0.0004490959    1.016    0.016
       216 -11.9670     64.9049    163.1441   7.1682880530e+01   3.3758504359e+01    0.1990232    0.1424784  74.29 0.0005739384    1.283    0.221
       217 -12.9566     37.9039    162.1358   7.7499946983e+01   3.7114270864e+01    0.3172199    0.2665647  13.88  0.002217152    1.757    0.431
       218 -12.6020     47.1971    161.3485   7.5403481464e+01   3.6271244741e+01    0.3580685    0.1776339  61.24  0.001705184    2.020    0.505
       219 -13.1649      4.3237    160.5507   8.4399123997e+01   4.0480683478e+01    0.3449494    0.2440176  69.34  0.002604182    1.159    0.137
       220 -11.9681     29.9401    161.2995   7.9133354468e+01   3.8092837013e+01    0.1645887    0.1583036  30.06  0.000852783    1.463    0.317
       221 -11.5765     77.4783    159.8985   6.8446231863e+01   3.2752340728e+01    0.2171261    0.1479187 -62.43 0.0007255555    1.465    0.317
       222 -12.9070     80.9891    156.7362   6.7211265127e+01   3.2924370897e+01    0.2963828     0.193851  60.18  0.001628204    1.489    0.328
       223 -12.0982     77.0157    154.9399   6.7884874217e+01   3.3873208344e+01    0.2068415    0.1696829  54.23 0.0003424992    1.170    0.145
       224 -13.2558    169.9155    159.4692   4.7686679396e+01   1.6474759902e+01    0.3703055    0.2943444 -51.04  0.002004647    1.444    0.307
       225 -13.0684    188.0871    158.2813   4.3702178150e+01   1.2986967093e+01    0.4030711    0.2586646  38.09 0.0009751228    1.429    0.300
       226 -11.5959    105.6149    157.9834   6.1707002521e+01   2.8836141548e+01    0.2532655     0.180685  52.29 0.0005846191    1.302    0.232
       227 -12.3336     71.5354    157.5856   6.9502713029e+01   3.4061871062e+01    0.2403438    0.1544056 -42.10  0.001263073    2.153    0.535
       228 -10.9203    117.6586    157.6515   5.8886745224e+01   2.6840822436e+01     0.135298    0.1099072  -6.02 0.0007044923    1.796    0.443
       229 -11.9939     56.1417    157.1199   7.2955645322e+01   3.6126123226e+01    0.3367701    0.1256501  40.49  0.001038865    2.496    0.599
       230 -12.1790    121.6911    156.0495   5.7686368364e+01   2.6448604995e+01     0.185769    0.1735666 -80.08 0.0003446208    1.104    0.094
       231 -13.9165     63.7234    154.7160   7.0936735017e+01   3.5701536797e+01    0.4598792    0.3037859  62.95  0.002674176    1.448    0.309
       232 -12.0196    249.1700    151.8685   3.1110745047e+01   1.9103906889e+00    0.2101886    0.1792215   7.26 0.0003340004    1.035    0.034
       233 -12.0420     88.4923    153.0129   6.4921045941e+01   3.2610241348e+01    0.1949681    0.1233313 -63.75 0.0006741921    1.563    0.360
       234 -12.9158    108.2309    149.3817   5.9663598820e+01   3.0196601155e+01    0.3699743    0.3264812  -9.61  0.002126284    1.497    0.332
       235 -12.2081    168.1439    149.8503   4.6106671622e+01   1.8564241591e+01    0.2059876    0.1710847  10.28 0.0008019723    1.350    0.260
       236 -12.0530    147.0866    149.2590   5.0622199674e+01   2.2971143038e+01    0.2701235    0.2322734  69.98 0.0004757147    1.248    0.199
       237 -11.1803     99.3637    150.2981   6.1922808962e+01   3.1481789922e+01    0.1293897    0.1084146  -9.13 0.0007033264    1.720    0.419
       238 -12.9023     84.3891    149.4545   6.5356547087e+01   3.3991357577e+01    0.2534401    0.2357423 -71.37 0.0008031895    1.164    0.141
       239 -11.5522     54.7420    150.5846   7.2517371766e+01   3.7698738602e+01    0.1724364    0.1005111  49.79 0.0009563256    1.641    0.391
       240 -12.0946     95.9480    148.7584   6.2484787329e+01   3.2361771134e+01    0.2573001    0.1684813  15.65  0.001158575    2.600    0.615
       241 -11.7220     77.1353    148.7984   6.6991747286e+01   3.5182527692e+01      0.16638    0.1515537 -45.25 0.0004855233    1.341    0.254
       242 -12.2840    212.2278    153.5956   3.8008394494e+01   8.8246688115e+00    0.2474252    0.2268274 -68.36 0.0007906118    1.471    0.320
       243 -11.5520    138.2649    146.0179   5.1986413316e+01   2.5358608804e+01    0.1886009    0.1836552  81.05 0.0002158049    1.058    0.055
       244 -12.3342    119.2250    144.2323   5.6113235399e+01   2.9337159102e+01    0.3517912    0.2388546  77.82  0.001137979    1.985    0.496
       245 -12.2392    170.2703    144.6199   4.4539375081e+01   1.9074877095e+01    0.2699126    0.1769824  37.09 0.0009922801    1.478    0.323
       246 -13.3278    102.2317    142.8396   5.9961653680e+01   3.2609325331e+01    0.6815492    0.3337092  62.02  0.002559502    3.057    0.673
       247 -12.9420     44.5411    144.7581   7.4234050476e+01   4.0122957165e+01    0.2680635    0.1847293 -30.89  0.001001211    2.345    0.574
       248 -13.2473     39.9338    153.8105   7.6259919014e+01   3.8658909901e+01    0.2299724    0.2231575  24.23  0.001589928    1.417    0.294
       249 -11.2527    178.2252    142.3635   4.2350958173e+01   1.7793511436e+01      0.26211    0.1816021  53.36  0.001034586    1.481    0.325
       250 -12.1837     82.8999    144.9513   6.5025666716e+01   3.5191080787e+01    0.2196182    0.1450667  72.68  0.001128149    1.699    0.412
       251 -12.4184     29.6131    139.8004   7.7231377289e+01   4.2704014568e+01    0.2412361    0.1440714  41.61  0.001069104    1.736    0.424
       252 -10.5368    195.2594    139.6737   3.8245378747e+01   1.4604391897e+01    0.1362362    0.1170159 -73.77 0.0002900306    1.558    0.358
       253 -11.6102    188.6342    138.8528   3.9401371319e+01   1.6173141232e+01    0.2016085    0.1823159 -31.24  0.001106926    1.168    0.144
       254 -11.8545     77.1499    139.1357   6.5532968325e+01   3.7303174734e+01    0.1885095    0.1726256 -58.07 0.0002894021    1.208    0.172
       255 -13.4506     45.0267    137.9494   7.3318667518e+01   4.1567533153e+01    0.3234495    0.2854716 -32.45 0.0005440833    1.518    0.341
       256 -12.9170     37.8716    135.5138   7.4781491651e+01   4.2849097941e+01     0.437367    0.1600372  56.68  0.001786036    3.451    0.710
       257 -12.4874     43.0465    133.2782   7.3234564601e+01   4.2815127497e+01    0.2569081    0.1941635  62.34 0.0008109507    1.287    0.223
       258 -14.1887     35.6248    129.8720   7.4679220660e+01   4.4322046229e+01    0.5468727    0.3878902  53.46  0.002452375    1.428    0.300
       259 -13.6128     21.0298    130.2591   7.8336697529e+01   4.5542632787e+01    0.4639757    0.2923883 -55.98  0.001740756    1.612    0.380
       260 -12.9723     28.6163    124.4856   7.5823644710e+01   4.6170962807e+01    0.3045961    0.2470524 -64.60 0.0004882999    1.213    0.175
       261 -12.5448     34.9519    138.7287   7.5848293254e+01   4.2429686098e+01     0.244676    0.1653647  29.84  0.001522632    1.786    0.440
       262 -12.2015    212.4614    137.3389   3.4374129563e+01   1.1308953814e+01    0.2437654    0.2361819   4.26 0.0003036641    1.139    0.122
       263 -11.1527    239.8548    136.6469   2.9333068748e+01   5.7783190996e+00    0.1841839    0.1619575  25.19 0.0004970519    1.119    0.106
       264 -10.6774    223.5100    137.4042   3.2354459251e+01   8.9829852726e+00     0.142622    0.1259049  14.25 6.639605e-05    1.022    0.021
       265 -11.6846    126.9256    137.2610   5.2893117116e+01   2.9356315324e+01    0.2030003    0.1806004  47.79 0.0003541398    1.085    0.078
       266 -12.6645    119.6928    135.8882   5.4372489596e+01   3.1013568982e+01    0.4221906    0.2970238 -80.07  0.001200856    1.828    0.453
       267 -12.0911    174.1741    135.8356   4.1752977644e+01   1.9848542179e+01    0.2133198    0.1747429  12.60  0.001079543    1.353    0.261
       268 -12.2872     77.1329    134.5432   6.4802270958e+01   3.8327819344e+01     0.262052    0.1930824 -31.86  0.001040533    1.875    0.467
       269 -12.4086    102.2507    133.9965   5.8337809053e+01   3.4529704824e+01    0.2587614    0.2011883  46.76  0.001406098    1.268    0.212
       270 -12.5003     60.7536    133.9943   6.8875811004e+01   4.0629837531e+01    0.2116278    0.1759162   7.63  0.001287185    1.681    0.405
       271 -10.7405    138.7983    132.8191   4.9106765945e+01   2.7929350416e+01    0.1987514    0.1703834  82.03 0.0004759907    1.315    0.240
       272 -12.0104    128.4460    133.0581   5.1650545335e+01   2.9942261051e+01    0.2681202    0.1919213  60.33 0.0006945734    1.505    0.335
       273 -11.8157    114.5454    132.9788   5.5057626720e+01   3.2585179120e+01    0.3112563    0.1940428  20.15  0.001281191    2.561    0.610
       274 -13.0036      2.2621    131.3945   8.2902975308e+01   4.6690916931e+01    0.3079471     0.141838 -74.84   0.00127426    1.670    0.401
       275 -12.4175      5.4802    138.4772   8.2693072272e+01   4.4964249330e+01    0.2565536    0.1523815  50.94 0.0009330303    1.646    0.393
       276 -13.7508     83.4200    127.7700   6.2018750826e+01   3.8927596954e+01    0.5383984    0.3016836 -61.88  0.002586334    1.713    0.416
       277 -12.2964     80.1585    127.2031   6.2771164971e+01   3.9538514586e+01    0.2585133    0.1815826 -79.52 0.0003725577    1.487    0.327
       278 -10.5419    230.4176    130.5282   2.9553798656e+01   8.5842422639e+00    0.1411103    0.1271635   0.57 0.0001381113    1.029    0.028
       279 -11.6611    206.0880    129.2131   3.3699377808e+01   1.3994173258e+01    0.2396125    0.2060674 -22.95  0.000429334    1.162    0.140
       280 -11.1491    199.9714    130.7568   3.5253307963e+01   1.5080896496e+01    0.2002053     0.120014  46.08 0.0008841312    1.603    0.376
       281 -11.9251     50.3538    130.0567   7.0966887267e+01   4.2742515495e+01    0.1839508    0.1413312 -81.63  0.001143793    1.132    0.117
       282 -12.1444    188.0169    127.7558   3.6951412564e+01   1.8248202221e+01    0.2498698      0.21236 -18.89 0.0003045147    1.214    0.177
       283 -10.5101    130.4833    128.4810   5.0165671971e+01   3.0500810349e+01    0.1458128    0.1401264  64.35 6.639961e-05    1.007    0.007
       284 -11.5902    121.8207    128.1254   5.2232003154e+01   3.2266807265e+01    0.2214806    0.1938868  84.13 0.0006400223    1.215    0.177
       285 -12.7763     44.7032    127.5296   7.2075062132e+01   4.3927097924e+01    0.3854751    0.1916223  62.70   0.00136273    2.447    0.591
       286 -13.4939     59.8634    125.5274   6.7833586602e+01   4.2647942572e+01    0.2931233    0.2382006  83.23  0.001812731    1.168    0.144
       287 -12.2667     74.9720    125.0360   6.3756486536e+01   4.0771630295e+01    0.1982277    0.1781244 -77.66  0.000328361    1.029    0.028
       288 -13.4311     19.6307    123.2079   7.7965643532e+01   4.7207886679e+01    0.3318849    0.2634223 -30.12  0.002099256    1.729    0.422
       289 -11.8209     23.8456    114.8262   7.5931530082e+01   4.8734645206e+01    0.2682717    0.1805647  81.05  0.001030106    1.420    0.296
       290 -12.5319     22.2899    117.6840   7.6677636755e+01   4.8221829143e+01     0.240754     0.171338  78.57 0.0006164917    1.313    0.238
       291 -13.1149     19.5107    114.9354   7.7095564088e+01   4.9053312508e+01    0.4769379    0.2170851 -71.88  0.002550554    1.748    0.428
       292 -11.7357    109.3570    122.8879   5.4282306731e+01   3.5721612633e+01    0.2548467    0.1884109  56.32 0.0006970027    1.400    0.286
       293 -11.6966    189.0230    121.6861   3.5278264582e+01   1.9090843230e+01    0.2127642    0.1855259  38.70 0.0002376174    1.101    0.092
       294 -12.2430    103.7703    121.3194   5.5407924462e+01   3.7060896292e+01    0.3380738    0.2424954  61.01  0.001623927    1.528    0.345
       295 -12.5790    104.9028    114.1220   5.3537679224e+01   3.8453169348e+01    0.2966827    0.2039596  42.62  0.001185345    1.481    0.325
       296 -12.9514     98.5435    117.2851   5.5940337992e+01   3.8859392818e+01    0.5599602    0.2566729  41.89  0.001819281    2.210    0.548
       297 -11.0084    100.7197    113.6310   5.4557447833e+01   3.9299293098e+01    0.2220688    0.2079981  33.01 0.0007156609    1.153    0.133
       298 -13.1123    113.0209    110.5351   5.0530770368e+01   3.7747336082e+01    0.4657288    0.3238027  67.69  0.001497034    1.825    0.452
       299 -11.6374     43.7222    121.3905   7.1492655707e+01   4.5414985415e+01    0.2159833    0.1274651 -51.89  0.000876536    1.701    0.412
       300 -13.8133      6.6707    119.4155   8.0855527052e+01   4.8982326911e+01    0.5276297    0.3696612 -17.85  0.003476748    2.211    0.548
       301 -11.5612    200.4016    120.2077   3.2634504243e+01   1.6763035902e+01    0.2105502     0.138204 -43.59 0.0005769572    1.639    0.390
       302 -11.2898    179.3306    120.0270   3.6898025813e+01   2.1595770673e+01    0.2024043    0.1897054 -22.56 0.0003459501    1.088    0.081
       303 -10.5802     35.6912    119.6694   7.3389520503e+01   4.6602400348e+01    0.1218293   0.08171361 -46.58 0.0007040797    1.665    0.400
       304 -13.3288     58.8797    115.8898   6.6534917786e+01   4.4961490658e+01    0.3653495    0.2137209 -53.07  0.001902398    1.615    0.381
       305 -13.7969     62.6743    111.0750   6.4627951780e+01   4.5593168156e+01    0.5621235    0.3384507 -75.95  0.002812282    1.744    0.427
       306 -11.3056    196.9489    115.4874   3.2143981596e+01   1.8354968843e+01    0.2252829    0.1454124  47.68 0.0004625893    1.515    0.340
       307 -13.6075     82.7988    112.3014   5.9206186586e+01   4.2517562560e+01    0.5974077       0.2619 -54.94  0.002507657    2.108    0.526
       308 -11.8185    120.2302    114.0730   4.9469113523e+01   3.5592226660e+01    0.2513407    0.2119627  46.81 0.0005995651    1.183    0.155
       309 -12.3718     55.3774    121.6233   6.8417946039e+01   4.4072654933e+01    0.2735159    0.1308144  25.53  0.001234843    2.781    0.640
       310 -12.3405     89.9668    110.9832   5.6931153251e+01   4.1694089219e+01    0.2990862    0.2449462  82.34 0.0003481392    1.346    0.257
       311 -11.1355     92.2819    107.7077   5.5562039638e+01   4.2053339748e+01    0.1913679    0.1646384 -26.88 0.0001759496    1.337    0.252
       312 -13.0223     73.9371    109.5277   6.1137375439e+01   4.4444677181e+01    0.3546838     0.216482 -72.79 0.0008583301    1.777    0.437
       313 -12.0351     52.7281    110.6791   6.7371664604e+01   4.6875798266e+01    0.2574258    0.2016308  54.57 0.0007161301    1.359    0.264
       314 -11.6906    161.7995    110.3723   3.8334781746e+01   2.7427574097e+01    0.2231171    0.1391681  38.90 0.0003416511    1.638    0.389
       315 -11.5242    209.7512    109.0096   2.8057217496e+01   1.6487968110e+01    0.2166159    0.1896992 -21.50  0.001144454    1.117    0.104
       316 -12.1143    170.4861    108.9930   3.6023014088e+01   2.5679550458e+01    0.2320333    0.1530577 -37.64 0.0005002928    1.548    0.354
       317 -10.4855    155.6582    108.2960   3.9220382771e+01   2.9235120007e+01    0.1556715    0.1240509  89.59 0.0007032029    1.662    0.398
       318 -13.5709     10.3402    105.0850   7.8457924359e+01   5.1895825586e+01    0.4070758    0.3320634 -65.90  0.001970421    1.167    0.143
       319 -12.8773     64.0593    118.6544   6.5584588107e+01   4.3685552531e+01    0.2542915    0.1625856 -56.91 0.0005976789    1.439    0.305
       320 -11.9021    219.3115    106.0058   2.5572050049e+01   1.4778347546e+01    0.2092399    0.1832764 -19.84 0.0003702289    1.097    0.089
       321 -12.4508     78.8928    101.5704   5.8029006233e+01   4.5538569266e+01    0.2592069    0.2395103  83.54 0.0006394555    1.109    0.098
       322 -12.1996    193.0149    100.6125   2.9084873751e+01   2.1839257104e+01    0.4215501    0.1816995  49.07  0.001530286    2.254    0.556
       323 -12.8104    155.0836     97.0510   3.6341342963e+01   3.1560044565e+01    0.2827145    0.2492925  28.32 0.0003896026    1.158    0.137
       324 -12.9679     33.1565     98.0220   7.0966486333e+01   5.1744317893e+01    0.4089395    0.2370532 -41.75  0.000900827    1.923    0.480
       325 -11.3013    208.4682     99.5650   2.5863868216e+01   1.8329783049e+01    0.1508836    0.1422169   8.80   8.7647e-05    1.017    0.016
       326 -12.1523     24.7728     97.1780   7.3327013237e+01   5.2635218327e+01    0.3440192    0.2746768  15.47  0.001520763    1.620    0.383
       327 -12.1444    229.4502    103.1834   2.3130908172e+01   1.2925556763e+01    0.2456713    0.2311156  21.59 0.0002864835    1.071    0.066
       328 -12.0329     76.5200     97.0325   5.7709325820e+01   4.6915673696e+01    0.2055233    0.1853777  39.56 0.0005637089    1.211    0.174
       329 -11.0034     57.6285     97.4524   6.3494285211e+01   4.9331643734e+01    0.2108183    0.1251104  38.48 0.0008142049    1.854    0.461
       330 -11.3073     45.7359     97.3557   6.7074780260e+01   5.0685681110e+01    0.1806175    0.1516586  33.70  0.001151915    1.389    0.280
       331 -12.8155     93.1135     99.1674   5.3329489846e+01   4.3825403708e+01    0.4299289    0.2319566  43.84  0.001300349    1.945    0.486
       332 -12.5957     82.5568     95.8091   5.5620125430e+01   4.6283274913e+01    0.3009171    0.2234011  -8.77  0.001488051    1.929    0.482
       333 -11.2715    210.9920     95.2804   2.4283445116e+01   1.8424918326e+01    0.2078133    0.1957306  24.76 0.0005821836    1.046    0.044
       334 -12.4637     63.9021     93.3498   6.0715941619e+01   4.9486196407e+01    0.4446934    0.2159646  58.13  0.001708297    3.406    0.706
       335 -12.1023     78.3751     92.6527   5.6122990633e+01   4.7628621277e+01    0.2102494    0.1615422  81.70 0.0008926973    1.629    0.386
       336 -10.9424    249.7871     91.8064   1.7164493102e+01   1.0129143122e+01    0.1813257    0.1566634 -50.61 0.0004475933    1.273    0.215
       337 -11.7179    224.0059     90.8907   2.0900182855e+01   1.6045122659e+01    0.2164871    0.2034065  -0.01  0.000314436    1.023    0.022
       338 -10.6377     41.3377     91.6891   6.7379124692e+01   5.2422723916e+01     0.127261   0.08938621  75.00 0.0006778545    1.687    0.407
       339 -12.2169    230.1658     89.8001   1.9623046742e+01   1.4783119036e+01     0.256483    0.2250095  15.71  0.000384252    1.162    0.139
       340 -11.2908     28.3329     90.3065   7.1177778336e+01   5.3904126022e+01    0.1248392   0.07814071 -42.78   0.00036855    1.665    0.400
       341 -11.4089     23.0605     90.1482   7.2781511796e+01   5.4353088341e+01    0.1796339    0.1317586 -54.06 0.0002634123    1.240    0.194
       342 -11.6893    187.2074     89.1394   2.7119759951e+01   2.5228470057e+01    0.2105727    0.1842971 -66.56 0.0003718653    1.317    0.241
       343 -10.3952    126.6412     89.2688   4.1306819918e+01   3.9516888703e+01    0.1523332    0.1213705  84.05  0.000415126    1.642    0.391
       344 -12.6198     71.4816     89.7186   5.7539223675e+01   4.9287480811e+01    0.3399437    0.1049559  40.56  0.001214415    3.442    0.709
       345 -12.4165    178.3312     86.9324   2.8313130103e+01   2.7808438209e+01    0.2814253    0.2508018  53.51 0.0003854059    1.131    0.116
       346 -11.6083     97.5231     86.9712   4.8890871116e+01   4.5741538206e+01    0.2314141    0.1368532 -48.86   0.00089718    1.609    0.379
       347 -12.4257     54.4140     85.7760   6.2031256572e+01   5.2365922969e+01     0.381065     0.327969 -26.72  0.002379662    1.293    0.226
       348 -12.1269     10.3881     86.8862   7.6202122757e+01   5.5940589898e+01    0.2834173    0.2008332  16.64  0.001906059    1.845    0.458
       349 -12.0021    202.0000     85.9665   2.3408203567e+01   2.2107668950e+01    0.3432181    0.2301195  66.63  0.001199298    1.738    0.425
       350 -12.9229    162.8098     99.4227   3.5198774737e+01   2.9288958516e+01    0.3048327    0.2678943 -60.08 0.0003755899    1.261    0.207
       351 -12.0775    159.6055     85.1157   3.1893611564e+01   3.2741111929e+01    0.2589792    0.2176927  64.47 0.0005716711    1.284    0.221
       352 -11.2355    125.6205     84.3665   4.0163073226e+01   4.0734100920e+01    0.3178804    0.2379994  76.87  0.001428528    1.832    0.454
       353 -13.4075     61.2790     83.9728   5.9404858793e+01   5.1939774577e+01     0.377579    0.2708358 -39.01  0.001861862    1.409    0.290
       354 -11.5182    133.0987     84.0939   3.8097485754e+01   3.9147007231e+01    0.2183679    0.2144874  16.80 0.0002777337    1.013    0.013
       355 -12.5340    112.4996     83.6177   4.3582406522e+01   4.3616349617e+01    0.3971309     0.252208  54.43  0.001759046    1.786    0.440
       356 -12.0748    113.0012     79.3082   4.2167377862e+01   4.4404750140e+01    0.2916851    0.2447688 -77.41  0.001357912    1.459    0.315
       357 -12.6434    182.3869     81.0675   2.5800963366e+01   2.7810451640e+01    0.3240655    0.2667695 -52.09 0.0003302635    1.319    0.242
       358 -12.5077    206.4252     80.8695   2.1213098898e+01   2.1833812970e+01    0.2658131    0.2527529  27.39 0.0003327193    1.046    0.044
       359 -12.1463    149.8744     83.2028   3.3620565820e+01   3.5440684040e+01    0.2199578    0.1844004  14.88 0.0003622309    1.330    0.248
       360 -12.8172     78.5232     82.2718   5.3454474083e+01   4.9915333810e+01    0.2746077    0.2453748 -49.09 0.0004214014    1.024    0.023
       361 -11.7275     88.3594     78.8876   4.9428674952e+01   4.9074085103e+01    0.2746726    0.2143946  27.00  0.001451012    1.425    0.298
       362 -10.5289     55.2865     77.7075   5.9870257888e+01   5.4074378140e+01    0.1647382    0.1129563  27.93 0.0004191139    1.694    0.410
       363 -10.8566     51.5437     79.4331   6.1530536595e+01   5.4121370436e+01    0.2297075    0.1829621 -74.72 0.0008744707    1.274    0.215
       364 -11.2654     48.6328     76.2623   6.1766937189e+01   5.5151893457e+01    0.1856038    0.1707981  64.04 0.0006535825    1.253    0.202
       365 -11.4500    161.5263     76.9859   2.9041860967e+01   3.3745899222e+01    0.2401103    0.1544485 -35.68 0.0006401273    1.563    0.360
       366 -11.7072     75.1045     75.6358   5.2752101323e+01   5.1880925242e+01    0.2363898    0.1778492 -59.92 0.0005464381    1.325    0.245
       367 -10.9928    215.0039     75.0214   1.8154058553e+01   2.0624392423e+01    0.1859664    0.1689796 -25.35  0.000621331    1.069    0.065
       368 -11.8176     85.9692     75.0534   4.9078095458e+01   5.0293383085e+01    0.2995885    0.2175669 -31.43 0.0008711051    1.436    0.304
       369 -12.5247      1.9983     73.1602   7.6955334447e+01   5.9424287233e+01    0.3270607     0.148052 -55.44  0.001861963    1.714    0.416
       370 -11.6198      1.8691     68.7929   7.6359178592e+01   6.0384682710e+01    0.1781085    0.1351129 -67.40  0.000789159    1.005    0.005
       371 -11.1381    155.7837     73.6072   2.9320021559e+01   3.5770379607e+01    0.2187887    0.1514997  64.00 0.0006952267    1.629    0.386
       372 -11.4394    105.6394     72.5174   4.2239923333e+01   4.7255804960e+01    0.2736789     0.227899 -30.69  0.001284637    1.180    0.153
       373 -11.1178     51.1979     73.1805   6.0145273989e+01   5.5551709384e+01    0.1756313    0.1423086 -77.68 0.0004723331    1.335    0.251
       374 -10.7855     11.0135     71.5497   7.3684541596e+01   5.9302786907e+01    0.1833218    0.1167417   6.07  0.001139218    2.102    0.524
       375 -10.6241    236.2722     69.3509   1.3418083387e+01   1.6338259206e+01    0.1460307    0.1085224  12.20 0.0002448152    1.632    0.387
       376 -12.2055     52.9199     68.3781   5.8313030170e+01   5.6408445233e+01    0.2260034    0.1675124 -64.81 0.0008106026    1.333    0.250
       377 -13.1690     97.9158     66.9281   4.2819139522e+01   4.9864178614e+01    0.3632917     0.302242  18.32  0.001459321    1.304    0.233
       378 -11.3742    242.0202     66.9337   1.2007987912e+01   1.5339066468e+01     0.207752    0.1955606 -18.51 0.0003167714    1.036    0.035
       379 -11.0061     86.4427     67.5012   4.6646103048e+01   5.1797744369e+01    0.1408294    0.1308566 -45.30 7.846845e-05    1.074    0.069
       380 -11.9884     60.0623     67.0134   5.5430693729e+01   5.5831142311e+01    0.2036203    0.1741078 -42.33 0.0003795841    1.035    0.034
       381 -10.9229    203.4396     66.5008   1.7700576086e+01   2.4810833937e+01     0.150979    0.1462653   3.42 2.798547e-05    1.031    0.030
       382 -12.0441    199.0369     65.4925   1.8164816237e+01   2.6088250148e+01    0.2811854    0.2252675 -27.59 0.0003898104    1.247    0.198
       383 -11.8349    178.7065     64.2836   2.1554317448e+01   3.1525961338e+01    0.2712873    0.2489679  18.35 0.0002697577    1.118    0.105
       384 -12.1749     10.0543     63.1757   7.2555794881e+01   6.1192326857e+01    0.2677364    0.1437068 -36.01  0.001086675    1.969    0.492
       385 -12.7934     42.8441     60.8012   5.9929431037e+01   5.9150950886e+01    0.4600951     0.248021  44.74   0.00230952    2.384    0.581
       386 -11.7807    109.0329     60.0618   3.7161879872e+01   4.9007382345e+01    0.2269689    0.2173941 -23.33 0.0006898209    1.050    0.047
       387 -12.2982    192.9920     57.4908   1.6865123237e+01   2.8856340750e+01    0.2834629    0.2194657  -1.87 0.0009886569    1.500    0.333
       388 -11.8257    159.9895     57.2861   2.3203502977e+01   3.7483489212e+01    0.2200893     0.202704  52.69 0.0005687875    1.077    0.072
       389 -11.4294    120.5385     56.9755   3.2797636569e+01   4.7097838232e+01    0.2253029    0.1456918 -34.02 0.0003533959    1.530    0.346
       390 -11.5183     18.1437     56.9467   6.8295473023e+01   6.2053124931e+01    0.1755251    0.1682821 -67.92  0.001324896    1.219    0.179
       391 -11.1359     52.4765     56.5003   5.5109441357e+01   5.8999362302e+01    0.2226153    0.1124397  44.14 0.0008995906    2.514    0.602
       392 -12.0148    110.4847     55.0049   3.4979032471e+01   4.9636722145e+01    0.2307084    0.1419025 -35.83  0.001026133    1.585    0.369
       393 -11.3999    126.5263     53.7255   3.0037188099e+01   4.6304066266e+01    0.2130421    0.1402969 -45.37 0.0009429686    1.625    0.385
       394 -13.7722     31.0189     49.9750   6.1514285569e+01   6.2563737593e+01    0.3382326    0.2823433  66.53  0.001219416    1.604    0.376
       395 -10.6631    222.9733     49.7889   1.0038417181e+01   2.2258932568e+01    0.1858816    0.1165334  63.26 0.0003580081    1.631    0.387
       396 -11.1091    132.7682     49.2341   2.6833755131e+01   4.5580223663e+01    0.2421495    0.1265003 -19.89 0.0008821328    2.450    0.592
       397 -11.3823    102.9488     49.7444   3.5353165946e+01   5.2143159949e+01    0.1792177    0.1235119  41.95   0.00030698    1.477    0.323
       398 -12.3485     19.3059     47.2188   6.5510404519e+01   6.4046400968e+01    0.5058578    0.1121132 -55.17  0.001905562    2.853    0.649
       399 -10.5608    190.6913     47.7049   1.4311457666e+01   3.0875174512e+01    0.1566996    0.1139211  28.45 0.0003016522    1.589    0.371
       400 -12.2061     40.8589     47.1247   5.6722251054e+01   6.2226415631e+01    0.1845793    0.1637899 -64.23 0.0006779142    1.266    0.210
       401 -11.1718     95.3336     45.2985   3.6091616697e+01   5.4444039619e+01    0.1476885    0.1070418   5.52 0.0005027307    1.649    0.394
       402 -11.2709    158.2825     41.4419   1.8291264854e+01   4.0331596186e+01    0.2705974    0.1727878 -48.95 0.0007539652    1.788    0.441
       403 -11.1205    103.4872     40.9773   3.1895129955e+01   5.3534583552e+01    0.2249267    0.1375501 -30.58  0.001030675    1.601    0.376
       404 -13.4035     36.7133     40.1285   5.6167294639e+01   6.4055892460e+01    0.3204695    0.2572782   7.69   0.00117932    1.385    0.278
       405 -11.6476    241.9070     40.0862   5.1213274263e+00   1.8896558389e+01    0.2052288    0.1877935 -47.74 0.0003638869    1.014    0.014
       406 -13.6930     24.8864     37.9547   6.0529815828e+01   6.5542860325e+01    0.4934211     0.328584  12.92  0.003093801    1.774    0.436
       407 -11.2560    138.5863     38.5264   2.1571153045e+01   4.5799737548e+01    0.1498298    0.1426615  17.88 7.848943e-05    1.015    0.015
       408 -10.3658     78.2737     37.3191   3.8767060526e+01   5.8962649773e+01    0.1385038   0.09868988  -7.07 0.0005190324    1.569    0.363
       409 -13.2644     31.5332     32.5953   5.5822698737e+01   6.6030063181e+01      0.36621    0.2574412   1.94  0.001914308    1.604    0.377
       410 -11.2564     67.7326     33.7392   4.1209985289e+01   6.1312959858e+01    0.1965774    0.1738411  16.51 0.0002258986    1.174    0.148
       411 -11.7518    106.5012     32.4656   2.7639175090e+01   5.4229638102e+01    0.2951812    0.1375097 -31.14  0.001197097    2.116    0.527
       412 -11.2835     52.5774     33.1934   4.7004191096e+01   6.3576884421e+01    0.1848496    0.1029484 -34.96 0.0004982685    1.600    0.375
       413 -12.4617     44.5532     32.4445   5.0081900693e+01   6.4700613134e+01    0.3262578    0.1649375 -31.10  0.001585007    2.003    0.501
       414 -10.2543    174.2827     32.2760   1.2229079601e+01   3.7318679981e+01    0.1514536     0.110274  31.81 0.0001818024    1.505    0.336
       415 -12.7811     78.2632     31.1749   3.6261042200e+01   5.9999702170e+01    0.2760471    0.2175541  71.90  0.001450426    2.038    0.509
       416 -12.6181     58.8746     26.1569   4.1519872100e+01   6.3946182202e+01    0.2567424    0.1965779 -28.99 0.0004333872    1.136    0.120
       417 -12.0703     81.1416     19.3042   3.0057981991e+01   6.1284513628e+01    0.2471958    0.2027206 -34.88 0.0006298082    1.320    0.243
       418 -12.5453     87.2929     25.5874   3.0757891175e+01   5.9204126410e+01    0.3055251    0.2175863   2.42  0.001082942    1.517    0.341
       419 -12.2249     84.0223     23.5194   3.0956408825e+01   6.0135505500e+01    0.2415815      0.21854 -77.38 0.0009284571    1.588    0.370
       420 -11.2349    209.4860     30.5147   6.4306387220e+00   2.8174276062e+01     0.142773    0.1393648  83.97 -4.198843e-05    1.029    0.028
       421 -12.2316     45.5872     25.8944   4.7012739849e+01   6.5767501110e+01    0.2148292    0.1805968  27.59 0.0007076768    1.387    0.279
       422 -11.9786      4.5695     25.0467   6.5878058995e+01   6.9429959429e+01     0.243586    0.1242502 -48.46 0.0006982918    1.412    0.292
       423 -12.3734     67.6793     24.9897   3.7529768973e+01   6.2785019007e+01    0.1939456    0.1544611 -21.61 0.0007489598    1.102    0.093
       424 -11.6801    166.4598     22.6616   1.0366100245e+01   4.0585328992e+01    0.2806137    0.2300331 -56.04  0.001437156    1.339    0.253
       425 -10.6923     46.3326     19.7073   4.4005706422e+01   6.6736778087e+01    0.1081896    0.1002876 -71.90 0.0003469026    1.634    0.388
       426 -11.0424    131.3242     18.0135   1.5483065747e+01   5.0292113661e+01     0.203483    0.1778526  -1.36 0.0006804307    1.155    0.134
       427 -11.3440    111.5249    249.4850   7.1459979622e+01   1.1894931336e+01    0.1497502    0.1177186  18.84  0.001001635    1.909    0.476
       428 -10.4787     31.2712     16.3179   4.9494917064e+01   6.9040582813e+01     0.123206   0.07419397 -23.62 0.0002651894    1.562    0.360
       429 -13.4758     69.9104    247.1473   7.8127456508e+01   1.7860366382e+01    0.3432616    0.1769099  65.30  0.002270827    1.682    0.406
       430 -11.3408     63.2837    247.0730   7.9186576985e+01   1.8695798566e+01    0.2637134    0.2025962 -14.93   0.00163227    3.766    0.734
       431 -10.4385     31.6071    238.8369   8.3737671598e+01   2.3624706547e+01    0.3263264    0.1290918  87.04  0.001929273    2.609    0.617
       432 -12.3036     45.5582    240.6674   8.1635124781e+01   2.1793022138e+01    0.8156862    0.2461761  37.15   0.00411267    3.245    0.692
       433 -13.4916     38.0183    247.3027   8.3155488888e+01   2.1601679965e+01    0.3222242    0.1590993  52.30   0.00232764    1.417    0.294
       434 -13.2230     34.4592    245.0000   8.3590339118e+01   2.2346741111e+01    0.2982933    0.1118555  38.89  0.001799286    2.404    0.584
       435 -11.4436    153.1015    246.3854   6.4095777373e+01   6.0870559287e+00     0.155032    0.1356896  33.89 0.0003729754    1.231    0.188
       436 -10.3635     80.2968    246.2806   7.6378179993e+01   1.6656486315e+01   0.08831397   0.07579684  37.77 0.0002158109    1.539    0.350
       437 -11.1359     55.6217    245.6361   8.0319774751e+01   1.9842725540e+01    0.1503461   0.07272688 -57.54 0.0008637971    2.949    0.661
