#   1 NUMBER                 Running object number                                     
#   2 MAG_AUTO               Kron-like elliptical aperture magnitude                    [mag]
#   3 X_IMAGE                Object position along x                                    [pixel]
#   4 Y_IMAGE                Object position along y                                    [pixel]
#   5 X_WORLD                Barycenter position along world x axis                     [deg]
#   6 Y_WORLD                Barycenter position along world y axis                     [deg]
#   7 A_WORLD                Profile RMS along major axis (world units)                 [deg]
#   8 B_WORLD                Profile RMS along minor axis (world units)                 [deg]
#   9 THETA_WORLD            Position angle (CCW/world-x)                               [deg]
#  10 FWHM_WORLD             FWHM assuming a gaussian core                              [deg]
#  11 ELONGATION             A_IMAGE/B_IMAGE                                           
#  12 ELLIPTICITY            1 - B_IMAGE/A_IMAGE                                       
         1 -14.3129    166.6610     49.9067   7.2450026754e+01   3.7272061047e+01     2.110558      1.23895  24.12  0.006418689    2.311    0.567
         2 -14.0122    180.6063     34.8175   6.5026573947e+01   3.5664969726e+01    0.9861286    0.9224481 -11.98  0.003319089    1.083    0.076
         3 -13.3461    185.0038     28.1416   6.2224372148e+01   3.5308270996e+01     0.576444    0.5632694  51.98  0.001467476    1.001    0.001
         4 -12.4638    189.6716     14.7961   5.7421823813e+01   3.5515822395e+01    0.3014162    0.2619905 -29.05  0.000923011    1.178    0.151
         5 -10.7533     77.5882     10.1521   8.0130315184e+01   6.3862812392e+01    0.2222077    0.1794363  48.00 0.0006445087    1.382    0.277
         6 -13.8198    201.3903      3.9544   5.2871967817e+01   3.3510937521e+01    0.9711034     0.545707  67.71  0.004030707    1.673    0.402
         7 -12.4119     60.1092      6.4135   8.5194884637e+01   6.7600630687e+01    0.5183902    0.2146796  51.80  0.002046287    3.373    0.704
         8 -10.9438    114.6829      4.0865   6.6199430487e+01   5.6148987759e+01    0.2354706    0.1947252  70.08 0.0005339608    1.324    0.245
         9 -13.7162     10.6116    206.2622   1.4048242588e+02   3.0777015844e+01    0.4623942    0.2409834  34.27  0.003171815    1.850    0.460
        10 -18.7216     51.8413    244.8612   1.3509058833e+02   2.0360414305e+01     5.778818     4.854501  41.55   0.05002663    1.354    0.261
        11 -10.2955     67.3353    189.2995   1.2818632328e+02   2.8166668362e+01    0.1922899    0.1378002  48.97 0.0005076011    1.195    0.163
        12 -10.9083    205.7520    180.5605   9.7617815249e+01   7.6930102632e+00    0.2450728    0.2042868  37.06 0.0009331533    1.293    0.226
        13 -11.1145    208.5205    178.4832   9.6701835806e+01   7.5033864206e+00    0.3102988    0.2178078  16.04  0.001765386    1.299    0.230
        14 -10.7728    158.3727    204.2605   1.1094002365e+02   1.2215669729e+01    0.3192003     0.174316  60.86  0.001334611    3.432    0.709
        15 -12.0929    137.6456    171.2316   1.1015627123e+02   2.1234753359e+01    0.2812527    0.2214803  60.27  0.001063617    1.410    0.291
        16 -11.7927    195.8917    170.1678   9.7556727878e+01   1.0941832854e+01    0.4765044    0.3191957 -31.76  0.002168605    1.591    0.371
        17 -10.8621    193.8074    164.9519   9.6947133773e+01   1.2117082620e+01    0.3323907    0.2981789  16.30  0.001542219    1.107    0.096
        18 -10.1765    163.3521    204.0304   1.0991187405e+02   1.1443860525e+01    0.1638287    0.1490209  17.19 0.0004872116    1.147    0.128
        19 -19.0745     33.5309    101.6173   1.2672045807e+02   5.0936099343e+01     16.69192    0.8471578 -68.69   0.02608263   17.888    0.944
        20 -12.4990    193.4182    192.5696   1.0214439248e+02   8.1176309811e+00    0.6878361    0.4375296 -45.57  0.003206012    2.084    0.520
        21 -10.5656      5.6939    161.7867   1.3947070064e+02   3.9670548151e+01    0.1447513     0.128923  57.40 0.0003154992    1.250    0.200
        22 -10.6994    209.0517    198.0432   1.0012913748e+02   4.8012288280e+00    0.1725001    0.1522104  55.28 0.0006402639    1.683    0.406
        23 -10.9853    120.2048    157.1828   1.1182194202e+02   2.6926084992e+01    0.3222102     0.192586 -64.98  0.001498598    2.104    0.525
        24 -10.5851    165.9861    154.4860   1.0069802536e+02   1.9099511016e+01     0.259965    0.1807015 -86.54  0.000899467    3.321    0.699
        25  -9.9620      9.7003    153.4522   1.3812608812e+02   4.1109622716e+01    0.1230024    0.1089913  10.35 0.0009376815    1.530    0.347
        26 -12.5950    134.0000    144.4833   1.0610999412e+02   2.7039775455e+01    0.9638273    0.3032953 -55.29  0.002779955    4.877    0.795
        27 -10.6147    174.8877    149.1385   9.7643906378e+01   1.8310991972e+01    0.2128046    0.1969945  51.94 0.0005636063    1.254    0.202
        28 -12.2440    144.5335    145.2708   1.0373244633e+02   2.4910871810e+01    0.3686798    0.2938128  85.43  0.001278199    1.775    0.437
        29 -11.3337      7.4737    145.4408   1.3815752484e+02   4.2961537921e+01    0.2655795    0.2128965 -25.61 0.0007824244    1.768    0.434
        30 -12.4438    100.2090    139.5470   1.1373790251e+02   3.3917073163e+01    0.2644684    0.2578296   8.72 0.0004430106    1.106    0.096
        31 -13.0703      4.2907    129.9810   1.3794416422e+02   4.6514279050e+01       1.2241    0.3555942 -85.41  0.005085345    3.243    0.692
        32 -12.2406    117.7747    129.8364   1.0722161764e+02   3.3038464681e+01    0.4052114    0.3270077  11.34  0.001131642    1.450    0.310
        33 -12.1097    135.3813    122.5299   1.0101903720e+02   3.1240343066e+01    0.7012938    0.1456058 -47.20  0.001791919    5.177    0.807
        34 -11.1852    160.5193    127.4631   9.6033233179e+01   2.5143227660e+01    0.3201487    0.2553188 -67.15  0.001510617    1.695    0.410
        35 -11.6161    125.0310    126.8646   1.0467943186e+02   3.2335837620e+01    0.3524452    0.2367192  71.49  0.001486262    2.319    0.569
        36 -10.6661    112.0958    119.0182   1.0640454178e+02   3.6397557169e+01    0.2429775     0.206429  37.78 0.0003991798    1.166    0.142
        37 -11.8580    105.9871    130.9868   1.1059055161e+02   3.4840758675e+01    0.4067888    0.3207803 -64.52  0.001269322    1.344    0.256
        38 -11.1444    168.2582    113.1219   9.0724728122e+01   2.6160670433e+01     0.386473    0.3041387 -74.35  0.001258123    1.881    0.468
        39 -11.2675    105.2581    126.0905   1.0979972755e+02   3.6038325217e+01    0.2984041    0.2336843 -29.16  0.001247134    1.476    0.323
        40 -10.5152    205.6220    110.1133   8.2182999338e+01   1.8444783196e+01    0.2816401    0.2062506  35.96 0.0007110301    1.336    0.251
        41 -12.7782     61.4592    108.5605   1.1912137659e+02   4.6454683530e+01    0.3759899    0.2949167 -19.69  0.002106325    1.583    0.368
        42 -11.9729     15.9252    128.0998   1.3480459227e+02   4.6174819662e+01    0.2239391    0.1674185  69.86  0.001211444    1.231    0.187
        43  -9.4048    149.6925    100.7088   9.1858259122e+01   3.2608167771e+01    0.1569298    0.1187885   8.88            0    1.579    0.367
        44  -9.4723     80.2580    105.6544   1.1273719542e+02   4.4628499284e+01    0.1388453    0.1068482  85.10 0.0002859996    1.594    0.373
        45 -10.3046     81.8096     75.9964   1.0477761692e+02   5.1132884126e+01    0.2315424    0.2012736  27.86 0.0003809393    1.211    0.174
        46 -10.5110    176.7415     74.9811   7.8255117661e+01   3.0860017808e+01    0.2555069    0.2168091 -85.48 0.0004143989    1.503    0.335
        47 -10.6427    169.2151    236.9006   1.1330468306e+02   6.0351108263e+00    0.1632739    0.1284555  39.38 0.0004375472    1.190    0.159
        48 -10.4333    198.6823    222.8946   1.0601340918e+02   3.3411815083e+00    0.1581009    0.1275781  20.91 0.0005084297    1.107    0.097
        49 -11.9544     97.8037    213.1471   1.2423491388e+02   1.9898393803e+01    0.2781987    0.1966003  33.90  0.001368979    1.329    0.248
        50 -10.1118     13.6399     59.9314   1.2694923776e+02   6.2024784889e+01    0.1751242    0.1261756 -66.19 0.0004528154    1.139    0.122
        51 -10.5840      9.9805    214.1456   1.4089187258e+02   2.9449810388e+01    0.1185813   0.06345551  28.67 0.0005114248    2.089    0.521
        52 -10.1405      1.3462    249.8156   1.4335665685e+02   2.4445418966e+01    0.1036231   0.06857339 -84.11 0.0009063333    1.594    0.373
        53 -10.4180     64.5193    195.5485   1.2934048978e+02   2.7316105200e+01    0.1888936    0.1613514  61.84  0.000617989    1.063    0.059
        54 -10.9118    167.2813    188.3703   1.0664777202e+02   1.3189650718e+01    0.2252675    0.2180722  87.61  0.001491654    1.349    0.259
