#   1 NUMBER                 Running object number                                     
#   2 MAG_AUTO               Kron-like elliptical aperture magnitude                    [mag]
#   3 X_IMAGE                Object position along x                                    [pixel]
#   4 Y_IMAGE                Object position along y                                    [pixel]
#   5 X_WORLD                Barycenter position along world x axis                     [deg]
#   6 Y_WORLD                Barycenter position along world y axis                     [deg]
#   7 A_WORLD                Profile RMS along major axis (world units)                 [deg]
#   8 B_WORLD                Profile RMS along minor axis (world units)                 [deg]
#   9 THETA_WORLD            Position angle (CCW/world-x)                               [deg]
#  10 FWHM_WORLD             FWHM assuming a gaussian core                              [deg]
#  11 ELONGATION             A_IMAGE/B_IMAGE                                           
#  12 ELLIPTICITY            1 - B_IMAGE/A_IMAGE                                       
         1  -9.8478     75.0711     17.9870   7.2883635999e+01   6.3731824258e+01    0.3675172    0.2704082 -44.68 0.0005505774    1.453    0.312
         2  -9.1378     80.0957     12.3851   6.8173464870e+01   6.3441856146e+01    0.3134963    0.2488758 -69.76  0.001110806    1.698    0.411
         3  -8.7961    142.2598     11.6107   5.3386068110e+01   4.7904210567e+01    0.2473941    0.1723085  17.25 0.0005959123    1.686    0.407
         4  -8.5338    104.2121     11.8054   6.0981650762e+01   5.7817742129e+01     0.203093    0.1588083  27.89 0.0004893361    1.313    0.238
         5  -8.5801    115.0458     10.5658   5.7933826385e+01   5.5208621958e+01    0.3876591    0.1737615 -58.28  0.001059438    4.179    0.761
         6  -7.8794    170.9503      5.9665   4.7514804172e+01   4.0733441309e+01    0.2098794    0.1965684 -67.01  0.001206846    1.035    0.034
         7  -8.8817    137.8506      4.9331   5.1397978011e+01   4.9737593039e+01    0.2171891    0.1831891  32.55  0.001158559    1.221    0.181
         8  -8.4492     16.8304      3.0236   9.4577559129e+01   7.5648816798e+01     0.178645    0.1534515 -52.78 0.0005540928    1.296    0.228
         9  -7.9458      6.6826      3.6591   1.0269100739e+02   7.6448274020e+01    0.1298926   0.07113756 -33.28 0.0007048922    1.711    0.415
        10  -8.3976    107.0064      1.8124   5.5518869384e+01   5.8158286457e+01     0.262887    0.1309344  40.43  0.001082891    2.069    0.517
        11 -10.2425    218.3078    240.3380   9.4418351833e+01   9.2468541097e-01    0.4775205    0.2201631  26.70   0.00299165    1.750    0.428
        12  -9.1448    242.6091    249.5235   9.1998835287e+01  -2.8000387628e+00    0.1682097    0.1206556  45.49  0.001293538    2.196    0.545
        13 -11.3087    198.7343    249.2796   9.8579157979e+01   2.5927584071e+00     1.630689    0.2797818  39.58   0.00646836    4.364    0.771
        14 -11.7119    186.2164    210.9183   9.5644788155e+01   8.3703885497e+00     1.425714     1.021615  25.15  0.009933131    1.121    0.108
        15  -8.7534    139.8667    246.9312   1.0799283464e+02   1.0523463047e+01    0.3324176     0.177951 -29.38  0.001932063    3.440    0.709
        16  -8.6216    215.6906    238.6945   9.4607616308e+01   1.4075232235e+00    0.4109819    0.2023071  -2.12   0.00218922    3.319    0.699
        17 -10.2303    145.5562    238.4906   1.0615591026e+02   1.0786252591e+01    0.4102505    0.2520921 -57.61  0.002796222    2.415    0.586
        18  -9.7802    142.5190    238.4690   1.0668116092e+02   1.1198216847e+01    0.4411071    0.2665844  23.43  0.002891316    1.705    0.413
        19  -8.9188    158.6188    240.5598   1.0413676025e+02   8.7798274070e+00    0.2495546    0.1338466  49.76 0.0008548322    1.933    0.483
        20  -7.5879    109.6561    240.7277   1.1266702794e+02   1.5236368144e+01    0.1167725   0.09438276  85.75 0.0009299823    1.548    0.354
        21  -7.6741     71.8660    241.0948   1.1937803126e+02   1.9807516260e+01    0.1206039     0.107234  42.98 0.0006666929    1.322    0.244
        22  -8.5247    213.4841    232.4483   9.4124279280e+01   2.2778171138e+00    0.1488845   0.09727579 -24.43 0.0007140069    1.757    0.431
        23  -8.9159     89.8677    238.2077   1.1598039264e+02   1.8072617051e+01    0.1617235    0.1305009 -20.55  0.001218046    2.032    0.508
        24  -7.8872     38.6006    238.2084   1.2506071714e+02   2.3866887559e+01    0.1157892   0.08524271 -76.67 0.0006385376    1.649    0.394
        25  -8.6768    163.9576    210.2302   9.9497670548e+01   1.1753083612e+01    0.2030857    0.1605292 -34.25 0.0009653204    1.546    0.353
        26  -9.9378    141.1964    227.1369   1.0569445518e+02   1.2820590732e+01    0.5471684    0.3509923  29.72  0.003683667    1.350    0.259
        27 -11.5096    169.5083    202.3509   9.7392058536e+01   1.1952103653e+01    0.8624389     0.563133  10.79  0.005097283    1.859    0.462
        28  -9.8640    162.8091    216.6451   1.0055000539e+02   1.1094562386e+01    0.4511238    0.3854428  57.33  0.003368831    1.446    0.308
        29  -9.7777    158.9566    203.2518   9.9465305863e+01   1.3441811062e+01    0.5841713    0.2842333  22.18  0.001839566    3.022    0.669
        30 -10.5473    160.7859    195.5302   9.8026050847e+01   1.4235278372e+01    0.8192406    0.4812028 -23.02   0.00437028    2.475    0.596
        31  -9.4407    153.3423    218.0409   1.0243251686e+02   1.2288446483e+01    0.6585786    0.2178429  40.33  0.003138063    2.342    0.573
        32 -11.1563    156.4354    228.1805   1.0310381611e+02   1.0557325371e+01     1.013963    0.7012368  49.09  0.007121111    1.440    0.306
        33  -9.4787    148.0513    228.6553   1.0464036400e+02   1.1669248372e+01     0.263014    0.2255313  75.06  0.001219174    1.584    0.369
        34  -7.7258    108.0384    236.0166   1.1254650913e+02   1.6086912704e+01    0.1525086    0.1108706  21.00 0.0004273016    1.597    0.374
        35  -8.7141    114.2501    232.0213   1.1106487775e+02   1.5828000706e+01    0.2833068    0.1292515  30.62  0.001555067    2.119    0.528
        36  -8.8874     83.0252    230.2627   1.1661828890e+02   2.0074547620e+01    0.2166774     0.137193 -71.25  0.001536951    1.946    0.486
        37  -8.6147    111.6779    226.4562   1.1100941612e+02   1.6955455733e+01    0.2325324   0.05918266  46.40 0.0009572065    3.353    0.702
        38  -9.6402    105.4760    221.1275   1.1165830563e+02   1.8565415881e+01    0.2887635    0.1134523 -62.25  0.001495737    3.365    0.703
        39 -11.4732    191.6004    233.2749   9.7749154634e+01   5.1162277080e+00    0.8982332    0.5195816  18.96    0.0046468    1.674    0.403
        40  -7.4200    127.2738    217.6328   1.0719619275e+02   1.6078809597e+01    0.1101426   0.07589502  62.28 0.0007003489    1.671    0.402
        41  -9.1082    119.9472    216.7546   1.0848119476e+02   1.7235427690e+01    0.2303628    0.1254635  49.09  0.001173591    1.592    0.372
        42  -8.2407     62.1316    215.9244   1.1950752381e+02   2.4837386606e+01     0.174926     0.109861  57.38 0.0005215908    1.285    0.222
        43  -8.0356    239.4711    211.8683   8.7152791840e+01   7.8840816977e-01    0.1442246    0.0913682 -17.12  0.001018054    1.551    0.355
        44  -7.4753    155.8287    212.1646   1.0123561000e+02   1.2702943272e+01    0.1511893    0.1144571  19.26 0.0003952177    1.296    0.229
        45  -7.9916    151.9800    212.3329   1.0196456065e+02   1.3248024152e+01    0.1613319    0.1154867  36.49 0.0003718872    1.098    0.089
        46  -7.4840    132.9847    212.7882   1.0556848805e+02   1.5959820730e+01    0.1583585   0.07471689  38.45 0.0003624379    1.670    0.401
        47  -7.9339    140.1780    210.9136   1.0398598790e+02   1.5180797953e+01    0.1754697    0.1334573  49.83 0.0008373616    1.248    0.199
        48  -8.8510    123.9264    203.4868   1.0621185251e+02   1.8668339970e+01    0.1941526    0.1327761  26.70  0.001205351    1.482    0.325
        49 -10.1917    128.3727    204.9233   1.0551530966e+02   1.7795515208e+01    0.4578546    0.2343717 -42.93  0.002270916    2.560    0.609
        50  -9.6998    110.4294    209.7562   1.0956403611e+02   1.9625538143e+01    0.3626968    0.2259943  71.91  0.002079894    2.177    0.541
        51  -7.4907     66.2922    211.3490   1.1837276051e+02   2.5108430951e+01   0.09398431   0.08480265 -13.37 0.0007029213    1.670    0.401
        52  -9.1941     12.3965    213.2015   1.2879762762e+02   3.0418044442e+01    0.2109337   0.08555396  63.07  0.001298389    1.929    0.482
        53  -8.4707    136.5528    203.5029   1.0375264146e+02   1.6795297588e+01    0.2994427    0.1165033  46.30  0.001055975    2.291    0.563
        54 -10.0872    137.8298    200.0119   1.0305551776e+02   1.7125373219e+01     0.668018    0.2312759  36.72  0.002960677    2.481    0.597
        55  -8.3486    103.9483    210.9671   1.1095442254e+02   2.0331476304e+01    0.2435948    0.1642373  45.84  0.001625004    1.169    0.144
        56  -7.5250     68.7056    203.3631   1.1727379643e+02   2.6178738994e+01    0.1203414   0.06678136  62.17 0.0007030381    1.709    0.415
        57  -8.7691    150.6861    201.1651   1.0073502168e+02   1.4997455128e+01    0.2055831    0.1828628 -54.76  0.001484042    1.437    0.304
        58  -8.1548    114.6019    200.1999   1.0767505931e+02   2.0547077559e+01    0.1397104    0.1106968 -40.96 0.0004693473    1.620    0.383
        59  -8.7911    103.3735    195.6516   1.0943532478e+02   2.2911654636e+01    0.2431545    0.1275061  36.85  0.001016816    1.634    0.388
        60  -7.0588     74.6566    196.3027   1.1545087031e+02   2.6675439270e+01    0.1242265   0.06913436  59.12 0.0005333961    1.681    0.405
        61  -8.3805    237.4576    193.2833   8.4499762319e+01   2.8694916697e+00    0.1825463     0.173178 -53.50 0.0006788737    1.915    0.478
        62  -9.8843    178.1834    190.8289   9.4076477151e+01   1.2136383441e+01    0.3746609    0.3032559 -87.75  0.001905482    2.216    0.549
        63 -11.5166    172.7021    187.0799   9.4500382483e+01   1.3526281224e+01    0.7619522    0.5639497  -1.55  0.004741267    1.549    0.354
        64 -10.0338    178.7618    183.3761   9.2776464578e+01   1.3056906670e+01    0.5754428    0.1839672  40.33  0.002399248    2.679    0.627
        65 -10.3830    182.6498    180.2924   9.1547470816e+01   1.2844386300e+01    0.4436311    0.3018003  45.99  0.002643844    1.463    0.316
        66  -9.1570    249.8841    191.3431   8.2309451164e+01   1.3332635917e+00    0.2248051    0.1190543  -6.32  0.001321081    1.962    0.490
        67 -12.8845    177.5578    240.7231   1.0097811460e+02   6.2183118787e+00     3.370977     1.523076  22.12   0.01732877    2.843    0.648
        68 -10.7651    137.9759    187.9395   1.0138443963e+02   1.8968057916e+01    0.8073397    0.2494923  37.89   0.00324613    2.825    0.646
        69  -7.9314    225.4114    188.2383   8.5542272423e+01   5.1454559280e+00    0.1391206    0.1020843 -29.85 0.0006321312    1.574    0.365
        70 -10.0774    154.4477    187.4778   9.8050186242e+01   1.6412447441e+01    0.3912744    0.2062854  47.72  0.002038758    1.805    0.446
        71 -10.2972    143.8404    183.4484   9.9549552982e+01   1.8743009611e+01     0.362514     0.225526 -24.79  0.001885302    2.377    0.579
        72  -8.4543    226.5997    183.5112   8.4546704429e+01   5.4881281511e+00    0.1656555    0.1454733   8.84 0.0005624295    1.250    0.200
        73 -10.3798    148.7569    180.4804   9.8109245296e+01   1.8410970634e+01    0.5315695     0.230837 -56.79  0.002220564    3.663    0.727
        74  -7.2820    111.0138    180.9522   1.0603909262e+02   2.4330708216e+01    0.1400164    0.1292078  64.73 0.0003878537    1.115    0.103
        75  -8.7955    143.8426    248.9397   1.0751585626e+02   9.7668068040e+00     0.240406    0.1723177 -85.29  0.001698127    2.544    0.607
        76  -8.2266    226.9240    178.7534   8.3666022754e+01   5.9699906211e+00    0.1750988    0.1261986  14.96  0.000480483    1.158    0.136
        77 -10.0208    142.6312    176.4151   9.8723358402e+01   2.0071775687e+01    0.4265675    0.1530867 -45.94  0.001799076    3.216    0.689
        78  -8.1751     41.7411    175.9549   1.2087661069e+02   3.4393207667e+01      0.29362    0.1499276 -58.10  0.001636637    2.281    0.562
        79  -7.8347     24.7214    177.4182   1.2474537114e+02   3.5827533945e+01     0.134625    0.1017662  26.72 0.0009372889    1.568    0.362
        80  -8.0192     15.1277    177.1256   1.2682005164e+02   3.6761153268e+01    0.1523437    0.1389625 -88.13   0.00122025    1.332    0.249
        81  -8.9418    194.8353    175.4718   8.8511078968e+01   1.1484908112e+01    0.2078787    0.1776986  10.40 0.0002887782    1.067    0.063
        82 -10.3007    175.8097    170.5329   9.1154302331e+01   1.5376012093e+01    0.5640668    0.4649966 -61.96  0.003472236    1.715    0.417
        83 -10.2837    101.0120    175.9977   1.0757298363e+02   2.6729944093e+01    0.1767094    0.1505693  51.84            0    1.001    0.001
        84  -7.9757    130.6911    174.5724   1.0093446631e+02   2.2341255418e+01    0.2067308    0.1180977 -52.17   0.00108006    2.034    0.508
        85  -8.1446     29.0252    174.5317   1.2362266932e+02   3.5981811639e+01    0.1665769   0.09552553  37.54  0.001028085    1.585    0.369
        86 -10.1948    158.0964    172.1162   9.4887846788e+01   1.8163739472e+01    0.4128155    0.2599418  39.35  0.002285299    1.382    0.276
        87  -6.9407     68.3167    172.3441   1.1452230766e+02   3.1974668897e+01    0.1115336   0.09413443 -26.18 0.0004076779    1.717    0.418
        88  -8.1078     78.8425    170.4056   1.1189289428e+02   3.0963760192e+01    0.1898891    0.1497345  80.95  0.000378341    1.252    0.201
        89 -10.3827    156.5624    163.6842   9.3748575660e+01   1.9774234922e+01    0.8695846    0.3290353  31.42  0.003047083    3.629    0.724
        90  -8.6319    247.7527    165.9830   7.8151086854e+01   4.2139848126e+00    0.1513604   0.08596665 -22.17 0.0008939573    1.618    0.382
        91 -10.9637     56.0418    155.9053   1.1572068353e+02   3.6862380992e+01    0.8340126    0.5783948 -86.23 0.0003544139    1.400    0.286
        92  99.0000     19.8012    143.5027   1.2376363737e+02   4.3311109980e+01     1.109153    0.2822596  45.03  0.003771448    3.032    0.670
        93  -9.5488     49.7713    140.8108   1.1566765696e+02   4.0870166187e+01    0.8459064    0.3152452 -73.94  0.002693567    2.763    0.638
        94  -9.2660     14.5834    160.7477   1.2611461804e+02   4.0097927522e+01    0.5308382    0.3242001 -80.92  0.002578956    1.494    0.331
        95 -10.0568     20.7929    157.0611   1.2442764600e+02   4.0322132365e+01     0.979959    0.5190848  59.43   0.00292919    1.605    0.377
        96 -10.7737     44.1656    137.1489   1.1675685147e+02   4.2320489870e+01     1.089326     0.563652  13.80  0.004772276    3.307    0.698
        97  99.0000     24.8736    138.6617   1.2207044208e+02   4.3925072920e+01    0.7908617     0.200943  37.97  0.003377549    3.051    0.672
        98  -8.5900      6.8061    166.1660   1.2816057028e+02   3.9634909479e+01    0.2504385    0.1680079 -85.21 0.0008938966    1.353    0.261
        99  -9.0932    112.2878    162.1354   1.0309084885e+02   2.7574447108e+01    0.3253385     0.203615 -79.64  0.001580634    2.337    0.572
       100  -7.5385     47.6072    163.1856   1.1847663507e+02   3.6326592907e+01    0.1591124    0.1003495 -63.91 0.0008572524    1.674    0.403
       101  -9.8767     34.2655    157.2128   1.2118265937e+02   3.9003353406e+01    0.3185373    0.1382076 -72.81  0.001635343    2.163    0.538
       102 -11.3789     35.8801    146.5533   1.1987914895e+02   4.1123966795e+01     1.214683    0.5826179  32.02  0.002570867    2.079    0.519
       103  -7.2602    215.2786    158.7123   8.1880134023e+01   1.0239505613e+01    0.1039666    0.1008629 -67.60 0.0002472265    1.519    0.342
       104  -8.2802    119.6807    157.8916   1.0073517366e+02   2.7159412206e+01    0.1725309    0.1628372 -89.91 0.0004476801    1.136    0.120
       105  -8.5168     38.6295    154.1024   1.1985364462e+02   3.9211911229e+01     0.214305     0.135827  53.43  0.001292925    1.367    0.269
       106  -8.5929    143.8192    153.6023   9.4619601424e+01   2.3742975768e+01    0.1955872    0.1148151  50.83 0.0008055641    1.718    0.418
       107  -9.0928    134.1457    151.1667   9.6307205794e+01   2.5909980484e+01    0.2686743    0.1851556  27.27  0.001395853    1.571    0.364
       108  -7.5747     92.4405    146.9454   1.0548028116e+02   3.3735349821e+01    0.1765162    0.1089114  85.82 0.0004162521    2.307    0.566
       109  -7.8151     87.0785    146.0444   1.0668523298e+02   3.4741312908e+01    0.2128888    0.1423172  68.22 0.0005604228    1.656    0.396
       110 -10.9227     69.8349    142.8349   1.1064254213e+02   3.7897785380e+01    0.6224576    0.4116679   8.36  0.003015192    2.545    0.607
       111  -9.1451     78.4676    127.0017   1.0590807676e+02   4.0161615805e+01    0.3597494    0.2448266  37.53   0.00134258    1.479    0.324
       112 -10.6939     67.5995    131.2836   1.0958996097e+02   4.0751293885e+01    0.7128871    0.5144202  65.48  0.004008938    1.373    0.272
       113  -9.7969     55.1685    137.8515   1.1387343958e+02   4.0885086441e+01    0.2931158    0.2292619  74.74  0.000335687    1.168    0.144
       114  -9.5408     53.8735    133.1450   1.1362961245e+02   4.2096790941e+01    0.2773721    0.2650522  28.28 0.0003404757    1.267    0.211
       115  -8.3552     50.8561    130.1695   1.1408414362e+02   4.3130981897e+01    0.1987726    0.1663786 -85.86 0.0002528301    1.090    0.083
       116  -8.8826    242.8008    146.8459   7.5199490540e+01   7.1070411388e+00    0.1535256    0.1419951 -11.22  0.001079698    1.330    0.248
       117  -9.4211     76.1742    144.8370   1.0928179532e+02   3.6588161035e+01    0.2185589    0.1873938  70.66 0.0003574703    1.058    0.055
       118 -10.5319     61.4525    142.7979   1.1282705783e+02   3.9009208915e+01     1.100104    0.4515648 -72.60  0.004734163    2.633    0.620
       119  -8.0211    117.0017    141.4885   9.8524960731e+01   3.0790670834e+01    0.1856115    0.1191768  16.67 0.0007440206    2.407    0.585
       120  -9.2772     72.4917    126.8395   1.0754038236e+02   4.1068311736e+01    0.4487034    0.2404044  38.38  0.002153235    1.823    0.451
       121  -9.2842     84.6401    133.9911   1.0540903636e+02   3.7690202497e+01    0.2990478    0.1971206 -58.88  0.001354716    1.541    0.351
       122  -9.6303     83.1264    129.7025   1.0509353175e+02   3.8860422217e+01    0.2951549    0.2465036 -44.84 0.0002578832    1.362    0.266
       123  -7.1597    233.6830    133.6662   7.3857101183e+01   1.0213826397e+01     0.134191   0.08584203  10.02 0.0007047805    1.692    0.409
       124  -9.1999     37.9896    132.7935   1.1796966686e+02   4.3963073774e+01    0.2975137    0.1710566  40.50  0.001124208    1.655    0.396
       125  -8.1736    109.8870    132.0361   9.8504015704e+01   3.3954858352e+01    0.2259491    0.1853814  44.04            0    1.162    0.139
       126  -7.7220     99.6700    132.7119   1.0124362060e+02   3.5562666773e+01    0.1314141    0.1093399  -5.71 0.0003014836    1.619    0.382
       127  -8.1892     57.4136    127.4737   1.1187564336e+02   4.2946039577e+01    0.4390485    0.1202502 -66.70  0.001537796    3.571    0.720
       128  -8.1881    249.3226    128.6850   7.0527634480e+01   8.1281946010e+00    0.1136129   0.09325171 -47.68 0.0004445945    1.661    0.398
       129  -8.1687    102.8755    127.0720   9.9345128461e+01   3.6216161796e+01    0.2043412    0.1775503  83.05   0.00047574    1.193    0.162
       130  -7.5445     93.5722    127.2149   1.0183514845e+02   3.7750698945e+01    0.1941638    0.1235806 -45.00 0.0008880259    1.758    0.431
       131  -7.8134    159.2217    109.0354   8.1644772780e+01   2.8685346640e+01     0.189445    0.1777737 -27.77            0    1.077    0.072
       132  -8.4954    215.1107    104.2636   7.0091298871e+01   1.7578561207e+01    0.2471155    0.2000771   1.64 0.0005002962    1.208    0.172
       133  -7.3296    184.5232     78.4248   6.8467414408e+01   2.8055982895e+01    0.1447802    0.1389218  -6.09 0.0001762172    1.010    0.010
       134  -9.5684    117.9764     65.9030   7.9218890688e+01   4.5959319584e+01     0.239584    0.2122276 -45.24  0.001250756    1.119    0.106
       135  -8.4070    213.8668     55.7346   5.7664746373e+01   2.4341316411e+01      0.25418      0.18112 -14.14    0.0011049    1.421    0.296
       136  -7.9660     95.0061     52.4723   8.1252933193e+01   5.3562938247e+01    0.2302009    0.2017253 -75.69  0.000929084    1.317    0.240
       137  -8.1839     77.5355     30.2017   7.7984688468e+01   6.1253105475e+01     0.283458    0.1292198 -41.83  0.001142104    2.128    0.530
       138  -7.1830     18.2841     27.3027   1.0526564568e+02   7.0562435497e+01    0.1291157   0.07936088 -36.93 0.0002110489    1.556    0.357
       139  -8.7545     84.9193     21.6485   7.1315412965e+01   6.1066025288e+01    0.2621263    0.1959347 -36.09 0.0005195659    1.317    0.241
       140  -7.3190     30.0220     22.0399   9.6209444820e+01   7.0493582953e+01    0.1528304    0.1279406 -38.97 0.0003292391    1.020    0.020
       141  -7.3165     50.4393     21.5184   8.5141593452e+01   6.7743909440e+01    0.1340141    0.1193445 -26.80 0.0001229153    1.025    0.024
       142  -8.7126    133.2117    247.9956   1.0922972688e+02   1.1263153500e+01    0.3437507    0.1271201  45.11  0.001901926    2.138    0.532
       143  -8.6534    129.3626    239.9310   1.0912564045e+02   1.2771944645e+01    0.4074334    0.2199287 -70.16  0.002376346    3.399    0.706
       144  -8.9836    104.8135    247.9785   1.1411164408e+02   1.4883955597e+01    0.2785243    0.1653419  42.66  0.001751738    1.197    0.165
       145  -8.2971    109.3294    246.4856   1.1320885595e+02   1.4514043022e+01    0.2340684    0.1627743  54.11  0.001804015    1.287    0.223
       146  -8.0201    159.4871     11.4785   5.0841270826e+01   4.3281840253e+01    0.1437947    0.1394363 -74.80 8.263397e-05    1.013    0.013
       147  -9.4245     40.1265    243.9935   1.2504911081e+02   2.2843640343e+01    0.2135341    0.1286432  30.90  0.001258126    1.683    0.406
       148  -9.1679     33.9283    248.1092   1.2626434777e+02   2.2863058631e+01    0.1597224   0.08580752  55.17 0.0009997133    1.305    0.234
       149  -8.3633     55.7881    247.6350   1.2254455960e+02   2.0664527031e+01     0.296161   0.06317439  36.21  0.001404385    3.181    0.686
       150  -9.7059    249.9911    242.1936   8.9969772699e+01  -3.0954677581e+00    0.2614705    0.1020173 -28.76  0.001655942    2.862    0.651
       151  -8.9401    215.3815    235.6357   9.4252831896e+01   1.7300250919e+00    0.3299313    0.1243951  32.95  0.001869481    2.037    0.509
