#   1 NUMBER                 Running object number                                     
#   2 MAG_AUTO               Kron-like elliptical aperture magnitude                    [mag]
#   3 X_IMAGE                Object position along x                                    [pixel]
#   4 Y_IMAGE                Object position along y                                    [pixel]
#   5 X_WORLD                Barycenter position along world x axis                     [deg]
#   6 Y_WORLD                Barycenter position along world y axis                     [deg]
#   7 A_WORLD                Profile RMS along major axis (world units)                 [deg]
#   8 B_WORLD                Profile RMS along minor axis (world units)                 [deg]
#   9 THETA_WORLD            Position angle (CCW/world-x)                               [deg]
#  10 FWHM_WORLD             FWHM assuming a gaussian core                              [deg]
#  11 ELONGATION             A_IMAGE/B_IMAGE                                           
#  12 ELLIPTICITY            1 - B_IMAGE/A_IMAGE                                       
         1 -13.8239    248.6174     30.2224   2.5940614024e+01   2.2569509597e+01    0.7347683    0.3393199 -43.08  0.004271843    1.863    0.463
         2 -14.2974    246.2887      7.2960   2.2098713774e+01   2.5617340306e+01      1.18781     0.611037 -52.44  0.007786431    1.563    0.360
         3 -12.2867     13.5462     12.3340   7.4349236717e+01   7.1173487154e+01    0.3289807    0.1535777 -30.76   0.00142006    1.945    0.486
         4 -12.5471     16.0713      6.2529   7.0062232307e+01   7.1683802706e+01    0.3922123    0.2243039 -11.70  0.002427354    1.631    0.387
         5 -13.3233      6.7013     10.4741   7.7429340857e+01   7.2081982738e+01    0.8284509    0.3877666 -24.43  0.004681315    1.971    0.493
         6 -12.4080     10.5456      2.0231   7.1103523948e+01   7.2798997781e+01    0.9507097    0.1637522  30.04   0.00332231    5.483    0.818
         7 -12.0870     20.0387     13.9576   7.1545534156e+01   7.0259499766e+01    0.3463947    0.1505591 -24.07  0.001729861    2.472    0.596
         8 -13.6022     12.4026     23.3019   7.9742156865e+01   6.9700814390e+01    0.6246853    0.2602192 -28.58  0.003113331    2.322    0.569
         9 -12.4014     25.5170      3.9191   6.3909228187e+01   7.0794173305e+01      0.44462    0.2188118  17.13  0.002401885    2.076    0.518
        10 -10.6240     27.2224    248.6240   1.1304474941e+02   1.7201773385e+01    0.2804707    0.1466387  51.20  0.001073266    1.609    0.378
        11 -12.8921    248.9783    225.4181   6.2610833283e+01  -8.3978309737e+00    0.8850945    0.3700433 -18.15   0.00330444    4.124    0.758
        12 -12.8206    240.4531    239.1896   6.6472673786e+01  -9.4817451422e+00    0.7194424    0.2747281 -21.01  0.002540039    4.592    0.782
        13 -12.7880    247.6003    238.9316   6.5157002345e+01  -1.0239463164e+01    0.5430744    0.3042639 -34.87  0.003197751    1.579    0.367
        14 -11.4819    249.9944    232.6600   6.3677491565e+01  -9.5900853132e+00     0.318663     0.168861 -28.13  0.001387899    1.565    0.361
        15 -11.2697    248.8294    249.9486   6.6767072463e+01  -1.1923203370e+01    0.3789303    0.2073619  14.54  0.002279182    1.715    0.417
        16 -11.1669    248.8677    244.9124   6.5931775534e+01  -1.1227421839e+01     0.305022    0.1944292  -9.76  0.001966107    1.299    0.230
        17 -12.6713    242.9228    245.9281   6.7153674423e+01  -1.0729678767e+01    0.6942541    0.2862747 -26.76  0.003394934    2.360    0.576
        18 -10.8560     87.5235    250.5107   1.0046010092e+02   9.4606094800e+00    0.2782821    0.1127141  32.77  0.001213697    2.175    0.540
        19 -11.2045     74.4289    250.2993   1.0329869866e+02   1.1248030255e+01    0.3535339    0.1259536  39.71  0.001525347    2.281    0.562
        20 -11.7007     65.2912    249.0360   1.0515259214e+02   1.2680434403e+01    0.4321791    0.2249945  46.26  0.002003622    1.664    0.399
        21 -11.3035     50.6141    250.0992   1.0836126153e+02   1.4265111522e+01    0.4681631    0.1434721  34.05  0.001967367    2.736    0.634
        22 -11.2999     44.8391    245.0670   1.0916768258e+02   1.5985792676e+01    0.3943678     0.209291  63.09  0.001728392    1.910    0.476
        23 -11.7705     36.8507    248.7036   1.1110218711e+02   1.6138568848e+01    0.4677731    0.2289993  53.53  0.002406711    1.804    0.446
        24 -11.6385     20.2931    249.1267   1.1445004205e+02   1.7819496652e+01    0.3846521    0.1974998  49.04  0.001990937    1.610    0.379
        25 -11.6325     12.1599    248.9524   1.1602076159e+02   1.8666098581e+01    0.3666501    0.1916041  51.98  0.001761492    1.572    0.364
        26 -11.1504      3.6391    250.4079   1.1771191782e+02   1.9181971804e+01    0.3147333    0.1736722  25.93  0.001873911    2.093    0.522
        27 -12.3231      3.3535    243.0426   1.1739863054e+02   2.0708226884e+01    0.5053643     0.256738  73.33  0.002230185    1.771    0.435
        28 -11.6678     29.6590    240.6840   1.1200889951e+02   1.8600482291e+01    0.4528771    0.2459316  66.16  0.001915927    1.778    0.437
        29 -12.2183     16.2651    240.4529   1.1472290160e+02   2.0023538884e+01    0.6115443    0.2385797  47.95  0.002614311    2.125    0.529
        30 -12.2809    226.3210    240.6752   6.9327386250e+01  -8.0553133678e+00    0.3057798    0.1713893 -14.06   0.00162922    1.840    0.456
        31 -11.7885    107.6370    240.2568   9.4733836845e+01   8.7070928923e+00        0.445    0.1797337  46.64  0.001770068    2.572    0.611
        32 -10.8121     38.2673    240.4208   1.1018902993e+02   1.7715523801e+01    0.3039769    0.1662883  60.18  0.001344728    1.733    0.423
        33 -11.5967     72.7556    240.2435   1.0265211580e+02   1.3549744447e+01    0.4203775    0.2319289  52.73  0.002050916    1.768    0.434
        34 -10.5118     64.8268    240.2844   1.0442210163e+02   1.4565807562e+01    0.2763752    0.1726476  68.06  0.001290397    1.740    0.425
        35 -11.0691     45.1981    237.2922   1.0845392702e+02   1.7596644008e+01     0.323364    0.1825237  52.80  0.001358017    1.602    0.376
        36 -11.5791      2.2563    220.8749   1.1641220350e+02   2.5550088171e+01    0.3994285    0.1897947 -88.13  0.001590801    1.907    0.476
        37 -11.6024      6.6339    236.2486   1.1639785397e+02   2.1828733548e+01    0.3890859    0.2127452  77.57  0.001601503    1.653    0.395
        38 -11.7429      4.9519    228.3553   1.1629033521e+02   2.3674378386e+01    0.4329293    0.2242204  69.82  0.001819201    1.770    0.435
        39 -11.4520     82.1386    236.5429   1.0012798439e+02   1.3080554903e+01    0.3562365    0.1866954  54.28  0.001638266    2.048    0.512
        40 -10.3504     33.0953    236.2366   1.1096448969e+02   1.9182801295e+01       0.2493    0.1254831  69.38  0.001221505    2.126    0.530
        41 -11.9906    231.4753    234.5190   6.7321157070e+01  -7.7346937806e+00    0.2940643    0.1713096 -23.43  0.001668802    1.521    0.343
        42 -11.1111     96.4117    235.8093   9.6756420608e+01   1.1243604305e+01    0.3324575    0.1697475  41.69  0.001443634    1.753    0.430
        43 -11.3944     14.2439    232.0115   1.1461112171e+02   2.2022858625e+01    0.4061511    0.2164623  66.22  0.001757796    1.735    0.424
        44 -11.1621     11.3421    225.7189   1.1481593929e+02   2.3671210622e+01    0.3485256    0.2003589  58.61  0.001496288    1.540    0.351
        45 -11.4808     60.0703    232.3117   1.0470473623e+02   1.6889567322e+01    0.3906137    0.1893944  49.09  0.001842764    1.927    0.481
        46 -11.1653     39.6977    231.0812   1.0913288428e+02   1.9579967244e+01    0.3766198    0.2215344  76.73   0.00181951    1.780    0.438
        47 -10.9622     48.6361    230.6479   1.0711763139e+02   1.8646731553e+01    0.3573974    0.2064727  69.88  0.001808648    1.876    0.467
        48 -11.8592     25.8696    228.6419   1.1194054974e+02   2.1606228362e+01     0.506865    0.2883514  80.19  0.002439938    1.745    0.427
        49  -9.9439     49.5134    243.4683   1.0804500843e+02   1.5773531848e+01    0.1262826    0.1041914  60.81 0.0001370956    1.034    0.033
        50 -12.8694    234.8104    243.7247   6.8258472748e+01  -9.5049872496e+00    0.4631542     0.254476  -4.43  0.002471933    1.989    0.497
        51 -11.6685    236.9890    227.8063   6.5153836212e+01  -7.3612777923e+00    0.3074061    0.1332256 -26.09  0.001405729    2.406    0.584
        52 -10.3716     32.3078    229.3091   1.1060197609e+02   2.0782517958e+01    0.2666458     0.133076  61.17  0.001310087    2.007    0.502
        53 -10.6084     73.3465    227.6553   1.0115944138e+02   1.6204694888e+01    0.2227786    0.1406254  61.93  0.001112271    1.712    0.416
        54 -11.1724     18.9335    221.8647   1.1294459513e+02   2.3810212666e+01    0.3201836    0.1924121  64.98  0.001173729    1.534    0.348
        55 -10.4586     55.0531    222.0446   1.0482964083e+02   1.9810722799e+01    0.2264245    0.1371836  62.01  0.001137575    1.710    0.415
        56 -10.7888     43.7274    221.3142   1.0737499281e+02   2.1317052257e+01    0.2963657    0.1755283  61.37  0.001529334    1.684    0.406
        57  -9.6636     63.6758    221.3269   1.0273137989e+02   1.8896274789e+01    0.1442477   0.09054842  62.72 0.0003801228    1.693    0.409
        58 -10.3551    239.3121    219.0156   6.3195027896e+01  -6.2653162534e+00    0.2095475   0.07457546 -26.29  0.000704216    4.214    0.763
        59 -11.7321     12.2293    216.7774   1.1404184336e+02   2.5589378665e+01    0.4551087    0.2508703  60.05  0.002085184    1.677    0.404
        60 -10.4441     24.3501    217.4743   1.1142935552e+02   2.4273092759e+01    0.2636892    0.1524133  70.53  0.001063081    1.705    0.414
        61 -11.1287     35.2344    216.7250   1.0890778494e+02   2.3315356469e+01    0.2630765    0.1639044  58.80  0.001424145    1.526    0.344
        62 -11.8700    248.5739    214.6700   6.0799092308e+01  -6.6979975038e+00     0.364764    0.1659652 -28.74  0.001804136    2.002    0.500
        63 -10.4169      1.4682    206.4518   1.1570516193e+02   2.8873732007e+01    0.2993408    0.1043032 -81.31  0.001292904    2.603    0.616
        64 -10.0218     44.6098    212.7925   1.0635828973e+02   2.3190817033e+01    0.1886135    0.1153109 -88.68 0.0007983144    1.707    0.414
        65 -10.6861     21.6718    211.1031   1.1153264983e+02   2.6006975142e+01    0.3114744    0.1969298  85.97  0.001739934    1.480    0.324
        66 -10.6101     28.9521    211.4469   1.0989553974e+02   2.5202581629e+01    0.2606551    0.1569187  81.08  0.001365404    1.668    0.401
        67 -10.2268     36.2946    207.8416   1.0785402696e+02   2.5282581591e+01    0.2211372    0.1456987  75.52  0.001181854    1.522    0.343
        68 -12.1396     12.8450    205.2365   1.1308699822e+02   2.8194800797e+01    0.5280862    0.2672548  46.78   0.00224409    1.850    0.460
        69  -9.7457     37.3156    201.6655   1.0701153710e+02   2.6651948849e+01    0.1430915   0.08780321  65.06 0.0007047189    1.691    0.409
        70  -9.5696     31.3418    201.6902   1.0846163660e+02   2.7272688513e+01    0.1416297   0.08482353  62.61 0.0007044814    1.694    0.410
        71 -10.1581     25.8342    203.7534   1.0996069675e+02   2.7331734992e+01    0.1888604    0.1310317  68.26  0.000905767    1.365    0.267
        72 -11.4512      2.4365    212.5684   1.1587785880e+02   2.7396961026e+01    0.3708581    0.2153964  82.97  0.001567573    1.528    0.346
        73 -11.9945      3.5744    197.0341   1.1460779007e+02   3.0901118064e+01    0.4153043    0.2258233  70.16  0.002082234    1.789    0.441
        74 -11.8790      4.2589    188.7787   1.1385174567e+02   3.2813825908e+01    0.5311362    0.2341118  67.26   0.00235986    2.547    0.607
        75 -10.9551      9.3962    198.1741   1.1335175573e+02   3.0157305207e+01    0.3138522     0.147341  76.61  0.001304645    2.307    0.567
        76  -9.8482     40.1526    194.1710   1.0553319783e+02   2.8173517348e+01    0.1962895    0.1445076  68.92   0.00107338    1.349    0.259
        77 -11.6626     16.8432    189.2638   1.1085877160e+02   3.1664288174e+01    0.3245211    0.1934687  78.62  0.001116945    1.682    0.406
        78 -10.7054     11.5342    190.9408   1.1228606948e+02   3.1710417926e+01    0.1978405    0.1096739 -79.64  0.001024475    1.584    0.369
        79 -10.7163     24.1646    186.4566   1.0878074973e+02   3.1693419291e+01    0.2768463    0.1535618  83.82  0.001310745    1.933    0.483
        80 -10.6289      5.3445    182.9195   1.1313914948e+02   3.4147300913e+01      0.20975    0.1330556  82.55  0.001011292    1.458    0.314
        81 -11.9364     11.6349    184.2312   1.1170468400e+02   3.3333557717e+01    0.3577342    0.1891886 -87.62   0.00176862    1.792    0.442
        82 -11.1640      1.7722    177.6798   1.1360046447e+02   3.5684595820e+01    0.3356141    0.1573435 -81.40  0.001341959    1.865    0.464
        83  -9.6772     30.3262    178.6725   1.0638761980e+02   3.3050729836e+01    0.1441604   0.09134323  65.59 0.0007050115    1.699    0.412
        84 -10.9041     17.1138    181.2446   1.1006854163e+02   3.3611969813e+01    0.2786193    0.1506992  84.50  0.001142961    1.941    0.485
        85  -9.8722     11.4834    172.4987   1.1069840118e+02   3.6242217673e+01    0.1310729    0.1104752 -88.72 0.0008101263    1.040    0.039
        86 -11.4600      6.3581    171.1536   1.1190088383e+02   3.6960266249e+01    0.3179516    0.1379047 -82.65  0.001409174    2.161    0.537
        87  -9.9877     28.6798    170.3486   1.0589544390e+02   3.5314366584e+01    0.1454604   0.09249903  67.13 0.0005091577    1.738    0.424
        88 -10.3758      1.4789    170.0220   1.1305347232e+02   3.7581163950e+01    0.2022259    0.1059821 -75.70  0.001031252    1.588    0.370
        89 -10.4076     10.9879    166.9454   1.1030166669e+02   3.7666160057e+01    0.2184445    0.1348655  66.11  0.001134994    1.723    0.420
        90 -10.1143      1.2406    164.9371   1.1268306041e+02   3.8851597557e+01     0.177121    0.0919107 -77.61 0.0008852796    1.624    0.384
        91  -9.6006     19.6722    164.3233   1.0768519437e+02   3.7639953630e+01    0.1405058   0.09035377  65.95 0.0003502237    1.693    0.409
        92 -10.2729     12.3164    161.6552   1.0941702649e+02   3.8894532107e+01    0.1390212   0.08749875  67.43 0.0007048376    1.718    0.418
        93 -10.8711      5.8340    161.1096   1.1111981149e+02   3.9495456296e+01    0.2057374    0.1559236  75.76 0.0009093665    1.292    0.226
        94 -10.9295     10.3967    155.2194   1.0927770490e+02   4.0656144173e+01    0.1932037    0.1105323 -85.74 0.0009532667    1.679    0.404
        95 -11.6579      4.1411    153.1048   1.1080540756e+02   4.1608860370e+01    0.3550993   0.09566382 -65.00  0.001370129    2.669    0.625
        96 -10.5002      2.3573    143.1813   1.1029593232e+02   4.4200436885e+01    0.1908797    0.1055569 -84.73 0.0009472308    1.709    0.415
        97 -11.3365      4.2754    136.6430   1.0900953768e+02   4.5722615894e+01     0.249933    0.1423877 -84.96  0.001255197    1.710    0.415
        98 -10.9205      2.4567    126.7256   1.0839350938e+02   4.8294132929e+01    0.2520021    0.1133563 -77.85  0.001127286    2.080    0.519
        99  -9.8737    249.6551    124.3099   4.3612268674e+01   8.3732686233e+00    0.1270129   0.08957245 -66.99 0.0007045056    1.702    0.413
       100 -11.0476    248.4993    118.9830   4.2732178543e+01   9.4617697539e+00    0.2040762     0.104696 -43.13  0.000975306    1.596    0.374
       101 -11.0451    247.4570    102.9581   3.9741630313e+01   1.2300018539e+01    0.1872622   0.08521099 -56.84  0.000808824    2.530    0.605
       102 -10.9012    249.2107     98.1739   3.8594914440e+01   1.2775967682e+01    0.1798868    0.1246942 -60.51    0.0010259    1.364    0.267
       103 -10.3916      2.0000     94.0160   1.0384625466e+02   5.6224849427e+01    0.2156056   0.06120802 -67.50 0.0008054387    2.963    0.663
       104 -11.0279    249.4878     87.9762   3.6596300143e+01   1.4344760634e+01    0.1919046    0.1012179 -43.65  0.000832415    1.572    0.364
       105 -11.5616    248.5888     74.5432   3.4127788351e+01   1.6554672960e+01    0.3102136   0.08438189 -44.43  0.001255458    2.897    0.655
       106 -11.2380      2.9028     66.3525   9.8012591541e+01   6.2363171000e+01    0.2121426     0.155087 -62.95 0.0009806115    1.383    0.277
       107 -12.2323      3.0109     49.6029   9.3691499998e+01   6.5763637514e+01     0.452769    0.1716846 -55.81  0.002186905    2.250    0.556
       108 -10.7892      8.4348     43.7162   8.9226980379e+01   6.6547459737e+01    0.2183929    0.1080841 -56.05  0.001141492    2.078    0.519
       109 -12.2588      2.7017     39.9992   9.0990137854e+01   6.7595594338e+01    0.4228572    0.1525841 -54.12  0.002029302    2.445    0.591
       110 -12.0982    226.0353    248.2160   7.0633574400e+01  -9.1483862622e+00    0.3535788    0.1998056  12.82  0.001937429    1.689    0.408
       111 -12.1250    212.8477    247.6872   7.3076955591e+01  -7.4793294333e+00    0.4019642    0.2200288  -0.18   0.00199408    2.172    0.540
       112 -12.0776      1.7068     25.3157   8.6491386505e+01   7.0215639255e+01    0.3924343    0.1375313 -52.44    0.0018652    2.885    0.653
       113 -10.5873    110.0041    248.5090   9.5237798801e+01   6.7199942279e+00    0.2083746    0.1146446  33.65 0.0008297046    1.577    0.366
       114 -10.8796     77.3637    246.6669   1.0229143274e+02   1.1602643839e+01    0.2080991    0.1299938  60.17  0.001096628    1.674    0.403
       115 -10.5902    143.9832    247.0000   8.7447711959e+01   2.0802079326e+00    0.2285454   0.06697598  32.89 0.0008088639    2.987    0.665
       116 -11.9962     97.6936    245.2106   9.7600330714e+01   9.1209533951e+00    0.4238788    0.2102302  46.01  0.001983003    1.893    0.472
       117 -12.2131     84.6223    244.8094   1.0048469095e+02   1.1010376437e+01    0.4189914    0.2287338  52.82  0.001937256    1.858    0.462
       118 -11.9215     57.5665    242.3166   1.0620758187e+02   1.5043539493e+01    0.4835462    0.2351335  54.64  0.002146978    2.032    0.508
