#   1 NUMBER                 Running object number                                     
#   2 MAG_AUTO               Kron-like elliptical aperture magnitude                    [mag]
#   3 X_IMAGE                Object position along x                                    [pixel]
#   4 Y_IMAGE                Object position along y                                    [pixel]
#   5 X_WORLD                Barycenter position along world x axis                     [deg]
#   6 Y_WORLD                Barycenter position along world y axis                     [deg]
#   7 A_WORLD                Profile RMS along major axis (world units)                 [deg]
#   8 B_WORLD                Profile RMS along minor axis (world units)                 [deg]
#   9 THETA_WORLD            Position angle (CCW/world-x)                               [deg]
#  10 FWHM_WORLD             FWHM assuming a gaussian core                              [deg]
#  11 ELONGATION             A_IMAGE/B_IMAGE                                           
#  12 ELLIPTICITY            1 - B_IMAGE/A_IMAGE                                       
         1 -11.7386    210.0236      2.5221   6.4630952627e+01   3.1784959080e+01     1.040425    0.6863073  63.82  0.002702599    1.571    0.363
         2 -13.2350    188.2970     27.1531   7.4431124130e+01   3.4730055053e+01     1.925599     1.434525   4.35  0.007301983    1.459    0.315
         3 -11.9219    200.8195     12.0581   6.8278816636e+01   3.3163474270e+01     0.689827    0.5846778  38.78  0.001130937    1.257    0.205
         4  -9.6706      9.9892     10.0127   1.2770246392e+02   7.3988856244e+01    0.1553575    0.1206432 -40.33 0.0004687954    1.013    0.013
         5  -9.2211      2.4608      8.5027   1.3246592013e+02   7.4747571355e+01    0.1249997   0.09367789 -46.25 0.0001142143    1.009    0.009
         6  -9.5019      5.4124      2.7576   1.2762441963e+02   7.5799413744e+01    0.1894455    0.0808784 -47.98 0.0009573541    1.708    0.415
         7 -12.5690    194.8006     20.2390   7.1443067586e+01   3.3847444384e+01     1.167048    0.8586623 -72.62  0.004308682    1.567    0.362
         8  -9.0980    223.5235    247.5030   1.1776256891e+02  -2.0787906073e-01    0.1051506   0.06983666  16.97 0.0001412635    1.020    0.019
         9  -9.6970    183.3097    249.8314   1.2456047089e+02   4.4507973591e+00    0.2121874   0.09241981  27.65  0.001257583    1.851    0.460
        10  -9.8385    144.2314    249.2535   1.3111942486e+02   9.3527344588e+00    0.1878433    0.1331117  43.65 0.0007584518    1.307    0.235
        11 -12.6930     32.7417    243.3807   1.4994892709e+02   2.2426871891e+01     1.457404    0.5892384  32.29  0.009381639    2.080    0.519
        12 -11.1482     35.3791    229.7645   1.4893336042e+02   2.4263530563e+01    0.3324789    0.2889008 -70.81  0.002866284    1.493    0.330
        13 -12.1270     49.8099    232.9583   1.4653869478e+02   2.2382989134e+01    0.8822682    0.2456233  42.73  0.004831342    2.362    0.577
        14 -12.0083     49.8774    225.3439   1.4611489573e+02   2.3570582874e+01    0.3430237    0.3002726  81.08 0.0009974618    1.256    0.204
        15 -14.6651     58.1326    212.4716   1.4377701727e+02   2.4837330090e+01     7.981699     2.417429  48.59   0.02498846    2.703    0.630
        16  -9.2577    139.0089    241.5172   1.3124757084e+02   1.0944924550e+01    0.1620462   0.07999863  34.77  0.000453209    1.516    0.341
        17  -8.9267     70.5269    238.5042   1.4319038328e+02   1.9411783848e+01    0.1759325    0.1312483  50.51  0.001301858    1.048    0.046
        18  -9.0676    192.9726    196.1019   1.1544901763e+02   9.3609920192e+00    0.2721354    0.1654373 -60.43  0.001099348    5.346    0.813
        19 -11.1249     72.5840    192.9644   1.3932754377e+02   2.6658353185e+01    0.3316201    0.2833365 -32.58   0.00128925    1.548    0.354
        20 -10.8594     77.2111    186.1318   1.3768741165e+02   2.7368839521e+01    0.2425706    0.2253154 -54.09 0.0004888849    1.276    0.217
        21 -12.3928     10.6388    207.2621   1.5251464559e+02   3.0128060408e+01    0.6345642    0.4276602  23.50  0.002756021    1.740    0.425
        22  -9.2124    189.8606    190.0305   1.1502772414e+02   1.0616434101e+01    0.1951548     0.163105  22.14 0.0004582439    1.148    0.129
        23  -9.8068      4.6445    190.1324   1.5308138894e+02   3.3652286115e+01     0.292832    0.1119232  33.80  0.001742134    2.207    0.547
        24 -10.3448      6.1917    183.0265   1.5252498424e+02   3.4867161118e+01    0.5020816    0.1234266  27.64  0.002370337    3.606    0.723
        25 -10.6214     85.2905    174.3042   1.3460762733e+02   2.8612472903e+01    0.2852595    0.2296767  52.58 0.0005859375    1.127    0.113
        26 -12.3860     73.3190    171.5529   1.3703670207e+02   3.0644618787e+01    0.4223146      0.26134 -42.20  0.001495371    2.104    0.525
        27  -9.7948    109.5654    247.8954   1.3700940799e+02   1.3703151808e+01    0.2145996    0.0914357  45.46  0.001001077    1.902    0.474
        28 -12.3092     89.2769    165.6919   1.3261881711e+02   2.9781761096e+01     2.144742    0.5861116  47.29  0.004519485    4.190    0.761
        29  -9.2962    230.3946    168.1680   1.0390383880e+02   7.2043541916e+00    0.1626804    0.1037466 -32.26 0.0005871746    1.688    0.408
        30  -9.3534      2.3871    167.8520   1.5275225345e+02   3.8093640760e+01    0.1801868    0.1172786  50.94 0.0007772989    1.305    0.233
        31 -12.4235     68.1496    145.8155   1.3522916661e+02   3.6643622033e+01     1.109057    0.6108492  79.58  0.003767153    2.602    0.616
        32  -9.1574    236.2327    234.9873   1.1405888970e+02  -6.0539116891e-01    0.1504327    0.1101088  54.77 0.0008967945    3.628    0.724
        33 -10.2013     47.1673    151.3481   1.4120359435e+02   3.7776727862e+01    0.2891285     0.163072 -84.76  0.001224428    1.800    0.444
        34  -8.6804    105.4124    146.0750   1.2576726730e+02   3.1458688428e+01    0.2901185    0.1811296 -45.73  0.000785898    1.702    0.412
        35 -11.2418     92.0100    149.1643   1.2962170681e+02   3.2786836113e+01    0.2571313    0.2386788 -18.39 0.0004706514    1.221    0.181
        36  -9.5887    103.1360    149.8566   1.2696080808e+02   3.1025587696e+01     0.267194    0.2498913 -65.13 0.0008563559    1.117    0.105
        37  -8.1249     20.6041    146.2993   1.4740401337e+02   4.1265379265e+01    0.1293987   0.06660295  58.74 0.0007004737    1.809    0.447
        38 -10.0890    142.3916    242.8353   1.3078740767e+02   1.0357384836e+01    0.2243603    0.1456207 -27.04  0.001254392    2.127    0.530
        39 -10.2323     74.6397    242.3276   1.4271118157e+02   1.8414293279e+01    0.2522843    0.1307459  54.23  0.001153518    1.684    0.406
        40  -9.0286    134.0327    137.1168   1.1704800805e+02   2.8544262631e+01    0.2035834    0.1825662   7.85 0.0002635577    1.108    0.097
        41  -8.9202    112.6571    135.7736   1.2207779492e+02   3.2448454274e+01    0.2753984    0.2108621 -12.46 0.0009606712    1.659    0.397
        42 -12.1545     56.8153    129.5722   1.3610164994e+02   4.1615771160e+01     1.795561    0.5901611 -77.49  0.005262441    5.452    0.817
        43  -9.8210    100.2372    133.0318   1.2478489218e+02   3.5005762454e+01    0.2658737    0.2110268 -25.77 0.0004857483    1.482    0.325
        44 -11.0694     42.0315    128.4512   1.4010186244e+02   4.3420344082e+01     0.368086    0.2556743  86.56  0.002140078    1.395    0.283
        45  -8.6700    108.8583    123.3765   1.2058828752e+02   3.5698669999e+01    0.1909533    0.1673715  32.44 0.0004194209    1.141    0.124
        46  -8.4735    198.3823    125.9621   1.0065911910e+02   1.8443635614e+01    0.1929518    0.1553563 -14.84 0.0003960538    1.127    0.113
        47  -8.4679    131.1153    122.0960   1.1452508302e+02   3.2046736952e+01    0.2091022     0.181919  -8.13 0.0002880022    1.201    0.167
        48 -10.4961    244.4014    116.9662   9.0852931084e+01   1.1261515639e+01    0.2464927    0.2018301  11.26 0.0001697374    1.141    0.124
        49  -9.2122    168.0474    113.7930   1.0385352716e+02   2.6414582643e+01     0.292439      0.25507 -67.31 0.0008905088    1.531    0.347
        50  -9.8093     54.5454    111.0204   1.3399509560e+02   4.6221849589e+01    0.2442432    0.1700577  52.74 0.0005949165    1.526    0.345
        51  -8.1634     32.5677    107.5080   1.4033404882e+02   4.9230360893e+01    0.1282713    0.1090711 -85.45 7.368802e-05    1.038    0.037
        52  -9.8605      2.4998    103.5030   1.4928711780e+02   5.2211032065e+01    0.2634812   0.09743181 -80.13  0.001219023    2.193    0.544
        53  -7.4073    247.3339     97.6754   8.5926478841e+01   1.3138426289e+01    0.1282704   0.09466758 -47.58 0.0007051009    1.711    0.416
        54  -8.3231    154.4770     77.4789   9.6804534760e+01   3.5764539526e+01    0.1542005    0.1436692  -8.59 8.860416e-05    1.012    0.012
        55  -8.0631    159.1474     60.1670   9.0264764113e+01   3.7551570510e+01    0.2012105    0.1762886 -52.31 0.0003514031    1.276    0.217
        56  -8.6049    196.3202     55.5086   8.2083520383e+01   2.9315996917e+01    0.2535123    0.1804871 -22.71 0.0006893614    1.300    0.231
        57  -8.6964    136.2787     45.9310   9.0380822998e+01   4.5331327569e+01    0.2245209    0.1977661 -42.28 0.0004688154    1.199    0.166
        58 -10.5867    245.6204    249.0419   1.1457685804e+02  -2.8887048215e+00    0.4166169        0.124  37.03  0.002234655    2.834    0.647
        59  -9.8560     69.1819    235.1535   1.4321547451e+02   2.0053168665e+01      0.27771    0.1532825  66.46  0.001853867    1.933    0.483
        60  -9.6588    190.7530    249.1550   1.2324882789e+02   3.6022381343e+00     0.210158    0.1036098  17.73   0.00124791    2.102    0.524
        61 -10.4147    145.2329     22.1420   7.9378994396e+01   4.6312152729e+01    0.2679953    0.2378238  -4.48 0.0003118097    1.100    0.091
        62  -8.4185    156.0362     16.9976   7.5567008453e+01   4.4073626501e+01    0.1745463    0.1651704  -2.77 0.0003368183    1.031    0.030
        63 -14.4898      9.7982    239.5982   1.5361466090e+02   2.4965642736e+01     5.291812    0.6250449 -70.29   0.02112412    7.005    0.857
        64 -10.0266     69.6254    244.5645   1.4372447231e+02   1.8628227063e+01    0.1829761    0.1674353  11.07  0.001637465    1.466    0.318
        65  -9.1090    250.6654     40.9187   7.1470251614e+01   1.9100556593e+01     0.188141    0.1023767 -25.04            0    1.528    0.345
        66  -9.1856    248.8045    241.3931   1.1304231821e+02  -2.6257464948e+00    0.1510542   0.06589086  24.88 0.0009551263    1.724    0.420
