#   1 NUMBER                 Running object number                                     
#   2 MAG_AUTO               Kron-like elliptical aperture magnitude                    [mag]
#   3 X_IMAGE                Object position along x                                    [pixel]
#   4 Y_IMAGE                Object position along y                                    [pixel]
#   5 X_WORLD                Barycenter position along world x axis                     [deg]
#   6 Y_WORLD                Barycenter position along world y axis                     [deg]
#   7 A_WORLD                Profile RMS along major axis (world units)                 [deg]
#   8 B_WORLD                Profile RMS along minor axis (world units)                 [deg]
#   9 THETA_WORLD            Position angle (CCW/world-x)                               [deg]
#  10 FWHM_WORLD             FWHM assuming a gaussian core                              [deg]
#  11 ELONGATION             A_IMAGE/B_IMAGE                                           
#  12 ELLIPTICITY            1 - B_IMAGE/A_IMAGE                                       
         1 -14.8265    163.4783     47.3933   7.5298844442e+01   3.8380980742e+01     1.095587      1.06085 -12.89  0.003785074    1.171    0.146
         2 -15.0519    177.5441     17.2781   6.4961238448e+01   3.8686478856e+01     1.542618     1.162956 -65.79  0.007218215    1.370    0.270
         3 -14.7147    189.9935     14.6080   6.2703826705e+01   3.6001403574e+01     1.383189    0.6376153 -87.86  0.005498857    3.022    0.669
         4 -11.0967    162.8506    245.0760   1.1990227240e+02  -3.6456895373e-01    0.3024196     0.182575  31.79 0.0006534879    1.599    0.375
         5 -20.3086     73.4137    176.8721   1.2923920807e+02   2.9175856042e+01     17.46843     7.006661 -64.29   0.06976419    2.365    0.577
         6 -13.2629    189.2207    178.4192   1.0256913373e+02   7.2283589736e+00     0.531478    0.3967436  48.61  0.001281998    1.369    0.270
         7 -12.0343    188.3919    174.1696   1.0185976568e+02   8.2572517087e+00    0.3744497    0.2921868 -55.56  0.001109602    1.393    0.282
         8 -12.9254    173.3941    174.7417   1.0522515147e+02   1.1206029587e+01    0.4089592    0.3071601  56.97   0.00159839    1.435    0.303
         9 -11.9010    203.4828    174.2701   9.8751000803e+01   5.2068483734e+00    0.5092992     0.230632 -56.95    0.0016436    3.687    0.729
        10 -11.8375    225.0094    175.5241   9.4801162408e+01   8.3463754634e-01    0.2270928    0.1803496 -34.95 0.0005243884    1.191    0.161
        11 -12.2090    195.3450    172.7854   1.0010858261e+02   7.1281636803e+00    0.4837422     0.344062 -64.33  0.001735825    1.818    0.450
        12 -11.5302    192.4077    165.3035   9.9124146028e+01   9.2447737733e+00    0.4532882    0.2806964 -56.10  0.001939649    1.877    0.467
        13 -13.0076    176.9058    169.4016   1.0333166194e+02   1.1610905663e+01    0.5145904    0.2819972 -58.16  0.001985996    2.296    0.564
        14 -12.7965    134.6982    238.7418   1.2464383027e+02   5.6060756696e+00    0.3335018    0.2840561 -73.42 0.0008937265    1.316    0.240
        15 -11.5067    207.6960    171.6248   9.7345947282e+01   4.8893925332e+00    0.3895666    0.2376073 -57.45 0.0008537372    2.092    0.522
        16 -12.1703    230.3357    166.7331   9.1972038295e+01   1.4554155604e+00    0.3338659    0.1695293 -51.97  0.001358786    2.360    0.576
        17 -10.8893    217.5992    218.1927   1.0457520164e+02  -5.2775377813e+00    0.2399433    0.1236886 -43.19   0.00113238    2.088    0.521
        18 -11.3706     20.2583    166.9454   1.4040882414e+02   3.7878208775e+01    0.2754482    0.1861579 -50.79  0.001165977    1.620    0.383
        19 -10.9291     19.1888    216.2499   1.4502005705e+02   2.6983045027e+01    0.1716469     0.111385 -77.28 0.0002663582    1.322    0.244
        20 -12.6097    189.0928    154.6288   9.7476444477e+01   1.2148336680e+01    0.5676351    0.5433601  18.58  0.002522708    1.074    0.069
        21 -13.7750     12.3340    205.8197   1.4552307551e+02   2.9909428285e+01    0.5728515    0.3674629  20.20  0.003449243    2.502    0.600
        22 -10.8544     22.9530    156.0485   1.3855444550e+02   4.0171513281e+01    0.1897279    0.1531464 -78.76  0.000451005    1.017    0.017
        23 -10.1916     13.2988    155.7620   1.4080844414e+02   4.1082226668e+01    0.1708253    0.1300082 -38.61  0.000567686    1.652    0.395
        24 -11.3343     17.8268    153.4085   1.3947240044e+02   4.1245722323e+01    0.2260316     0.148692 -66.78 0.0003939878    1.239    0.193
        25 -12.9506    165.4203    153.9699   1.0254120739e+02   1.7384467114e+01    0.5436566    0.3254722  54.97  0.001750357    1.835    0.455
        26 -12.2715    174.2152    148.8121   9.9390648935e+01   1.6602689202e+01    0.4180301    0.3375542 -53.69  0.001245596    1.256    0.204
        27 -12.0811     27.5826    145.7388   1.3611008560e+02   4.2169508667e+01    0.4087971    0.3168121 -37.44   0.00182767    1.536    0.349
        28 -10.4273      7.6735    149.5889   1.4146548303e+02   4.2952341216e+01    0.1677435    0.1107097 -48.01 0.0007067571    1.623    0.384
        29  -9.8423     19.3344    148.2509   1.3849296475e+02   4.2319873675e+01    0.1167405    0.0830605 -44.82 0.0002938782    1.560    0.359
        30 -10.8938    140.0040    202.2107   1.1790174133e+02   1.1941359528e+01    0.3084465    0.2036924 -62.74  0.001138417    1.699    0.411
        31 -10.0715    145.0000    231.9660   1.2157146006e+02   5.0753234605e+00     0.199055   0.07801326 -52.16 0.0007957598    2.896    0.655
        32  -9.9620     16.3717    136.2305   1.3771735325e+02   4.5367866131e+01    0.1161534    0.0814533 -40.08 0.0006896345    1.601    0.375
        33 -10.8375    167.1584    133.8615   9.7476607895e+01   2.1416090731e+01    0.2423298    0.2133449  89.00 0.0005395082    1.248    0.199
        34 -10.4175    134.0879    198.2757   1.1855180238e+02   1.3895641441e+01    0.3335952    0.2306405 -29.90  0.001531921    2.016    0.504
        35 -12.8650    160.3398    127.8796   9.7593122578e+01   2.4255877041e+01    0.5180355    0.3562893 -54.58  0.001762915    1.512    0.339
        36 -11.7507    219.9357    197.6645   1.0023750184e+02  -2.2149794810e+00    0.2549092    0.1932714 -43.57 0.0006224063    1.394    0.283
        37 -11.8083    120.9473    197.1820   1.2133855340e+02   1.6558976026e+01    0.2338079    0.2070505  86.66 0.0003046446    1.106    0.096
        38  -9.8167    130.9043    231.4792   1.2440605733e+02   7.6378538996e+00    0.1807853    0.1184551  43.29  0.000403284    1.348    0.258
        39 -10.6849    139.9767    241.5081   1.2396239629e+02   4.1912478684e+00    0.2272217    0.1635624 -43.76  0.001285457    1.686    0.407
        40 -11.0604    167.8566    112.7030   9.2073156741e+01   2.5761459058e+01    0.3155257    0.2374023 -86.47   0.00138789    1.729    0.422
        41 -11.0926    231.2847    113.7058   8.0175579220e+01   1.1161495570e+01    0.2494288    0.2412882 -35.57 0.0007725718    1.116    0.104
        42 -10.2087      6.6034    229.5641   1.4814025355e+02   2.5535250838e+01    0.1115587   0.07876284  80.85 0.0001519113    1.016    0.016
        43 -11.0276    205.0680    110.2661   8.3908625431e+01   1.7591631523e+01    0.3863659    0.2044924  48.70  0.001099194    1.981    0.495
        44 -10.8565    151.2921    236.0513   1.2089005230e+02   3.2162630064e+00    0.2415346    0.1925258  33.91  0.001072932    1.191    0.161
        45 -11.8588     36.8964    102.1485   1.2613675582e+02   5.1422002382e+01    0.3200801    0.1922828  16.03  0.001694592    2.083    0.520
        46 -11.0585    132.8733    182.7371   1.1606346335e+02   1.7577182367e+01    0.4090815      0.24266 -80.47  0.001501069    2.873    0.652
        47 -12.2889    185.5019    169.0080   1.0138390987e+02   9.9106936946e+00    0.5442086    0.2989967 -49.62  0.001492546    1.902    0.474
        48 -10.6945    144.8856     82.1161   8.9114359072e+01   3.7179250202e+01    0.2259847    0.2056817 -86.27 0.0004297794    1.184    0.155
        49 -14.5253    151.7409     62.2583   8.1864570273e+01   3.8985152002e+01     1.508479     1.108425  34.07  0.003627617    1.524    0.344
        50  -9.9329    155.8857    247.3422   1.2161109442e+02   4.4170701569e-01    0.1704799    0.1369164  39.79 0.0003275301    1.067    0.063
        51 -13.3854    167.9280     39.0866   7.2213748296e+01   3.8424723976e+01    0.4509576    0.4006161  69.74 0.0008387461    1.020    0.019
        52 -11.2745     13.6171     59.9235   1.2436364304e+02   6.2090798124e+01    0.1807699    0.1605527   5.50 0.0004517606    1.323    0.244
        53 -11.4310    127.8534    246.7045   1.2706912205e+02   5.3059509284e+00    0.1717872    0.1603141 -61.38 0.0005015229    1.278    0.218
