#   1 NUMBER                 Running object number                                     
#   2 MAG_AUTO               Kron-like elliptical aperture magnitude                    [mag]
#   3 X_IMAGE                Object position along x                                    [pixel]
#   4 Y_IMAGE                Object position along y                                    [pixel]
#   5 X_WORLD                Barycenter position along world x axis                     [deg]
#   6 Y_WORLD                Barycenter position along world y axis                     [deg]
#   7 A_WORLD                Profile RMS along major axis (world units)                 [deg]
#   8 B_WORLD                Profile RMS along minor axis (world units)                 [deg]
#   9 THETA_WORLD            Position angle (CCW/world-x)                               [deg]
#  10 FWHM_WORLD             FWHM assuming a gaussian core                              [deg]
#  11 ELONGATION             A_IMAGE/B_IMAGE                                           
#  12 ELLIPTICITY            1 - B_IMAGE/A_IMAGE                                       
         1 -12.6126    206.2629     52.3823   3.6725822429e+01   2.7646718250e+01     1.304332     1.188662  49.22  0.008563319    1.349    0.259
         2 -13.7269    222.8277     39.6241   3.2189211203e+01   2.5908765399e+01    0.9139625    0.8148925  51.00  0.004378602    1.465    0.317
         3 -13.5275    230.6398     33.5287   3.0240634532e+01   2.5117805976e+01    0.8816568    0.7211767  82.63  0.001412575    1.270    0.213
         4 -12.3610      8.0540     41.8494   9.2612323717e+01   6.8529375726e+01    0.8861099    0.4637115  33.11  0.003951994    2.253    0.556
         5 -12.9431      2.5505      7.9255   8.1744543621e+01   7.5048271953e+01    0.9833897    0.4434396 -47.28  0.005278079    2.293    0.564
         6 -12.8122    248.9480     16.8772   2.5699537094e+01   2.3599047216e+01    0.5963904    0.2693894 -39.30  0.002807567    1.831    0.454
         7 -10.9884    151.0221    228.5033   8.4829886454e+01   5.6187213304e+00    0.3586105    0.1157594  32.71  0.001369768    2.754    0.637
         8 -12.8563     43.1779    215.5831   1.0844084355e+02   2.2967348186e+01     1.315418    0.6149323 -68.86  0.001026165    2.140    0.533
         9 -12.6893     47.8850    175.8161   1.0319341422e+02   3.1936077385e+01      1.09588    0.6755919 -27.02  0.001507972    2.379    0.580
        10 -11.8798     54.7584    170.1053   1.0052213925e+02   3.2562521024e+01    0.3554837    0.2999944 -29.44 0.0005995295    1.373    0.271
        11 -14.9634     31.1102    244.0115   1.1317368003e+02   1.8246341239e+01     5.945966     1.680214  21.39     0.017632    6.899    0.855
        12 -14.6618     99.6177    227.6749   9.6376918432e+01   1.3152727415e+01     7.145588     1.098098  40.72   0.01947739    5.137    0.805
        13  -9.3147    247.3158    182.6996   5.8314625067e+01  -1.7689329047e-01    0.1069842   0.09114978 -50.40 0.0002929395    1.614    0.380
        14  -8.3276     99.6424    180.7522   8.9651265234e+01   2.3541107908e+01     0.146504    0.1132623  -5.81 0.0003563334    1.601    0.375
        15  -8.4489    217.7709    174.9854   6.1772498703e+01   5.1517519948e+00    0.1664326   0.09530497 -36.79 0.0002063774    1.530    0.346
        16  -8.5787    186.5051    175.5100   6.7840990666e+01   9.9886444924e+00    0.1407408    0.1246159 -12.64 0.0008105857    1.005    0.005
        17 -11.7829     95.3775    169.0644   8.8812451684e+01   2.7041002160e+01     3.117931    0.7073225  46.82  0.005932681    9.199    0.891
        18 -12.9696     51.8602    114.1236   9.1933612917e+01   4.7452470391e+01     1.624576    0.5388653 -66.38  0.003660935    3.807    0.737
        19 -12.7197     75.0945    154.5441   9.2115385489e+01   3.3811001471e+01    0.7703882    0.7173542 -55.95  0.001346853    1.062    0.058
        20 -13.6877     68.0168    144.1239   9.2417186664e+01   3.7520227795e+01     2.323367     1.242184  75.43  0.004716793    4.163    0.760
        21 -11.2237     66.7781    160.9157   9.5668558292e+01   3.3354803545e+01    0.3006776    0.2769866 -33.89  0.000460833    1.162    0.140
        22 -13.5196     52.4240    156.3847   9.9274882670e+01   3.6380712589e+01    0.7872375    0.5017753 -53.24  0.002184893    1.525    0.344
        23 -12.2698     32.3759    156.1680   1.0529882356e+02   3.8640410206e+01    0.5384882    0.4014657  35.58  0.002655585    1.392    0.282
        24  -8.9236    134.0000    146.5006   7.3776652616e+01   2.5581201704e+01    0.3436204   0.08686307 -48.47 0.0009327936    3.919    0.745
        25 -12.3283     78.8290    139.6422   8.8149516909e+01   3.7066958415e+01    0.5176057     0.417549 -78.41 0.0004542616    1.364    0.267
        26 -10.6282     91.6390    141.6861   8.4621697967e+01   3.4471815032e+01    0.3601844    0.3326634 -35.75 0.0008741834    1.089    0.082
        27  -9.4740     95.2675    138.5453   8.2853854051e+01   3.4636874909e+01    0.3729151    0.2469055 -33.00  0.001255522    1.749    0.428
        28 -10.3132     45.8880    135.8353   9.8120398987e+01   4.2530358999e+01    0.2292386    0.1884221 -38.65 0.0007606222    1.257    0.204
        29  -8.3093    140.6967    135.2568   6.9486738005e+01   2.6798340886e+01    0.1467231    0.1229635  79.76 0.0001784337    1.511    0.338
        30 -10.1921     37.1503    134.6219   1.0082936258e+02   4.3799022281e+01    0.2389309    0.1848893  10.27 0.0007285585    1.481    0.325
        31 -10.0639     41.8010    134.1468   9.9201832108e+01   4.3430839376e+01    0.2110627    0.1602362 -40.51   0.00108357    1.353    0.261
        32 -10.8092    106.0163    130.6664   7.7858864422e+01   3.4634087925e+01    0.4437068     0.358128  18.86  0.001462541    1.356    0.263
        33  -9.5901     54.6415    221.3717   1.0625264642e+02   2.0359704141e+01    0.2260689    0.1521131 -68.49 0.0008114772    1.560    0.359
        34  -9.1588    110.9096    167.5771   8.4276244452e+01   2.4835113307e+01    0.2179209    0.2008085 -56.16 0.0003612181    1.117    0.104
        35 -10.9035     91.6950    126.7454   8.1292923107e+01   3.8186371872e+01    0.3179776    0.2730754 -21.60 0.0005198928    1.252    0.201
        36 -12.9682     10.1141    228.2385   1.1670936234e+02   2.3555209160e+01    0.9685351    0.6713215  79.60  0.002032965    1.266    0.210
        37 -11.4991     66.4846    128.9871   8.9969548914e+01   4.1654881849e+01     0.416801    0.2980915  43.68  0.001985027    1.473    0.321
        38 -11.3748    244.0126    121.7633   4.7009383441e+01   9.9310269563e+00    0.3913521    0.1289599 -44.37  0.001599779    2.604    0.616
        39  -9.6830    103.8743    119.0415   7.5666610527e+01   3.7818521972e+01    0.2220973    0.2176538 -16.23 0.0002862913    1.004    0.004
        40  -9.8441    204.9501    110.6465   5.0382396195e+01   1.8705832457e+01    0.3135326    0.2371582  37.09  0.001678057    1.551    0.355
        41 -11.4019     53.6224     92.5023   8.6118113687e+01   5.2581604938e+01    0.7401283    0.3871682 -52.20  0.002771668    1.775    0.437
        42  -8.3413     80.3336     96.6761   7.7346888832e+01   4.7408663973e+01    0.1532888    0.1220622  76.87 0.0007050773    1.709    0.415
        43 -10.0566     41.6080     92.0827   9.0814868056e+01   5.4195352202e+01    0.2532506    0.2019641   0.31 0.0005118012    1.335    0.251
        44 -10.7067    164.4451     84.3277   5.1103578352e+01   3.1933901568e+01    0.2571507    0.2144322 -15.82 0.0009284455    1.405    0.288
        45  -8.7915     74.9375     81.4318   7.4766794028e+01   5.1765578331e+01    0.1946205    0.1259773  60.02 0.0003628017    2.261    0.558
        46  -9.1741    184.5672     77.2333   4.5709455416e+01   2.8630432942e+01     0.183785    0.1317774 -26.59 0.0005005107    1.562    0.360
        47  -9.6747    161.5035     75.5059   4.9293298885e+01   3.4124745855e+01    0.1414193    0.1385321 -75.78 0.0008102429    1.045    0.043
        48 -11.0311     13.3740     60.4571   9.5366572144e+01   6.4208595676e+01    0.3899086    0.1876337 -53.07 0.0005850259    1.727    0.421
        49 -10.7130      1.7774     59.4020   1.0099331113e+02   6.5151981624e+01    0.4872907    0.1172704 -70.38  0.001408891    5.706    0.825
        50 -14.3289     11.5707    204.9501   1.1509303729e+02   2.8552356823e+01     1.274745     0.984387 -27.77  0.007847557    1.805    0.446
        51  -8.8833    197.8625    223.4727   7.4315721990e+01  -6.3500032534e-02    0.1715601    0.1102436  26.62 0.0006842868    1.445    0.308
        52 -15.9225     24.4440    194.0282   1.1121656565e+02   2.9926709175e+01     9.219706     2.965758 -88.57   0.02910017    4.671    0.786
        53 -11.2903      2.6139     50.5314   9.8295436599e+01   6.7056449962e+01    0.3678481     0.274702  88.87  0.002168115    1.872    0.466
        54  -8.5681    111.3164    203.7017   9.0292212632e+01   1.6491260226e+01    0.1426028    0.1047552  60.55 0.0003402356    1.611    0.379
        55  -8.4175     94.7162     46.3654   5.5931922179e+01   5.4272170826e+01    0.1386872     0.111151 -72.57  0.000701824    1.689    0.408
        56 -10.4257    249.8588     31.1298   2.8333346738e+01   2.1802828361e+01    0.2054565    0.1334627 -38.98  0.001359372    1.413    0.292
        57  -8.7228    115.4957     31.5142   4.5202090182e+01   5.1492992205e+01      0.13703    0.1238541  56.94 0.0003419999    1.001    0.001
        58  -9.1958    121.0521     29.0474   4.3178929621e+01   5.0458392230e+01    0.2068281    0.1535666 -73.98 0.0004716825    1.612    0.380
        59 -10.1183    192.2182    193.5965   7.0164677934e+01   5.7650946261e+00    0.4291902    0.2440791 -64.02   0.00146384    4.906    0.796
        60 -11.0131     10.5506     53.6122   9.4897497562e+01   6.5901955940e+01    0.2936479     0.170779 -14.55  0.001539913    1.782    0.439
        61  -9.7579    189.7981     15.1500   2.9675636475e+01   3.5752640841e+01    0.1915805    0.1430374 -67.41 0.0008445122    1.172    0.147
