#   1 NUMBER                 Running object number                                     
#   2 MAG_AUTO               Kron-like elliptical aperture magnitude                    [mag]
#   3 X_IMAGE                Object position along x                                    [pixel]
#   4 Y_IMAGE                Object position along y                                    [pixel]
#   5 X_WORLD                Barycenter position along world x axis                     [deg]
#   6 Y_WORLD                Barycenter position along world y axis                     [deg]
#   7 A_WORLD                Profile RMS along major axis (world units)                 [deg]
#   8 B_WORLD                Profile RMS along minor axis (world units)                 [deg]
#   9 THETA_WORLD            Position angle (CCW/world-x)                               [deg]
#  10 FWHM_WORLD             FWHM assuming a gaussian core                              [deg]
#  11 ELONGATION             A_IMAGE/B_IMAGE                                           
#  12 ELLIPTICITY            1 - B_IMAGE/A_IMAGE                                       
         1 -11.7616    249.0041      2.5254   3.5995008889e+01   2.0904646267e+01     1.400831    0.6421095  -1.04  0.005566206    2.987    0.665
         2 -13.2084    182.2355     80.6031   6.6201540809e+01   2.8194435300e+01     1.825017     1.586586 -37.49  0.008981782    1.167    0.143
         3 -13.1657    177.2975     68.7687   6.3705848871e+01   3.1204178521e+01      2.26567     1.143394 -60.72  0.002688573    3.765    0.734
         4 -13.2859    242.7427     44.7777   4.7766995549e+01   1.8295249396e+01     2.189584     1.321045 -35.93   0.00582927    1.499    0.333
         5 -11.4177    225.7043     17.7776   4.1908353394e+01   2.5122834399e+01     1.405119     0.762127 -56.87  0.004454029    2.015    0.504
         6 -13.6653    189.1720     43.7866   5.4067037697e+01   3.1652752072e+01     12.57903     1.778109 -28.59   0.03065646    5.224    0.809
         7 -13.2343    218.2693     60.5193   5.4916512631e+01   2.2219385925e+01     2.696668      1.52534 -68.48    0.0103397    3.010    0.668
         8 -14.6997    217.6197     74.8747   5.8903537555e+01   2.0578023080e+01     10.99607     2.731949 -42.50   0.02413245    5.176    0.807
         9 -13.8507    220.8707     36.1761   4.7701462435e+01   2.4423390915e+01     8.815295    0.9952695 -41.82   0.01722123    9.222    0.892
        10 -10.6553    135.2319     12.2901   5.1488784732e+01   5.0186293260e+01     0.609711    0.2539704 -25.53 0.0009830496    2.325    0.570
        11 -11.8266    233.5926      4.4787   3.7512128050e+01   2.4396110849e+01     0.743865    0.4305536 -19.88  0.003089301    1.624    0.384
        12  -9.3709    115.9380     12.5119   5.5529680907e+01   5.5270512889e+01    0.3635537    0.2358338  65.24  0.001091554    1.585    0.369
        13 -10.8174    120.2597      8.9315   5.2938939155e+01   5.4567970728e+01    0.5439981    0.4500705 -39.03  0.001416345    1.228    0.186
        14  -8.9862    209.9530      1.4090   3.8353539470e+01   3.0664550067e+01    0.4930087    0.1839715  80.68  0.001280421    2.929    0.659
        15 -11.3282    216.2473      7.6342   3.9733241397e+01   2.8475002050e+01    0.3073981    0.2323084 -30.99 0.0007019552    1.228    0.186
        16 -11.5968    215.8708      3.1266   3.8412462507e+01   2.8972671917e+01    0.3118453    0.2202467 -16.28 0.0006217902    1.412    0.292
        17 -14.6314    240.8753     26.1915   4.2941831641e+01   2.0630236079e+01     13.53062          nan  62.07   0.03091309    8.457    0.882
        18  -9.7149    182.4216      3.3397   4.1470404816e+01   3.7954815331e+01    0.4365687     0.344722  59.14  0.002240705    1.267    0.210
        19  -8.6624    186.6448      2.2392   4.0669209727e+01   3.6884235285e+01     0.290747    0.1466226 -15.35 0.0007092938    2.066    0.516
        20  -9.3995    171.3011      2.7251   4.2455555822e+01   4.1111105829e+01    0.4216415    0.2758131 -63.15  0.001850348    1.658    0.397
        21  -9.0882    138.9098      3.5487   4.7140828982e+01   5.0093642920e+01    0.3350454    0.1963794 -22.89 0.0008792191    1.699    0.411
        22 -10.0597    228.5519    176.0431   7.9171662810e+01   6.3979082761e+00    0.2520768     0.156563  54.38   0.00145651    2.006    0.501
        23  -8.8392    221.6357    176.6821   8.0354160203e+01   7.4665558011e+00       0.1263   0.07323604  20.47 0.0007040311    1.774    0.436
        24 -10.0110    101.0010    176.0119   1.0239432636e+02   2.7773484725e+01    0.1672007    0.1336593  56.92  0.001140396    1.006    0.006
        25  -9.7963    243.1048    167.0914   7.5420710684e+01   4.9170811642e+00    0.3064421    0.1412079 -39.87  0.001527587    3.078    0.675
        26  -9.3863    208.0852    165.8330   8.0662041054e+01   1.0974057026e+01    0.3321275    0.1897946  46.19  0.001851724    1.571    0.363
        27  -8.0035     72.4825    164.1139   1.0710305175e+02   3.4006101963e+01    0.1504853    0.1074499 -78.48 0.0005731922    1.423    0.298
        28 -12.1509    199.2994     70.9658   6.0601330429e+01   2.5446529442e+01     1.261309    0.6044239  35.88  0.004669916    2.678    0.627
        29 -10.1384    119.4800    243.7176   1.0563464235e+02   1.5375051811e+01      0.18098    0.1400755  48.37 0.0006078007    1.140    0.123
        30  -9.3147    135.8476    242.0559   1.0286429058e+02   1.3360462287e+01    0.2609107   0.09659478  47.96  0.001170287    2.018    0.504
        31  -8.8648     77.3066    232.3198   1.1174171142e+02   2.2267181161e+01   0.08531862   0.07218383  29.23 0.0003952789    1.636    0.389
        32  -8.9106     91.3313    228.6639   1.0911968513e+02   2.1006701234e+01    0.1100802   0.05639251  59.94 0.0007052138    1.734    0.423
        33  -8.7603    231.0958    219.1260   8.5411282249e+01   2.0665105814e+00    0.1555881   0.09991357  24.29            0    1.185    0.156
        34  -9.1750     37.3412    214.6812   1.1763231177e+02   2.9474529076e+01    0.1040381   0.07451684  59.09 0.0008178129    1.079    0.074
        35  -8.9763    189.3750    150.6243   8.1099387213e+01   1.6308092592e+01     0.245956    0.1781341  37.82 0.0009386851    1.200    0.167
        36  -8.5880    204.0567    152.5065   7.8898678328e+01   1.3313506125e+01    0.1896993    0.1105249  45.79 0.0005054118    1.538    0.350
        37  -8.7096    173.4839    150.4757   8.3990026244e+01   1.9346239423e+01    0.1303812    0.1131822  38.87 6.341034e-05    1.013    0.013
        38  -9.2147    149.7230    146.4937   8.7923464981e+01   2.4481926704e+01    0.3123926    0.1898677  89.91  0.001110736    4.541    0.780
        39  -9.4512    133.5019    142.9795   9.0695206194e+01   2.8116496647e+01    0.5958107    0.1917749 -57.85  0.001768132    5.831    0.828
        40 -10.1556    186.8892    182.6205   8.7041320659e+01   1.2624290566e+01    0.2076493    0.1709256  36.03 0.0003479752    1.056    0.053
        41 -10.3027     69.5096    145.4814   1.0570298312e+02   3.8039794045e+01    0.3658449    0.2450883  70.04  0.001510839    1.379    0.275
        42 -10.2784     66.6541    144.3168   1.0624431818e+02   3.8660521705e+01    0.4175197    0.2505137  86.30  0.001824038    1.755    0.430
        43 -11.0322    179.1174    142.8523   8.1479654943e+01   1.9376410014e+01     0.441439    0.3521246 -80.01  0.002470258    1.852    0.460
        44  -9.4178    192.1928    144.1803   7.9353953187e+01   1.6646456192e+01     0.220435    0.1672529  43.39 0.0003515139    1.188    0.158
        45  -8.4735    159.4535    143.4743   8.5399830548e+01   2.3110730478e+01    0.1326285    0.1175524  44.63 0.0008082513    1.011    0.011
        46  -9.3731    229.6166    201.1901   8.3041843832e+01   3.8290826796e+00    0.1951263    0.1834271 -65.53 0.0007120579    1.883    0.469
        47 -10.0309    212.5825    137.2881   7.4466164655e+01   1.3609344383e+01     0.335969    0.2619875  81.05  0.001851684    2.062    0.515
        48 -13.3212    232.1238     52.1703   5.0904500718e+01   1.9929474232e+01     1.375023    0.9101456 -50.24  0.001883254    1.637    0.389
        49 -10.5226    128.7142    114.5640   8.6178156685e+01   3.4286126134e+01    0.7952164    0.4748082 -84.18   0.00286299    3.638    0.725
        50 -10.2912    136.6351    126.7496   8.6930159341e+01   3.0435623373e+01    0.5879671    0.3203214 -61.86  0.002518452    2.524    0.604
        51  -8.7765    133.3060    121.6336   8.6626424695e+01   3.2035862815e+01    0.2548281    0.2312637  72.76 0.0007765112    1.084    0.077
        52  -8.7546      2.3475    130.7860   1.2089189957e+02   4.8133898349e+01    0.1483195   0.07992648 -77.14 0.0003801678    1.624    0.384
        53  -8.9184    175.4516    129.4712   7.9450566934e+01   2.2118284021e+01    0.1357084    0.1233689  36.17 7.629041e-05    1.006    0.006
        54  -9.2670    152.6408    128.8206   8.3897291578e+01   2.6877207558e+01    0.1838658    0.1283155 -54.36 0.0009430192    1.657    0.397
        55 -10.5136    160.0964    129.6021   8.2518313187e+01   2.5235685956e+01    0.3914448    0.3240575   2.42  0.002209269    1.456    0.313
        56  -9.9512    205.7548    122.1866   7.2385124549e+01   1.6923091468e+01    0.2458024    0.2266013 -71.85 0.0008082045    1.399    0.285
        57  -8.6235    140.7953    121.5903   8.4935068862e+01   3.0544762910e+01    0.2059948    0.1232509  57.47 0.0009475405    1.733    0.423
        58 -10.8400    215.1662    116.5203   6.9559440040e+01   1.5734266484e+01    0.4822354    0.2137737 -30.22  0.002107753    2.254    0.556
        59 -10.4864    159.7123    116.3794   7.9723944494e+01   2.7527273447e+01    0.3581001    0.2725443 -71.63 0.0008289394    1.735    0.424
        60 -10.1991    168.1228    114.1372   7.7493744868e+01   2.6096397163e+01    0.3994898    0.2919323 -36.86  0.001018231    1.454    0.312
        61  -8.7371    152.8602    115.7938   8.1034059974e+01   2.9081264771e+01    0.2048548    0.1806054  28.22 0.0004484286    1.183    0.155
        62  -9.1048    173.3224    113.3870   7.6288918498e+01   2.5091854522e+01    0.3135256    0.2198408 -58.50  0.001525921    1.836    0.455
        63  -9.7705    135.0933    109.9179   8.3647387135e+01   3.3871637702e+01    0.7583122    0.1591829 -42.30  0.002008236    5.539    0.819
        64 -10.8084    215.4073    107.7937   6.7505737804e+01   1.6812042855e+01     0.466972    0.2463098  19.59  0.001811972    2.990    0.666
        65 -11.6660    202.4448    102.1599   6.8278185917e+01   2.0369515676e+01    0.5405809    0.4283441  44.55  0.001660798    1.219    0.179
        66  -9.6832    124.8155    102.6275   8.4390028386e+01   3.7393239210e+01    0.3929121    0.2905194  44.31  0.001625621    1.336    0.252
        67  -9.3360    143.3359    104.4032   8.0458151593e+01   3.3155210660e+01    0.2887619    0.1171998  37.61 0.0009520337    3.257    0.693
        68  -9.7682    149.3341    100.3990   7.8131248166e+01   3.2570749460e+01    0.3940151    0.2677914  55.39 0.0009066904    1.451    0.311
        69 -10.0392      7.5001     99.0203   1.1750935656e+02   5.4610143219e+01    0.2693584   0.07896364 -72.24  0.001212208    2.635    0.620
        70  -9.1571    135.5383     96.8842   8.0392229331e+01   3.6242595414e+01    0.2747443    0.2332037  67.90 0.0009716815    1.201    0.167
        71 -10.7092    159.2555     94.7509   7.4545523470e+01   3.1326314752e+01     1.104676    0.2437295  44.79  0.002821542    5.086    0.803
        72 -10.4263    162.3415     93.3188   7.3526061819e+01   3.0860562217e+01    0.3346619    0.2998339 -35.50  0.001034557    1.151    0.131
        73 -10.7253      4.5762     95.0895   1.1809234590e+02   5.5684373803e+01    0.3653867    0.2256929 -21.07  0.002104179    2.719    0.632
        74 -10.5785      2.8347     91.3112   1.1834184599e+02   5.6641010050e+01     0.274324    0.1790152  34.41  0.001813766    1.703    0.413
        75  -8.2837     97.8474     92.1509   8.8938152000e+01   4.4816081842e+01    0.1688333    0.1619628 -26.36 -0.000430966    1.230    0.187
        76  -9.7666    143.7824     89.8517   7.6635091609e+01   3.5725093839e+01    0.3013358    0.2606244 -52.99 0.0008678426    1.195    0.163
        77  -9.8797    129.2277     90.0061   8.0123912319e+01   3.8927045472e+01    0.2698067    0.1980134  51.66            0    1.331    0.248
        78  -9.1409    217.4011    196.0867   8.4132038285e+01   6.1761175781e+00    0.1977564    0.1299741  41.81 0.0002349999    1.318    0.241
        79 -11.1149    159.5089     83.8336   7.1540688068e+01   3.3132059302e+01    0.3555909     0.297998 -20.59  0.001838812    1.289    0.224
        80 -10.8998      5.4493     82.6846   1.1674733938e+02   5.8426837296e+01    0.3971237    0.1469721  39.10  0.001916874    2.610    0.617
        81  -9.0891    151.6657     72.4187   6.9895584011e+01   3.6967374414e+01    0.3170784    0.1663915 -47.42  0.001002818    2.058    0.514
        82  -9.9910    186.3172     69.8305   6.2422166561e+01   2.8798670985e+01     0.628641    0.2616989 -48.42  0.001924105    3.118    0.679
        83 -10.2613    112.9946     71.2744   7.9000467591e+01   4.6119630385e+01    0.2487567    0.2058477 -47.19 0.0002814527    1.193    0.162
        84  -9.3437    144.2067     68.9156   7.0473828283e+01   3.9386082148e+01    0.3182314    0.1587307 -53.86  0.001070028    2.604    0.616
        85 -10.4934    118.7359     65.2688   7.5567028604e+01   4.6029157461e+01    0.5058222    0.2293159 -51.82  0.001440656    2.539    0.606
        86  -8.8246    195.3311     61.9195   5.8636165059e+01   2.7664436136e+01    0.2292227    0.1983797  73.95 0.0004044166    1.247    0.198
        87  -9.6557    152.7498     61.1583   6.6155183422e+01   3.8588308633e+01    0.4147527    0.2258661 -54.25  0.001370415    2.317    0.568
        88  -9.3998     97.9911     60.5035   7.9905605531e+01   5.1419535747e+01    0.2162366    0.1439439  48.43 0.0005298987    1.556    0.357
        89  -8.0826     72.5885     58.4755   8.7576768192e+01   5.6556437111e+01      0.13881    0.1253454 -62.29 0.0001115156    1.016    0.015
        90  -8.2145     82.8768     51.8134   8.1787263294e+01   5.6141340847e+01    0.1929408    0.1585437 -71.47 0.0004947825    1.314    0.239
        91  -8.9668    207.2723     44.9860   5.1916602033e+01   2.6823940213e+01    0.3946432    0.2885519 -53.23  0.001547685    1.460    0.315
        92 -11.7514      3.1557    190.8416   1.2291589407e+02   3.6685637913e+01    0.4785996    0.2515016 -69.48  0.002742439    2.206    0.547
        93  -7.8632    139.0641    183.0621   9.5775575834e+01   2.0608746505e+01    0.1356701    0.1119816  47.29 0.0002899539    1.031    0.030
        94  -9.9190    106.8386     36.3684   6.8337400638e+01   5.4006859997e+01    0.2132516    0.1849128 -46.91 0.0007096864    1.145    0.126
        95  -9.8319    132.5349     32.4392   6.0304144179e+01   4.8282314851e+01    0.3076074     0.234915 -57.26 0.0009491758    1.442    0.307
        96  -9.2049    119.4719     33.5049   6.3804719320e+01   5.1438691823e+01    0.1488332    0.1459657  -6.96 6.962213e-05    1.021    0.020
        97  -9.0634    160.5784     30.2036   5.4014976363e+01   4.1090337934e+01    0.2979212    0.1375401 -31.22  0.001123042    2.055    0.513
        98  -9.0480    159.4209    157.8107   8.7990494863e+01   2.0880860913e+01    0.2496209    0.1926775  75.58 0.0008960998    1.669    0.401
        99  -9.5657    197.3749     26.1431   4.7365172041e+01   3.1584936563e+01    0.2926911    0.2451596 -31.69 0.0007381783    1.146    0.128
       100 -10.3544    180.1020     24.4409   4.9014143439e+01   3.6444832241e+01    0.5891706    0.4498568  83.15  0.002875049    1.386    0.279
       101  -9.1739    192.4760    153.4684   8.1082744092e+01   1.5343833170e+01    0.1626686    0.1216752 -43.34 7.091812e-05    1.620    0.383
       102 -11.3616      2.4140    186.1979   1.2292375512e+02   3.7549998859e+01    0.3449953    0.1599481 -85.34  0.001657745    1.936    0.483
       103  -8.5679    234.7397     14.3417   4.0183805843e+01   2.3229146408e+01    0.2271241    0.1782977 -55.12 0.0005833765    1.243    0.195
       104 -10.3788    248.8462    193.8177   7.9088327935e+01   1.6240184637e+00    0.2006426    0.1443221  24.24  0.000376524    1.047    0.045
       105  -9.5413    191.3967    192.1090   8.7724519804e+01   1.0754303231e+01    0.3468405    0.2093759 -65.94  0.001442431    5.557    0.820
       106  -9.8182    218.2490    190.9291   8.3203466577e+01   6.5554573533e+00    0.2456773    0.1759015  44.70 0.0007475264    1.374    0.272
       107  -8.9512    209.4991    187.4907   8.4048998905e+01   8.3142144421e+00    0.2243376    0.1729964  75.67  0.001370594    2.409    0.585
       108 -10.2636    219.5298    185.8323   8.2193924606e+01   6.8660170730e+00    0.2658051    0.1688818  -3.89  0.001307241    1.797    0.444
       109 -13.3165     34.9357    168.6961   1.1559853639e+02   3.7650790273e+01     1.308358    0.8661868  22.36  0.001446121    2.144    0.534
       110 -12.7257     45.6784    162.0907   1.1280193976e+02   3.7730869941e+01     0.794338    0.6175753  74.44  0.002474657    1.065    0.061
       111  -8.6817     72.0286    179.9793   1.0873681606e+02   3.1173156385e+01    0.1636698    0.1264906  61.28  0.001168791    1.016    0.015
       112 -10.5406    236.3867    174.8156   7.7772293607e+01   5.2519694682e+00     0.395988    0.2620102  66.94  0.001906195    3.197    0.687
       113 -10.5702    230.9552    167.5597   7.7326428009e+01   6.8660355631e+00    0.2962116    0.1542452 -27.20  0.001674577    2.046    0.511
