#   1 NUMBER                 Running object number                                     
#   2 MAG_AUTO               Kron-like elliptical aperture magnitude                    [mag]
#   3 X_IMAGE                Object position along x                                    [pixel]
#   4 Y_IMAGE                Object position along y                                    [pixel]
#   5 X_WORLD                Barycenter position along world x axis                     [deg]
#   6 Y_WORLD                Barycenter position along world y axis                     [deg]
#   7 A_WORLD                Profile RMS along major axis (world units)                 [deg]
#   8 B_WORLD                Profile RMS along minor axis (world units)                 [deg]
#   9 THETA_WORLD            Position angle (CCW/world-x)                               [deg]
#  10 FWHM_WORLD             FWHM assuming a gaussian core                              [deg]
#  11 ELONGATION             A_IMAGE/B_IMAGE                                           
#  12 ELLIPTICITY            1 - B_IMAGE/A_IMAGE                                       
         1 -12.0371    119.7508     37.5003   6.6248566429e+00   4.9765376268e+01     1.060194    0.4330944 -50.78  0.003861204    2.893    0.654
         2 -11.9166    104.5068     12.0207   3.5982077616e+02   5.6609491710e+01    0.5513643     0.349639 -22.14  0.001768624    1.800    0.444
         3 -12.3712    112.7717     24.9343   3.3678024721e+00   5.3124732202e+01    0.7939884    0.3565379  60.92  0.003382237    1.991    0.498
         4 -12.7202    105.5952     19.9167   2.7977036626e+00   5.5511754739e+01    0.3409335      0.28179 -66.92 0.0005306823    1.231    0.188
         5 -11.0439     20.7392     21.5640   3.7935519894e+01   7.3612629823e+01    0.5916932    0.3348371 -29.19  0.002482812    1.967    0.492
         6 -10.6784    134.4526     21.9768   3.5877655250e+02   4.8013614748e+01    0.3735459    0.3088626 -17.08  0.002162675    1.445    0.308
         7 -12.3414    246.5645     21.3683   3.4924651515e+02   2.4085214302e+01    0.4365488    0.2535128  76.57  0.002931793    1.959    0.490
         8 -11.5929     35.7220     17.9894   2.5948797617e+01   7.1770988016e+01    0.6206854    0.4954562 -55.67  0.003583869    1.626    0.385
         9 -11.9022     22.9456     10.6800   2.9424454863e+01   7.5085085858e+01     0.495568    0.3945905  14.67    0.0022207    1.162    0.139
        10 -12.1012    164.4572     18.2722   3.5415301661e+02   4.1140020198e+01    0.4183086    0.2922838  40.07  0.002290524    1.939    0.484
        11 -12.2203     15.7470     12.1252   3.5924053689e+01   7.5946768080e+01    0.7361993    0.4912577 -39.09  0.002602141    1.510    0.338
        12 -12.0625    236.3350     16.1368   3.4869533500e+02   2.6434144323e+01     0.265817    0.2215487  81.21  0.001647123    1.434    0.302
        13 -10.5105    137.0562     14.4552   3.5593591280e+02   4.8167337406e+01     0.367853     0.241744  83.93  0.001096562    1.408    0.290
        14 -11.4480    127.4055     15.7852   3.5764321416e+02   5.0442810671e+01    0.6275492     0.324707 -21.65  0.002294542    2.267    0.559
        15 -10.7403    132.1869     15.3255   3.5684036933e+02   4.9291635345e+01    0.3728963    0.2416131  51.12  0.001528551    1.660    0.397
        16 -10.1509    112.6148     15.3256   3.5973003161e+02   5.4225469488e+01    0.3648323    0.2262608 -50.85  0.001556993    1.668    0.400
        17 -10.6134     88.7608      8.2750   1.2520997411e+00   6.0930583660e+01    0.4389046    0.3581342 -74.61  0.002094006    1.284    0.221
        18 -11.1892     85.8959     14.5805   4.7921856226e+00   6.1022137333e+01    0.4821531    0.4132428 -28.61  0.001876101    1.288    0.223
        19 -10.6409    225.5808     13.4760   3.4867678772e+02   2.8689016982e+01    0.1974703    0.1595414 -51.93 0.0004453428    1.128    0.113
        20 -11.2335    243.0530     14.7167   3.4808972275e+02   2.5394685549e+01    0.1998764    0.1844408 -23.28  0.001250573    1.487    0.328
        21 -11.1042    186.5994     14.6415   3.5132711922e+02   3.6503227482e+01     0.277465    0.1517756 -57.87  0.001504954    1.575    0.365
        22 -10.1980     84.7814     10.0312   2.9422445123e+00   6.1756643495e+01    0.2592777    0.1295454 -24.87 0.0003364077    2.214    0.548
        23 -12.3397     48.3128     12.7235   1.6259379250e+01   6.9989100914e+01    0.7535233    0.2740967  53.30  0.003027237    2.490    0.598
        24 -11.3698    191.2120     11.0541   3.5010805536e+02   3.5872360521e+01    0.4099053    0.2240894 -18.24  0.002112283    2.357    0.576
        25 -11.5917    212.1113      9.6202   3.4853339749e+02   3.1691399847e+01    0.3935261    0.2595326 -17.08  0.001498994    1.963    0.491
        26 -10.7118    120.9928     11.2478   3.5692103950e+02   5.2509906317e+01    0.3566127    0.2190321 -86.71  0.001779943    1.639    0.390
        27 -10.1603      5.7657      8.8901   4.2595917792e+01   7.7755674275e+01    0.2371187    0.1661037 -37.99  0.000831163    1.360    0.265
        28  -9.5815     98.7981     10.6513   2.9634886500e-01   5.8184851190e+01    0.1810204    0.1698129  50.35  0.001122235    1.134    0.119
        29 -11.4894     63.4049      9.1813   8.3897925863e+00   6.7008019348e+01    0.4249334    0.3214314 -53.58 0.0009899074    1.572    0.364
        30 -11.2258    168.7502      9.4448   3.5130389937e+02   4.1047953079e+01    0.4666063    0.2042208  64.32  0.002225714    2.242    0.554
        31  -9.7113    145.0920      9.4063   3.5341430031e+02   4.6683937653e+01    0.1973093     0.182365   4.04 0.0006937666    1.377    0.274
        32 -10.0819      1.2512      7.6443   4.6288533025e+01   7.8446516870e+01    0.2876443   0.08363803 -49.59  0.001180154    3.059    0.673
        33 -11.3020    185.5040      6.6751   3.4937989728e+02   3.7547334169e+01    0.2467601    0.1621799 -75.61  0.001212321    1.326    0.246
        34 -10.6988    154.2146      6.8534   3.5177037029e+02   4.4717652548e+01    0.2587177    0.1576186  83.65 0.0004514377    1.494    0.331
        35  -9.8621     77.9598      7.2094   3.2089189216e+00   6.3705975804e+01    0.2023914    0.1686113 -85.02 0.0006957125    1.265    0.210
        36 -11.2964    246.9686      5.4419   3.4609817002e+02   2.5657779217e+01    0.2573754    0.1318557 -82.34  0.001659108    1.927    0.481
        37 -11.8290    235.5908      4.2174   3.4629378752e+02   2.7780424656e+01    0.3226421     0.203282 -42.59  0.002249504    1.241    0.194
        38  -9.6213    148.4908      5.4961   3.5187100119e+02   4.6221764692e+01    0.1308775    0.1092865 -75.70 0.0001067036    1.013    0.013
        39 -10.5787    128.9743      4.1519   3.5340032582e+02   5.1149966616e+01    0.3634281    0.1851058 -25.72  0.001107541    2.112    0.526
        40 -11.4117    134.0478      2.5596   3.5231867660e+02   5.0023345386e+01    0.5051017    0.2684792 -89.65  0.001631729    1.790    0.441
        41 -10.2653     71.4892      4.6023   3.5298109350e+00   6.5519061950e+01    0.3869319    0.1437463  40.60  0.001435512    3.155    0.683
        42  -9.6993     28.9245      1.4992   1.8714638147e+01   7.5241711293e+01    0.1780101    0.1721165  79.14 0.0003734996    1.325    0.245
        43 -10.4661    223.7775      2.5385   3.4642872414e+02   3.0128238878e+01    0.2170508    0.1665085 -62.90 0.0006925203    1.071    0.066
        44 -11.0187    218.5453      3.2381   3.4680616018e+02   3.1062248888e+01    0.2583466    0.1775169 -89.11  0.001131255    1.412    0.292
        45 -11.2117    205.8272      2.0130   3.4712356452e+02   3.3703761293e+01    0.4855351    0.1783259 -81.61  0.002214759    2.922    0.658
        46 -10.7532    210.5176      1.4999   3.4678574180e+02   3.2807740426e+01    0.1944161    0.1315732 -87.50 0.0005975593    1.386    0.279
        47 -11.3002    113.7264      2.1722   3.5452481719e+02   5.5151663756e+01    0.4989425    0.2321536  80.92  0.001742949    2.019    0.505
        48 -10.6867    105.5052      2.0442   3.5561340105e+02   5.7241995367e+01    0.2948139     0.180343 -64.37  0.001437831    1.745    0.427
        49 -10.9913     40.9480      4.1539   1.4169498045e+01   7.2531560831e+01    0.3534594    0.1996291  34.55  0.001242297    1.782    0.439
        50 -10.7162    142.1978      3.7367   3.5190415896e+02   4.7912470258e+01    0.3675159    0.1532468 -37.36  0.001695715    2.187    0.543
        51  -9.9696    152.5833      1.5666   3.5032847362e+02   4.5586431128e+01    0.2344803    0.1344952  86.57 0.0007330367    1.573    0.364
        52  -9.6890     12.4884      1.9984   3.1194563198e+01   7.7993380794e+01    0.1885485    0.1465762  21.60 0.0006136064    1.138    0.121
        53  -9.9730      1.9675      1.8178   4.1348286949e+01   7.9389868354e+01    0.1945538    0.1378835  -9.85  0.001077184    1.342    0.255
        54  -9.6005     30.5090      4.5110   2.0013357391e+01   7.4583586398e+01    0.1699851    0.1182264 -38.87 0.0009662448    1.652    0.395
        55 -11.0908    228.5224     15.5082   3.4895787689e+02   2.7926602935e+01    0.2234577    0.1439933 -56.72 0.0006146705    1.185    0.156
        56 -11.8744    244.2286    240.8506   2.9620809700e+01  -4.1216416997e+00    0.4312383    0.1790833 -16.18  0.002355155    2.711    0.631
        57 -12.4933    246.5099    248.3142   3.0333627248e+01  -5.1343588960e+00    0.5591938    0.3182783  26.65  0.004197656    1.868    0.465
        58 -10.4843    232.6991    250.5681   3.2723052578e+01  -4.2071158245e+00    0.2452874    0.1057568  22.80  0.001558992    2.069    0.517
        59 -10.4824    233.5171    247.5015   3.2172635474e+01  -3.9348471239e+00    0.1357773   0.08340029 -35.20  0.000985989    1.770    0.435
        60 -11.0620    227.9996    248.8310   3.3214090899e+01  -3.5962310013e+00    0.3735315    0.1564731  -2.60  0.001636896    4.274    0.766
        61 -10.0019    201.2548    250.3912   3.7818828435e+01  -1.2705800474e+00    0.1434172   0.08279806  28.17 0.0006623997    1.645    0.392
        62 -12.1119      2.6971    111.6218   7.2011191945e+01   5.3027836045e+01    0.4738633    0.3532006 -87.89 0.0005843936    1.235    0.190
        63 -10.0437     79.0493    114.6638   4.2811978759e+01   4.3134152005e+01     0.299298    0.2253466 -45.29 0.0007775933    1.358    0.263
        64  -9.3065     58.5529    115.4320   5.0320696501e+01   4.6254657380e+01     0.151824    0.1456295  78.85 0.0001143888    1.032    0.031
        65 -11.0555     35.3886    102.8507   5.6978138011e+01   5.2679130966e+01    0.4083402    0.2487387  -3.80  0.000128977    2.266    0.559
        66 -11.7046     26.5421    105.2789   6.1187956438e+01   5.2954322187e+01    0.7180863    0.6260059 -46.05  0.003605147    1.152    0.132
        67 -11.5052     22.5719    114.0107   6.4192629659e+01   5.0933021494e+01    0.5594296    0.3183946  -0.59  0.001966896    2.290    0.563
        68 -11.4296     27.5731    112.1858   6.1883880676e+01   5.0965186798e+01    0.4555533    0.2840648  42.83  0.001437327    1.634    0.388
        69  -8.8224     67.3380    114.6432   4.6923013237e+01   4.5106675785e+01    0.1675737    0.1168926  69.98 0.0007040466    1.810    0.447
        70  -9.9974     48.9107    111.7722   5.3246055939e+01   4.8592397075e+01    0.2213664     0.207389 -14.69 0.0005584829    1.152    0.132
        71  -9.1515     75.7065    111.2859   4.3159952737e+01   4.4571115662e+01    0.2296854    0.1996825 -52.16 0.0004218947    1.144    0.126
        72 -11.5284     79.9914    107.7909   4.0804806841e+01   4.4690223867e+01    0.5216878    0.3599057  22.83 0.0009246873    1.698    0.411
        73 -11.2720     15.4284    108.6711   6.6403989820e+01   5.2992626192e+01    0.4739175    0.3819902  13.15  0.002571832    1.360    0.265
        74  -9.9782    104.8867    108.3843   3.2980092767e+01   3.9756863785e+01     0.421727    0.2042418  32.07  0.001477337    2.599    0.615
        75  -9.7515    139.9804    106.6215   2.3328797968e+01   3.2834312898e+01    0.1964132    0.1822173  47.91 0.0004987028    1.124    0.110
        76  -8.9840    180.3225    106.3229   1.5244925190e+01   2.4675222142e+01    0.1366968    0.1065237  -1.32 0.0006163298    1.679    0.404
        77  -9.3490     45.6861    105.2991   5.3189364568e+01   5.0754731265e+01    0.2252261    0.1302647 -53.60 0.0007457713    1.652    0.395
        78  -9.9880     47.5053    102.5320   5.1843607008e+01   5.1247763678e+01    0.2934604    0.2473012  81.35 0.0009782453    1.283    0.221
        79 -11.0232     50.5067    101.0458   5.0276617305e+01   5.1222902412e+01    0.6518014    0.2898208 -46.50   0.00239496    2.335    0.572
        80 -10.2871     91.4139    102.2480   3.5518356912e+01   4.3880356291e+01    0.4206899    0.3090286 -15.23  0.001814379    1.915    0.478
        81  -9.3668     85.9450    103.2962   3.7607689192e+01   4.4687778711e+01    0.2140694     0.198899  33.39 0.0004184559    1.102    0.093
        82 -11.1708     17.4279    100.9921   6.4448212597e+01   5.4934417280e+01    0.4742424    0.2584394  81.44  0.001257503    2.214    0.548
        83 -11.3278     22.7659     94.4529   6.0952743462e+01   5.6247526241e+01    0.5330914    0.2955343 -33.56  0.002029648    2.110    0.526
        84  -9.9224     19.4421     90.8136   6.1831452142e+01   5.7521293844e+01    0.4592333    0.2448077 -76.41  0.001973488    1.893    0.472
        85 -10.2162     18.1222     86.2425   6.1614157714e+01   5.8854949310e+01    0.4966115    0.3141981 -25.30  0.001998145    1.818    0.450
        86 -10.5188      8.1849     95.8485   6.7855020731e+01   5.6997278604e+01    0.2961365    0.2752341 -37.28   0.00176259    1.117    0.105
        87 -10.1575     10.6451    100.7004   6.7400837219e+01   5.5517877685e+01    0.2947807    0.1359786 -56.04   0.00123989    1.940    0.484
        88 -11.6170    210.3886     98.0872   8.8336907869e+00   2.0435825161e+01    0.2218212    0.1879854 -42.31 0.0002857381    1.019    0.018
        89 -10.0832     29.6751     97.6132   5.8436002395e+01   5.4716807322e+01    0.5288813    0.1564731 -49.15  0.001679682    3.264    0.694
        90 -12.0076     67.9981     95.2543   4.1874090465e+01   4.9940301088e+01    0.4620996     0.379672  22.76 0.0007572853    1.312    0.238
        91  -8.7227    200.2721     97.2484   1.0029970828e+01   2.2403261497e+01    0.1162545   0.09767322  -4.05 -0.000275831    1.445    0.308
        92  -9.8142     75.7192     77.8033   3.3733140814e+01   5.2650755880e+01     1.438277    0.8971534 -72.40  0.005580871    2.448    0.591
        93 -10.3842     77.4871     96.5340   3.8709596430e+01   4.7919101279e+01    0.3425198    0.2591034  47.25 0.0005476201    1.341    0.254
        94 -11.2309     79.2072     93.1831   3.7150583204e+01   4.8402877800e+01    0.6400843    0.5060326  55.54  0.003089701    1.337    0.252
        95 -10.5245    248.4976     96.4876   4.0950362110e+00   1.4448487115e+01    0.1169375   0.08901013 -37.69 0.0004787531    1.026    0.025
        96 -10.0948     42.9016     94.8081   5.2024008869e+01   5.3903284607e+01    0.3106886    0.2777312  29.78  0.001159867    1.153    0.132
        97 -10.4252     43.8480     90.4929   5.0571379860e+01   5.4904553243e+01    0.2424349    0.1970346 -59.00 0.0002621846    1.189    0.159
        98 -10.1200     16.0802     94.5552   6.4041064204e+01   5.6789087005e+01    0.2810731    0.1915373  82.41  0.001359845    1.596    0.374
        99  -9.2559    125.8743     93.7987   2.3254402409e+01   3.8488321647e+01    0.2023854     0.173041 -87.74            0    1.304    0.233
       100 -11.3415     28.0038     85.1211   5.6599135909e+01   5.8217827708e+01    0.5931937    0.4894857  35.24   0.00150904    1.264    0.209
       101 -10.0712     35.5670     92.3140   5.4693893024e+01   5.5475999489e+01    0.4365801    0.2484334  89.43  0.001684279    2.513    0.602
       102  -9.4111     38.5139     90.4736   5.2943728714e+01   5.5602885158e+01    0.2122592    0.1469757   5.49 0.0006698099    1.732    0.423
       103 -10.5345     98.3288     90.6835   3.0038410198e+01   4.5128216242e+01    0.2594099    0.2513086  21.38 0.0003340374    1.089    0.082
       104  -9.9178     50.4106     91.2504   4.7917478538e+01   5.3782536291e+01    0.2944447    0.2266493   0.74  0.001127836    1.564    0.361
       105 -10.2183     52.2060     86.9271   4.5995945722e+01   5.4612002177e+01    0.2645065    0.2008693 -64.35 0.0004460342    1.343    0.255
       106 -11.5311      6.1121     88.3941   6.7793933309e+01   5.9133493362e+01    0.6563399    0.3686904  11.70    0.0022281    1.958    0.489
       107 -10.6086      2.5356     81.0821   6.8511333909e+01   6.1279365681e+01    0.5903735    0.3174332  89.30  0.002202338    1.992    0.498
       108 -11.3570      2.0092     71.0905   6.7232335668e+01   6.3926070804e+01    0.9608283    0.2112955 -70.43  0.003090851    3.610    0.723
       109 -11.4603      9.4805     55.5227   5.9522244506e+01   6.7406012959e+01    0.8243237    0.4907436  31.14  0.004122478    1.772    0.436
       110 -11.8061      7.5317     63.4765   6.2620371114e+01   6.5560781006e+01    0.4468256    0.2484012 -16.53 0.0006243389    2.075    0.518
       111 -12.7248      4.2351     61.0471   6.4053419628e+01   6.6375085277e+01    0.5105135    0.2988305   0.16  0.000380911    1.876    0.467
       112  -9.9663     66.5679     88.4683   4.0525311447e+01   5.1860630841e+01    0.3339724    0.2233418 -17.33 0.0008816847    2.267    0.559
       113  -9.2377    104.4014     86.7854   2.7035673793e+01   4.4674651297e+01    0.2165296    0.1455763 -34.82 0.0007324968    1.645    0.392
       114 -10.0442     90.3717     85.7319   3.1094331194e+01   4.7898176764e+01    0.3742376    0.2473246 -70.82  0.001530712    2.058    0.514
       115  -9.3780    118.5579     85.6731   2.2773872692e+01   4.1768650822e+01    0.2827106    0.1481432 -39.25 0.0009491106    1.964    0.491
       116 -11.2225     44.5823     83.9871   4.8559549726e+01   5.6473533688e+01    0.5562364    0.4391514  83.70  0.002088355    1.517    0.341
       117  -9.5920     36.7537     85.5852   5.2569316580e+01   5.7095734341e+01    0.2673918       0.1475  20.72  0.001069471    1.991    0.498
       118  -9.1033    143.5040     84.4178   1.6563844441e+01   3.6381667786e+01    0.1449404    0.1390703 -66.50 0.0001871506    1.025    0.024
       119 -10.3655    113.0533     82.6056   2.3315398530e+01   4.3627590230e+01    0.4083243    0.3061791  77.02  0.001886585    1.621    0.383
       120 -12.3563     60.9367     83.3948   4.1301669102e+01   5.4070958774e+01    0.3189346    0.2879028  45.99 0.0004351731    1.125    0.111
       121 -10.1578     58.2749     77.9815   4.0766896907e+01   5.5825978307e+01    0.3094026    0.2454755 -84.69  0.001135697    1.548    0.354
       122 -10.2507     67.2855     81.2897   3.8090882279e+01   5.3451775983e+01    0.3482065    0.2636263  -4.48   0.00158294    1.771    0.435
       123  -9.5682    162.3027     81.2525   1.2079086692e+01   3.2764301371e+01    0.1827547    0.1485376 -66.85 0.0003129786    1.252    0.202
       124 -12.4723    247.5916     76.1141   1.4004448290e-01   1.7323685237e+01    0.4325688    0.2896688 -42.66   0.00291171    1.120    0.107
       125 -10.3267     88.9184     77.3285   2.8916968238e+01   5.0041786415e+01    0.5034158     0.292575  52.37  0.001851758    1.798    0.444
       126 -10.6560     94.6749     75.4611   2.6435766703e+01   4.9190502397e+01    0.4048782    0.3270286 -73.73 0.0005603457    1.430    0.301
       127 -10.7478     53.4383     76.1056   4.2284417933e+01   5.7079210360e+01    0.3802663    0.3426606 -68.45   0.00140377    1.160    0.138
       128  -9.1433     38.3098     77.6515   4.9755071540e+01   5.8925048567e+01    0.1520776    0.1120022  68.71  0.000370247    1.711    0.416
       129  -9.6743    158.8790     75.9292   1.1244313613e+01   3.4427146530e+01    0.1935565    0.1860456 -12.60 0.0003412906    1.189    0.159
       130 -10.8800     14.2575     74.5708   6.1249804596e+01   6.2237168594e+01    0.3819173    0.2963264 -77.90  0.001570386    1.294    0.227
       131  -9.2319     13.7239     67.9059   6.0070241086e+01   6.3992114126e+01    0.4793994    0.3097092  -7.12  0.002351782    1.755    0.430
       132  -9.6543     46.7625     75.0384   4.4987168646e+01   5.8382137620e+01    0.2569118    0.1532184 -33.85  0.001071623    1.991    0.498
       133 -11.6748     27.5747     73.2936   5.3938487910e+01   6.1317267707e+01    0.3725982    0.2864585   7.88  0.000227779    1.400    0.286
       134 -10.5979     34.7645     71.2215   4.9674512003e+01   6.0985122600e+01    0.4265559    0.2424742  37.79   0.00122479    1.806    0.446
       135 -10.2217     40.7864     72.7150   4.7125614731e+01   5.9815101523e+01    0.3582481    0.2696435   9.06  0.001037319    1.495    0.331
       136 -10.7558     40.1776     68.6685   4.6174295364e+01   6.0881687560e+01    0.3221479    0.2574774  33.32  0.001477704    1.271    0.213
       137 -11.6186     39.6014     56.5482   4.2315961152e+01   6.3783138178e+01    0.3487969    0.2443306  35.29 0.0006562102    1.432    0.302
       138 -11.5779     43.3071     60.4019   4.1813787937e+01   6.2351879275e+01    0.5672646    0.2512305 -51.13 0.0008162856    2.194    0.544
       139 -11.5506     46.4681     59.4937   3.9909230520e+01   6.2056212531e+01    0.7049699    0.2777638  45.08  0.002510143    2.854    0.650
       140  -9.7088    118.9957     78.2560   2.0416897083e+01   4.3139636800e+01    0.2663301    0.1965829 -64.04 0.0004448642    1.513    0.339
       141  -9.6112    103.0599     74.3065   2.3509746155e+01   4.7556517499e+01    0.2225525    0.1959331  58.42  0.001150117    1.127    0.113
       142 -10.0059     80.6926     71.7754   2.9901980560e+01   5.2961489972e+01    0.3939046    0.2041514 -39.79  0.001547663    2.070    0.517
       143  -9.6932     86.6165     69.3865   2.7018431632e+01   5.2201835189e+01    0.3160524    0.2309209   2.39  0.001358276    2.093    0.522
       144 -11.3031    122.6474     68.4048   1.6431897312e+01   4.4132256308e+01    0.4204389    0.2524253  46.96  0.001001131    1.735    0.424
       145 -10.5777    218.4879     67.3563   1.0569824886e+00   2.3477743999e+01    0.2542399    0.1192671  65.73  0.001227015    2.528    0.604
       146 -10.1840    102.0308     66.6990   2.1268189410e+01   4.9277233193e+01    0.2567096     0.217514 -34.51 0.0003585512    1.247    0.198
       147 -10.1177    202.0404     63.4897   1.9305524722e+00   2.7169636119e+01    0.2403575    0.1684889 -23.50  0.000997468    1.611    0.379
       148 -10.3909    105.9003     63.4189   1.9054511939e+01   4.8989388446e+01    0.3016222    0.2477447  25.45  0.001393448    1.459    0.315
       149 -10.9922     92.4527     62.5197   2.2690230242e+01   5.2265927217e+01     0.360191    0.2644747  68.04 0.0005986702    1.533    0.348
       150 -10.0995     58.4551     62.1127   3.5290737160e+01   5.9410417673e+01    0.3082609    0.2568317  47.08  0.001614833    1.226    0.184
       151  -9.9362    159.7632     62.0455   7.2406410784e+00   3.6477690979e+01    0.2487376    0.2295198  14.84  0.001450332    1.346    0.257
       152  -9.3544    150.9764     60.7273   8.3236940249e+00   3.8721592753e+01    0.1886642    0.1760693 -81.78 0.0004444056    1.046    0.044
       153  -9.9972    113.5348     60.7787   1.6149306330e+01   4.7652960633e+01    0.2753205     0.238842 -83.92 0.0009126939    1.199    0.166
       154  -9.5765     84.3903     61.1222   2.4819944365e+01   5.4338835655e+01    0.2491214    0.1810204  56.13 0.0007212567    1.399    0.285
       155  -9.7370     63.7138     60.8578   3.2560916222e+01   5.8688745463e+01    0.2965155    0.1719691  50.81  0.001260188    1.859    0.462
       156  -9.7552     21.4999     57.5322   5.2789118846e+01   6.5853877178e+01    0.3010462    0.2586052 -70.62 0.0009173965    1.239    0.193
       157  -9.5862     29.5162     60.4695   4.9141295312e+01   6.4246015952e+01     0.366174    0.2379085 -46.71  0.001797326    1.461    0.315
       158 -10.1056     25.9913     59.0000   5.0648550317e+01   6.5012687928e+01    0.4254691    0.2002107  14.90  0.001674054    2.604    0.616
       159 -10.6200     25.3488     55.5414   4.9886007637e+01   6.5904493706e+01    0.3604129     0.299643 -45.61   0.00131486    1.137    0.121
       160 -10.8222    110.7537     39.6714   9.3183557466e+00   5.1700606955e+01    0.8905662    0.4832571 -39.88  0.003966711    1.857    0.461
       161 -10.4706    118.5253     56.4791   1.3487494312e+01   4.7185488844e+01    0.6626584     0.374643 -74.98  0.002309106    3.277    0.695
       162 -10.8396    124.4712     56.7995   1.2253409535e+01   4.5692336563e+01    0.3990039    0.3007077  -4.48 0.0002935547    1.895    0.472
       163  -9.9945    125.7037     52.6692   1.0621904917e+01   4.6056380138e+01    0.3373955    0.2328622  -3.84  0.001387193    2.317    0.568
       164 -10.3705    219.0255    248.4555   3.4591949934e+01  -2.7350262050e+00    0.2012807    0.1105816 -17.32  0.001115881    1.571    0.363
       165 -10.5604    112.5743     50.2109   1.2718078331e+01   4.9654094674e+01    0.3964858    0.2957121 -14.79  0.001317652    1.728    0.421
       166 -11.1499    116.8680     47.8305   1.0886071491e+01   4.8975564821e+01    0.4781293    0.3819326  -1.53  0.001551043    1.666    0.400
       167 -10.5300    116.5949     43.2404   9.3237517911e+00   4.9734272772e+01    0.3046224    0.2670774   7.40 0.0009819325    1.409    0.290
       168 -10.0584    106.6098     58.4490   1.7135871710e+01   4.9712912178e+01     0.260639    0.2054837  83.37 0.0006723996    1.423    0.297
       169 -11.5481     75.6322     55.2528   2.5696576054e+01   5.7376290389e+01    0.7122014    0.2725262 -47.54  0.002485303    2.840    0.648
       170 -11.6258     72.5231     46.1178   2.3139251173e+01   5.9729088136e+01    0.6830085    0.3921789 -62.02  0.002649601    2.759    0.638
       171 -10.1332     87.9720     56.5109   2.1910489738e+01   5.4409016119e+01    0.4245503    0.2094807 -36.40  0.001080104    2.196    0.545
       172 -10.0066     88.2618     50.0672   1.9342657491e+01   5.5492270886e+01    0.4933904    0.2342738 -36.83   0.00195829    2.227    0.551
       173 -11.4732     31.2507     53.1900   4.5649155961e+01   6.5716152501e+01     0.457518    0.2808323   3.62  0.002023453    2.153    0.536
       174 -10.1388    238.0250     55.9601   3.5683750483e+02   2.1506080792e+01     0.142653    0.1093084 -49.20 0.0006208525    1.016    0.016
       175  -9.4969     50.9110     56.5257   3.6634724493e+01   6.1958994118e+01    0.2223488    0.1401528  36.39  0.001025507    1.572    0.364
       176  -9.5158      2.5310     54.9294   6.3764771075e+01   6.7996115906e+01    0.2062248   0.07125747 -47.77 0.0006575937    2.440    0.590
       177 -10.2639    156.3320     53.5929   5.3699480627e+00   3.8554977321e+01    0.3973102    0.2323968 -85.65  0.001715469    2.276    0.561
       178 -10.0201    155.1964     48.7587   4.1351868110e+00   3.9524369218e+01    0.2805152    0.1806259 -25.50 0.0004433826    1.776    0.437
       179 -10.6636     59.8216     50.3883   3.0087004104e+01   6.1568813261e+01    0.5635409    0.4736075  67.95  0.002995022    1.395    0.283
       180 -10.2396     61.6194     46.2469   2.7554636279e+01   6.2000686955e+01    0.3528141    0.2063067 -27.23  0.001282444    2.183    0.542
       181  -9.1434    202.3513     52.2779   3.5922982487e+02   2.8649946517e+01    0.1144318   0.09766205  26.24 0.0005723339    1.644    0.392
       182 -11.0620    243.0414     50.8602   3.5540426769e+02   2.1287658764e+01    0.2825698    0.1561673  82.63  0.001074292    2.239    0.553
       183  -9.8766    145.1268     49.7464   6.0330745156e+00   4.1783257670e+01    0.2588746    0.1891849   6.41  0.000696374    2.143    0.533
       184 -10.0912      1.8866     48.3560   6.2608988590e+01   6.9635963247e+01    0.2862146    0.1698515 -65.54  0.001117666    1.554    0.357
       185  -9.7456     33.4449     56.9318   4.5769940106e+01   6.4569843363e+01    0.2441781    0.1860962  25.60 0.0005403937    1.322    0.244
       186 -10.7363     20.6968     45.6190   4.9214623451e+01   6.8709152910e+01    0.2988649    0.2304418 -32.90 0.0004763163    1.237    0.192
       187 -12.4095     42.3308     44.1425   3.5847414628e+01   6.5989925495e+01     1.189438    0.3703777  37.24  0.003866087    3.172    0.685
       188 -11.2481     26.3858     42.5683   4.4395787579e+01   6.8693969851e+01    0.5043061    0.3731388  68.48  0.001846779    2.015    0.504
       189 -10.1885     23.4808     37.1877   4.3943187034e+01   7.0203572976e+01    0.4261231    0.2044512  41.13  0.001628651    2.304    0.566
       190 -10.3330     13.4072     45.9168   5.4100590700e+01   6.9375018625e+01    0.3818809     0.195509 -29.06  0.001440814    2.234    0.552
       191 -10.3661     18.1891     40.5487   4.8904324035e+01   7.0109936019e+01    0.3222811    0.1981318 -33.72  0.001346475    1.641    0.390
       192  -9.9479    199.1118     44.5180   3.5768583770e+02   3.0330514436e+01    0.3114271     0.160006 -83.79   0.00144913    2.510    0.602
       193 -10.5204     81.8968     47.8513   2.0531219207e+01   5.7336785725e+01    0.4853516    0.3205068  32.86  0.002211526    1.767    0.434
       194  -9.5831    139.0558     43.8066   5.2024804064e+00   4.4111063785e+01    0.2312387    0.1481179  40.71 0.0007677476    1.960    0.490
       195  -9.8253    156.1096     42.2588   2.0932679492e+00   4.0211271370e+01    0.2255343    0.1878082 -25.35  0.001079164    1.362    0.266
       196  -9.3156     99.5978     41.7745   1.2831172103e+01   5.4136343442e+01    0.2042375    0.1286301 -48.31 0.0005761697    1.686    0.407
       197 -10.1369     56.9678     41.8318   2.7636388527e+01   6.3744063187e+01    0.3116757     0.191519  45.51 0.0009706584    1.576    0.365
       198 -11.1243      3.7098     36.5075   5.7808030748e+01   7.2298309017e+01    0.5144567    0.3433077 -58.57  0.001206307    1.402    0.287
       199 -10.3861      9.6883     30.0813   5.0700464110e+01   7.3226005233e+01    0.5142626    0.2905099  13.22  0.002595644    1.827    0.453
       200 -10.4171    249.7490     38.9532   3.5255911115e+02   2.1584372037e+01    0.1895552    0.1323652 -67.27 0.0003954727    1.324    0.245
       201 -10.9571     78.7057     37.3412   1.7171686521e+01   5.9793804946e+01    0.4831407    0.3263603 -81.39   0.00181349    2.325    0.570
       202 -10.9796     78.3696     34.2459   1.5915443951e+01   6.0342246270e+01    0.5753731    0.3601698  29.71  0.002525392    2.042    0.510
       203  -9.4505     70.2995     33.6938   1.8456352092e+01   6.2273664882e+01    0.4580559    0.2901126 -88.70  0.001768499    3.131    0.681
       204 -10.0033     60.5753     36.7760   2.3727754265e+01   6.3891504566e+01    0.3047352    0.2202856 -46.63 0.0007996559    1.506    0.336
       205 -10.4968     62.9463     33.4701   2.1176583179e+01   6.3927766639e+01    0.5641924     0.211469  43.68     0.001544    2.622    0.619
       206 -11.2947    226.5971     37.5640   3.5380179526e+02   2.5809556267e+01    0.3441712    0.1102412  72.22  0.001543948    3.542    0.718
       207  -8.8839    195.2536     37.3100   3.5628910063e+02   3.2046053223e+01    0.1085711    0.0979556   6.55 0.0002324597    1.518    0.341
       208 -10.6060    153.2091     35.6763   5.3663438422e-01   4.1769737105e+01    0.2329852     0.215745 -83.78 0.0004220339    1.086    0.080
       209 -10.4436    219.9854     35.4779   3.5382356333e+02   2.7300188401e+01    0.1583529    0.1096308  84.30 0.0003591346    1.535    0.349
       210 -10.2838    175.5253     34.3833   3.5749082531e+02   3.6722310375e+01    0.2852982    0.1792002 -65.00 0.0008054923    1.529    0.346
       211 -10.9259    171.1610     30.1096   3.5678961166e+02   3.8237661314e+01    0.5342355    0.2112457  86.53  0.001447538    3.469    0.712
       212  -9.9809    177.4928     28.9500   3.5583192963e+02   3.6935127545e+01    0.1906169    0.1648738 -13.44  0.000830024    1.463    0.317
       213 -12.6785    164.8121     27.4389   3.5672199388e+02   4.0026668015e+01    0.3794324    0.2914601  79.76 0.0005640921    1.253    0.202
       214 -10.8477    157.3568     29.1636   3.5807097824e+02   4.1583739078e+01    0.3009415    0.2519744 -47.56  0.001028323    1.153    0.133
       215  -9.8151    187.6863    248.3267   3.9920653585e+01   3.5957841435e-01   0.09547534   0.08160678  33.06 0.0007042849    1.668    0.400
       216 -11.7382    107.0799     31.4925   7.0400248689e+00   5.3738202667e+01    0.6444442    0.3435625  42.15  0.002737236    2.195    0.544
       217 -10.9338    228.3442    243.0703   3.2354701508e+01  -2.9631306688e+00    0.2014016   0.07135443 -30.50  0.001097237    2.516    0.603
       218 -11.1775      7.8276    114.6327   7.0233557321e+01   5.1896188213e+01    0.3501413    0.2282851 -61.88 0.0002197903    1.415    0.294
       219 -11.0807    240.2427     32.3745   3.5181153713e+02   2.3960146134e+01    0.2316211    0.2012857 -11.39  0.001444465    1.586    0.369
       220  -9.7686    217.0852     31.9204   3.5324031612e+02   2.8277045260e+01    0.1849863    0.1240493 -57.20 0.0003939153    1.211    0.174
       221 -10.4744     60.3483     23.7697   1.7370796253e+01   6.5938614816e+01    0.3975115    0.1847012 -29.55  0.001305436    2.420    0.587
       222 -11.7615     58.1535     29.4094   2.1167094873e+01   6.5586289388e+01    0.4531394    0.3115078  22.34  0.001105802    1.755    0.430
       223 -11.4085     49.0258     29.9394   2.5594902698e+01   6.7366344954e+01    0.7025965     0.267275  40.12  0.002283052    2.640    0.621
       224 -12.2404    127.5562     28.3791   2.0051217807e+00   4.8991007070e+01    0.7740336    0.3839194  79.70  0.001726038    2.228    0.551
       225  -9.7346     13.9701     23.0172   4.3902027296e+01   7.4209334846e+01    0.2265192    0.1600831  30.78 0.0007940417    1.429    0.300
       226 -11.8052     26.6292     27.5166   3.7124170389e+01   7.1676203059e+01    0.4725573    0.3958794 -53.00  0.001834543    1.376    0.273
       227 -10.4994    131.7634    240.4023   4.9818630835e+01   7.7955565683e+00    0.1732999   0.09764987  17.68 0.0006557741    1.634    0.388
       228 -11.4508    230.2251     26.6634   3.5122654805e+02   2.6400188818e+01    0.2443358    0.1947251  78.58 0.0009655762    1.448    0.310
       229 -10.7848    189.1463     27.0356   3.5426773357e+02   3.4582943817e+01    0.2978977    0.2321413  43.66  0.001583632    1.729    0.421
       230 -10.9452    183.6586     26.6874   3.5465915660e+02   3.5823959705e+01    0.3941797    0.1635019 -42.50  0.001115449    1.980    0.495
       231 -10.3767    150.8262     27.3730   3.5833335069e+02   4.3366130321e+01    0.3374673     0.159928  61.58  0.001530797    2.031    0.508
       232 -11.3114    143.3951     25.4382   3.5868785576e+02   4.5405536826e+01    0.5163288    0.2500284  82.41  0.002217914    2.229    0.551
       233 -11.6030    149.0586     22.3602   3.5701154794e+02   4.4371760164e+01    0.8125112    0.2815966  77.87  0.002964338    3.180    0.686
       234  -9.8129     97.1206     26.0651   7.1287898038e+00   5.6916085848e+01    0.2470331    0.1947879 -43.23  0.001346374    1.333    0.250
       235  -9.5865    206.4786     25.5047   3.5253412288e+02   3.1120125878e+01    0.1223525   0.09714893 -57.88  0.000120252    1.012    0.011
       236 -10.6987     46.4013     24.0416   2.3733348066e+01   6.8817641400e+01    0.3315193    0.2472092  17.16 0.0006473172    1.483    0.326
       237 -10.0482     46.6242     19.7651   2.1211011860e+01   6.9404946390e+01    0.2275938    0.1960155  49.76 0.0007949034    1.165    0.141
       238 -10.6281    169.4336     23.0370   3.5501000379e+02   3.9457494963e+01    0.2387729    0.1864694 -87.99 0.0004764124    1.179    0.152
       239 -10.5263    239.4596    250.4415   3.1675658798e+01  -4.7741970143e+00    0.1618519    0.1068263  -7.17 0.0005875584    1.042    0.040
       240 -10.7598    146.8309    237.5103   4.6326303098e+01   6.4615247298e+00    0.1908412    0.1522558 -85.97  0.001165189    2.307    0.567
       241 -11.3580    179.3372     20.4573   3.5340712116e+02   3.7488728256e+01    0.5722382    0.2291817  50.00  0.002323027    3.523    0.716
       242 -10.7735     68.6275     20.4567   1.2617797920e+01   6.4503776606e+01    0.3693223    0.2725168 -49.75  0.001639403    1.556    0.357
       243  -9.7854     53.2795     21.8635   1.9311536506e+01   6.7730192951e+01    0.2620386    0.1559785  29.30  0.001207311    1.978    0.494
       244 -10.7854     72.3679    237.9035   6.2730167599e+01   1.5267415273e+01    0.2353826    0.1392943  37.59  0.001333745    1.367    0.268
       245 -10.0843     32.4630     21.4186   2.9955653585e+01   7.1809280673e+01    0.2126233    0.1878775 -34.66 0.0005788365    1.219    0.180
       246 -11.4499    238.2817    234.2075   2.9553162678e+01  -2.8355077954e+00    0.1879001    0.1253993  24.61  0.001425997    1.630    0.386
       247 -11.7595      9.0683     19.5516   4.6060382969e+01   7.5424250493e+01    0.4568856    0.2588753  -7.66  0.000363437    2.225    0.551
       248  -9.5250    216.8123     19.8310   3.5055373872e+02   2.9693091897e+01    0.1699535    0.1035643 -57.36 0.0004163409    1.313    0.239
       249 -10.9410    233.7754    234.2168   3.0240928619e+01  -2.4226005039e+00    0.1483438   0.09033757  -7.17 0.0004549973    1.325    0.246
       250  -9.0208    199.6764    234.6741   3.5898048415e+01   9.0229939239e-01    0.1179841   0.06850278  -6.26  0.000704852    1.689    0.408
       251  -9.5365     74.9485     19.0584   9.8926040530e+00   6.3186435780e+01    0.2268102    0.1504821  31.72  0.000787943    1.721    0.419
       252  -9.1131     15.6535    233.6923   7.5532144861e+01   2.1914542255e+01     0.109016    0.0885198 -23.71 0.0007043573    1.701    0.412
       253  -9.2823    223.4836    231.4735   3.1452207122e+01  -1.1095067673e+00    0.1081626   0.07858593  -6.41  4.45822e-06    1.018    0.017
       254  -9.0764     23.5202    231.4997   7.3630016199e+01   2.1640438461e+01     0.122347   0.09767554  46.83 5.666692e-05    1.008    0.008
       255 -10.9302    246.2303    230.3956   2.7814511773e+01  -3.1097231531e+00    0.1790491    0.1086861  20.70 0.0007110271    1.599    0.375
       256 -11.0737    234.0799    227.4084   2.9190753581e+01  -1.6347905865e+00    0.1927151    0.1261671 -41.86   0.00132996    1.997    0.499
       257 -11.2204    248.7070    223.6444   2.6452912174e+01  -2.5477945131e+00    0.2425749    0.1202954 -11.49  0.001420122    2.010    0.502
       258  -9.1199    240.3196    225.3495   2.7939032367e+01  -1.9760754121e+00      0.11238   0.06043434  -9.52 0.0007048387    1.738    0.425
       259  -9.0050    171.5195    208.4791   3.7164907618e+01   8.0381871334e+00    0.1254772    0.1023901  -1.31 0.0002189431    1.029    0.028
       260  -9.3121    202.0081     16.0104   3.5060484689e+02   3.3078545315e+01    0.1466653    0.1144922 -58.57 0.0004091487    1.014    0.014
       261  -9.0384     39.7035    205.6460   6.8083897224e+01   2.5587228264e+01    0.1272521   0.09679284 -33.34 0.0007034077    1.692    0.409
       262 -10.1469      4.3761    204.7728   7.7081555203e+01   2.9057712501e+01    0.1666835    0.1055696 -72.35 0.0004994007    1.673    0.402
       263  -8.7383    235.6652    200.7133   2.4793934046e+01   1.5840294249e+00    0.1131268   0.06746969  -7.45 0.0004104034    1.627    0.385
       264  -9.2434    135.4533    196.4927   4.2917326012e+01   1.5084740239e+01    0.1332602    0.1191777   9.57 3.840299e-05    1.010    0.010
       265  -9.0400    233.7053    195.6279   2.4255765277e+01   2.4711525889e+00    0.1189592   0.06812451 -12.35 0.0007026541    1.732    0.423
       266 -11.1760      5.6302    185.5955   7.5939116685e+01   3.3443519716e+01    0.5243034    0.2123268  38.26  0.002406569    2.013    0.503
       267 -10.9965      3.4918    181.5002   7.6338718013e+01   3.4601539884e+01    0.3073035    0.1911739 -46.23  0.001594829    1.989    0.497
       268  -9.2254    210.7110    179.3285   2.5088789362e+01   7.5458666840e+00    0.1067911   0.09261122 -53.21 0.0003318745    1.618    0.382
       269  -9.8899     15.9812    173.4891   7.2322113120e+01   3.5592935113e+01    0.2750615    0.1637032  71.53    0.0011692    1.626    0.385
       270 -11.2806      8.9804    166.8129   7.3976578544e+01   3.7857680172e+01    0.2985748    0.2352548  13.27   0.00116983    1.426    0.299
       271 -11.8998     13.3130    160.3106   7.2220936445e+01   3.9194345949e+01    0.4993291    0.3579298 -38.46  0.002638007    1.678    0.404
       272  -9.3977     80.5069    164.9366   5.2084327318e+01   3.0193125149e+01    0.2158522    0.1432099 -58.31  0.000693462    1.550    0.355
       273  -9.8497    205.0457    163.1734   2.3070180011e+01   1.0839725011e+01    0.2199961    0.1562311 -33.57 0.0008980714    1.217    0.178
       274  -9.4877     28.6818    160.3294   6.7391485568e+01   3.7818407470e+01    0.1557025   0.09183408  58.38 0.0007047133    1.685    0.406
       275  -9.9191    104.5569    154.1732   4.3350152196e+01   2.8994030709e+01    0.2562799    0.2306161 -74.15  0.001374237    1.201    0.168
       276 -11.0785     16.5160    147.8395   7.0203850693e+01   4.2226807249e+01      1.03461      0.30069  88.43  0.002710162    5.549    0.820
       277 -11.1722     21.0639    150.4827   6.8928421476e+01   4.1132063582e+01    0.2403407    0.2211177  35.31 0.0003631929    1.136    0.120
       278 -11.4069     24.2096    147.8006   6.7622148441e+01   4.1565214600e+01    0.4564116    0.2875653 -39.59  0.001087584    1.886    0.470
       279  -9.4388      4.5362    153.4805   7.4538374429e+01   4.1638275899e+01    0.1374037    0.1192622  71.82 5.354736e-05    1.016    0.016
       280 -10.7460     47.1907    145.5034   5.9602131538e+01   3.9724406016e+01    0.4917229    0.2530239 -72.31  0.002023262    1.983    0.496
       281  -9.0192    104.3142    147.6690   4.2153862906e+01   3.0571665382e+01    0.1549044    0.1175556  72.52 0.0007045183    1.679    0.404
       282 -11.6315      3.6398    142.1598   7.4102199020e+01   4.4697068565e+01    0.5877395     0.330839  36.16  0.002392515    1.703    0.413
       283 -10.5749     32.8187    143.8425   6.4265228630e+01   4.1788462970e+01    0.2852795    0.2570408  63.84 0.0007504884    1.051    0.049
       284  -8.6648    105.4618    142.5096   4.0783879396e+01   3.1595938918e+01    0.1487153    0.1473818  14.11  0.000193245    1.006    0.006
       285 -10.7849     40.7202    138.3116   6.0806539066e+01   4.2422134680e+01    0.4370782    0.3074875 -77.53  0.001360477    1.408    0.290
       286 -11.2986     30.3666    132.6717   6.3737254970e+01   4.5071922570e+01    0.4948262    0.3355144 -58.25   0.00193744    1.437    0.304
       287 -11.5364     12.5035    135.4140   7.0485235182e+01   4.5893734788e+01    0.5998837    0.2816545 -48.12  0.002488405    2.302    0.566
       288 -10.9165     11.3502    125.1590   6.9932481940e+01   4.8774089632e+01    0.5740886    0.2422629 -48.24  0.002252246    2.493    0.599
       289 -11.4322     23.2443    136.8846   6.6806090749e+01   4.4603496317e+01    0.4359818    0.2967747 -36.80  0.002111987    1.711    0.416
       290 -10.7738     20.8052    133.8854   6.7350700658e+01   4.5637018010e+01    0.3139933    0.2874848   5.89  0.001043407    1.223    0.182
       291  -9.7354      2.0345    124.8447   7.3410283513e+01   4.9465281736e+01     0.226904     0.169299  61.41  0.001226446    1.296    0.228
       292 -11.0914    104.2661    122.3463   3.6652284407e+01   3.6609417297e+01    0.3312663    0.3188244 -10.34 0.0009023306    1.089    0.082
       293  -9.9729     49.4127    122.5114   5.5122281323e+01   4.5634477620e+01    0.3124893    0.1504914  26.50  0.001206402    2.154    0.536
       294 -10.4145     43.5612    117.7379   5.6472034308e+01   4.7672643674e+01    0.6577464    0.2286858 -73.00  0.001982066    3.578    0.721
       295 -11.2838      3.5289    104.7788   7.0980250953e+01   5.4846204129e+01    0.4972167    0.3419726  39.99   0.00118201    1.512    0.339
