#   1 NUMBER                 Running object number                                     
#   2 MAG_AUTO               Kron-like elliptical aperture magnitude                    [mag]
#   3 X_IMAGE                Object position along x                                    [pixel]
#   4 Y_IMAGE                Object position along y                                    [pixel]
#   5 X_WORLD                Barycenter position along world x axis                     [deg]
#   6 Y_WORLD                Barycenter position along world y axis                     [deg]
#   7 A_WORLD                Profile RMS along major axis (world units)                 [deg]
#   8 B_WORLD                Profile RMS along minor axis (world units)                 [deg]
#   9 THETA_WORLD            Position angle (CCW/world-x)                               [deg]
#  10 FWHM_WORLD             FWHM assuming a gaussian core                              [deg]
#  11 ELONGATION             A_IMAGE/B_IMAGE                                           
#  12 ELLIPTICITY            1 - B_IMAGE/A_IMAGE                                       
         1 -15.1623    164.3279     60.9389   8.2014150309e+01   3.6281255736e+01     11.60424     6.284794 -69.90   0.01862902    3.911    0.744
         2 -14.8053    224.8248     43.0061   6.7734847889e+01   2.4060784626e+01     4.710025     1.583311 -49.18   0.01735474    3.005    0.667
         3 -12.7904    211.0296     49.4904   7.1085195195e+01   2.6442757785e+01     1.184535    0.8658997 -68.05  0.006240854    1.368    0.269
         4 -12.8739    244.2771     40.5126   6.4959749702e+01   1.9932151836e+01     1.112765    0.6134027 -65.31  0.005434383    1.869    0.465
         5 -11.7707    236.5068     39.4788   6.5576611856e+01   2.1833908341e+01     0.787798    0.3049582 -57.38 0.0007087724    3.072    0.675
         6 -14.4571    247.8773     23.3377   6.0985705347e+01   2.1410323211e+01     1.173537    0.6998553 -50.71  0.006616344    1.481    0.325
         7 -15.3785    238.3042      4.7661   5.8005732505e+01   2.5738793340e+01     6.099644    0.1275301  64.99   0.01705214    6.612    0.849
         8 -14.6420    239.5067     84.1138   7.5280777567e+01   1.4285170948e+01     6.433321     1.351516 -41.57    0.0166466    3.950    0.747
         9 -13.7161    206.2876     62.2782   7.4961716195e+01   2.5663176118e+01     4.488813     1.946022 -64.57   0.01178949    5.751    0.826
        10  -9.6062    116.1981     12.5987   7.6951998958e+01   5.3725028005e+01     0.290665     0.176389  54.26  0.001150812    1.427    0.299
        11 -11.1884    120.2430      8.9684   7.4837276068e+01   5.3170033216e+01    0.4442537    0.3346999  48.33  0.001390412    1.124    0.110
        12 -10.7866      3.2859      2.7618   1.1246808059e+02   7.1967465782e+01     0.313349    0.2132882   3.48  0.002478976    1.309    0.236
        13  -9.1995    230.9753    167.4144   9.5436929031e+01   1.1544098664e+00    0.2477044    0.1872352 -57.27   0.00126851    1.607    0.378
        14  -8.8295     72.6668    250.3009   1.4031197392e+02   1.4115287255e+01    0.1263817   0.06912395  67.13 0.0007034165    1.654    0.395
        15 -10.2730    248.3034    157.9179   9.0342084275e+01  -4.5727776413e-01    0.3305384      0.20937  52.88  0.001636272    1.859    0.462
        16  -9.9054    171.1659    205.8491   1.1502422601e+02   5.7488722839e+00    0.2139719    0.1990705  50.05 0.0002999207    1.048    0.046
        17  -9.7946     91.1921    246.8432   1.3667845959e+02   1.2008386113e+01    0.1522473     0.138863  55.73 0.0004842936    1.332    0.249
        18  -9.7784    173.5226    136.9971   1.0021786772e+02   1.9400555760e+01     0.244278    0.1538672 -44.99 0.0006345022    1.584    0.369
        19 -10.2264    180.2257    135.5657   9.8406240654e+01   1.8178469832e+01    0.3127427    0.1528685  52.64  0.001151053    2.153    0.536
        20  -8.6318    115.7672    135.0375   1.1374137399e+02   3.2205201802e+01    0.2068353     0.183561 -59.99  0.000304897    1.087    0.080
        21 -10.4277    167.8290    132.4729   1.0040938827e+02   2.1661292835e+01    0.3689351    0.2352187 -35.87  0.001405628    1.694    0.410
        22 -10.5755    148.2653    130.5967   1.0453220041e+02   2.6468000627e+01     0.538621    0.3473989 -84.12  0.001929879    2.783    0.641
        23 -12.2603    199.2262    117.5158   9.0092149931e+01   1.7456010921e+01    0.7803906    0.5745651  16.56  0.003228698    1.936    0.484
        24 -11.0517    215.4897    116.2937   8.6732514309e+01   1.3945820062e+01    0.6234896    0.3534259 -56.10   0.00252476    2.055    0.513
        25 -11.8692    205.2201    110.2736   8.7165062439e+01   1.7460049886e+01     0.609769    0.4349946  51.85  0.001894461    1.439    0.305
        26 -10.1271    205.4033    121.8921   8.9957099332e+01   1.5170903041e+01    0.3105166     0.278091  71.21 0.0007784268    1.174    0.148
        27 -10.3212    210.9467    136.3249   9.2305425324e+01   1.1109586127e+01    0.3100869    0.2214557 -29.48  0.001449591    1.482    0.325
        28 -11.3786    159.8257    128.7169   1.0133194263e+02   2.4291651079e+01    0.5271459    0.4679294   7.95  0.002619707    1.323    0.244
        29 -11.1481    194.1565    127.2624   9.3479377646e+01   1.6690540638e+01    0.6479192    0.3884868  81.30  0.001704128    3.493    0.714
        30  -9.9707    140.7497    121.3371   1.0408941157e+02   3.0169996478e+01    0.5144871    0.3079534 -83.89   0.00150732    4.283    0.766
        31 -10.2003    224.2780    121.4956   8.6393473590e+01   1.1004401199e+01    0.4326005    0.2620858  76.79  0.001513556    2.709    0.631
        32 -13.3131      9.1737    203.4617   1.4788384212e+02   3.1164239742e+01     0.850274     0.622403  87.02  0.003921547    1.042    0.041
        33  -8.3871    176.2963    120.3140   9.5530829831e+01   2.2267811115e+01    0.1560554    0.1269991   4.66 0.0002707111    1.602    0.376
        34 -10.4276    135.9988    126.5323   1.0656370268e+02   3.0040086706e+01    0.5561705    0.2958277 -62.21  0.001980099    2.538    0.606
        35 -13.3377     27.6591    191.8504   1.4345501964e+02   3.1777599667e+01     1.651401     1.003235 -78.73   0.01011172    1.341    0.254
        36 -10.9453    168.1657    114.2709   9.5794621824e+01   2.5430021561e+01    0.4997156    0.3933525 -50.84   0.00111276    1.276    0.216
        37 -10.7922    134.2702    109.9736   1.0280119528e+02   3.4064730145e+01     1.125073    0.3144368 -43.82  0.003235938    3.570    0.720
        38  -8.6333    120.4676    111.9200   1.0691334420e+02   3.6541116743e+01    0.2264385    0.1327166 -69.00 0.0008076301    2.697    0.629
        39  -8.6715    126.6765    110.3278   1.0485862203e+02   3.5608938359e+01    0.1583457    0.1225638 -88.68 0.0007049202    1.694    0.410
        40 -11.9417    202.4092    126.6112   9.1672394072e+01   1.4928808545e+01     0.905946    0.3806804 -50.36  0.002348049    2.692    0.629
        41  -8.9274    177.5085    102.6975   9.0757980858e+01   2.5544336786e+01    0.3004461    0.2649098  24.14  0.001503028    1.296    0.229
        42  -9.5206    142.0235    102.9133   9.8962621844e+01   3.3845232483e+01    0.2485515    0.1951198   5.18 0.0008095636    1.705    0.413
        43 -13.1618     41.7877    179.3082   1.3926429415e+02   3.3005253838e+01    0.7942368    0.6658504 -79.38  0.001464426    1.135    0.119
        44  -9.7647    123.3071    101.9693   1.0352147689e+02   3.8113552144e+01    0.3283768    0.1984142  20.34  0.001199195    2.769    0.639
        45 -13.3749     51.8445    171.3660   1.3608612972e+02   3.3625032971e+01     1.180115      1.06498 -22.71   0.00270236    1.564    0.361
        46  -9.9675    147.9535     97.9448   9.6157479131e+01   3.3509974399e+01    0.3502709    0.3014632  20.20  0.000899959    1.325    0.246
        47  -9.9063    226.0249     97.4147   8.0424724173e+01   1.5020639183e+01    0.3781436    0.2618319  -8.91  0.001633354    2.298    0.565
        48  -9.3123    134.5061     95.0140   9.8679770936e+01   3.7149222161e+01    0.2710182    0.2138525  69.52 0.0006271884    1.474    0.322
        49  -9.6155    209.5058     93.8730   8.2338509520e+01   1.9507523353e+01    0.2958586    0.2174755 -75.44 0.0006283263    1.601    0.375
        50  -9.4568    220.2869     91.9014   8.0037288895e+01   1.7322370749e+01    0.2477932    0.1975215  84.34 0.0008131884    1.354    0.262
        51 -10.7860    158.4764     89.8898   9.1471209141e+01   3.2619337598e+01    0.5340354    0.3857794  19.82  0.002312352    1.912    0.477
        52  -9.6940    194.8467    198.3498   1.0877261377e+02   2.5715845249e+00    0.2586577     0.193622 -72.12  0.001092799    1.962    0.490
        53  -9.4042    211.3554     86.3636   8.0161576690e+01   2.0408343851e+01    0.3061075    0.2530381  33.88  0.001566427    1.459    0.314
        54 -10.1948    141.8956     86.9950   9.4562024314e+01   3.7069425263e+01    0.3213047    0.2979118 -64.49  0.001704802    1.127    0.113
        55  -8.9342    206.5104     82.5367   8.0025025701e+01   2.2243506305e+01     0.270103    0.1796042 -71.68 0.0008724506    1.865    0.464
        56  -9.4980    202.7041     80.2363   8.0094416107e+01   2.3567309770e+01    0.3923356    0.2483668 -80.10   0.00120865    2.248    0.555
        57 -11.8496    156.6499     79.4679   8.8953321493e+01   3.5002489056e+01    0.4109069    0.3675677 -54.67 0.0008776569    1.148    0.129
        58  -9.7247    234.9013    173.9495   9.6090497107e+01  -7.3389360652e-01    0.3528396    0.2485653  32.66  0.001594433    1.463    0.316
        59  -8.4936    148.2374     75.4163   8.9700264016e+01   3.7739570011e+01    0.2034835    0.1439922  64.48 0.0005404635    1.533    0.348
        60 -11.8801    193.5064     63.5417   7.7352499302e+01   2.8615328604e+01    0.9671051    0.4355618  37.80  0.003056005    3.949    0.747
        61  -8.8598    192.3915    153.7560   1.0002612083e+02   1.1709312316e+01    0.2165171    0.1438962 -32.95 0.0009514877    1.617    0.382
        62  -8.8063    201.0934     73.5151   7.8654642596e+01   2.5108221123e+01    0.2214719     0.142848  62.32  0.000566598    1.535    0.349
        63  -8.3400    203.5217    152.5341   9.7471451864e+01   9.5475405028e+00    0.1484265    0.1449176 -12.76  5.37955e-05    1.007    0.007
        64  -8.8392    118.0435    150.3532   1.1647569595e+02   2.8187799576e+01    0.2001923    0.1809773  55.06 0.0003436164    1.110    0.099
        65 -10.5226    137.6143     70.6286   9.0804193276e+01   4.1062604779e+01    0.3659756    0.2489361 -42.44  0.001722817    1.514    0.340
        66  -9.7864    133.5658    145.9866   1.1169298800e+02   2.6120781519e+01    0.7940379    0.1991667 -53.73  0.001972131    4.943    0.798
        67  -9.9420    149.0916     66.5846   8.6906253339e+01   3.9063236700e+01    0.2675972    0.2016364 -56.46 0.0006011254    1.494    0.331
        68  -9.9540    249.5649     66.9214   7.0101945303e+01   1.4855243882e+01    0.3654226    0.2569179 -66.56  0.001521809    1.374    0.272
        69  -9.3673    179.0325    147.3167   1.0141575554e+02   1.5978917518e+01    0.3598942    0.2087991 -37.37  0.001464722    1.832    0.454
        70 -10.5578     69.6589    145.3278   1.2784901227e+02   3.7432106895e+01    0.3860069    0.2687821 -85.86   0.00128556    1.548    0.354
        71 -10.0899    182.5200     65.6985   7.9857313574e+01   3.1001040902e+01     0.383036     0.238819 -59.28 0.0008571142    1.874    0.466
        72 -10.5132     66.4914    144.4656   1.2851561076e+02   3.8073084636e+01    0.5186102    0.3025745 -74.29  0.001702528    1.774    0.436
        73 -10.5890    248.6925    142.9064   8.7050356904e+01   2.0776996767e+00    0.5088539    0.2561063 -39.87  0.002262549    1.797    0.443
        74 -10.4364    144.2191     59.3167   8.5826583367e+01   4.1405875547e+01    0.3826526    0.2778898 -65.07 0.0008057357    1.757    0.431
        75  -8.6642     72.6872     58.0780   1.0546078851e+02   5.5883932309e+01     0.184598    0.1498562 -29.82 0.0006348845    1.131    0.116
        76  -9.7593     46.0174    208.4946   1.4139932857e+02   2.6058305633e+01    0.1667338    0.1108345  44.52 0.0005163132    1.552    0.355
        77  -9.2819     82.5217     51.0120   9.9863734173e+01   5.5481575324e+01    0.1969365    0.1225528 -35.58 0.0005366922    1.554    0.356
        78  -9.4002    127.0305     59.7361   9.0068657608e+01   4.5287663089e+01    0.1981191    0.1757937  41.05 0.0001865284    1.079    0.073
        79  -9.7682     89.9870     44.5062   9.5262749691e+01   5.5173457033e+01    0.2010015    0.1236998  42.43  0.001032309    1.588    0.370
        80  -9.0452    192.2000    144.0765   9.7861223911e+01   1.3719949356e+01    0.2575015    0.2168074  51.32 0.0004198417    1.205    0.170
        81  -8.6771    245.3196    172.3019   9.3880595069e+01  -2.3605961212e+00    0.1386606    0.1001716   1.65 0.0003485025    1.626    0.385
        82  -8.6803    171.7457     34.9634   7.3262486329e+01   3.8153402922e+01     0.191316    0.1771728  81.11  0.001079374    1.037    0.036
        83  -8.9262    207.3614     34.2167   6.7838004754e+01   2.9446923796e+01    0.2079602    0.1475237  84.62 0.0007364519    1.335    0.251
        84 -10.7486    104.4997     31.5228   8.6484664063e+01   5.4135605663e+01    0.2470372    0.2155939  20.38  0.001533203    1.036    0.035
        85  -8.7127    195.0323     27.4942   6.7786555776e+01   3.3316529029e+01    0.2433178    0.1648048 -57.02 0.0007856012    1.513    0.339
        86  -9.5283    183.2448    142.9292   9.9489903958e+01   1.5957312349e+01    0.2673868    0.2153969  48.71 0.0003595323    1.245    0.197
        87  -9.0138    173.4781    143.4934   1.0175514472e+02   1.8027183674e+01    0.1549233    0.1519855  89.58 0.0001511884    1.013    0.013
        88 -10.9818    229.4959    136.4330   8.8903660965e+01   7.1021291689e+00    0.4539425    0.2547211 -34.78 2.117381e-05    1.750    0.429
        89  -9.6352    215.8344    168.6083   9.8555326134e+01   3.9125569406e+00    0.3444261    0.2407559  61.39  0.001481963    1.805    0.446
        90  -9.4843    211.9583    166.4643   9.8853327271e+01   5.0960397380e+00    0.3558294    0.2373868  70.49  0.001086693    2.355    0.575
        91 -11.0207    187.7794    137.4990   9.7250294858e+01   1.6060562244e+01    0.3835783    0.3520863  10.72  0.001608421    1.200    0.167
