#   1 NUMBER                 Running object number                                     
#   2 MAG_AUTO               Kron-like elliptical aperture magnitude                    [mag]
#   3 X_IMAGE                Object position along x                                    [pixel]
#   4 Y_IMAGE                Object position along y                                    [pixel]
#   5 X_WORLD                Barycenter position along world x axis                     [deg]
#   6 Y_WORLD                Barycenter position along world y axis                     [deg]
#   7 A_WORLD                Profile RMS along major axis (world units)                 [deg]
#   8 B_WORLD                Profile RMS along minor axis (world units)                 [deg]
#   9 THETA_WORLD            Position angle (CCW/world-x)                               [deg]
#  10 FWHM_WORLD             FWHM assuming a gaussian core                              [deg]
#  11 ELONGATION             A_IMAGE/B_IMAGE                                           
#  12 ELLIPTICITY            1 - B_IMAGE/A_IMAGE                                       
         1 -13.3351      2.2254     80.4912   1.2251207881e+02   5.8378126134e+01     1.883233   0.01199782 -72.03  0.004519531    8.393    0.881
         2 -12.6520    210.3931     22.3855   4.8041884785e+01   2.9526785389e+01     1.157601    0.6377267 -14.31  0.004985765    2.137    0.532
         3 -12.9105      3.3830     10.8548   1.0584022245e+02   7.3385630618e+01     1.286443    0.5377456 -36.63  0.006961418    2.011    0.503
         4 -11.6248      3.3275      4.2912   1.0299905939e+02   7.4612753783e+01    0.4643537     0.260181 -33.23  0.002950682    1.452    0.311
         5 -12.6319    220.4713      9.9184   4.3521007790e+01   2.8348646644e+01     0.718007    0.5654387 -52.14  0.002695182    1.173    0.147
         6 -12.3504    238.4785    200.1556   8.6483138914e+01  -1.3763310804e+00    0.8327376    0.4429365 -18.74   0.00457578    2.024    0.506
         7 -12.6930    216.1912    246.7573   9.7356974821e+01  -3.0915984012e+00     1.020717     0.556133  38.97   0.00666595    1.450    0.310
         8 -13.1318    200.6592    234.8652   9.8285973916e+01   4.4487403599e-01     1.664527     1.156437  -4.51   0.01121142    1.694    0.410
         9 -11.6867    160.1124    246.8585   1.0668126741e+02   5.0791824525e+00    0.6418474    0.4327792 -22.74  0.004231005    2.265    0.558
        10 -13.9837    172.4998    243.4479   1.0417703920e+02   3.6601779542e+00     1.349424     1.049395  30.27  0.008813244    1.109    0.098
        11 -13.2879    184.0430    237.9904   1.0152451768e+02   2.5847349463e+00    0.9838806    0.5334832  37.46  0.005777578    1.417    0.294
        12 -12.6336    141.6215    224.3749   1.0730518636e+02   1.0945332185e+01    0.9740774    0.6186914  46.92  0.005324987    1.274    0.215
        13 -11.3246    152.1108    228.7489   1.0594045651e+02   8.6883247014e+00    0.4760219    0.2896861  41.95  0.002195692    1.291    0.225
        14 -14.2320    140.3330    240.8968   1.0941465857e+02   8.7849494864e+00     1.227814    0.8748949  60.52  0.006307213    1.426    0.299
        15 -12.5799    153.0845    238.1387   1.0688773815e+02   7.2531573776e+00    0.5512757    0.4887288  84.49  0.003525158    1.431    0.301
        16 -15.2495    114.5159    244.3685   1.1421621436e+02   1.2024428192e+01     4.134588     2.114924  65.05    0.0229903    2.445    0.591
        17 -13.2245      6.5248    249.4296   1.3194796901e+02   2.4006013442e+01    0.5938367    0.1202844  47.70  0.003080775    2.570    0.611
        18 -15.4429     18.8790    242.0016   1.2983085123e+02   2.3985253201e+01     1.619357    0.5492607  62.67   0.00972769    2.257    0.557
        19 -14.3856     42.9824    245.7993   1.2621167668e+02   2.0857951151e+01    0.9943448     0.343455  47.98   0.00592994    1.961    0.490
        20 -16.4034     67.9441    242.7644   1.2197208553e+02   1.8421846479e+01     7.206233      2.91781 -89.39   0.03565373    3.785    0.736
        21 -11.0707    192.9026    217.5920   9.7139607560e+01   3.7350026624e+00    0.3753827    0.2698086  38.45  0.002456756    1.168    0.144
        22 -10.5425    170.2798    215.0146   1.0083240525e+02   7.7392525536e+00    0.3073145     0.270883  -9.09   0.00217038    1.313    0.238
        23 -10.9089    165.4438    214.8845   1.0170141936e+02   8.5446264768e+00    0.3992031    0.2410264  26.27  0.002213595    1.783    0.439
        24 -10.4175    163.1958    224.4249   1.0340255359e+02   7.5580659034e+00    0.2801048    0.2250391  17.03  0.001931131    1.345    0.256
        25 -12.7151    134.8280    206.8970   1.0639346144e+02   1.4748896941e+01     1.109332     0.686619 -35.12  0.006030939    2.364    0.577
        26 -12.6371    128.5741    198.7472   1.0654251501e+02   1.7133903506e+01    0.8930845    0.5761508 -44.04  0.004976949    1.932    0.482
        27 -12.6286    120.8623    197.0025   1.0785066536e+02   1.8680578145e+01    0.7528112     0.565472 -88.39  0.003977744    1.554    0.356
        28 -13.4370    109.2808    200.8549   1.1063865481e+02   1.9801935370e+01      1.22569    0.7605453  86.21  0.005872096    2.157    0.536
        29 -12.2747    217.1088    206.7067   9.1198850216e+01   1.2186078789e+00    0.4437315    0.3136185 -10.79  0.002821326    1.486    0.327
        30 -11.5125    206.5207    207.7619   9.3212206553e+01   2.7939338980e+00    0.3864302     0.271589  18.94  0.002417931    1.319    0.242
        31  -9.9241     11.3610    206.1225   1.2961164754e+02   3.0846061072e+01    0.1476505    0.1287546  67.08  0.001265124    1.368    0.269
        32 -12.0374    181.8032    195.8980   9.5772662916e+01   8.5748619794e+00    0.7829722    0.5086545  53.78  0.004297748    1.700    0.412
        33 -11.3545     84.4683    190.3458   1.1444475193e+02   2.5410098500e+01    0.6888752     0.337015  43.47  0.003405036    1.778    0.438
        34 -11.1840     88.3905    184.5158   1.1297169418e+02   2.5989385852e+01    0.6306904    0.4098572  57.52  0.003688733    1.375    0.273
        35 -10.6837    137.3093    187.0888   1.0312923667e+02   1.7727972884e+01     0.323538    0.2746308  64.84  0.002030695    1.176    0.150
        36 -13.2059    221.2235    184.0350   8.6517146590e+01   3.4282453771e+00     1.226128    0.7220159 -12.10  0.006287884    2.044    0.511
        37 -10.6816     73.7916    184.5054   1.1602835216e+02   2.8024545570e+01    0.4113987     0.287867 -32.37    0.0022551    2.559    0.609
        38 -12.6163    120.6027    175.2428   1.0484926529e+02   2.2766856185e+01     1.133618    0.7432603  45.63  0.006156851    1.373    0.272
        39 -12.9549    173.7722    173.7906   9.3507532925e+01   1.3496077925e+01    0.9843961    0.7540464 -16.51  0.005495983    1.544    0.352
        40 -10.8253     88.3860    168.7901   1.1101310394e+02   2.9179289238e+01    0.3952125    0.3568682  76.86  0.002597159    1.076    0.071
        41 -11.7938    101.1540    169.8495   1.0831301331e+02   2.7012288574e+01    0.5277464    0.3926691  44.45  0.002824816    1.274    0.215
        42 -10.6390     77.8610    168.5872   1.1333896082e+02   3.0732027450e+01    0.4456082     0.287259  22.94   0.00166004    2.211    0.548
        43 -10.3583      5.9118    168.5903   1.2882660288e+02   3.8596971246e+01    0.3106994     0.173541 -83.93  0.001791612    1.433    0.302
        44 -11.6987     15.1099    162.8860   1.2658093536e+02   3.9010698762e+01    0.7169027    0.3044855  65.71  0.003802747    2.186    0.542
        45 -10.3043     91.4037    172.8012   1.1087224720e+02   2.7902163044e+01    0.3418916    0.1955543  39.94   0.00175217    1.679    0.405
        46 -11.3545     99.9621    163.1697   1.0760870793e+02   2.8582386110e+01    0.3796747    0.2850815  13.79   0.00201397    1.982    0.496
        47 -12.9691    110.3139    151.7994   1.0338600036e+02   2.9283550721e+01     1.425386    0.7807561 -48.73  0.006634915    1.956    0.489
        48 -10.0946     85.1546    161.2987   1.1073459994e+02   3.1237149362e+01    0.2045181    0.1687424 -61.82 0.0004908943    1.284    0.221
        49 -10.9215     28.4703    157.3241   1.2325859710e+02   3.8978225979e+01    0.6502309    0.2642408 -60.84   0.00329446    2.364    0.577
        50 -12.6059     20.9177    152.3471   1.2455417912e+02   4.0754277019e+01    0.8273185    0.5634313  67.59  0.004080348    1.258    0.205
        51  -9.3216      1.3782    158.1893   1.2920249986e+02   4.1101503766e+01    0.1577632   0.07756589  85.57 0.0007210296    1.620    0.383
        52 -10.6175     57.9790    161.8703   1.1703553155e+02   3.4770203363e+01    0.4504978    0.3114728 -36.55  0.002496749    2.270    0.559
        53 -11.6979    174.0514    149.9304   8.8781434704e+01   1.7578253168e+01    0.3881938    0.2953226   1.17  0.001960285    1.631    0.387
        54 -10.4756     59.2380    157.2656   1.1622560760e+02   3.5616838455e+01    0.3534992    0.1816754  86.10  0.001649457    2.337    0.572
        55 -11.5127    100.6290    144.7443   1.0449128390e+02   3.2430397730e+01    0.4858824    0.3558659 -29.36  0.002456669    1.939    0.484
        56 -10.1805     70.4018    145.1905   1.1199878180e+02   3.6859348112e+01    0.2825093    0.2131793  70.52 0.0008745642    1.265    0.210
        57 -10.1320     67.3527    142.6691   1.1239743235e+02   3.7835654175e+01    0.2501123    0.2146796  89.04 0.0008629216    1.010    0.010
        58 -10.1927     64.6804    141.6825   1.1292604801e+02   3.8408421860e+01    0.2501652    0.1711378 -48.40 0.0008379963    1.678    0.404
        59 -11.2077     88.0032    144.3058   1.0751792808e+02   3.4528543045e+01    0.2564183    0.2279694 -42.78 0.0004705746    1.337    0.252
        60 -15.4108     43.4089    231.9956   1.2541505417e+02   2.3039316914e+01      1.86262     0.687187  68.88  0.009575471    2.919    0.657
        61  -9.0571     97.5378    129.5029   1.0247984406e+02   3.6343313526e+01    0.1381664    0.1315914 -67.98 0.0008077213    1.095    0.086
        62  -9.5962      1.9691    129.3000   1.2726506639e+02   4.7293954827e+01    0.1559293     0.122819  89.09 0.0005718531    1.064    0.060
        63 -10.7603     63.4995    122.9632   1.1039085462e+02   4.2885897764e+01    0.4462981    0.2799655  19.38   0.00219493    2.285    0.562
        64 -11.5055     29.1460    236.6794   1.2799008648e+02   2.3803291165e+01    0.1546234    0.1005337  68.75 0.0005564456    1.108    0.097
        65 -11.0872    234.1905     40.1982   5.0329372031e+01   2.1532891977e+01    0.3062016   0.08242711  58.97  0.001035596    3.503    0.715
        66 -10.3839    195.3959     34.7290   5.3591718460e+01   3.1895942712e+01    0.2576589    0.1901793 -14.18 0.0007101316    1.477    0.323
        67 -11.6872     18.7917     34.6018   1.0625069476e+02   6.7640709036e+01    0.2192386    0.1798988 -18.44  0.001515671    1.282    0.220
        68 -12.1247    225.4358    218.4656   9.1690756254e+01  -1.4502081410e+00     1.251301    0.6437032  -1.53  0.005818206    3.272    0.694
        69 -12.0060    203.9868     29.0121   5.0735502151e+01   3.0385543017e+01     0.520727    0.4154531 -41.10  0.002764238    1.196    0.164
        70 -10.6481     10.2230     30.5869   1.0914794615e+02   6.9050292736e+01    0.1505225    0.1013915 -14.97 0.0009555637    1.661    0.398
        71 -10.4182     25.6516     29.6886   1.0122728796e+02   6.8088790501e+01    0.1307275   0.07564703 -29.57 0.0007045701    1.715    0.417
        72 -13.3317    231.3650    196.7798   8.7076125594e+01   1.4122000681e-01     1.058192    0.6190711  -2.43  0.005651958    2.064    0.515
        73 -12.0446    235.5640    208.4906   8.8388174626e+01  -1.8742549175e+00    0.6148628    0.3760637   9.31  0.003655242    1.675    0.403
