#   1 NUMBER                 Running object number                                     
#   2 MAG_AUTO               Kron-like elliptical aperture magnitude                    [mag]
#   3 X_IMAGE                Object position along x                                    [pixel]
#   4 Y_IMAGE                Object position along y                                    [pixel]
#   5 X_WORLD                Barycenter position along world x axis                     [deg]
#   6 Y_WORLD                Barycenter position along world y axis                     [deg]
#   7 A_WORLD                Profile RMS along major axis (world units)                 [deg]
#   8 B_WORLD                Profile RMS along minor axis (world units)                 [deg]
#   9 THETA_WORLD            Position angle (CCW/world-x)                               [deg]
#  10 FWHM_WORLD             FWHM assuming a gaussian core                              [deg]
#  11 ELONGATION             A_IMAGE/B_IMAGE                                           
#  12 ELLIPTICITY            1 - B_IMAGE/A_IMAGE                                       
         1 -13.7186     68.9639    144.5760   8.0489388117e+01   3.7155254554e+01     3.833816     1.823797  78.36   0.01074448    5.159    0.806
         2 -13.1330    209.7827     48.8090   2.5018601133e+01   2.7365614436e+01     1.070673    0.9202919   8.98  0.006735583    1.507    0.336
         3 -13.2429    222.6717     38.6886   2.1435226421e+01   2.6015860875e+01    0.8278782    0.7138498  24.55  0.004615872    1.570    0.363
         4 -11.2167    248.5368     18.8746   1.5367111628e+01   2.3353991501e+01    0.3993272    0.2811821 -49.40  0.002839535    1.072    0.067
         5 -11.6080    247.8930     12.8105   1.4117024005e+01   2.4076327766e+01    0.4322177    0.3688872 -16.80  0.002943296    1.441    0.306
         6 -10.8009     11.7004     12.1447   7.4616426772e+01   7.7329938430e+01    0.4891037    0.1001535 -53.24  0.001671146    3.802    0.737
         7  -9.6354      2.2276      5.9683   8.1593673111e+01   7.9394893724e+01    0.1658487   0.09650489 -61.38  0.000884291    1.679    0.404
         8  -8.9688     59.6855      2.6758   3.4870066483e+01   7.0087850648e+01    0.1453048   0.09411469  31.75 0.0005014928    1.664    0.399
         9  -9.0165      2.3203      2.3007   7.9299195650e+01   8.0154778773e+01    0.1325851   0.07861666 -27.92 0.0007024826    1.625    0.384
        10 -10.6911     72.1456    226.7349   8.8634955042e+01   1.8830381004e+01    0.2788081    0.2476283 -65.62  0.001793734    1.403    0.287
        11  -9.9997     75.7385    246.1490   8.9294619639e+01   1.5069610527e+01     0.426747    0.1500866 -56.43  0.002106596    3.480    0.713
        12 -10.3985     71.8243    243.5176   8.9957669874e+01   1.5931060866e+01    0.2705249    0.2206042  82.95  0.001334192    1.508    0.337
        13 -12.9679     57.0981    242.2971   9.3103111879e+01   1.7700641883e+01     1.501471    0.7841954  65.78  0.008455815    2.242    0.554
        14 -16.0305     22.9562    171.3934   9.7440505493e+01   3.5752153696e+01     11.60358     4.129788  70.10   0.04256254    3.352    0.702
        15 -10.3669    134.4064    201.9274   7.1536052870e+01   1.5371812754e+01    0.2734626    0.1561827  13.61  0.001332033    2.013    0.503
        16 -15.3653      7.9498    207.9806   1.0292558413e+02   2.8864298616e+01     1.881178      1.46536  83.85   0.01138308    1.323    0.244
        17  -8.7930     91.5103    198.4645   8.1246374083e+01   2.1867453193e+01    0.2021906    0.1291448 -85.48 0.0009215979    2.225    0.550
        18 -10.3804    191.6580    192.4924   5.8435287126e+01   9.0500463926e+00    0.4232043    0.2631303 -61.19  0.001913422    4.045    0.753
        19  -9.3193     58.1361    195.6638   8.9514897226e+01   2.6595133780e+01     0.245877    0.1609731  68.35 0.0008272047    1.636    0.389
        20 -10.0544     99.1075    181.0042   7.7104419728e+01   2.4396665277e+01    0.2951534     0.238805  16.65 0.0007037704    1.235    0.190
        21  -9.0019    120.5038    180.0062   7.1557262588e+01   2.1439699012e+01     0.186229    0.1371914 -54.16 0.0005571542    1.543    0.352
        22  -9.6721    180.8240    178.3322   5.8073344038e+01   1.2671925921e+01    0.2083984    0.1979296 -53.89 0.0009380523    1.463    0.317
        23 -11.0704     99.8486    170.3987   7.5380351796e+01   2.6551110213e+01    0.8157866    0.2150393  42.47  0.002559913    3.599    0.722
        24  -8.4919     66.5482    169.4354   8.4549286436e+01   3.1456400597e+01     0.141145    0.1231144  47.24 0.0001024421    1.021    0.021
        25 -12.6664     74.8306    154.8889   8.0196701790e+01   3.3793115219e+01     1.488654    0.8264266 -71.40 0.0004374362    2.051    0.512
        26 -12.6136     62.1251    150.0113   8.3438152685e+01   3.6732078706e+01    0.6223856    0.4585732  31.17   0.00104977    1.291    0.225
        27  -9.1920    140.1550    249.1656   7.6154953468e+01   7.3402798328e+00    0.1571179     0.110358  36.26  0.001086907    1.367    0.269
        28 -10.6238    230.1380    166.4794   4.7553783220e+01   7.6147366945e+00     0.224968    0.1328471 -43.61  0.001322396    1.969    0.492
        29 -11.9807     37.0948    161.2615   9.2495378725e+01   3.6863175305e+01    0.8543466    0.3951491  68.52  0.003467037    2.522    0.604
        30 -13.5034     43.5110    180.1459   9.2184186028e+01   3.1679728064e+01     3.125258    0.8424299  41.73   0.01163239    2.800    0.643
        31 -10.5842    245.3214    161.3548   4.4471491428e+01   6.3677593571e+00      0.27016    0.1121163 -33.08  0.001468625    1.973    0.493
        32  -9.8284     52.8888    158.9132   8.7411725713e+01   3.5686466423e+01     0.509218    0.1843154  54.99  0.001678336    3.479    0.713
        33 -11.5839     82.9286    148.0248   7.6689933422e+01   3.4254449354e+01    0.7772478     0.481508 -38.66  0.003437317    1.989    0.497
        34  -8.8675    174.4449    149.2035   5.3877562515e+01   1.8470858771e+01    0.1812445    0.1233944 -48.80 0.0006543286    1.642    0.391
        35 -10.5434    133.8013    145.6279   6.2179735331e+01   2.6221000098e+01    0.9944102    0.2842537 -55.18  0.002563977    5.895    0.830
        36 -14.7508      5.6007    249.0445   1.0437097121e+02   2.1293157239e+01     1.939966    0.6295018  19.88  0.001660715    3.067    0.674
        37 -10.1959     98.6593    136.0604   6.9802462969e+01   3.4552286518e+01    0.5660633    0.3713996  -7.81  0.002225681    2.607    0.616
        38 -11.6436     85.2344    135.1400   7.3732061417e+01   3.7023800096e+01    0.3061681    0.2873594 -40.28 0.0005029202    1.149    0.129
        39 -11.6653     60.0886    166.9054   8.6141316689e+01   3.2872669362e+01    0.5699126    0.3817167   1.72  0.002675274    1.988    0.497
        40  -9.5075    105.5092    130.4883   6.6649818956e+01   3.4644004851e+01    0.2945897    0.2562972 -86.59  0.001527652    1.295    0.228
        41  -9.5224    108.3859    128.3022   6.5348470600e+01   3.4622967850e+01    0.3379505    0.2464998  -9.41  0.001493928    1.947    0.487
        42 -15.1662     12.1286    241.6723   1.0284809333e+02   2.2046698691e+01     1.591277    0.5799567 -88.81  0.008265798    3.123    0.680
        43  -9.7875     96.0881    123.5772   6.8009120350e+01   3.7974536091e+01    0.3242281     0.256358  -2.97  0.000965168    1.630    0.387
        44 -15.5803      6.9499    233.2083   1.0376925486e+02   2.4010554621e+01     3.102439     1.041167  12.59   0.00900098    4.826    0.793
        45  -9.0173    105.8986    117.2050   6.3581744467e+01   3.7655217660e+01    0.2204451    0.1976108  65.52 0.0003303139    1.160    0.138
        46  -9.5776    133.5801    112.5785   5.4843107466e+01   3.3138562108e+01    0.3110093    0.2609312 -89.67 0.0007106108    1.460    0.315
        47  -9.4563    205.4020    110.4848   4.0158161709e+01   1.9429107562e+01    0.2339136    0.2080591  27.67 0.0009399546    1.237    0.192
        48  -9.5290    129.0468    107.5278   5.4729006338e+01   3.5135487817e+01    0.2715002     0.207822 -63.10 0.0005327765    1.478    0.323
        49 -11.2763     91.6768    206.7537   8.2132812112e+01   2.0222100558e+01     0.430922     0.223046  21.23   0.00206043    1.923    0.480
        50  -9.6948     54.5030     95.4948   7.6734821904e+01   5.1968839821e+01    0.1509811    0.1446261  76.51 -4.888705e-05    1.019    0.018
        51  -9.7476    124.9583    204.7528   7.4049355484e+01   1.6172395350e+01    0.1762256   0.09390175  29.57 0.0007788404    1.591    0.372
        52 -10.0462     46.1675     91.5011   7.9425237090e+01   5.4164167484e+01    0.2952754    0.2172046  66.29 0.0008173783    1.511    0.338
        53 -11.3951     64.9926    162.6951   8.4192851022e+01   3.3254499195e+01    0.4895262    0.3519188  -5.10 0.0007409579    1.859    0.462
        54  -8.9016     84.6129     80.3298   6.0705250062e+01   5.0515385995e+01    0.2308321    0.1796792  86.02 0.0007751543    1.613    0.380
        55 -11.4477    103.6777    201.9185   7.8672904507e+01   1.9574618647e+01     0.499352    0.3015112  32.71  0.002676976    1.381    0.276
        56 -11.5979     12.6002     60.5290   9.0204240477e+01   6.5676151206e+01    0.7376736    0.4031786  -0.10  0.001454341    2.116    0.528
        57 -12.3036    199.8212     55.1336   2.7662891105e+01   2.8612073937e+01    0.7061868    0.5490313   8.12  0.003141622    1.775    0.436
        58  -9.0629    111.4349    240.8427   8.1175925211e+01   1.1875501350e+01     0.171488    0.1205778 -65.40 0.0007650356    1.984    0.496
        59  -8.9083    110.0000    235.9509   8.0996363138e+01   1.2816269574e+01     0.158602   0.06964108 -58.04 0.0008015399    2.936    0.659
        60  -9.5501     25.9809     36.9678   7.4613318758e+01   7.0372166049e+01    0.2007452    0.1909487 -19.25  0.001217209    1.025    0.024
        61 -11.4776    126.6264    230.0554   7.6801116025e+01   1.1739444637e+01     0.445438    0.3637349  70.08  0.002981795    1.786    0.440
        62 -12.1411    133.9984    229.9440   7.5233713603e+01   1.0852229026e+01    0.6299098    0.2458297  28.62  0.003045997    2.073    0.518
        63  -8.7004     60.5091     21.1497   4.5913837964e+01   6.7479017702e+01    0.1952219    0.1404912 -33.99 0.0004066921    1.464    0.317
        64  -9.3263    189.1023     15.1575   1.8131120413e+01   3.5803579795e+01    0.1859458    0.1745592  50.69 0.0008706707    1.324    0.245
        65  -8.2069    196.7050     14.6920   1.7445160551e+01   3.4135416273e+01    0.1143311   0.09670731  33.33 0.0003011474    1.587    0.370
        66 -11.3138    141.3758    227.9482   7.3459754099e+01   1.0248686165e+01    0.3280765    0.2522733 -44.43  0.001644114    1.599    0.375
        67  -9.0886      6.6546     14.3126   8.0953697726e+01   7.7293972122e+01    0.1262922   0.09410534  53.08 0.0007046583    1.710    0.415
        68 -11.5864    119.4970    230.8849   7.8418354548e+01   1.2480845005e+01    0.4355371    0.2455033  15.03  0.002373608    1.804    0.446
        69 -11.2288    108.6486    228.8564   8.0564015465e+01   1.4135719565e+01    0.2942344    0.2004722  30.32  0.001266978    1.154    0.134
