#   1 NUMBER                 Running object number                                     
#   2 MAG_AUTO               Kron-like elliptical aperture magnitude                    [mag]
#   3 X_IMAGE                Object position along x                                    [pixel]
#   4 Y_IMAGE                Object position along y                                    [pixel]
#   5 X_WORLD                Barycenter position along world x axis                     [deg]
#   6 Y_WORLD                Barycenter position along world y axis                     [deg]
#   7 A_WORLD                Profile RMS along major axis (world units)                 [deg]
#   8 B_WORLD                Profile RMS along minor axis (world units)                 [deg]
#   9 THETA_WORLD            Position angle (CCW/world-x)                               [deg]
#  10 FWHM_WORLD             FWHM assuming a gaussian core                              [deg]
#  11 ELONGATION             A_IMAGE/B_IMAGE                                           
#  12 ELLIPTICITY            1 - B_IMAGE/A_IMAGE                                       
         1 -12.3890    217.0512     13.0685   3.4752824041e+01   2.9722160787e+01    0.2633502    0.2308619 -74.84 0.0004871522    1.129    0.114
         2 -11.6036     57.8211      6.2890   5.9660706045e+01   6.9511576279e+01    0.3080431    0.2197774  72.39  0.001285597    1.891    0.471
         3 -12.2194    185.8619      4.4416   3.4680190342e+01   3.7843722725e+01     0.386813    0.1607223 -30.75  0.001702365    2.124    0.529
         4 -10.6566    166.0336      1.4400   3.5428095980e+01   4.3053790106e+01    0.2018808    0.1243387  77.24 0.0004253977    1.550    0.355
         5 -11.8187     96.3683    223.8686   1.0389500306e+02   1.6723635125e+01    0.3378765    0.3020483  78.37  0.002468056    1.250    0.200
         6 -11.9070      3.1546    249.1463   1.2367818429e+02   2.2389544883e+01    0.2521809    0.1582096 -71.52  0.001890466    1.976    0.494
         7 -10.7905    211.7883    218.2052   8.0926455555e+01   2.0671503702e+00    0.1525309    0.1280556  74.36 0.0009530001    2.801    0.643
         8 -10.2771     85.6760    209.3334   1.0475464258e+02   2.0731767916e+01    0.1310317   0.07862014  58.75 0.0007050771    1.709    0.415
         9 -11.3374    149.7650    223.4796   9.3017118367e+01   9.6136047660e+00    0.2406368    0.1732634 -78.36  0.001400599    2.517    0.603
        10 -10.3245    185.6834    204.3551   8.3402472582e+01   7.3897274017e+00    0.1082293   0.09547863  64.02 0.0007045677    1.745    0.427
        11 -11.3376     49.2245    201.4561   1.1224007781e+02   2.6710459174e+01    0.3458849    0.1932116  64.81    0.0019144    1.718    0.418
        12 -11.0060    148.9782    198.2574   8.9670830043e+01   1.3716973710e+01    0.2348796    0.1669199 -86.75   0.00118054    2.705    0.630
        13 -10.6643    112.3166    197.6555   9.7495771666e+01   1.9267830495e+01    0.1320703   0.09005645  62.23 0.0007048476    1.718    0.418
        14 -10.0694    133.4783    195.9692   9.2614136166e+01   1.6445072384e+01    0.1625769    0.1134147  89.37 0.0008090952    2.454    0.593
        15 -11.8283    160.3875    193.1230   8.6534909402e+01   1.2839514176e+01    0.4285216    0.3073789  60.60  0.002350629    2.007    0.502
        16 -11.9822     44.0786    193.2916   1.1282678547e+02   2.8969529633e+01    0.3799077    0.1792043  72.83  0.001803938    2.380    0.580
        17 -10.8626     34.3755    187.1723   1.1468923076e+02   3.1300432320e+01    0.1791265   0.09857813  82.65  0.000954107    1.792    0.442
        18 -10.7992    183.2334    183.1391   8.0346786921e+01   1.0919684510e+01    0.3029842    0.1670885 -36.25  0.001575763    1.853    0.460
        19  -9.9825    224.0000    183.0331   7.3085419850e+01   4.9147089490e+00    0.1899606   0.06013509 -35.28 0.0008068854    2.973    0.664
        20 -10.3629    191.6056    177.8014   7.7814255132e+01   1.0446756271e+01    0.1701083    0.1157362 -44.88 0.0009517443    1.698    0.411
        21 -11.8280     34.1365    173.0426   1.1374264838e+02   3.4460828837e+01    0.2874526    0.1421108  79.99  0.001371565    2.117    0.528
        22 -10.2146    138.3334    164.0094   8.6359929428e+01   2.1664538114e+01    0.2138582    0.1177344 -72.49 0.0007050788    4.342    0.770
        23 -11.7459    106.0283    157.8250   9.3124952239e+01   2.8373908423e+01    0.5018693    0.3055735  66.16  0.002164249    2.288    0.563
        24 -10.7639    118.1639    157.5755   9.0022455407e+01   2.6416402212e+01    0.2607402    0.1057733 -56.26 0.0009790384    2.730    0.634
        25 -10.9882    167.4878    156.9971   7.8627866821e+01   1.7911435120e+01    0.1861023    0.1215461 -66.08 0.0008104661    2.589    0.614
        26 -10.6399    218.0000    155.9644   6.8987045176e+01   9.5777447853e+00    0.2103933   0.06454121 -35.79 0.0008085144    2.985    0.665
        27 -10.8539    189.3494    149.8540   7.2828846097e+01   1.5307475096e+01    0.2700658    0.1150224 -45.68   0.00109192    2.587    0.613
        28 -11.1165    107.0752    145.2265   9.0616844912e+01   3.1011671416e+01    0.3889076    0.2313568  88.30  0.001390265    3.365    0.703
        29 -10.7997     55.7559    146.1497   1.0514906471e+02   3.8422099125e+01    0.2549296    0.1176899  63.55 0.0009563123    2.870    0.652
        30 -10.5919    148.4868    144.9994   8.0331020264e+01   2.3615147561e+01    0.1959434     0.127606 -70.82 0.0008099593    2.513    0.602
        31 -10.4129    181.3362    141.6436   7.2641865716e+01   1.8146609990e+01    0.1362803    0.1118471 -78.83 0.0007041822    1.803    0.445
        32 -11.2537     83.0064    131.5514   9.4814890919e+01   3.8191222021e+01    0.2935332    0.2054697 -82.36   0.00139056    1.626    0.385
        33 -11.6930     98.6798    128.3203   8.9604032829e+01   3.6374477461e+01    0.5103087    0.3059702 -89.74  0.001841312    3.068    0.674
        34 -11.4052     42.8589    121.9741   1.0585301382e+02   4.6027481642e+01    0.6326692     0.263379 -89.15  0.002077666    3.701    0.730
        35 -11.5870     27.6858    122.0349   1.1087461041e+02   4.7535990629e+01    0.6660679    0.2382322  72.07  0.001830663    5.697    0.824
        36 -11.3054    192.9751    118.4380   6.5197774922e+01   1.9943818085e+01    0.4039615    0.2874449 -68.23  0.001313154    2.144    0.534
        37 -11.0592     71.1645    119.9973   9.6277966407e+01   4.2865715432e+01     0.288118    0.1919852 -83.67  0.001317534    1.718    0.418
        38 -10.8283    108.0177    112.3233   8.3309080905e+01   3.8424159500e+01    0.4828112    0.2128655 -62.81  0.001512574    3.407    0.706
        39 -11.1777     78.6436    112.5722   9.2353209923e+01   4.3569984021e+01    0.4467877    0.2502235  88.30  0.001480518    3.529    0.717
        40 -10.3460     92.3963    112.6014   8.8023080525e+01   4.1240462650e+01     0.301041    0.1410477 -68.86 0.0009588882    3.326    0.699
        41 -10.9118    173.9789    110.5460   6.6871806483e+01   2.5174146817e+01    0.3347757    0.1931508 -51.41  0.001079527    1.952    0.488
        42 -10.6967    159.4815    111.9844   7.0248766552e+01   2.7945437227e+01    0.2151971    0.1243638 -60.85 0.0008101982    2.547    0.607
        43 -11.7480     14.3230    108.8277   1.1399577976e+02   5.2018054331e+01    0.6062812     0.267309 -80.16   0.00269008    2.000    0.500
        44 -12.2433    140.4342    102.8808   7.2251436886e+01   3.3832391983e+01    0.5753957    0.3048259 -40.41  0.002320475    1.864    0.463
        45 -12.2235     43.9637     99.6110   1.0179260321e+02   5.1697310447e+01    0.7146551     0.360648 -83.17  0.002823311    2.432    0.589
        46 -11.2469    127.5138    100.5487   7.4878768537e+01   3.7097931725e+01     0.337213    0.1491071 -44.86  0.001224256    2.213    0.548
        47 -11.7281    107.0405     97.7782   7.9832333587e+01   4.1964088405e+01    0.4801779    0.2528046 -59.15  0.001809252    2.226    0.551
        48 -11.2487     62.7393     95.3403   9.3922332273e+01   5.0347638531e+01    0.4070277    0.1889221 -78.35  0.001216902    4.095    0.756
        49 -12.3769    169.4207     90.7516   6.2584934701e+01   2.9746947889e+01    0.2736408    0.2442908 -46.48 0.0003270384    1.085    0.078
        50 -10.5970    124.3152     91.6488   7.3226181248e+01   3.9685979739e+01    0.1610631    0.1225765 -81.45   0.00070467    1.731    0.422
        51 -11.2083    151.4079     88.5698   6.5724557710e+01   3.4228318362e+01    0.3525115    0.1417811 -40.13   0.00124122    2.370    0.578
        52 -11.1421     34.1971     87.0300   1.0319509334e+02   5.6011421549e+01    0.6072518    0.1559853 -65.87  0.001974233    3.284    0.695
        53 -11.1509     86.3475     86.4832   8.3214628048e+01   4.8599199005e+01    0.3489038     0.228153 -88.18  0.001336599    2.579    0.612
        54 -11.0191     45.9155     81.7165   9.7208815936e+01   5.6069481586e+01     0.227061    0.1921302  76.01  0.001244916    1.277    0.217
        55 -11.3216    104.2095     82.6337   7.6286979817e+01   4.5945061651e+01    0.4194582    0.2445839 -60.02  0.001654786    2.058    0.514
        56 -10.3770    140.5068     83.0154   6.6590576500e+01   3.7798878112e+01    0.2308584    0.1245046 -59.07 0.0008105897    2.605    0.616
        57 -11.2328     23.8574     79.7641   1.0616570915e+02   5.8836340627e+01    0.3533823    0.1680851 -89.89  0.001379343    2.711    0.631
        58 -11.1541     62.0000     71.9592   8.7916880522e+01   5.6238567317e+01    0.4188957   0.07923906 -54.71  0.001052393    4.944    0.798
        59 -11.0609     81.5014     72.0195   8.0453810095e+01   5.2850922560e+01    0.2186744    0.1324871 -72.01 0.0008103848    2.591    0.614
        60 -12.2774     34.4435     57.5612   9.5894747935e+01   6.3400555442e+01    0.4531932    0.2926764  25.02  0.002310836    1.718    0.418
        61 -11.4202     42.5088     67.0101   9.4832706918e+01   6.0162801720e+01    0.4190108    0.1665493 -62.91   0.00133029    2.455    0.593
        62 -11.4764     41.6843     63.0401   9.4053928571e+01   6.1232626149e+01    0.3200947    0.2290558  57.24 0.0009277599    1.708    0.414
        63 -11.7065    230.8032     61.1802   4.5684437765e+01   2.1048945690e+01    0.3146916   0.06063892 -35.75  0.001035439    3.490    0.713
        64 -12.5273     27.1533     59.9987   1.0022488160e+02   6.3547360309e+01    0.5846105    0.3860146  73.16  0.001874407    2.021    0.505
        65 -11.5330     28.7665     52.8058   9.7350579474e+01   6.5140942027e+01    0.3391035    0.2113718  -5.61  0.001622097    2.129    0.530
        66 -11.7122      8.4130     54.9813   1.0874923046e+02   6.6181012587e+01    0.5108624    0.2703473 -75.47  0.002525918    1.709    0.415
        67 -10.3384     54.4852     54.9833   8.5461521288e+01   6.1355078060e+01    0.2027874    0.1265747 -76.81 0.0008104743    2.588    0.614
        68 -11.9489     21.2621     50.3572   1.0064891042e+02   6.6421924276e+01    0.5687933    0.2650703 -54.00  0.002636504    1.770    0.435
        69  -9.8454    149.3277     51.2950   5.4554540602e+01   4.1264388245e+01    0.1513752    0.1158299  25.16 0.0006105723    1.628    0.386
        70 -10.7576     92.0000     49.4861   6.8528114766e+01   5.5396187856e+01    0.3395178   0.08348887 -39.63 0.0009411694    3.987    0.749
        71 -11.4697      6.8556     42.5920   1.0682836162e+02   6.9288589020e+01    0.5676857    0.2875614  44.30  0.002729148    2.470    0.595
        72  -9.9303     41.9367     36.0037   8.3979251691e+01   6.7331388668e+01    0.1566432    0.1438241   4.95 0.0003101932    1.114    0.102
        73 -10.7545     72.7831     32.1903   6.7856901670e+01   6.2600522583e+01    0.2381738    0.1603643 -76.87 0.0009583909    2.850    0.649
        74 -10.1432    104.8205     30.3398   5.6629928548e+01   5.5586772790e+01    0.2089908    0.1249568  48.58 0.0004199744    1.648    0.393
        75  -9.9457    239.7570     20.5851   3.5088150252e+01   2.4118982323e+01    0.1526306    0.1042773 -73.41 0.0004315692    1.471    0.320
        76 -10.2865     88.3111     17.6455   5.5344949825e+01   6.1295381610e+01     0.146255    0.1067645 -62.26 0.0007044137    1.729    0.422
        77  -9.5947     46.6811     16.6764   7.1374210251e+01   7.0172583609e+01    0.1385753   0.09789908   1.68 0.0007044802    1.672    0.402
        78 -11.3547     21.9619    249.0178   1.2026411885e+02   2.0722217377e+01    0.1710233    0.1207508  52.57  0.001336875    1.007    0.007
        79 -10.6750    197.9729    247.4924   8.7376083032e+01   3.3866551298e-01    0.1403349    0.0769311  45.70 0.0008101588    2.554    0.609
        80 -10.6084     21.6268    219.2141   1.1921759287e+02   2.6046694860e+01    0.1430257   0.09323571 -75.86 0.0009564722    1.666    0.400
