#   1 NUMBER                 Running object number                                     
#   2 MAG_AUTO               Kron-like elliptical aperture magnitude                    [mag]
#   3 X_IMAGE                Object position along x                                    [pixel]
#   4 Y_IMAGE                Object position along y                                    [pixel]
#   5 X_WORLD                Barycenter position along world x axis                     [deg]
#   6 Y_WORLD                Barycenter position along world y axis                     [deg]
#   7 A_WORLD                Profile RMS along major axis (world units)                 [deg]
#   8 B_WORLD                Profile RMS along minor axis (world units)                 [deg]
#   9 THETA_WORLD            Position angle (CCW/world-x)                               [deg]
#  10 FWHM_WORLD             FWHM assuming a gaussian core                              [deg]
#  11 ELONGATION             A_IMAGE/B_IMAGE                                           
#  12 ELLIPTICITY            1 - B_IMAGE/A_IMAGE                                       
         1 -14.3115    169.4406     51.9652   6.9476845037e+01   3.6148168127e+01     1.864099     1.260901  25.09  0.006647581    2.384    0.581
         2 -14.0906    184.1209     36.4165   6.3470437957e+01   3.4838741814e+01    0.8433887    0.7272493 -80.82  0.003186264    1.065    0.061
         3 -13.5578    188.2312     30.2402   6.1504963530e+01   3.4667395378e+01    0.5605442    0.4427555  87.61  0.001366549    1.083    0.076
         4 -14.0520    208.8246      4.9964   5.3941777765e+01   3.2945140286e+01     1.044579    0.7459464  23.20  0.005210102    2.779    0.640
         5 -13.7167    202.9181      4.3366   5.4336655137e+01   3.4278639352e+01    0.7588531    0.4335586 -48.34  0.003090253    1.714    0.416
         6 -13.0510    190.0414     15.0353   5.7885243258e+01   3.5991088236e+01     0.427251    0.2768853 -72.42  0.001526397    1.493    0.330
         7  -9.9451     72.2082      8.6621   7.7325094775e+01   6.1872095157e+01    0.1678806   0.08342557  43.12 0.0003317723    1.622    0.383
         8 -12.0671     10.6558    206.6942   1.4134105026e+02   2.9285066448e+01    0.4864926    0.3022351  25.93  0.002830699    2.100    0.524
         9 -12.5821    248.4182    248.8349   9.7212728121e+01  -1.4345530189e+01    0.4281636    0.3332456 -35.49  0.002933655    1.450    0.310
        10 -17.8358     51.8191    242.8799   1.3616641313e+02   1.6446085770e+01     8.827044     8.507285 -72.37   0.06071956    1.384    0.278
        11 -11.3669     86.0597    201.5745   1.2380894589e+02   2.0918417916e+01    0.6073965    0.3137602  62.68  0.002367882    2.567    0.610
        12 -11.0787     19.2553    185.5813   1.3755082820e+02   3.3415863206e+01    0.1398655    0.1319145  86.54   0.00031936    1.226    0.184
        13 -11.6550    150.7251    182.4975   1.0487835774e+02   1.3890117110e+01    0.2980798    0.2462809 -85.93 0.0003586348    1.448    0.309
        14 -11.9617     99.3122    180.8663   1.1719442572e+02   2.3807145302e+01    0.3263117    0.3037525 -47.20 0.0006111255    1.151    0.131
        15 -12.1838     66.5960    200.5213   1.2827302200e+02   2.4090909121e+01    0.2846558    0.2288972 -54.45 0.0006813417    1.337    0.252
        16  -9.5043    168.9546    177.4809   9.9669428707e+01   1.1457978551e+01       0.2063    0.1314187  65.83 0.0007175197    2.338    0.572
        17 -10.5363     70.6253    173.6049   1.2332742289e+02   3.0178969543e+01     0.386073    0.1888021  56.68  0.001300179    2.620    0.618
        18 -10.2743    165.3228    172.2658   9.9400730183e+01   1.3337674492e+01    0.2645749    0.2270287 -83.41 0.0005481191    1.361    0.265
        19 -10.6108    201.5151    169.0104   9.0977013345e+01   6.9550971464e+00    0.3563436    0.2314507 -64.54  0.001544056    2.076    0.518
        20 -11.3347    204.5437    165.4057   8.9618210294e+01   7.1198168164e+00    0.5272785    0.3303113 -46.12   0.00140001    1.497    0.332
        21 -12.1399     67.0173    195.8336   1.2754116088e+02   2.5170970355e+01    0.3974768    0.2543295  71.30  0.001211997    1.740    0.425
        22 -11.5853    193.6624    166.3535   9.2005693102e+01   9.0174076608e+00    0.3504591    0.3021647 -49.25 0.0007316681    1.127    0.112
        23 -10.8216    190.6543    161.6267   9.1613523223e+01   1.0608316532e+01    0.3791991    0.3170386  87.34  0.001437498    1.489    0.328
        24 -10.7668    230.4815    166.4845   8.5010738983e+01   2.1897470471e+00    0.1393224    0.1228637 -38.61 1.075741e-05    1.031    0.030
        25 -10.7843    160.8002    165.7227   9.9044379567e+01   1.5724848754e+01    0.2846739    0.1996644 -75.70  0.000631981    1.973    0.493
        26 -12.4957     58.9205    214.1017   1.3171012247e+02   2.1926309811e+01    0.2789082    0.2213376  59.74 0.0005653947    1.163    0.140
        27  -9.0213    124.3091    161.6052   1.0705517867e+02   2.3989520007e+01      0.16712    0.1220719  86.14 0.0002605869    1.836    0.455
        28 -12.3530     65.1726    209.8227   1.2979407151e+02   2.2065951391e+01    0.4388187    0.3873454 -85.87  0.001611922    1.078    0.072
        29 -11.4732    189.0004    154.9214   9.0497146259e+01   1.2368129888e+01    0.4647854    0.4247226 -86.43  0.002218964    1.205    0.170
        30 -11.6969    133.8378    145.3041   1.0103348896e+02   2.6007550579e+01     1.304975    0.3250638 -54.61   0.00288575    5.949    0.832
        31 -19.0404     27.0870    100.1136   1.2254135711e+02   5.3205524140e+01     15.85174      1.24561 -60.21   0.03070074   11.234    0.911
        32 -12.5211     73.5754    212.8779   1.2826949746e+02   2.0134425491e+01    0.2783678    0.2289644 -88.89  0.000712303    1.120    0.107
        33 -10.6968    174.4645    148.9466   9.2261099551e+01   1.6663929335e+01    0.2942989     0.260898  79.25 0.0006753284    1.248    0.199
        34 -10.7635     14.0977    201.3802   1.4017627812e+02   3.0178180757e+01    0.1301315   0.09649228 -39.30 0.0005970048    1.888    0.470
        35 -11.7486    192.8186    194.4637   9.7944846160e+01   3.3622362821e+00     1.021408    0.5048127 -64.82  0.002781998    5.913    0.831
        36 -12.6763     98.8908    138.7814   1.0889126924e+02   3.4330454243e+01    0.3828784    0.3279804 -76.72 0.0006029587    1.240    0.193
        37 -12.3381    109.9272    139.0732   1.0590316763e+02   3.2227249947e+01    0.6397124    0.3866408 -29.42   0.00246595    2.297    0.565
        38 -10.7018    141.9864    138.5308   9.7414140459e+01   2.5897034571e+01      0.30734    0.2166742 -33.98 0.0007115728    1.573    0.364
        39 -11.6273    106.0131    130.8781   1.0507245663e+02   3.4928571086e+01    0.4327039    0.3390315 -64.53  0.001211826    1.342    0.255
        40 -11.4794    104.3823    125.6889   1.0428437853e+02   3.6459139925e+01     0.305088    0.2479308 -26.51 0.0005089964    1.365    0.267
        41 -11.1981    135.7112    127.9338   9.6434663642e+01   2.9649692779e+01    0.5882751    0.1767394 -49.66  0.001697246    3.427    0.708
        42 -10.9456    116.4299    129.6083   1.0190134621e+02   3.3219457737e+01    0.3126326    0.2648767 -15.30 0.0006351881    1.382    0.277
        43 -10.8252    160.5645    127.8330   9.0435908228e+01   2.4292608342e+01     0.405339     0.271623 -67.02    0.0015114    1.860    0.463
        44 -10.4403    120.5967    124.1511   9.9439899850e+01   3.3648520890e+01    0.2266602    0.1423618 -37.46 0.0009380218    1.708    0.415
        45 -12.5589    152.6412    193.1615   1.0652066431e+02   1.1110856234e+01     0.467089    0.3138861  67.38  0.001990241    2.081    0.520
        46 -10.3702    111.3050    118.8789   1.0065571197e+02   3.6704123191e+01    0.2665624     0.221124  34.14 0.0003315355    1.258    0.205
        47  -9.3043    193.6627    115.2967   8.0583481372e+01   1.9610347672e+01    0.1532252    0.1128881 -80.44 0.0007031263    1.653    0.395
        48 -10.8247    168.2271    113.1771   8.5168751051e+01   2.5692944233e+01    0.3358893    0.2655938 -84.03 0.0008900326    1.484    0.326
        49 -11.1153    135.1400    112.1797   9.2611003841e+01   3.3253204299e+01    0.4880481    0.1041254 -43.01  0.001199696    4.860    0.794
        50 -11.0496    117.4533    109.5709   9.6562070513e+01   3.7540667104e+01    0.3285118    0.2273388  63.67  0.001440171    1.811    0.448
        51 -10.6509    205.5098    110.1491   7.7273132047e+01   1.8048271352e+01    0.2967716    0.2116406  46.19 0.0009108556    1.577    0.366
        52 -10.2370    207.5303    194.4881   9.4959192000e+01   7.6389082104e-01    0.1411244     0.127486 -16.68 -6.773257e-06    1.021    0.021
        53  -9.4028    152.2596     80.6377   8.0245866900e+01   3.5591282200e+01    0.1491496    0.1101634 -71.83 0.0006056165    1.631    0.387
        54 -12.6847    169.7175     69.2594   7.3818286842e+01   3.3459590410e+01    0.7162642     0.408717 -82.26  0.001212734    3.166    0.684
        55 -11.4236     76.6610    208.0541   1.2692910839e+02   2.0814050446e+01    0.4001719    0.3366231 -51.01  0.001378229    1.344    0.256
        56 -10.1048    168.8865    234.8230   1.1035112586e+02  -3.7663118838e-01    0.1935648    0.1699074   5.21 0.0003700514    1.140    0.123
        57 -11.8483     71.9063    229.9858   1.3070525812e+02   1.6469875742e+01    0.2408987    0.1832511  60.78 0.0004326744    1.167    0.143
        58 -12.3727    205.0011     25.5083   5.8515687047e+01   3.1492963603e+01    0.3090253    0.2127171  66.18  0.001844985    1.374    0.272
        59 -10.8324     61.0957    190.4788   1.2823439009e+02   2.7312805417e+01    0.3398058    0.1735736 -64.32  0.001527788    1.789    0.441
        60 -13.1273     55.9560    222.9167   1.3333624383e+02   2.0293170279e+01    0.3409835    0.2189679  65.55  0.001069317    1.479    0.324
        61 -13.2404     69.4562    218.6021   1.2990460667e+02   1.9402932634e+01    0.3632159    0.2577394  78.29  0.001288538    1.391    0.281
