#   1 NUMBER                 Running object number                                     
#   2 MAG_AUTO               Kron-like elliptical aperture magnitude                    [mag]
#   3 X_IMAGE                Object position along x                                    [pixel]
#   4 Y_IMAGE                Object position along y                                    [pixel]
#   5 X_WORLD                Barycenter position along world x axis                     [deg]
#   6 Y_WORLD                Barycenter position along world y axis                     [deg]
#   7 A_WORLD                Profile RMS along major axis (world units)                 [deg]
#   8 B_WORLD                Profile RMS along minor axis (world units)                 [deg]
#   9 THETA_WORLD            Position angle (CCW/world-x)                               [deg]
#  10 FWHM_WORLD             FWHM assuming a gaussian core                              [deg]
#  11 ELONGATION             A_IMAGE/B_IMAGE                                           
#  12 ELLIPTICITY            1 - B_IMAGE/A_IMAGE                                       
         1 -14.4771    151.4173     59.5461   8.5277481987e+01   3.9572831767e+01     1.441455     1.171623  16.77  0.003330713    1.448    0.309
         2 -14.7475    163.0343     44.3350   7.8400139275e+01   3.8994728750e+01     1.204183     1.024689 -21.39  0.003781069    1.317    0.241
         3 -15.0104    178.9977     11.3116   6.6546024620e+01   3.8989496969e+01     1.926782     1.094802  65.65  0.006771999    1.504    0.335
         4 -11.2553    138.8212    242.8736   1.2818947602e+02   5.0163911460e+00    0.2952753    0.2056735 -75.39  0.001114299    1.800    0.444
         5 -20.1035     75.8850    173.1974   1.3162438207e+02   2.9861493265e+01     17.96087     7.094396 -64.60    0.0729792    2.415    0.586
         6 -11.3385    141.4807    198.5210   1.2104454056e+02   1.2913605531e+01    0.2882811    0.2347208  88.23 0.0006234332    1.355    0.262
         7 -10.9639    160.2195    247.7143   1.2479675336e+02   5.2087236613e-01    0.3756874    0.1905619  36.18  0.001047332    1.847    0.459
         8 -10.1159     17.4300    200.1847   1.4672291583e+02   3.1011937141e+01   0.08825096   0.08502015 -37.32 0.0003970384    1.659    0.397
         9 -11.3093    121.9296    198.6915   1.2527538992e+02   1.6510602195e+01    0.2272507    0.1923966 -58.95 0.0004219882    1.268    0.211
        10 -12.0281    152.9935    193.1031   1.1762362598e+02   1.1797303780e+01     0.349763    0.2902647  66.97 0.0009743698    1.238    0.192
        11 -12.3884    153.3117    186.1807   1.1628724697e+02   1.3160714223e+01    0.3332495    0.2643833 -82.33 0.0006712985    1.495    0.331
        12 -10.1259    139.7076    250.2655   1.2897229810e+02   3.6204254864e+00    0.1833426    0.1410443  74.82  0.001142276    1.401    0.286
        13 -10.5050     25.0276    185.5204   1.4403040360e+02   3.3380187082e+01    0.1707652    0.1224281 -82.03 0.0003637527    1.112    0.101
        14 -11.0341    127.0200    250.4131   1.3133842216e+02   5.7270951633e+00    0.1580977    0.1218039  51.96 0.0005189991    1.061    0.058
        15 -10.8952     31.0125    182.7535   1.4255935774e+02   3.3360731620e+01    0.2579628    0.1770932  19.06  0.001524462    2.304    0.566
        16 -11.8839    150.8525    180.6467   1.1578552482e+02   1.4816139637e+01    0.2752324    0.2144757 -62.20  0.000673249    1.374    0.272
        17 -11.0624     27.5108    179.8463   1.4298920542e+02   3.4372135310e+01    0.3063959    0.2131721 -34.88  0.001788649    2.360    0.576
        18 -12.1743    125.2140    240.1696   1.3042649371e+02   7.8142492196e+00    0.5046468    0.1530517 -55.48   0.00198381    3.785    0.736
        19 -11.8287    188.0795    175.1483   1.0663158749e+02   8.2853340873e+00     0.427814    0.2118635 -57.85  0.001519313    2.997    0.666
        20 -11.2809    160.9563    239.6662   1.2351812561e+02   1.6952256193e+00    0.2863126    0.2224357  28.91  0.001318776    1.325    0.245
        21 -12.6149    177.0401    169.9246   1.0788621022e+02   1.1642517269e+01    0.3790096    0.2296558 -47.65  0.001487665    1.714    0.417
        22 -11.9815     26.1540    173.4956   1.4263643213e+02   3.5922166140e+01     0.257021     0.180144 -88.00   0.00041211    1.146    0.127
        23 -11.3345     12.8953    240.7258   1.5018051562e+02   2.3440042294e+01    0.1746925    0.1155418 -69.67  0.001273631    1.661    0.398
        24 -10.0519    151.0897    240.2536   1.2549495257e+02   3.3312075384e+00    0.1684856    0.1318014  66.20 0.0005047735    1.317    0.241
        25 -11.9637    230.2878    166.9201   9.6545632909e+01   1.2787424033e+00    0.4397417    0.1839512 -50.11  0.001555745    3.143    0.682
        26 -10.4303     28.4092    238.1407   1.4754421947e+02   2.2208159211e+01    0.1395386   0.08474629 -85.11 0.0003877859    1.364    0.267
        27 -11.7254     17.5826    156.7901   1.4274406614e+02   4.0475996631e+01     0.501413    0.2220974 -61.41  0.002136421    1.848    0.459
        28 -10.8201     22.9867    156.0839   1.4145952599e+02   4.0148068377e+01    0.1809217    0.1580584  86.59  0.000415501    1.159    0.137
        29 -10.6875    163.4812    249.9208   1.2449028393e+02  -3.8735134077e-01    0.1902817    0.1635196 -32.93 0.0007724137    1.451    0.311
        30 -12.5981    161.5559    153.2843   1.0772582918e+02   1.8475397442e+01    0.3455445    0.2851039  55.37  0.001146485    1.214    0.176
        31 -11.7064     21.6617    236.4065   1.4852907714e+02   2.3301588118e+01    0.1796502    0.1022607 -83.67  0.001197337    1.442    0.306
        32 -10.2625     13.4225    236.3614   1.4984585214e+02   2.4202955348e+01    0.1047258   0.07486673  77.29 0.0003558983    1.062    0.059
        33 -12.1285    174.2632    148.3912   1.0377616534e+02   1.6735847828e+01    0.4359623    0.3288996 -60.17  0.001506871    1.461    0.315
        34 -12.3401     28.1282    145.3776   1.3897362475e+02   4.2110334814e+01    0.3703022    0.2965462 -11.42  0.002305818    1.839    0.456
        35 -10.9630      9.0680    138.1159   1.4262737923e+02   4.5358685622e+01    0.3496083    0.1342143 -58.59  0.001571562    2.042    0.510
        36 -11.7205    131.0545    234.4125   1.2856444638e+02   7.8511314727e+00    0.2090085    0.1751185 -72.52 0.0005966652    1.322    0.244
        37 -10.4568    170.5083    136.9838   1.0194991269e+02   2.0002549672e+01    0.2326858    0.1539489 -46.43 0.0004675419    1.512    0.339
        38 -12.6475    160.4021    128.0482   1.0208794209e+02   2.4215606055e+01    0.4892771    0.3788666 -59.77  0.001518005    1.374    0.272
        39 -11.3699    162.8742    233.3306   1.2221285443e+02   2.4132548233e+00    0.2000112    0.1800624 -86.41 0.0004997633    1.291    0.226
        40 -11.9078    141.5983    229.0922   1.2576874469e+02   6.9657423373e+00    0.3381242    0.2985391  69.17  0.001163058    1.104    0.094
        41 -12.2704     23.1722    219.3571   1.4712657044e+02   2.6469294184e+01     0.333626    0.1300101 -64.65   0.00177383    2.388    0.581
        42 -11.1188    167.6920    112.7707   9.6562870407e+01   2.5757056685e+01    0.3697884    0.2549955  80.17  0.001366746    2.064    0.515
        43 -10.9763     17.6805    222.5007   1.4828229344e+02   2.6433236658e+01    0.1076583   0.07825964 -88.34 0.0002546257    1.159    0.138
        44 -10.7854    205.3711    110.2560   8.8159224763e+01   1.7312296140e+01    0.3211818    0.2130904  48.40  0.001014082    1.560    0.359
        45 -11.1773    218.2222    219.9258   1.0928285468e+02  -5.2971130887e+00    0.2462422    0.1749265 -48.87  0.001069006    1.772    0.436
        46  99.0000     16.5163    208.9229   1.4754089487e+02   2.9291576155e+01    0.2081379   0.09092719 -62.98  0.001147578    2.200    0.545
        47 -13.0686     11.5214    206.0672   1.4822143170e+02   3.0377895424e+01    0.3681849    0.2449755  36.32  0.002078538    1.886    0.470
        48 -11.4943     13.2671    100.9414   1.3638321062e+02   5.3314723130e+01     0.274937    0.1679921  29.85  0.001699202    2.031    0.508
        49 -10.0744     22.3733    205.2679   1.4621319955e+02   2.9438806023e+01   0.09959596   0.08308552 -54.85 0.0006992394    1.672    0.402
        50 -10.6443    144.3173     81.0878   9.3291823303e+01   3.7534748689e+01    0.2128905    0.1967985 -48.85 0.0005626456    1.103    0.093
        51 -11.2856    138.7158    200.3434   1.2194098803e+02   1.3063169069e+01    0.3218081    0.2279105  76.94  0.001068832    1.718    0.418
        52 -12.2362    134.7321    243.0882   1.2899211824e+02   5.6809027346e+00     0.388825    0.1776643 -47.60  0.001744771    2.745    0.636
        53 -13.0363    167.2765     36.1924   7.5266324708e+01   3.9033181735e+01    0.4148254    0.3825861  63.56 0.0008193362    1.031    0.030
        54 -11.1858     13.5662     59.8336   1.2785426032e+02   6.1780422566e+01    0.1817379    0.1705895 -53.67 0.0005654842    1.290    0.225
        55 -10.3683    142.4693     33.0717   7.9024183996e+01   4.5456353597e+01    0.2059043    0.1713334  58.33 0.0004365125    1.115    0.103
