#   1 NUMBER                 Running object number                                     
#   2 MAG_AUTO               Kron-like elliptical aperture magnitude                    [mag]
#   3 X_IMAGE                Object position along x                                    [pixel]
#   4 Y_IMAGE                Object position along y                                    [pixel]
#   5 X_WORLD                Barycenter position along world x axis                     [deg]
#   6 Y_WORLD                Barycenter position along world y axis                     [deg]
#   7 A_WORLD                Profile RMS along major axis (world units)                 [deg]
#   8 B_WORLD                Profile RMS along minor axis (world units)                 [deg]
#   9 THETA_WORLD            Position angle (CCW/world-x)                               [deg]
#  10 FWHM_WORLD             FWHM assuming a gaussian core                              [deg]
#  11 ELONGATION             A_IMAGE/B_IMAGE                                           
#  12 ELLIPTICITY            1 - B_IMAGE/A_IMAGE                                       
         1 -15.0335      6.6617     71.0444   7.7295109407e+01   6.2748150374e+01     1.198692    0.7524286 -60.93  0.005768742    1.262    0.207
         2 -12.6807    187.7291     11.5716   1.1343832784e+00   3.7328190051e+01    0.7463595     0.364522 -31.67   0.00359363    1.876    0.467
         3 -13.8768    187.8685     24.0748   4.6785818875e+00   3.5929833147e+01     3.144741    0.9805539 -58.72  0.008760746    5.482    0.818
         4 -13.3841      8.6621      2.9393   4.9895730724e+01   7.7601882417e+01    0.6812657    0.4596839  36.78  0.004210833    1.879    0.468
         5 -16.0118     11.6487     22.6660   5.9438291915e+01   7.3729648751e+01      2.06514     1.035414 -33.02  0.009935758    1.830    0.454
         6 -14.4511     26.3168     12.6846   4.3468985544e+01   7.3911704926e+01    0.8705255    0.5550604  -7.88  0.004755212    1.707    0.414
         7 -14.0879    122.3671     36.7926   1.8981376259e+01   5.0657712728e+01     1.066123    0.5607581  34.46  0.003806692    2.586    0.613
         8 -12.9535     46.0095     33.0091   4.3716726218e+01   6.7557418052e+01    0.8369923    0.4848799  33.95  0.004129878    1.801    0.445
         9 -14.3580    166.4287     29.0309   8.6481901106e+00   4.0567399525e+01    0.9861214    0.8055718  77.82   0.00427524    1.212    0.175
        10 -14.5042    147.4340     29.7400   1.1633149536e+01   4.5258453568e+01     1.313331    0.7405652  69.70  0.005056661    1.781    0.439
        11 -12.8491    140.7484     21.4673   9.7511144419e+00   4.7929069519e+01    0.8309239     0.368048  72.08  0.001948093    2.313    0.568
        12 -12.8882    120.2697     26.1540   1.5214969937e+01   5.2572624833e+01    0.6849957    0.4892877  34.90  0.003421918    1.543    0.352
        13 -15.2942     99.0307     11.6985   1.3557226848e+01   5.9405182317e+01     1.517671    0.9263481  57.33  0.004605561    1.501    0.334
        14 -12.4461     85.5458     13.8604   1.8000107930e+01   6.2395384936e+01    0.4077555    0.3715324 -16.00  0.001768295    1.131    0.116
        15 -11.7505     71.1058     16.2449   2.3783611862e+01   6.5362748116e+01    0.3772315    0.2155274 -14.13   0.00176695    1.960    0.490
        16 -11.8513     74.8972     10.3559   1.9314000960e+01   6.5185797007e+01    0.3114913    0.2206616  10.36  0.001167975    1.510    0.338
        17 -13.4341    214.6091     10.2451   3.5877420332e+02   3.1334434546e+01    0.5798536    0.3636334 -84.47  0.003006855    1.555    0.357
        18 -12.0476     46.6687     13.0768   3.2100844420e+01   7.0612782517e+01    0.3033425    0.2770174  56.81  0.001600072    1.427    0.299
        19 -14.0475     41.7660      4.6300   2.8988493524e+01   7.2549284464e+01    0.7598398    0.5389006   5.77  0.003611638    1.366    0.268
        20 -11.6239    123.5222     10.8254   8.4603853628e+00   5.3392301382e+01    0.2673172    0.2012127 -79.19 0.0004246688    1.431    0.301
        21 -11.4250    153.1142      8.3030   3.5085768490e+00   4.6132206060e+01    0.2154568     0.189897  -3.99 0.0006997875    1.315    0.240
        22 -12.1996     60.3288     15.3766   2.7372521865e+01   6.7711283673e+01    0.5049909     0.288529  29.11  0.002411456    1.905    0.475
        23 -12.0275    120.5394      3.2240   5.8748713984e+00   5.4802232234e+01    0.5801084    0.2581303 -84.19  0.002086626    3.427    0.708
        24 -11.2012     67.6846      2.8080   1.7329061952e+01   6.7503036596e+01    0.3014769    0.1607886  35.59  0.001458997    1.834    0.455
        25 -11.8933     79.8255      1.7265   1.3225678457e+01   6.4851492546e+01    0.6883587   0.03901493  58.45  0.001921028    5.156    0.806
        26 -11.4058     61.2259      1.4691   1.8680140243e+01   6.9017942325e+01    0.3468467    0.1164296  58.41  0.001379985    2.807    0.644
        27 -13.1814     39.0904    194.7933   8.1096667847e+01   2.7991691769e+01    0.6684027    0.3265303  50.44    0.0033353    1.800    0.445
        28 -13.1195    107.8013    245.8224   7.0692554169e+01   9.3233772621e+00    0.6916417    0.5072514  85.38  0.004447834    1.806    0.446
        29 -14.0296     97.6915    239.3899   7.2109474489e+01   1.1725609775e+01    0.6995685    0.6392261  59.42  0.005102965    1.137    0.120
        30 -14.4093     91.2357    231.4196   7.2672113411e+01   1.4002899720e+01    0.6577398    0.6035555 -86.23  0.004676292    1.218    0.179
        31 -13.1673     57.5046    246.6135   8.0813966770e+01   1.5290930440e+01    0.5300433    0.3105389  26.61  0.003189566    1.750    0.429
        32 -11.8162     41.1696    249.8872   8.4178489654e+01   1.6486900595e+01    0.2534941    0.1503005  81.73  0.001639087    1.694    0.410
        33 -13.3922     28.4984    246.2380   8.6416247384e+01   1.8455365253e+01    0.4583634    0.2861774  71.37  0.002895465    1.388    0.280
        34 -12.2269      3.0092    249.4908   9.1246866082e+01   2.0266205060e+01    0.3347771    0.1992533  52.09  0.001720857    1.200    0.166
        35 -13.8978      9.4960    245.6422   8.9952836600e+01   2.0385041524e+01    0.8303686    0.3317148  51.86  0.003762785    1.769    0.435
        36 -14.3613     29.9671    169.2721   8.1297422638e+01   3.5064272139e+01     2.384748     1.034344 -43.55   0.00919223    3.537    0.717
        37 -13.9131     22.2715    180.9541   8.4151716702e+01   3.2930497796e+01    0.9214187    0.3951231 -58.09  0.004220081    2.459    0.593
        38 -15.2897      8.5901    183.1866   8.7596044791e+01   3.3590180350e+01     1.169466     1.056871  80.56  0.008223932    1.196    0.164
        39 -15.4866     15.4419    174.8741   8.5447667181e+01   3.5008433274e+01     2.287038    0.9129834  56.12   0.01027251    2.304    0.566
        40 -13.3489    164.4620    194.4661   5.1803357483e+01   1.0331774768e+01    0.6290461    0.3994591 -65.10  0.002890902    2.622    0.619
        41 -11.9748    201.0524    191.3130   4.3955215820e+01   5.3044425935e+00    0.2867298    0.2149378  14.94  0.001426535    1.250    0.200
        42 -12.1363     48.7845    181.2014   7.7525423366e+01   3.0124625011e+01    0.4032067    0.2679194 -58.75  0.002166338    1.573    0.364
        43 -13.2521    197.7999    180.1647   4.2468995630e+01   7.6401358967e+00    0.5295673    0.3573977 -64.73  0.002414402    2.917    0.657
        44 -11.5706    122.2515    181.0588   5.9023258794e+01   1.9776558896e+01    0.4147764    0.2506063  78.67  0.001498407    3.585    0.721
        45 -13.0942     85.2477    179.9936   6.8062021406e+01   2.5695242380e+01    0.4528272    0.2852795  72.99   0.00207857    1.986    0.496
        46 -13.4118    124.1930    166.4485   5.5968563694e+01   2.2702831196e+01    0.6923107    0.4473869 -70.94  0.003042642    2.024    0.506
        47 -12.5771     22.3879    165.9006   8.3023808182e+01   3.6619417969e+01    0.2880669    0.1928717 -79.31 0.0008024799    1.306    0.235
        48 -12.4391     23.8880    159.2675   8.2077096147e+01   3.8165990607e+01    0.3247311    0.1866969 -60.30  0.001643297    1.694    0.410
        49 -11.4976    238.8027    159.3928   3.1205030719e+01   4.7805509468e+00    0.1709346    0.1114305  22.36 0.0009605128    1.725    0.420
        50 -12.1224     76.9848    156.9732   6.6874269980e+01   3.2538629578e+01    0.4206614    0.3594283   8.09  0.001369879    1.424    0.298
        51 -13.3316     73.5163    153.2057   6.7261356767e+01   3.3999036230e+01     0.730553    0.5351731  29.94   0.00256115    1.476    0.322
        52 -12.7183    208.0424    154.7206   3.5390488103e+01   1.0365943826e+01    0.6394057    0.2390271  37.45  0.002488649    3.045    0.672
        53 -11.6242     85.9245    152.5689   6.3622804755e+01   3.2329815537e+01    0.5003282    0.1739326 -50.14  0.001687153    2.877    0.652
        54 -12.8545      7.6217    148.8086   8.5785151617e+01   4.2163573333e+01    0.5913446    0.3442343  74.61  0.003098317    1.536    0.349
        55 -11.1756     12.6622    148.6769   8.4349513132e+01   4.1827252535e+01    0.2081033     0.130516 -52.21  0.001092818    1.725    0.420
        56 -11.7191    103.3784    149.7875   5.8237249804e+01   3.0207579318e+01    0.3787512    0.2600694 -36.33  0.001605321    1.674    0.403
        57 -12.4462    111.2793    155.3088   5.7174037551e+01   2.7516107572e+01    0.5258402    0.3567963  79.76  0.002213764    2.184    0.542
        58 -10.7283     38.4649    145.5431   7.6486994667e+01   4.0337327381e+01     0.141203    0.1231792 -82.40 0.0001443744    1.043    0.041
        59 -11.7588    245.8265    134.5966   2.4989209848e+01   7.5476557597e+00    0.1525382    0.1283918  63.88 0.0009543053    1.739    0.425
        60 -12.6450     43.9995    132.7068   7.3054564538e+01   4.3184296113e+01    0.2522887     0.232436 -65.06 0.0007054684    1.118    0.106
        61 -12.5733    137.9312    132.2016   4.5210135937e+01   2.8024201439e+01    0.4390811    0.2847049  27.46  0.001857847    1.856    0.461
        62 -11.1229      5.4130    128.8365   8.4926237948e+01   4.7527462444e+01    0.2608247    0.1319024 -45.13  0.001213294    2.243    0.554
        63 -14.5156    105.5279    120.8264   5.1264792007e+01   3.7056799819e+01     1.605062     1.271497  31.34  0.007677758    1.378    0.274
        64 -14.8517    106.0651    104.9383   4.6941034537e+01   4.0866975036e+01     1.374492      1.33991  46.83  0.006455205    1.087    0.080
        65 -12.1929      8.0374    114.5162   8.2740699244e+01   5.1180420726e+01    0.3221178    0.1767274 -45.46  0.001296534    1.920    0.479
        66 -11.8237      5.9955    119.4996   8.3920420934e+01   4.9971149707e+01    0.2997575    0.2675853 -54.78  0.001800171    1.236    0.191
        67 -11.4364      1.9932    119.5015   8.5244219161e+01   5.0197809173e+01    0.2395305    0.2206946  28.00  0.001567751    1.336    0.252
        68 -11.8848     88.1127    108.9629   5.3673272577e+01   4.3229186041e+01    0.5474365    0.2644729 -60.86  0.001976099    2.216    0.549
        69 -12.8889     84.4765    114.9072   5.6336343223e+01   4.2324252424e+01    0.9659199    0.5365137  26.05   0.00377469    2.250    0.555
        70 -12.2606     78.8152    110.8014   5.7209041958e+01   4.4330699344e+01    0.4020469    0.3146611  54.04  0.001943779    1.403    0.287
        71 -11.9803     42.6370     90.4546   6.5647863044e+01   5.4737620069e+01    0.3804094    0.2516264 -67.37 0.0006225478    1.392    0.282
        72 -12.6768     36.6936     92.8381   6.8587466507e+01   5.4744833619e+01    0.5046807    0.3426552   1.43  0.001661885    1.904    0.475
        73 -13.2135     20.8361     86.1682   7.3795892981e+01   5.7920226822e+01    0.7064717    0.5002314   6.54  0.003791413    1.720    0.419
        74 -13.8045      2.2524     96.9064   8.2932745577e+01   5.6188356790e+01    0.9484582    0.3322553 -78.81   0.00366206    2.382    0.580
        75 -14.3985     18.5131    111.3146   7.8685526937e+01   5.1342917013e+01    0.8479875    0.6406645 -39.94  0.003543878    1.450    0.310
        76 -14.4964     10.8372    102.9175   8.0406789341e+01   5.4121128640e+01    0.9199746    0.7243186  31.52  0.005414562    1.488    0.328
        77 -14.5625     23.0316     95.0220   7.4503472993e+01   5.5393616584e+01     1.442685    0.7176419  16.88  0.006427041    2.441    0.590
        78 -11.4378     62.6836    110.6179   6.2707322917e+01   4.6826702614e+01    0.2966448    0.2437821  52.88  0.001517544    1.319    0.242
        79 -10.9402     46.0546    110.2302   6.8557517701e+01   4.9051715829e+01    0.3234171    0.1335756 -45.33  0.001170813    2.576    0.612
        80 -12.0345     32.6721    110.6659   7.3484075525e+01   5.0332052156e+01    0.3128673    0.2447717  50.13   0.00169565    1.390    0.281
        81 -12.7251     29.4875     89.2564   7.0778780133e+01   5.6388611599e+01    0.5918459    0.3531661  83.41  0.001827991    2.158    0.537
        82 -12.6072    136.1709    102.9999   3.8003503727e+01   3.4991672458e+01    0.5682719    0.2841871  49.57  0.002061036    2.165    0.538
        83 -13.1927     28.8344    121.9472   7.6520787396e+01   4.7618634355e+01    0.4963942     0.344157 -60.87  0.002566201    1.288    0.224
        84 -10.7193     64.5181    101.5265   5.9924544885e+01   4.8974844139e+01    0.2476382    0.2240026 -68.47 0.0006557866    1.055    0.052
        85 -12.0017     61.5551     97.7045   6.0061608625e+01   5.0405528926e+01    0.4524111     0.320884 -88.80  0.001924762    1.771    0.435
        86 -11.9921     47.4748     99.5955   6.5832355530e+01   5.1749295363e+01    0.6631507    0.3755721  62.23  0.002646066    2.512    0.602
        87 -11.9267     52.5088     97.5546   6.3441643247e+01   5.1670610175e+01    0.4912539    0.2759185 -30.69  0.001822726    2.400    0.583
        88 -12.3231    163.5299     97.8032   3.0171601213e+01   2.9982638661e+01    0.3184143    0.2865404  87.95 0.0006049838    1.256    0.204
        89 -13.2000    137.2384     94.8513   3.5364646488e+01   3.6524757008e+01    0.5130911     0.406292  70.25  0.001399839    1.501    0.334
        90 -12.1736     49.0941     93.1682   6.3716847761e+01   5.3258831340e+01     0.385293    0.2849106  74.74  0.001862214    1.668    0.400
        91 -12.1287    121.7987    111.9581   4.4313493211e+01   3.6004410165e+01    0.2809155    0.2476286  64.34 0.0007504577    1.248    0.198
        92 -13.6500    188.3560     84.0147   2.1643396064e+01   2.6977175453e+01    0.6080984    0.3323319  45.09  0.002159984    2.149    0.535
        93 -12.8215    236.6974     80.0741   1.3869203799e+01   1.7593614115e+01    0.3442549     0.218887  84.97  0.001747646    2.291    0.563
        94 -12.1462    158.9130     64.6679   2.1219047928e+01   3.7221852818e+01    0.7769296    0.2717359 -49.53    0.0023269    3.534    0.717
        95 -13.5103    163.8327     71.6123   2.2433524995e+01   3.4835412114e+01     1.002667    0.4854639  48.63  0.003919134    2.252    0.556
        96 -13.7912    160.6497     80.7772   2.5828830163e+01   3.3930202761e+01     1.104186    0.6656247  18.62  0.002956409    3.469    0.712
        97 -14.7652    169.4655     76.9293   2.2966976738e+01   3.2559375760e+01     1.389683    0.6470958  53.21  0.004855342    2.286    0.563
        98 -13.3805     66.1742     48.9408   4.1826205013e+01   6.1123057114e+01    0.7246922    0.5926424 -43.61  0.003265111    1.208    0.172
        99 -13.0731     61.5810     59.1690   4.7948759652e+01   5.9788613608e+01    0.8321052    0.3820066 -31.89  0.002915332    2.927    0.658
       100 -12.7944     55.1026     81.2593   5.8128328217e+01   5.5543605471e+01     0.679978    0.4023949 -43.90  0.002531768    1.587    0.370
       101 -13.7881     61.1228     75.7944   5.3991227639e+01   5.6016581288e+01    0.8409612    0.4745497 -40.34  0.002216154    1.748    0.428
       102 -12.8950    180.9996    120.9533   3.2720348938e+01   2.1653841850e+01    0.3269649    0.2722975  44.05  0.001311313    1.325    0.245
       103 -13.5586    216.0044     80.5121   1.6563977589e+01   2.1619312458e+01    0.6225665     0.448041 -73.80  0.003242435    1.707    0.414
       104 -11.9837    114.2447     79.6970   3.6791450256e+01   4.4928731983e+01    0.5153709    0.3311699 -48.48   0.00220847    1.524    0.344
       105 -11.3180     42.6065     79.7589   6.2961443416e+01   5.7520161926e+01    0.3656596    0.2292763 -65.19  0.001483845    1.508    0.337
       106 -11.3467     41.8320     75.8124   6.2209819813e+01   5.8612741203e+01     0.262764    0.1904216 -56.45 0.0006460359    1.210    0.174
       107 -12.7484    135.3058     79.1931   3.1006893352e+01   4.0209306120e+01      0.76406    0.3895351  53.91  0.002931076    2.108    0.526
       108 -12.3693    235.9020    247.8978   4.7214379008e+01  -6.7222604835e+00    0.2252616    0.1149542  22.18  0.001449328    1.654    0.395
       109 -14.3387      4.8177     63.2944   7.6701142850e+01   6.4805121513e+01    0.7427301    0.6183742 -23.17  0.003622155    1.302    0.232
       110 -13.7691     87.4603     65.1744   4.0191953897e+01   5.3723760623e+01      1.03672    0.6699938   6.75  0.003183698    2.699    0.629
       111 -13.6664     91.3080     57.4749   3.5911835582e+01   5.4480908344e+01    0.5890012    0.5089574 -57.20  0.003070789    1.257    0.204
       112 -12.4158     77.0188     72.9927   4.6811234061e+01   5.4014729600e+01    0.6738901    0.3625258 -28.66  0.002448534    2.599    0.615
       113 -11.6527     27.4000     75.9024   6.8705132194e+01   6.0066963593e+01      0.38437    0.2339464  85.05  0.001695628    2.261    0.558
       114 -13.8078    199.4631     69.8665   1.6068665174e+01   2.6862763487e+01     0.698722    0.4358722  45.84  0.002562976    1.933    0.483
       115 -12.8612    134.1149     66.4927   2.7098560267e+01   4.2927474969e+01    0.7975861    0.5315111  22.42  0.003193817    2.218    0.549
       116 -12.4430     39.0914     67.9902   6.1153139280e+01   6.0876569408e+01    0.6383816    0.2458831  33.45  0.002492028    2.790    0.642
       117 -11.6619     99.8526     64.8992   3.5958699378e+01   5.1171534735e+01    0.3054129    0.2541202 -75.53  0.001491014    1.469    0.319
       118 -12.9970     78.8202     59.8994   4.1309530453e+01   5.6536190476e+01    0.7054721    0.4802656 -49.81  0.003302358    1.484    0.326
       119 -13.6347    177.7811     57.1527   1.5674248776e+01   3.3877568186e+01    0.8834726    0.5471727 -50.35   0.00289476    1.551    0.355
       120 -12.5011     36.4967     53.5512   5.7579919916e+01   6.4603476294e+01     0.570733     0.167969 -43.76   0.00193015    3.141    0.682
       121 -11.9539     38.7114     59.7298   5.8663171097e+01   6.2908595056e+01    0.3093024    0.2409834  66.79  0.001614655    1.766    0.434
       122 -11.8873     24.8661     59.3168   6.5465825248e+01   6.4442081412e+01    0.4139906    0.2253208 -51.49  0.001971071    1.506    0.336
       123 -14.5884    119.6173     54.3783   2.6364262898e+01   4.8582296535e+01    0.9400384    0.6781788  40.00  0.001939318    1.488    0.328
       124 -11.2969     17.7943     55.2336   6.7964422292e+01   6.6010687848e+01    0.3416226    0.1751429 -68.61  0.001576433    1.895    0.472
       125 -12.5619    135.9027     51.2478   2.1393439780e+01   4.5113617362e+01    0.6240516    0.4395036 -30.68  0.002170105    1.421    0.296
       126 -13.7152    103.4190     50.4339   2.9287412978e+01   5.3086465067e+01     0.935756    0.4878469 -42.33  0.001642543    1.905    0.475
       127 -13.4380     97.9593     49.9835   3.0754199432e+01   5.4409832909e+01    0.8152984    0.4066546 -41.32  0.002668508    1.969    0.492
       128 -13.8037     53.9586     67.2139   5.4180791732e+01   5.9135787177e+01     1.083164     1.056013  -8.17  0.006365901    1.111    0.100
       129 -10.5890     23.5438     49.9828   6.3174765387e+01   6.6777144084e+01    0.1995008    0.1146958 -55.43  0.000479524    1.481    0.325
       130 -13.1764     71.0376     75.1879   4.9843202396e+01   5.4558098491e+01    0.5860481    0.4246555 -14.24  0.001730125    1.769    0.435
       131 -12.3308    154.7683     46.0007   1.5937686970e+01   4.1206690954e+01    0.4132283    0.2808337  44.63  0.001951221    1.647    0.393
       132 -12.9543    158.3420     43.1052   1.4382164385e+01   4.0731506751e+01    0.7394434    0.4600963  49.16  0.003412268    1.740    0.425
       133 -11.3034     34.7213     60.4438   6.0859444485e+01   6.3193510940e+01    0.3533994    0.1715258 -48.27  0.001563739    1.744    0.427
       134 -14.2014    170.6946    242.0469   5.7863866406e+01   1.7211565341e+00     0.901725    0.5808556  15.78  0.005610136    1.420    0.296
       135 -11.7357     27.8151    235.6472   8.6055034704e+01   2.0518083372e+01    0.1943506    0.1409415  71.14  0.001365052    1.161    0.138
       136 -13.5011    219.4407     41.5495   6.2705307356e+00   2.6586706104e+01    0.6452926     0.394324 -84.15  0.002342934    1.889    0.471
       137 -13.4028      6.0210     42.9071   7.1026937629e+01   6.9697647438e+01    0.8748879    0.4215437  13.82  0.004339212    2.375    0.579
       138 -12.8829     24.1613    216.7641   8.5855044428e+01   2.4683138311e+01     0.752461    0.2810087  45.29  0.003789813    2.048    0.512
       139 -13.9043     26.5544    225.9878   8.5831632540e+01   2.2549766514e+01    0.7368971    0.3718294 -57.01  0.004034779    2.490    0.598
       140 -13.9926     20.9652    224.0219   8.6878987339e+01   2.3494393478e+01    0.5419307    0.4829119  73.57  0.002525043    1.220    0.181
       141 -11.7524    134.7934     39.4628   1.7374285399e+01   4.7169261173e+01     0.483624    0.2830392  74.28   0.00164677    1.973    0.493
       142 -12.2844    110.0401     42.0112   2.4045625347e+01   5.2908947407e+01     0.395626    0.2164972  59.95 0.0008912837    1.918    0.479
       143 -13.3955    113.8558     37.7463   2.1348094226e+01   5.2622312954e+01    0.4813919    0.4176678   9.87   0.00176259    1.259    0.205
       144 -12.2211    145.1129    232.2189   6.1561627650e+01   6.6222599416e+00    0.2508944      0.16769 -63.90  0.001435214    2.136    0.532
       145 -12.9078    131.3790     33.3883   1.5796151235e+01   4.8860301181e+01    0.5146075    0.4152609  -6.77  0.001582868    1.413    0.292
       146 -12.7841    147.6057    238.9600   6.1936654860e+01   5.2106567351e+00    0.2413557    0.2109414  87.88  0.001154006    1.650    0.394
       147 -12.1507     40.2543     40.2382   5.0180479452e+01   6.7006393414e+01    0.5409786    0.3712201  42.55  0.002846549    1.741    0.426
       148 -12.9424     32.9941     40.2025   5.4109143033e+01   6.7948269153e+01    0.5195288    0.2712482 -38.42 0.0004749327    1.745    0.427
       149 -12.5528     76.0084     37.0124   3.2531342663e+01   6.1371022050e+01    0.4508147    0.3004192  36.52  0.001400094    1.534    0.348
       150 -11.7135     70.8561     36.1253   3.4080626333e+01   6.2563886586e+01    0.2703491    0.2413418  71.20 0.0009310709    1.407    0.289
       151 -11.8235    104.6806     36.8312   2.3329733636e+01   5.4972472298e+01    0.3342079    0.1679932 -34.55  0.001156194    1.951    0.488
       152 -12.6942    242.8671     36.2447   2.9994008780e+00   2.2456240604e+01    0.5356223    0.2645175  84.88  0.002687255    2.493    0.599
       153 -13.5467    237.5778    229.9166   4.4182006220e+01  -4.8183076068e+00    0.4033405    0.3367035 -47.46  0.002853104    2.205    0.546
       154 -14.1277     65.9423    223.1881   7.7327427850e+01   1.8769530437e+01    0.9210294    0.6423446  49.43  0.005717038    1.204    0.169
       155 -13.5677     59.3873    212.7921   7.7888074759e+01   2.1702643426e+01    0.6267047    0.4211617  -9.83  0.002248514    2.693    0.629
       156 -12.4584    216.2346     28.5018   3.2528165576e+00   2.8924410730e+01    0.2559558    0.1626774 -35.48  0.001091129    1.379    0.275
       157 -10.7292    163.3363    225.3075   5.6942119912e+01   5.2302774968e+00    0.1271511    0.0858205   0.18 0.0007041896    1.676    0.403
       158 -13.4350     57.8191     26.7497   3.4788526220e+01   6.6590912646e+01     1.047228    0.3448097  41.86  0.003252924    3.074    0.675
       159 -12.1699     30.7043     25.2300   4.8154058552e+01   7.1180619456e+01    0.3743013    0.2280973  11.10  0.001774725    1.932    0.482
       160 -12.4137     36.1766     22.6894   4.3511006974e+01   7.0869868014e+01    0.3564641    0.2348875 -12.45 0.0009342298    1.645    0.392
       161 -11.4113    248.8085    224.6132   4.1531708720e+01  -5.4247547179e+00    0.1408854   0.09194818  31.49 0.0009568527    1.752    0.429
       162 -13.2273     94.2552    218.3414   7.0656506716e+01   1.6116439502e+01    0.3549857    0.2406576  36.85  0.001475789    1.296    0.229
       163 -11.2656     51.5110     20.5027   3.4221205898e+01   6.8696622530e+01    0.3084874    0.1940924  56.61  0.001514525    2.114    0.527
       164 -12.3614     46.1599     20.1676   3.6649022273e+01   6.9688452487e+01    0.4119078    0.2385612  27.95  0.002036299    1.843    0.458
       165 -13.9615     64.3936    214.1513   7.6885758537e+01   2.0812946240e+01    0.5067907    0.3135999  43.67  0.002852134    1.382    0.277
       166 -10.5140      5.4864    219.4899   8.9837322337e+01   2.5837191836e+01    0.1160898   0.08633576  65.05 1.991457e-05    1.000    0.000
       167 -11.9770    181.5012    216.0008   5.1944416695e+01   4.1759498142e+00     0.180889    0.1158354 -36.86  0.001037634    1.604    0.377
       168 -11.9144     85.6801    215.6620   7.2271413863e+01   1.7796099341e+01    0.2697744    0.1504249  60.41  0.001328446    2.014    0.504
       169 -11.6476    156.9971    214.9799   5.6691985165e+01   7.8307726541e+00    0.1575986    0.1371762  13.71  0.001013756    1.006    0.006
       170 -13.1544     72.1678    206.6924   7.4411624152e+01   2.1429705889e+01    0.4149958     0.279776 -80.88  0.002329459    1.571    0.364
       171 -13.1414    212.2190     43.0148   7.3609933559e+00   2.7961392263e+01    0.6047292    0.3070261  70.68   0.00286434    2.175    0.540
       172 -11.1008    136.5195    210.9934   6.0426898084e+01   1.1534976043e+01    0.1836962    0.1291223 -51.25  0.001029018    1.583    0.368
       173 -11.2494     80.9635    208.4794   7.2573968457e+01   1.9906884050e+01    0.1954591    0.0813131  51.01 0.0008091242    2.464    0.594
       174 -12.8138     57.4992    201.7053   7.7342170790e+01   2.4337303750e+01    0.7659804    0.2920829 -77.90  0.003093983    3.040    0.671
       175 -13.4607     15.9367    198.1083   8.6672964870e+01   2.9517442122e+01    0.9025183    0.2092748 -61.93   0.00333716    4.237    0.764
       176 -12.0128     41.1774    205.1990   8.1397505345e+01   2.5422206211e+01        0.188    0.1192519  58.50   0.00107563    1.364    0.267
