#   1 NUMBER                 Running object number                                     
#   2 MAG_AUTO               Kron-like elliptical aperture magnitude                    [mag]
#   3 X_IMAGE                Object position along x                                    [pixel]
#   4 Y_IMAGE                Object position along y                                    [pixel]
#   5 X_WORLD                Barycenter position along world x axis                     [deg]
#   6 Y_WORLD                Barycenter position along world y axis                     [deg]
#   7 A_WORLD                Profile RMS along major axis (world units)                 [deg]
#   8 B_WORLD                Profile RMS along minor axis (world units)                 [deg]
#   9 THETA_WORLD            Position angle (CCW/world-x)                               [deg]
#  10 FWHM_WORLD             FWHM assuming a gaussian core                              [deg]
#  11 ELONGATION             A_IMAGE/B_IMAGE                                           
#  12 ELLIPTICITY            1 - B_IMAGE/A_IMAGE                                       
         1 -12.2755    209.8781     36.0562   3.9708332473e+01   2.8915682791e+01     0.984494    0.8425484 -46.66  0.005262809    1.150    0.130
         2 -11.7103    226.8852     21.4142   3.4674836857e+01   2.6992796195e+01    0.6732198     0.575492 -66.16  0.002667926    1.049    0.047
         3 -10.1608      2.2491      5.7574   8.7554059544e+01   7.3129575297e+01    0.5237335    0.1392766 -44.43  0.002374065    3.172    0.685
         4  -9.3301    250.0000      3.0021   2.9212053187e+01   2.4334769744e+01      0.24441    0.1545215 -31.61  0.001562585    1.723    0.419
         5  -9.8384    247.0005      2.2388   2.9253604514e+01   2.4995020023e+01    0.3102162    0.2058886  84.33  0.001483301    1.390    0.281
         6 -11.2434    129.4802    230.4958   9.8934927519e+01   8.4584634987e+00    0.3914211    0.3482068 -35.51  0.002510509    1.263    0.208
         7 -13.9222      5.1605    136.2143   1.1715395619e+02   4.5227209337e+01     7.153915     1.521728 -78.39   0.01931893    6.157    0.838
         8 -13.7215     38.8684    192.1358   1.1446977222e+02   2.8958086237e+01     3.617597     1.545798  70.75   0.01376293    3.540    0.718
         9  -8.9329     43.8231    218.8130   1.1581616509e+02   2.2525148043e+01    0.2205332    0.1519057 -79.90 0.0005230472    1.364    0.267
        10  -9.5437     42.7706    214.3711   1.1565614044e+02   2.3588904660e+01    0.3192664    0.1726816  49.27  0.001754216    1.661    0.398
        11  -8.5600     77.2132    226.2493   1.0954345600e+02   1.6846720629e+01    0.2294993    0.1572046 -83.92 0.0006309039    1.576    0.366
        12 -13.1202     10.1656    207.7085   1.2184093649e+02   2.8302235839e+01    0.9664191    0.7303753  67.20  0.003528405    1.117    0.105
        13 -13.7372     46.8834    247.2737   1.1743244086e+02   1.6484379057e+01     4.132686      1.17376  27.79    0.0139541    5.828    0.828
        14  -8.3313    195.6611    200.3309   7.9939623605e+01   3.3426657450e+00    0.1263637     0.112004  78.51 0.0007051841    1.740    0.425
        15 -10.9191     85.6052    222.3351   1.0732334690e+02   1.6505535032e+01    0.4367159     0.337135  75.77 0.0006699039    1.334    0.250
        16  -9.5125     59.1604    230.0320   1.1365204820e+02   1.8392069700e+01    0.2799438    0.1946289 -72.62 0.0007734589    1.456    0.313
        17 -10.1965     60.0330    177.0873   1.0770726559e+02   3.0047922520e+01    0.4390044    0.2818909 -32.59  0.002101406    2.183    0.542
        18 -10.1781     65.3644    171.7562   1.0563247061e+02   3.0655947681e+01    0.3596153    0.2633986 -36.18 0.0008278156    1.644    0.392
        19  -9.0313    178.3783    223.1742   8.7532287291e+01   2.1549773271e+00    0.1686438    0.1250512 -51.52 0.0005345072    1.686    0.407
        20  -9.9268     76.5455    220.7776   1.0909967165e+02   1.8061970280e+01    0.5320503    0.1647589  45.76  0.002078445    2.940    0.660
        21 -13.8333      7.2650    240.5674   1.2421029681e+02   2.1901887160e+01     2.124017     1.325585 -82.35    0.0149002    1.441    0.306
        22 -12.1551     68.4212    144.4991   1.0045583737e+02   3.6976489422e+01     1.317585    0.7557709  89.72   0.00505678    2.835    0.647
        23 -11.1541     82.3468    156.0990   9.8642773131e+01   3.2137605769e+01     1.051168    0.6371952 -53.86  0.002912536    1.556    0.358
        24 -11.7537     62.3166    158.3208   1.0444617254e+02   3.4336530471e+01    0.5326323     0.327308 -41.48   0.00120472    1.834    0.455
        25 -11.1673     16.8032    216.3860   1.2108130875e+02   2.5851293593e+01    0.3793865    0.3391563 -19.05  0.001293354    1.668    0.401
        26  -9.4629     48.9270    218.0247   1.1468825474e+02   2.2105306476e+01    0.3480809    0.1759669  20.37  0.001371614    2.930    0.659
        27 -10.6427     85.2677    140.6139   9.4895381746e+01   3.5516438474e+01    0.3526164    0.2750848 -41.51 0.0006284498    1.280    0.218
        28  -8.7630     31.3745    143.3880   1.1077935812e+02   4.1438227848e+01    0.2232936     0.181117  26.36  0.001342963    1.443    0.307
        29  -9.0175     98.1776    141.1702   9.1349508878e+01   3.3309023380e+01    0.5409968    0.3337402 -15.23  0.001988233    2.908    0.656
        30  -9.8545     75.4482    136.4571   9.6908302636e+01   3.8003719849e+01    0.4348609    0.2722115  71.02 0.0009520685    2.486    0.598
        31 -10.2480     75.4101    162.2981   1.0156640781e+02   3.1611192835e+01    0.4593636    0.3173366 -47.30 0.0006276882    1.470    0.320
        32 -12.0523      4.3884    185.0921   1.2154163837e+02   3.3770072753e+01    0.9856852    0.5076242  89.70  0.005434026    1.699    0.411
        33  -9.2944     95.6254    127.0950   8.8968348713e+01   3.7148698267e+01    0.3519348    0.2736683 -22.95 0.0009982109    1.458    0.314
        34  -9.3066    107.4974    131.1484   8.6497920157e+01   3.4107782358e+01    0.4618824    0.3198904  22.96   0.00207207    1.678    0.404
        35  -8.1392    106.0009    119.4766   8.4115536610e+01   3.7134580217e+01    0.2156294    0.1532233  33.10 0.0004916752    1.481    0.325
        36  -8.4135    205.7248    110.7034   5.8459125962e+01   1.8150331443e+01    0.2409543    0.1808164  46.11 0.0008706701    1.449    0.310
        37  -7.9371     41.2698     92.0075   9.8386730133e+01   5.3045082265e+01    0.1785304    0.1053792 -55.69  0.000876134    1.471    0.320
        38 -11.4299     31.7074    204.0541   1.1712159413e+02   2.7028976616e+01    0.4411412    0.3631272 -42.83  0.001068134    1.579    0.367
        39 -10.5171      2.3215     62.8519   1.0672782277e+02   6.2534110974e+01    0.3945394    0.1889027 -70.70  0.001959275    2.171    0.539
        40  -9.8638     13.1666     60.2737   1.0150828917e+02   6.2468791457e+01    0.2323061    0.1589251 -59.02  0.000658763    1.359    0.264
        41  -8.4212     41.4882     59.2221   8.9211053205e+01   6.0157083883e+01    0.2321701    0.1590194  42.68  0.001046101    1.906    0.475
        42 -10.6808    218.2898     29.5190   3.7286166279e+01   2.7876089507e+01    0.4243683    0.3329767  38.76  0.001041953    1.682    0.405
        43 -11.9272    201.4478     42.4818   4.2281826256e+01   2.9979966744e+01    0.6358101     0.610232  52.57  0.002510556    1.190    0.160
        44 -11.4089    100.1949    229.5319   1.0504358956e+02   1.2997633318e+01    0.6853449    0.3086377  31.20   0.00309199    2.234    0.552
        45 -10.4703      2.1512     39.2831   1.0061078901e+02   6.7373148065e+01    0.7112835          nan -57.45  0.001682732    9.391    0.894
        46  -8.2682    133.9110     40.9113   5.3109351590e+01   4.6068646722e+01    0.2133248     0.164422 -70.36 0.0005331529    1.659    0.397
        47 -10.6310    111.8516    235.3787   1.0329402250e+02   1.0183832186e+01    0.3250108    0.2898783  13.72  0.002127838    1.238    0.192
        48 -10.2519      1.8012     24.8996   9.5946163201e+01   7.0052937329e+01    0.4310579    0.1283348 -54.47  0.001886646    3.103    0.678
        49 -12.3448    111.3676    229.5777   1.0267088973e+02   1.1357474525e+01     1.056631    0.5823158  44.23  0.005402221    1.628    0.386
        50 -10.3783     86.1327    234.4106   1.0854440479e+02   1.4015465557e+01    0.3446647    0.2025731  59.27  0.001841067    1.762    0.433
