#   1 NUMBER                 Running object number                                     
#   2 MAG_AUTO               Kron-like elliptical aperture magnitude                    [mag]
#   3 X_IMAGE                Object position along x                                    [pixel]
#   4 Y_IMAGE                Object position along y                                    [pixel]
#   5 X_WORLD                Barycenter position along world x axis                     [deg]
#   6 Y_WORLD                Barycenter position along world y axis                     [deg]
#   7 A_WORLD                Profile RMS along major axis (world units)                 [deg]
#   8 B_WORLD                Profile RMS along minor axis (world units)                 [deg]
#   9 THETA_WORLD            Position angle (CCW/world-x)                               [deg]
#  10 FWHM_WORLD             FWHM assuming a gaussian core                              [deg]
#  11 ELONGATION             A_IMAGE/B_IMAGE                                           
#  12 ELLIPTICITY            1 - B_IMAGE/A_IMAGE                                       
         1 -15.6123    169.2542    113.8552   8.6921909637e+01   2.5369006155e+01     3.573841     2.338872 -16.99    0.0106802    2.063    0.515
         2 -14.8791    159.4392     96.5047   8.4502475277e+01   3.0970565223e+01      2.59864     1.543574  67.09  0.008327472    2.368    0.578
         3 -13.4267    189.8258     33.0003   5.9869695462e+01   3.3564917606e+01     1.096077     1.042485 -33.17  0.003900531    1.088    0.081
         4 -13.8693    198.2540     21.8786   5.5494917524e+01   3.2727507066e+01     1.393156    0.9531081 -12.06  0.001587418    1.737    0.424
         5 -12.0595    240.8176      8.0681   4.7638864260e+01   2.3863145013e+01    0.7234876      0.51897 -30.56  0.003001918    1.397    0.284
         6 -11.3156     40.5033     14.3288   9.2639495272e+01   6.8363495684e+01    0.3894446    0.1045087 -41.64  0.001502631    3.429    0.708
         7 -10.9590    245.2775     15.9871   4.9153518627e+01   2.1997075151e+01    0.4446535    0.3994257  55.09  0.001851343    1.291    0.225
         8 -11.4171     58.5765      3.0561   7.9237517534e+01   6.7215421076e+01    0.3347706    0.2092786  18.45  0.001888948    1.587    0.370
         9 -10.5086    103.3077      2.7234   6.5192413357e+01   5.8407092019e+01    0.2728789    0.2537459  72.72  0.001717983    1.265    0.209
        10 -10.1346     82.2119    194.9358   1.2177774218e+02   2.4760699210e+01    0.3008317     0.228312  47.53  0.001392283    1.226    0.184
        11 -19.4538     11.4304    139.4337   1.3179206855e+02   4.4478106908e+01     17.41868     3.147667 -76.56   0.05549566    5.248    0.809
        12  -9.6400    103.7053    199.6352   1.1792871796e+02   2.0680670194e+01    0.2871197    0.1815583  19.38  0.001389992    2.616    0.618
        13 -12.0023    194.0537    193.6287   9.8854467128e+01   6.1753134208e+00    0.7053369    0.5756856 -68.72  0.004092795    1.836    0.455
        14 -13.5608    224.9121    187.4559   9.2021825464e+01   1.6337557107e+00    0.9031456    0.6316426  23.28   0.00270035    1.301    0.231
        15  -9.7574    211.2924    178.6481   9.2818492520e+01   5.3259523226e+00    0.2642202    0.1837105 -43.46  0.001214365    1.684    0.406
        16 -11.4820     52.4219    186.9490   1.2708448699e+02   3.0242910347e+01    0.3425078    0.2705095  45.04   0.00234695    1.329    0.247
        17 -11.4492     77.9295    179.7330   1.2091769527e+02   2.8440491758e+01    0.3869396    0.2559648 -40.24  0.002068694    2.197    0.545
        18 -11.5063     81.6056    174.5731   1.1946527013e+02   2.9001961856e+01    0.3054871    0.2688954 -53.18 0.0009031723    1.346    0.257
        19  -9.4331     99.6515    180.8289   1.1632756162e+02   2.5002905610e+01    0.2097135    0.1660556  40.20 0.0006133704    1.277    0.217
        20 -10.7066    249.4236    188.6497   8.8030284227e+01  -2.6013440661e+00     0.347735    0.2249509 -24.74  0.001654446    1.483    0.326
        21  -9.6332     69.0426    177.7435   1.2261459708e+02   3.0063880054e+01    0.1721969    0.1470246  60.83 0.0005149766    1.117    0.105
        22 -10.0047    198.3334    176.7768   9.4912354461e+01   8.0155975220e+00    0.2759462    0.2044646  25.40  0.001220175    1.287    0.223
        23 -10.3883    196.3011    171.3690   9.4249142436e+01   9.2719701836e+00    0.3388048    0.3006917  14.40  0.001185268    1.038    0.037
        24  -9.6481    193.8978    165.5762   9.3560270557e+01   1.0693800605e+01    0.2706215    0.2065845 -43.17  0.001457004    1.446    0.308
        25 -12.0147    208.8882    186.1154   9.4688560573e+01   4.6459437818e+00    0.6841367    0.4049934 -36.93  0.003556243    1.822    0.451
        26 -11.9655     94.6959    157.6742   1.1402306799e+02   3.0669991668e+01     0.568126    0.4001966 -36.66  0.001902514    1.872    0.466
        27 -10.6725    183.8661    215.5473   1.0441399291e+02   4.7025534289e+00    0.2155637    0.1725327 -67.19  0.001322907    1.864    0.463
        28  -9.6204    134.2486    148.2652   1.0292271938e+02   2.5758114076e+01    0.3521357    0.1494644 -52.75  0.001328624    2.540    0.606
        29 -10.2707    134.0000    143.0161   1.0190829915e+02   2.6905622094e+01    0.6024401    0.2129918 -55.62  0.001906274    3.634    0.725
        30 -10.4277    106.9287    141.3157   1.0817307377e+02   3.2257154856e+01    0.5157737    0.2750711 -35.72  0.002027358    2.756    0.637
        31 -11.6227     94.6140    142.1195   1.1141051577e+02   3.4130012355e+01    0.2641616    0.2490228 -38.44 0.0004125612    1.213    0.175
        32 -12.4683    140.4595     99.1531   8.9762221182e+01   3.4763453257e+01    0.7094352    0.6630313  24.55  0.002209574    1.097    0.089
        33  -9.8669    170.1640    239.8308   1.1037369304e+02   3.5671229623e+00    0.1611516    0.1190283  23.06 0.0004025228    1.343    0.255
        34 -10.1217    126.5790    239.4154   1.1815225844e+02   1.0388467113e+01     0.273993     0.089224  42.00  0.001251086    2.390    0.582
        35 -10.3272    101.8368    127.9620   1.0681380169e+02   3.6121923735e+01    0.2853035     0.244692 -26.00 0.0006821656    1.381    0.276
        36 -11.2176    135.2402    121.9237   9.6903691450e+01   3.1126668190e+01     1.037754    0.1933606 -50.04  0.002205091    7.165    0.860
        37  -9.8334    105.8983    130.8147   1.0634624185e+02   3.4776747920e+01    0.3094406     0.225343 -67.53  0.001551381    1.443    0.307
        38  -9.0628    138.6892    215.3370   1.1299187035e+02   1.2298447106e+01    0.1258844   0.08739212  67.48 0.0005992766    1.685    0.407
        39  -9.3905    109.9149    120.0361   1.0295918990e+02   3.6469124495e+01    0.2116088    0.2057374 -74.73 0.0003938992    1.012    0.012
        40 -10.9369    134.5484    104.0843   9.2581167248e+01   3.5032011381e+01    0.6942222    0.1457034 -45.15   0.00175298    4.760    0.790
        41 -10.1347    236.5287    202.5912   9.2768224136e+01  -2.2817164392e+00    0.2384838    0.2025632  43.99  0.001587225    1.488    0.328
        42  -9.7644    121.1973    111.3963   9.7920236113e+01   3.6223834112e+01    0.2136884    0.1400611  53.82 0.0009507675    1.658    0.397
        43  -8.3153    104.4939    111.4874   1.0243591035e+02   3.9362349711e+01    0.1461037    0.1376534 -78.92  0.000444266    1.063    0.059
        44  -9.4774    205.5203    109.9945   7.8593025011e+01   1.7809031458e+01    0.2802767    0.2015404  33.66 0.0007648524    1.487    0.327
        45 -10.3689    114.3892    131.5467   1.0432174435e+02   3.3092994109e+01    0.2912932    0.2518102 -14.48 0.0008302873    1.417    0.294
        46 -10.6951    138.0321     78.8503   8.4489646660e+01   3.9314437364e+01    0.6227998    0.3563309  54.19  0.002404515    1.856    0.461
        47 -10.6138    166.2885     66.6372   7.4262839224e+01   3.4691525809e+01    0.3492604    0.2779364  88.20 0.0006863835    1.537    0.349
        48 -10.2138     84.7559    200.7373   1.2189920389e+02   2.3272008188e+01    0.3547578    0.1700608  63.19  0.001663443    2.424    0.587
        49 -12.8881    179.5946     41.5230   6.4038036665e+01   3.5092807650e+01    0.8537411    0.6175223   1.91 0.0009092361    1.752    0.429
        50 -10.3735     93.5807    237.4479   1.2386540402e+02   1.5505127566e+01    0.2149734    0.1477573  63.71 0.0006688872    1.253    0.202
        51 -11.7900    168.0029    234.5178   1.1006186846e+02   4.6308910345e+00    0.6374566    0.1997777  33.23  0.002270229    4.078    0.755
        52  -8.9307    111.4829    235.0293   1.2041675723e+02   1.3327556853e+01    0.1486412   0.09507769 -33.54 0.0008078002    2.889    0.654
        53  -9.3482    101.2538    235.6277   1.2232405300e+02   1.4717602279e+01    0.1149394   0.07227533  69.37 0.0006963274    1.642    0.391
        54 -10.1778    181.6985    233.5538   1.0746182064e+02   2.5751791680e+00    0.1748868    0.1496936  88.56   0.00118386    1.758    0.431
        55 -10.5097     71.0708    228.7513   1.2713629509e+02   1.9999962604e+01     0.277353    0.2375304  74.10  0.001670269    1.183    0.154
