#   1 NUMBER                 Running object number                                     
#   2 MAG_AUTO               Kron-like elliptical aperture magnitude                    [mag]
#   3 X_IMAGE                Object position along x                                    [pixel]
#   4 Y_IMAGE                Object position along y                                    [pixel]
#   5 X_WORLD                Barycenter position along world x axis                     [deg]
#   6 Y_WORLD                Barycenter position along world y axis                     [deg]
#   7 A_WORLD                Profile RMS along major axis (world units)                 [deg]
#   8 B_WORLD                Profile RMS along minor axis (world units)                 [deg]
#   9 THETA_WORLD            Position angle (CCW/world-x)                               [deg]
#  10 FWHM_WORLD             FWHM assuming a gaussian core                              [deg]
#  11 ELONGATION             A_IMAGE/B_IMAGE                                           
#  12 ELLIPTICITY            1 - B_IMAGE/A_IMAGE                                       
         1  -9.6637     24.9486     23.5050   7.5595815381e+01   7.0527863082e+01    0.9366196    0.4775388 -18.98  0.004179693    2.826    0.646
         2  -9.1527     61.5028     26.7241   5.9509676705e+01   6.4454686241e+01    0.2532375    0.1870589  24.38 0.0007548596    1.355    0.262
         3  -9.2702     10.0900     18.8760   8.2450770748e+01   7.2859236105e+01    0.4482675    0.2287962   0.27  0.002247151    2.508    0.601
         4  -8.9477     74.3467     13.3058   4.8567524559e+01   6.3667011305e+01    0.3800123    0.2182486  12.48  0.001464491    2.539    0.606
         5  -9.5717     78.5494     12.4805   4.6870393344e+01   6.2865958990e+01    0.5036155    0.2386419  59.42  0.002101248    2.094    0.523
         6  -8.9708    249.6144     15.2101   2.3965164627e+01   2.2974073140e+01    0.1543331    0.1021272 -27.14 0.0009492937    1.695    0.410
         7  -8.7967     64.2086     13.6409   5.2208316552e+01   6.5691034718e+01    0.3446171    0.1865659  31.55  0.001260297    2.001    0.500
         8  -7.9663    146.9327     14.0341   3.3215496591e+01   4.6430763266e+01    0.2042341     0.179271  80.07 0.0005427175    1.031    0.030
         9  -8.6037     96.7830     11.7421   4.1624490851e+01   5.8861847457e+01    0.3320453    0.2153922  29.53  0.001177417    1.723    0.420
        10  -8.5954    156.2359      9.8524   3.0682520012e+01   4.4550982259e+01    0.5021651    0.1483284 -23.57  0.001763103    3.939    0.746
        11  -9.0369    107.2339     10.4373   3.8750994047e+01   5.6532512058e+01    0.3479656    0.2163626  54.67  0.001814435    1.429    0.300
        12  -8.9392    125.0423     10.2677   3.5328552841e+01   5.2227851416e+01    0.3000991    0.1960552  37.55 0.0005374362    1.709    0.415
        13  -8.2247     88.3379     12.3066   4.4006419539e+01   6.0731480406e+01    0.2505357    0.1371235  47.64  0.001185366    1.643    0.391
        14  -9.0600     31.5307     10.7633   6.5389644640e+01   7.1682501312e+01     0.214611    0.1736736   7.16 0.0002707113    1.080    0.074
        15  -8.2844    142.9156      9.2718   3.2237190417e+01   4.7904766607e+01    0.1903029    0.1862033  83.10 0.0004096884    1.125    0.111
        16  -9.7145     20.4607      8.0054   7.0269018916e+01   7.3559925729e+01    0.2462476    0.2129481 -26.47 0.0004246269    1.249    0.199
        17  -8.5439     41.0666      5.4281   5.7489615849e+01   7.0895421037e+01    0.2754239    0.1684682  -4.20  0.001121427    1.920    0.479
        18 -10.1697     13.6512      4.2440   7.2479451808e+01   7.4917565329e+01    0.3170139     0.199401  17.75 0.0002165958    1.536    0.349
        19  -8.2614      4.6916      6.1517   7.9833981465e+01   7.5510450027e+01    0.2885591    0.1402114 -10.44  0.001382376    2.859    0.650
        20 -10.0357     84.8278      5.0816   4.1693077525e+01   6.2234169682e+01     0.249742    0.2317351 -15.02 0.0003926893    1.175    0.149
        21  -8.9276     77.0231      6.3966   4.4462764730e+01   6.3825724462e+01    0.3231937    0.1308629  55.21  0.001171694    2.147    0.534
        22  -8.9659     31.7616      5.4383   6.2220558152e+01   7.2371454995e+01    0.2611504    0.1902723 -46.94 0.0004960953    1.835    0.455
        23  -7.6208    131.5170      4.9811   3.2430837024e+01   5.1125670142e+01    0.1762322    0.1313318 -25.61 0.0004350157    1.494    0.331
        24  -8.2258     92.5712      5.0692   3.9769017967e+01   6.0477722419e+01    0.2922186    0.1305581  48.24 0.0009436897    1.981    0.495
        25  -8.7909    110.8136      2.8711   3.5067513020e+01   5.6366849451e+01    0.3029276    0.1621211 -32.79  0.001253008    1.992    0.498
        26  -9.0610     57.8093      3.2361   4.9196663648e+01   6.8095390388e+01    0.2167643     0.170308  24.67 0.0003644483    1.148    0.129
        27  -8.2261    125.4633      3.1588   3.2707070849e+01   5.2776229367e+01    0.2142413    0.1570339  59.80 0.0004081206    1.227    0.185
        28  -7.7974    153.7177      3.0206   2.8890673925e+01   4.5819402921e+01    0.1720612    0.1543586 -74.08 0.0002442631    1.074    0.069
        29  -8.1214    104.9812      2.0486   3.5840902153e+01   5.7833266454e+01    0.2255526    0.1314396  38.93  0.001133739    1.779    0.438
        30  -9.2178     13.9116    105.0041   1.0251926382e+02   5.3280270681e+01    0.2609019    0.2240745 -48.82   0.00164383    1.186    0.157
        31  -9.8947    213.0203    249.6541   7.5203957384e+01  -4.9536745292e+00     0.266475    0.1444776  33.80  0.001660994    1.656    0.396
        32  -9.6161    199.9062    249.2196   7.7431190564e+01  -3.2778551675e+00    0.3018316    0.1378987  27.47  0.001655936    1.907    0.476
        33  -8.8415    206.6773    250.3206   7.6395871394e+01  -4.2605103059e+00    0.1956441    0.1405308  49.02   0.00101888    2.087    0.521
        34 -10.1152    189.1254    249.1535   7.9354274193e+01  -1.8910072187e+00    0.3947374    0.1968417  30.07  0.002261932    1.672    0.402
        35 -10.4545    175.2087    248.5720   8.1833518477e+01   1.9489428266e-02    0.3336108    0.3195356  70.07    0.0025412    1.503    0.335
        36  -7.7160     69.8440    103.8297   8.2482431705e+01   4.7239339284e+01    0.2051408    0.1725707  82.76 0.0005352114    1.322    0.244
        37  -7.8817     66.6506    104.6845   8.3768545815e+01   4.7517637425e+01    0.1519926    0.1110567 -24.48 0.0007047287    1.728    0.421
        38  -7.9128     94.2160    102.9794   7.4356170892e+01   4.3254422269e+01    0.2692709    0.1985137  23.70  0.001247587    1.620    0.383
        39  -8.6437     78.6620    103.1980   7.9382194610e+01   4.5968086523e+01    0.2881639    0.1995965  37.93 0.0009981488    1.502    0.334
        40  -8.8848    248.2967    102.2768   4.2515555075e+01   1.1448529545e+01    0.2339449    0.1529908 -84.95  0.001182007    2.511    0.602
        41  -7.4780     64.6182    100.8190   8.3557270598e+01   4.8769489772e+01    0.2010899    0.1344194 -68.77 0.0009316839    1.573    0.364
        42  -7.6101    129.3760     97.3147   6.2842314105e+01   3.7292612381e+01     0.159628    0.1238915   6.57   0.00070297    1.797    0.444
        43  -9.1080     43.2589     91.5699   8.9175449235e+01   5.3879594468e+01    0.5291311    0.2787438 -46.97  0.002393377    1.800    0.444
        44  -9.9533     12.5822     93.5310   1.0132461275e+02   5.6228603619e+01    0.3988927    0.3078549 -25.25  0.001060266    1.467    0.318
        45  -7.7404     56.1909     92.0216   8.4434527801e+01   5.2117073850e+01    0.2413569    0.1435645 -34.86 0.0007530447    1.982    0.495
        46  -7.9189     95.4932     90.9929   7.0686121338e+01   4.5755030944e+01    0.2534999    0.1900395 -13.96  0.001145932    1.809    0.447
        47  -7.4583     98.4748     88.5359   6.9052295172e+01   4.5712181920e+01    0.2296415    0.1897727  -4.49 0.0006954458    1.504    0.335
        48 -10.3924     36.9140     80.6378   8.9103689106e+01   5.7237047318e+01    0.7315255    0.4371174  -4.14  0.003288275    2.453    0.592
        49  -8.2451     66.1596     83.8335   7.8597847506e+01   5.2579818068e+01    0.2514082    0.2289504 -38.00 0.0007103464    1.067    0.062
        50  -8.9140     20.9721     84.0440   9.6353646229e+01   5.7929687199e+01    0.1963618     0.169484 -59.93 0.0003069779    1.005    0.004
        51  -7.6948    126.9870     82.8276   5.9307327465e+01   4.0799698950e+01      0.25296    0.1769687  22.86  0.001001301    1.988    0.497
        52  -7.8903    250.4813     79.5103   3.7439594436e+01   1.4441080330e+01    0.1269957    0.1028015 -46.08 0.0008103079    1.001    0.001
        53  -8.8231     88.9569     78.2429   6.8986765831e+01   4.9815286288e+01    0.5118154    0.2544975  31.59  0.001916398    2.554    0.609
        54  -8.0083    184.3396     77.9335   4.5947743743e+01   2.8372106522e+01    0.2100168     0.173152 -43.24 0.0006776768    1.144    0.126
        55  -8.7110     48.0133     77.9313   8.3915817723e+01   5.6552792222e+01     0.344025    0.1942033 -25.21  0.001088804    2.572    0.611
        56 -10.0624      7.7476     75.7435   1.0029041000e+02   6.0860465408e+01    0.5644392    0.3768263 -28.89  0.002377162    1.600    0.375
        57  -9.5845     23.9110     70.9696   9.2259931591e+01   6.0800277864e+01    0.5993511    0.3108975 -55.16  0.002959328    1.620    0.383
        58  -8.4047     29.0207     68.6786   8.9432881670e+01   6.0856338530e+01     0.336242    0.1731307 -22.70  0.001392416    2.845    0.649
        59  -8.0003     74.8275     74.1459   7.2558061199e+01   5.3305163271e+01    0.1986581    0.1676693 -10.58 0.0003915928    1.329    0.248
        60  -7.9488     47.3401     71.2759   8.2311943492e+01   5.8166648990e+01    0.1402943    0.1004216 -21.26 0.0005511169    1.616    0.381
        61  -8.0851    106.3451     66.6642   5.9860054082e+01   4.8560444867e+01    0.3242183    0.1817762  42.28   0.00136734    1.840    0.457
        62  -8.6065     84.3096     63.6139   6.5756988871e+01   5.3726664950e+01    0.3894832    0.2270386  28.86  0.001017143    2.135    0.532
        63  -7.8245     14.5819     63.8243   9.4766415032e+01   6.3205117221e+01    0.2817647    0.1524891  53.06  0.001314704    2.654    0.623
        64  -9.0136     12.7258     58.5718   9.4370872832e+01   6.4533616040e+01    0.3739181    0.1757609 -46.59  0.001848793    1.796    0.443
        65 -10.3752     62.3753     60.6816   7.2813358896e+01   5.8251827427e+01    0.4134121    0.3154105   4.64 0.0001588145    1.552    0.356
        66  -9.8292     33.1284     57.4172   8.4344348445e+01   6.2950569252e+01    0.4393549    0.3946907 -52.75  0.002434757    1.121    0.108
        67  -8.3617     19.9139     60.5388   9.1446344437e+01   6.3537445694e+01    0.1721152    0.1255397  10.85 0.0004338519    1.522    0.343
        68  -8.5000     49.9518     58.1728   7.7071755833e+01   6.0665685953e+01    0.2648663    0.1804926 -40.46 0.0009432711    1.377    0.274
        69  -8.5582    145.1449     57.9010   4.7488002962e+01   4.1028672971e+01     0.230133    0.2045097  49.18  0.001247982    1.166    0.143
        70  -9.2331     99.5961     54.8679   5.7786552007e+01   5.2194487615e+01    0.3837054    0.2694128 -21.93 0.0006892473    1.675    0.403
        71 -10.6281     75.1901     49.8566   6.3980457514e+01   5.8084459762e+01    0.3483939    0.2741739  -8.76 0.0003156742    1.443    0.307
        72  -8.0548    218.9936     51.5433   3.4582084536e+01   2.4697075739e+01    0.1783618    0.1251286  71.33  0.000429628    1.508    0.337
        73  -8.0995    118.5758     51.0274   5.1245957177e+01   4.8526281567e+01    0.2163666    0.1901557  57.52 0.0004708657    1.108    0.098
        74  -8.6143    106.3920     48.7024   5.3619479105e+01   5.1725245246e+01     0.434949    0.2834091   7.92  0.001777024    2.596    0.615
        75  -9.3392     45.2140     48.5276   7.5728348168e+01   6.3294558710e+01    0.3876007    0.2404873 -15.56  0.001341207    2.168    0.539
        76  -8.2212     54.4056     45.1069   7.0354208020e+01   6.2585558084e+01    0.4765049    0.1759509 -33.41  0.001578407    3.864    0.741
        77  -9.6474     10.3460     47.0075   9.2483784313e+01   6.7251080312e+01     1.172582    0.2168473 -54.39  0.003975621    3.319    0.699
        78  -8.6264     13.7686     45.3966   9.0202169925e+01   6.7345244688e+01    0.3931583    0.2049631 -57.31  0.001838923    1.669    0.401
        79  -7.1193     96.4760     45.5017   5.5281798935e+01   5.4460553065e+01    0.1409382    0.1349093  25.69 -4.66641e-05    1.019    0.019
        80  -8.5661     93.7402     42.0906   5.4802463136e+01   5.5603997132e+01    0.4696258    0.2418143  32.25  0.001833188    2.622    0.619
        81  -8.0604     99.0492     41.5012   5.3012990036e+01   5.4523647760e+01    0.2867514    0.1388974  58.26  0.001163735    2.194    0.544
        82 -10.4500     82.9555     39.9520   5.7382966103e+01   5.8231952975e+01    0.3883789    0.2797728  -8.26 0.0004283535    1.706    0.414
        83  -8.1182     87.5071     37.0586   5.4742310589e+01   5.7726964956e+01    0.2490046    0.1764419 -26.43  0.001283726    1.491    0.329
        84  -8.1019    123.9133     39.4196   4.5949205667e+01   4.9016847880e+01    0.2921343    0.2030238  23.68 0.0009589819    1.910    0.477
        85  -7.6092     58.4097     40.2146   6.6680549864e+01   6.2815687410e+01    0.1772158    0.1245193 -48.09 0.0005128765    1.532    0.347
        86  -8.3025     18.0243     39.6624   8.6039639459e+01   6.8184043756e+01    0.2171961    0.1460665 -33.94  0.000733104    1.329    0.248
        87 -10.5189    196.8176    243.8318   7.7221781502e+01  -2.1831112562e+00    0.2263751     0.192652  12.10 0.0005080659    1.143    0.125
        88  -8.9328     19.7260     35.9721   8.3769356799e+01   6.8765913879e+01    0.4706657    0.1780037  31.64  0.002132517    2.779    0.640
        89  -9.2423     22.0407     31.9274   8.0904762744e+01   6.9318510760e+01     0.348906    0.2617458 -49.02   0.00122953    1.305    0.234
        90  -8.8211     18.4147     31.7750   8.2882886622e+01   6.9707017831e+01    0.2815436    0.1333517 -45.78 0.0008482519    1.803    0.445
        91  -9.3253      3.2859     39.3478   9.4105243883e+01   6.9330844204e+01    0.2466459    0.1530606 -64.34  0.001215544    1.511    0.338
        92  -8.0250      3.1904     24.5972   8.9250991091e+01   7.2318153738e+01    0.2388615    0.1751838 -38.89 0.0009011914    1.105    0.095
        93  -9.0797      5.2656     33.8498   9.1256534562e+01   7.0347175514e+01    0.3290287    0.1777896 -19.33  0.001006294    2.011    0.503
        94  -9.4810      1.9370     30.0609   9.1981539081e+01   7.1319820538e+01    0.4104669    0.2070119 -70.50   0.00207616    2.372    0.578
        95  -9.2331     55.4007     34.9415   6.5718798240e+01   6.4227579243e+01    0.2154675    0.2089645 -60.83 0.0008361098    1.269    0.212
        96  -8.8295     35.1914     36.7869   7.5931246588e+01   6.6888262043e+01    0.3915323    0.1798391 -51.43  0.001533847    2.225    0.551
        97  -8.0314     38.2433     35.0275   7.3677052162e+01   6.6812460529e+01    0.2155876    0.1702082  16.03  0.001026482    1.258    0.205
        98  -8.9073    105.1658     36.8735   4.9569165921e+01   5.3822791736e+01     0.278767    0.1624784  34.20 0.0008088292    2.057    0.514
        99  -7.0717     92.4889     36.5292   5.2999712661e+01   5.6728892957e+01    0.2149659    0.1221372  41.94 0.0005878191    1.752    0.429
       100  -9.0400     96.3559     32.7815   5.0383232801e+01   5.6411368257e+01    0.2623158    0.2199722  19.30 0.0002247336    1.274    0.215
       101  -8.6215     71.4663     34.8734   5.9301102960e+01   6.1332806486e+01    0.2852353    0.1602731  32.83  0.001309892    1.949    0.487
       102  -8.6171     66.8241     36.4981   6.1740178951e+01   6.1952613381e+01    0.3239825    0.1778868 -41.75  0.001534079    1.866    0.464
       103  -8.9757     71.0151     29.9858   5.7351180354e+01   6.2165667222e+01     0.255782    0.1977315  11.62 0.0007365892    1.398    0.285
       104  -9.5319     70.4756     25.9203   5.5735210333e+01   6.2857966957e+01    0.2928551     0.217637  32.43  0.001647589    1.297    0.229
       105 -11.1183     80.7683     22.9053   5.0903116604e+01   6.1149791134e+01    0.6022029    0.2580274  42.21  0.000931799    2.314    0.568
       106  -9.0585     42.1637     27.8408   6.8570567974e+01   6.7505168512e+01    0.2485032    0.1836043   2.27 0.0009460411    1.419    0.295
       107  -7.5100     38.5298     25.4931   6.9267111539e+01   6.8422975214e+01    0.2096295    0.1177798  34.70  0.001070403    1.786    0.440
       108 -10.3453    163.6809    243.1469   8.3292510172e+01   2.3654631485e+00    0.3018085    0.2276753  27.16 0.0005132083    1.088    0.081
       109  -7.4685    108.6362     25.2149   4.4234506455e+01   5.4566130735e+01    0.1767952     0.131938 -12.81 0.0004566252    1.549    0.355
       110  -8.9870    128.8996     21.9786   3.8806961022e+01   5.0037761871e+01    0.2169317    0.1842977  67.90 0.0003309004    1.087    0.080
       111  -8.6497     45.9100     20.0269   6.3023756629e+01   6.8144178029e+01    0.3397169    0.2049638 -47.77  0.001768869    2.044    0.511
       112  -8.0053    242.3196     21.3413   2.5718496320e+01   2.3707278603e+01    0.1060017   0.09288023  26.39 0.0001552734    1.717    0.418
       113  -8.9407     92.3179     20.4749   4.6455261163e+01   5.8917916329e+01    0.2681505     0.219191  32.39 0.0006179151    1.203    0.169
       114  -7.7134    160.2559     20.3798   3.3359127339e+01   4.2442905167e+01    0.1822008    0.1189296  84.94 0.0002465416    1.513    0.339
       115  -8.5037    191.2652    242.5312   7.8041617962e+01  -1.2833678294e+00    0.1624192   0.09271559  22.69 0.0004582054    1.570    0.363
       116  -8.1662    127.5200     16.1299   3.6992828849e+01   5.1023122502e+01    0.1870142     0.134128 -28.70  0.001004379    1.510    0.338
       117  -8.9928    184.0459    238.2746   7.8765927573e+01   2.7386628453e-01    0.1663782    0.1279393  23.62 0.0003931864    1.087    0.080
       118  -9.1917    164.9827    235.2334   8.1968300983e+01   3.3742194913e+00    0.4388013    0.2437556 -16.19  0.001121869    3.099    0.677
       119  -8.0782    111.9995     19.0080   4.1086887161e+01   5.4492155550e+01    0.1987781    0.1802848  49.16            0    1.056    0.053
       120  -9.8672    188.4365    233.9565   7.7323935166e+01   2.8897193692e-01    0.2535112    0.2150852  89.96  0.001429428    2.140    0.533
       121  -7.6169     54.0000    233.8639   1.0460902535e+02   1.8909460323e+01    0.1731993   0.06441373 -72.24 0.0007984263    2.915    0.657
       122  -8.1833    194.0164    232.0172   7.6005990581e+01  -1.9662464903e-01    0.1762799    0.1477036  12.21 0.0003118882    1.059    0.056
       123  -8.0688    142.1348    209.9094   8.2990829647e+01   1.1051555144e+01    0.2062047    0.1524006  80.42  0.001079456    2.045    0.511
       124  -9.0471     16.7711    202.3082   1.1045710893e+02   2.9516063926e+01    0.1993575    0.1757237 -85.70 0.0001577117    1.248    0.199
       125  -8.1190     19.8184    186.8957   1.0878610127e+02   3.2668530705e+01    0.1725086    0.1497211 -83.54 0.0003039442    1.196    0.164
       126  -7.5161    117.0799    179.9993   8.4009740813e+01   2.1141073899e+01     0.170844    0.1511449  43.22 0.0009642911    1.065    0.061
       127 -10.2462    101.0053    176.0023   8.7317842630e+01   2.4676471876e+01    0.1996279    0.1857518  60.44            0    1.003    0.003
       128  -8.8318    165.5491    160.5305   6.9244061186e+01   1.6560923894e+01    0.2477786    0.2266067  -0.17 0.0006340463    1.101    0.092
       129  -7.6560    205.6645    151.7046   5.9502806432e+01   1.0892814765e+01    0.1378807     0.100983   0.39 0.0002936406    1.647    0.393
       130  -7.8704    133.5380    147.0118   7.3820982476e+01   2.5482145797e+01    0.2314676    0.1457048 -48.24 0.0007555762    1.596    0.373
       131  -7.1969    189.4825     15.5057   2.8658669370e+01   3.5914777176e+01    0.1316328    0.1109888 -73.14 -2.413799e-05    1.013    0.013
       132  -9.0237     67.0822    144.3865   9.1407871770e+01   3.7492561166e+01    0.5307664    0.2816616  60.93   0.00212649    2.397    0.583
       133  -7.3361    151.2132    136.0237   6.7195383593e+01   2.4379275733e+01    0.1985397    0.1192535 -45.23 0.0008402784    1.643    0.391
       134  -7.3700     40.3629    129.3172   9.7165256974e+01   4.4694896731e+01    0.1443236   0.09846045 -36.71 0.0007041298    1.768    0.434
       135  -7.0773    113.4996    128.4847   7.4964486279e+01   3.3582593528e+01    0.1507263    0.1483455 -69.36 -5.170559e-05    1.030    0.030
       136  -7.3840    143.4964    126.5012   6.6803483241e+01   2.7997865344e+01     0.151103    0.1470136 -18.40 0.0008098902    1.063    0.059
       137  -7.9477     12.5006    120.5511   1.0495271480e+02   4.9475506183e+01    0.1308536    0.1111145 -80.83  0.000182713    1.007    0.007
       138  -7.7420    101.0262    118.4625   7.6158709011e+01   3.8319821232e+01    0.2323169    0.1510653  38.62 0.0006917038    1.586    0.369
       139  -8.4865    173.8677    114.7154   5.7244830736e+01   2.3985690867e+01    0.3254959    0.1998307 -28.28 0.0009477842    1.893    0.472
       140  -8.3347      1.4925    109.9929   1.0743585484e+02   5.2831721614e+01    0.1948533   0.06576486 -54.92 0.0008100437    2.517    0.603
       141  -8.0168    133.7169    106.3173   6.4164628626e+01   3.4429874314e+01    0.3273603    0.1922768 -24.27  0.001181129    2.689    0.628
       142  -7.3613    125.0047    106.4692   6.6450961129e+01   3.6266276603e+01    0.2139879    0.1370177  20.65  0.000808216    2.458    0.593
       143  -7.7272    108.8605    106.3785   7.0877643613e+01   3.9624501966e+01    0.2202631    0.1456856  30.35 0.0009414572    1.772    0.436
