#   1 NUMBER                 Running object number                                     
#   2 MAG_AUTO               Kron-like elliptical aperture magnitude                    [mag]
#   3 X_IMAGE                Object position along x                                    [pixel]
#   4 Y_IMAGE                Object position along y                                    [pixel]
#   5 X_WORLD                Barycenter position along world x axis                     [deg]
#   6 Y_WORLD                Barycenter position along world y axis                     [deg]
#   7 A_WORLD                Profile RMS along major axis (world units)                 [deg]
#   8 B_WORLD                Profile RMS along minor axis (world units)                 [deg]
#   9 THETA_WORLD            Position angle (CCW/world-x)                               [deg]
#  10 FWHM_WORLD             FWHM assuming a gaussian core                              [deg]
#  11 ELONGATION             A_IMAGE/B_IMAGE                                           
#  12 ELLIPTICITY            1 - B_IMAGE/A_IMAGE                                       
         1 -15.7773    135.1689     72.7505   9.1321686329e+01   4.1399822773e+01     4.880375     2.811947  -9.01   0.01573935    3.993    0.750
         2 -15.6707    107.6088    144.9012   1.1730835835e+02   3.1523884922e+01      3.12568     2.364876 -46.55   0.01548418    1.350    0.259
         3 -16.0780    147.9589    107.8414   9.8111751946e+01   3.1584496145e+01     3.308373     2.436514  69.61   0.01486834    1.595    0.373
         4 -14.4399    185.8466    109.5918   9.0121228593e+01   2.2277070199e+01     1.520899     1.402825  42.15  0.007943164    1.153    0.133
         5 -12.3702    249.6229     47.1965   6.5349237829e+01   1.8001369438e+01    0.7337164    0.2694626 -37.87  0.003068286    2.538    0.606
         6 -13.5527     73.2077     43.8225   9.9616752507e+01   5.8357490579e+01     0.983033    0.4686675 -33.11   0.00468778    2.052    0.513
         7 -13.7010     66.5594     40.6053   1.0071793457e+02   5.9880374356e+01     1.392135    0.7372666 -14.11   0.00614523    2.766    0.638
         8 -13.5743     82.7847     49.8714   9.8621250263e+01   5.5828433524e+01     1.909168      1.18186   4.47  0.008865049    2.315    0.568
         9 -14.1230     14.6179      7.4473   1.0833371902e+02   7.0697720637e+01     1.098591    0.6539029  10.66  0.007687994    1.566    0.361
        10 -13.7793     57.3708      6.4628   9.0274486248e+01   6.5556827592e+01    0.8851179    0.5513369  18.88  0.005556486    1.468    0.319
        11 -11.6535     87.8118      3.2557   7.9629146793e+01   6.0543456030e+01    0.2342903    0.1760283  25.57  0.001534225    1.161    0.138
        12 -11.5601    205.8055    229.2318   1.1149025981e+02  -4.7345561630e+00    0.4647666    0.2519933  39.50  0.002347466    1.639    0.390
        13 -12.8868     55.4143    226.1642   1.4077855039e+02   2.1117938713e+01    0.4366854    0.3320412  77.11   0.00279046    1.017    0.017
        14 -13.3803     78.9041    222.7762   1.3593369635e+02   1.8481701963e+01    0.5102697    0.4053492  61.77  0.003248357    1.108    0.097
        15 -11.8243    129.9336    220.3320   1.2528700734e+02   1.0522677349e+01    0.3743035     0.191353 -48.77  0.001714228    2.264    0.558
        16 -11.1793    121.4859    222.1922   1.2728656285e+02   1.1646066638e+01    0.2525865    0.1734269  46.41 0.0008336894    1.300    0.231
        17 -15.7104    115.9761    209.3638   1.2661595688e+02   1.5244919079e+01     2.402506     1.812079  18.25   0.01233245    1.950    0.487
        18 -16.4277     72.5678    198.0237   1.3435399520e+02   2.4774186119e+01     3.194619     1.509513  58.28   0.01388072    2.214    0.548
        19 -13.7028    204.9268    186.4036   1.0370509820e+02   2.7470189849e+00    0.7802257    0.7128409 -67.79  0.004136013    1.287    0.223
        20 -10.2899    236.6646    195.3201   9.9415709657e+01  -4.6569769154e+00     0.124191    0.1086302 -84.15 0.0006774509    1.704    0.413
        21 -12.2325    164.0743    193.4496   1.1358759705e+02   9.4792290064e+00    0.4400185    0.2906276 -37.44  0.002071723    1.740    0.425
        22 -11.3049    248.1921    192.3037   9.6756767388e+01  -6.1296098507e+00    0.2602451    0.2345996  38.07  0.001519386    1.279    0.218
        23 -11.4583    178.1313    192.4650   1.1040609277e+02   6.8826079683e+00    0.2926736    0.1992086 -67.35  0.001330267    2.003    0.501
        24 -11.2751    173.0329    192.5089   1.1149381900e+02   7.8877605843e+00    0.2305862    0.1364969  43.50 0.0009165474    1.593    0.372
        25 -11.0551     19.4985    190.4689   1.4453285780e+02   3.2998881855e+01    0.2215549   0.09144542 -86.70  0.001034923    2.347    0.574
        26 -11.1298    181.3028    188.9801   1.0906509281e+02   6.9347224205e+00    0.2010416    0.1881498 -37.42 0.0005876521    1.119    0.106
        27 -12.0877     10.0038    187.0377   1.4612123252e+02   3.4661628594e+01    0.4255861     0.251117  72.06  0.002544648    1.487    0.327
        28 -12.7556    160.5891    186.6810   1.1307157365e+02   1.1568736303e+01    0.5200256    0.3696289  24.41  0.002426979    1.726    0.421
        29 -11.5884     60.9981    218.8480   1.3902036470e+02   2.1881953408e+01     0.224327    0.1586291 -82.47 0.0009362627    1.261    0.207
        30 -11.9744     41.6919    187.3539   1.3968930233e+02   3.1275220218e+01    0.2715683    0.1679415 -81.17  0.001545907    1.379    0.275
        31 -12.1884     38.2118    186.3961   1.4032246988e+02   3.1897431748e+01     0.331851    0.2109397  64.60  0.001879688    1.470    0.320
        32 -10.8796    229.5110    185.5063   9.8780633581e+01  -1.7430572606e+00    0.2520174    0.1238885 -28.73  0.001038998    2.343    0.573
        33 -12.2690    196.9264    183.6207   1.0475890336e+02   4.8484716342e+00    0.4004253    0.2547173 -57.77   0.00162665    1.978    0.494
        34 -12.1035    181.9260    180.8764   1.0732531412e+02   8.4192765283e+00    0.5861655    0.2475128 -34.00  0.001941757    3.346    0.701
        35 -12.3621    181.8175    173.9662   1.0593363795e+02   9.8409277476e+00    0.5071197    0.3294833 -60.46  0.002224052    1.885    0.470
        36 -11.8062    171.8913    180.9258   1.0948593126e+02   1.0465085934e+01    0.3624359    0.2097508 -35.03   0.00151419    2.057    0.514
        37 -16.6152     86.0614    187.8379   1.3004042894e+02   2.5036921558e+01     3.382241     1.858627  51.71   0.01607522    1.757    0.431
        38 -12.5105    132.0009    177.6516   1.1780848409e+02   1.9224897165e+01    0.4214822    0.3835213  42.23  0.001560198    1.154    0.133
        39 -10.5582     61.0992    248.7597   1.4170979822e+02   1.5891226079e+01    0.2906035    0.1067098  55.57  0.001391563    2.325    0.570
        40 -15.1690    126.5752    183.2053   1.2006432134e+02   1.9018067415e+01     1.580224    0.9951195  59.73  0.006118779    1.693    0.409
        41 -13.9669    192.3862    170.6398   1.0300958159e+02   8.3117897630e+00    0.7809112    0.6225383  -9.89  0.003876505    1.517    0.341
        42 -11.8836    201.5005    166.5038   1.0025751127e+02   7.2365778308e+00    0.3260871    0.2454016  84.63  0.001492682    1.957    0.489
        43 -12.1077    197.9888    163.5102   1.0032596748e+02   8.5620317221e+00     0.346824    0.2514092  53.43   0.00117823    1.454    0.312
        44 -12.3224    215.3284    168.2594   9.7895623640e+01   4.0787318704e+00    0.4831318    0.3775584 -73.04  0.002066572    1.746    0.427
        45 -11.2509    204.5017    195.5146   1.0559123829e+02   1.1660599319e+00    0.3818719    0.2582371 -36.40  0.001931758    1.531    0.347
        46 -12.6240     50.2044    168.7088   1.3560924306e+02   3.4559191863e+01     0.408768    0.3236759 -13.25  0.002329299    2.040    0.510
        47 -15.2361    166.4583    174.4053   1.0935993728e+02   1.2951083827e+01     1.744735     1.253036  -8.23  0.007502618    2.190    0.543
        48 -12.8792     90.4290    163.9662   1.2526158247e+02   2.9941278647e+01    0.5877743    0.2227802  46.66   0.00218744    2.691    0.628
        49 -13.1509    180.1142    160.2654   1.0337940377e+02   1.3040269146e+01    0.5389001    0.4903671  16.24  0.002835756    1.195    0.163
        50 -14.6930    142.4009    189.7267   1.1765476949e+02   1.4533425706e+01     1.305247    0.8155198  47.60   0.00607694    1.507    0.336
        51 -13.0203    174.4027    154.5454   1.0336260972e+02   1.5493194498e+01    0.8454956    0.3006058  51.41  0.002637008    3.130    0.680
        52 -11.2517     73.9463    244.3314   1.3904184869e+02   1.4917349909e+01    0.3796565    0.1697022  60.35   0.00187722    2.095    0.523
        53 -12.6121    204.5151    161.0251   9.8464087449e+01   7.6839587888e+00    0.4104657    0.2992241 -31.40  0.001392883    1.425    0.298
        54 -10.3055    229.4910    159.9932   9.3456788488e+01   2.8015703962e+00    0.2268112    0.1333169 -40.41  0.001038067    1.612    0.380
        55 -11.5346    220.1308    159.1025   9.5004457939e+01   4.8344374971e+00    0.3673859     0.202765 -30.41  0.001540257    2.002    0.500
        56 -14.4083    148.2426    208.5647   1.1962844124e+02   9.4987406873e+00     2.012104     1.082894  63.30  0.007997587    2.612    0.617
        57 -15.8081    124.2417    152.5004   1.1470090510e+02   2.6553716961e+01     2.225114     1.754705  18.80   0.01061581    1.657    0.396
        58 -12.4940     46.9602    208.1136   1.4071180718e+02   2.6027826245e+01    0.4460932    0.1638338 -76.26  0.001917426    2.729    0.634
        59 -12.1458    177.1267    165.6783   1.0519760509e+02   1.2544913378e+01    0.3759194    0.2921244 -62.19  0.001233909    1.433    0.302
        60 -10.7669     51.1322    156.6218   1.3373750742e+02   3.7304127401e+01    0.2390979    0.1621877 -81.90  0.001040642    1.356    0.263
        61 -12.2197     19.8029    154.5080   1.4094165675e+02   4.1087480331e+01    0.5111917    0.4021645 -88.16  0.003449277    1.067    0.063
        62 -11.7295     59.7444    159.5155   1.3205887266e+02   3.5529123597e+01     0.378611    0.2398493 -83.95  0.001893318    1.594    0.373
        63 -10.2610     14.3077    167.3497   1.4350953298e+02   3.8648524586e+01    0.1187739   0.07558629 -53.31 0.0007043395    1.708    0.415
        64 -12.6354    196.2387    151.8633   9.8110726062e+01   1.1279689173e+01    0.5424679    0.3308032 -27.31  0.002222688    2.041    0.510
        65 -10.7621    245.5081    153.0011   8.9131025759e+01   9.7299673271e-01    0.2041897    0.1100867 -56.74 0.0008105996    2.627    0.619
        66 -11.5709     38.2767    198.4363   1.4150910541e+02   2.9200068366e+01    0.2365201    0.1444246 -75.52  0.001292718    1.391    0.281
        67 -12.0295    191.2435    146.7616   9.7985630601e+01   1.3418458579e+01    0.5605813    0.2038406  55.51  0.001651544    3.695    0.729
        68 -11.4982    191.6822    207.3532   1.1039788058e+02   1.4658976039e+00    0.2795779    0.2656276 -70.35  0.001693691    1.226    0.184
        69 -10.8746     81.7105    145.9968   1.2424307231e+02   3.5646516640e+01      0.24107    0.2084772  52.46 0.0009309155    1.215    0.177
        70 -11.8972     88.8445    144.6495   1.2212658111e+02   3.4837808457e+01      0.57917    0.1775233  40.19  0.001942549    3.324    0.699
        71 -11.9161    207.8436    142.0038   9.3545077975e+01   1.0728346189e+01    0.4031309    0.2760703  -3.88  0.001638923    2.377    0.579
        72 -13.1296    176.9456    139.3265   9.9312168341e+01   1.8181585426e+01    0.5760363    0.4638736  61.02  0.002400456    1.300    0.231
        73 -12.7950    123.2116    228.7708   1.2783292186e+02   1.0053690440e+01    0.5002927     0.376153 -61.77  0.002922456    1.470    0.320
        74 -10.4706     83.4829    140.5017   1.2272813425e+02   3.6692225497e+01    0.1444982    0.1308182 -72.38 -1.022925e-05    1.009    0.009
        75 -12.0475    203.6413    138.1857   9.3487878664e+01   1.2412042217e+01    0.3718533    0.2378225 -41.36   0.00165357    1.519    0.342
        76 -12.9955    189.3103    136.1012   9.5906817076e+01   1.6054872566e+01    0.5161973    0.4838943 -34.42  0.002725134    1.086    0.079
        77 -12.1671    184.1240    133.7746   9.6445293029e+01   1.7720385035e+01    0.4180543    0.2803058 -23.01  0.001725902    1.974    0.493
        78 -16.6186    146.6422    173.2705   1.1359432715e+02   1.7286227318e+01     4.123649     3.138047 -10.42   0.01872126    1.985    0.496
        79 -12.2505    175.3513    202.7810   1.1291289226e+02   5.4304861784e+00     0.340263    0.3128455 -49.14  0.001984532    1.179    0.152
        80 -12.6387    171.1036    199.8008   1.1326011678e+02   6.8313374621e+00    0.5371265    0.3026148  31.16  0.002298741    2.033    0.508
        81 -13.3551    192.6964    191.7370   1.0723746486e+02   4.1438428046e+00    0.6390441    0.5059677 -17.69  0.003356718    1.442    0.307
        82 -11.6538    193.3662    127.8751   9.3106957648e+01   1.6817260454e+01    0.2641248    0.2187276  69.39 0.0009278152    1.306    0.235
        83 -15.9938    149.8412    131.2182   1.0359081720e+02   2.6062897097e+01     2.860226     1.908782  59.89   0.01225942    1.661    0.398
        84 -13.4197    179.9921    117.0106   9.3213978754e+01   2.2164115235e+01    0.7291839    0.6200148 -63.55  0.003611782    1.209    0.173
        85 -11.3052    121.5219    240.5079   1.2968368361e+02   8.1262795187e+00    0.3894634    0.2919083 -33.25  0.002210981    2.046    0.511
        86 -10.7972    230.1091    115.4349   8.3365733798e+01   1.0951332680e+01    0.3224322    0.1757138 -53.73  0.001341293    1.970    0.492
        87 -13.0154     40.8263    110.4947   1.2882262997e+02   4.9298461649e+01    0.4524109    0.2860438 -37.29  0.002446146    1.691    0.409
        88 -11.5497    218.3629    205.3056   1.0476775920e+02  -3.0817273244e+00    0.4065088    0.2963112  35.81  0.002257832    1.296    0.229
        89 -11.9923    242.4402    108.5916   7.9839754691e+01   9.5433425334e+00    0.4286143    0.3205401 -45.91  0.002272198    1.202    0.168
        90 -10.9567    218.2065    117.2557   8.5835743623e+01   1.3243921652e+01    0.4132241    0.2978947   8.08  0.001787765    2.227    0.551
        91 -11.5607    210.1589     93.9070   8.1612818478e+01   1.9467666446e+01    0.5761498    0.2960089 -54.92  0.002240112    2.193    0.544
        92 -11.5773     20.0575     96.2578   1.3238703290e+02   5.4307838570e+01    0.3098832    0.2103867 -57.57  0.001946087    1.158    0.137
        93 -11.1544     56.3430     95.0357   1.2071012354e+02   5.1027503164e+01    0.1916996     0.157181 -51.98  0.000533461    1.080    0.074
        94 -11.1436    196.1714     93.3808   8.3980336718e+01   2.2918763268e+01    0.4360494    0.2331453 -32.15  0.001710519    2.120    0.528
        95 -12.4948    181.3792    203.6558   1.1182252290e+02   4.1024375131e+00    0.5366113    0.3937107  -9.09   0.00264053    1.863    0.463
        96 -12.9319    103.7576     85.9926   1.0372656370e+02   4.5502998323e+01    0.5773031    0.5120738   3.25  0.003000285    1.201    0.167
        97 -12.2501     50.0201     83.8878   1.1998122097e+02   5.4160687618e+01    0.5177597    0.3554391 -53.10  0.002683625    1.297    0.229
        98  -9.6434    186.2953     80.6650   8.2525121066e+01   2.7650054189e+01    0.1587791    0.1137552 -72.27 0.0007028364    1.645    0.392
        99 -10.5530    233.2445     78.9902   7.4435534369e+01   1.6704778073e+01    0.2494581    0.2085485  74.68  0.001125878    1.212    0.175
       100 -10.5412    247.2328     77.9982   7.2317606087e+01   1.3762166599e+01    0.2022255     0.168653 -57.64  0.001172624    1.045    0.043
       101 -12.9961    100.9457     70.1763   9.9764737493e+01   4.9076110553e+01     1.198027    0.6992811  25.55  0.005159795    2.215    0.548
       102 -12.2395     23.7655     65.4375   1.2431560511e+02   6.0431844781e+01    0.6868261    0.3706131  10.35  0.003819752    2.301    0.565
       103 -12.4152    153.3493    199.2200   1.1694327220e+02   1.0409498302e+01    0.4573266    0.2730098  46.30  0.001448776    1.551    0.355
       104 -11.5236    176.8107     64.7283   8.0008824492e+01   3.2718814793e+01    0.4871358    0.3452301  73.81  0.002325011    1.476    0.323
       105 -12.6024    249.7615     56.5472   6.7330258661e+01   1.6590547098e+01     1.040299    0.2176375 -38.96  0.003377833    3.934    0.746
       106 -12.2416    123.8378    236.9909   1.2878780075e+02   8.3847290679e+00    0.6246483    0.2557391  45.70  0.002781638    2.055    0.513
       107 -10.7197    100.7156    238.9728   1.3350672605e+02   1.1847097450e+01    0.1804426    0.1471734  75.35 0.0008542507    1.089    0.081
       108 -12.6923     87.8521    232.8560   1.3529416151e+02   1.5069552668e+01    0.4056224    0.2567256  53.01  0.002334932    1.333    0.250
       109 -12.6777     53.3884     45.9221   1.0733614732e+02   6.0896106124e+01     1.071236    0.6245363 -13.96  0.005475198    2.107    0.525
       110 -10.2009    231.7696     63.3852   7.1039510291e+01   1.9577860902e+01    0.1924358    0.1229879  56.09  0.000950899    1.665    0.399
       111 -11.5491     73.0813    232.6268   1.3807997933e+02   1.7334729315e+01    0.4026216    0.2244397  66.50  0.002179664    1.676    0.403
       112 -11.2682    130.3203    231.2698   1.2674702732e+02   8.3380416838e+00    0.3123152    0.2119825  64.71  0.001688565    1.493    0.330
       113 -12.7017     13.0666    228.0349   1.4844793047e+02   2.5784026382e+01    0.6562409    0.3656605  55.53  0.004350475    1.505    0.336
       114 -11.5370     30.1629    213.9939   1.4443511128e+02   2.6786804510e+01    0.2056122      0.14694  61.01  0.001387949    1.240    0.193
       115 -12.5880    189.2879    198.3586   1.0920974713e+02   3.5659230942e+00    0.4181896    0.3940701 -77.90  0.002055156    1.218    0.179
