#   1 NUMBER                 Running object number                                     
#   2 MAG_AUTO               Kron-like elliptical aperture magnitude                    [mag]
#   3 X_IMAGE                Object position along x                                    [pixel]
#   4 Y_IMAGE                Object position along y                                    [pixel]
#   5 X_WORLD                Barycenter position along world x axis                     [deg]
#   6 Y_WORLD                Barycenter position along world y axis                     [deg]
#   7 A_WORLD                Profile RMS along major axis (world units)                 [deg]
#   8 B_WORLD                Profile RMS along minor axis (world units)                 [deg]
#   9 THETA_WORLD            Position angle (CCW/world-x)                               [deg]
#  10 FWHM_WORLD             FWHM assuming a gaussian core                              [deg]
#  11 ELONGATION             A_IMAGE/B_IMAGE                                           
#  12 ELLIPTICITY            1 - B_IMAGE/A_IMAGE                                       
         1 -14.1878    242.5072     52.6696   3.4196065974e+01   2.0179736178e+01     2.787112     1.476494  70.08   0.01215922    2.102    0.524
         2 -14.2015    224.4044     72.4012   4.0272918578e+01   2.0872019206e+01     3.805875      2.01873 -75.38   0.01598459    3.123    0.680
         3 -11.7531    233.6414     43.6455   3.3110536159e+01   2.3051498564e+01    0.7235907    0.4689988 -40.41  0.001891442    1.364    0.267
         4 -13.0957    184.9767     89.5148   4.9980629328e+01   2.6342094104e+01     5.562764     1.210041 -37.38   0.01555585    4.418    0.774
         5 -11.1110    189.8738     43.6860   3.7676697181e+01   3.2280420865e+01     3.015161    0.5486513 -39.57  0.009648023    4.059    0.754
         6 -10.6030    213.4138     21.3938   3.0034352138e+01   2.9851939031e+01     1.758038    0.5639137 -41.74  0.006843599    2.487    0.598
         7 -14.2965    178.5051     72.4488   4.6701873520e+01   3.0648389601e+01     13.24042     5.384202 -60.95   0.03038917    7.854    0.873
         8 -12.3448    249.9272     28.1677   2.8731009212e+01   2.1880719137e+01    0.8670011     0.369543 -36.90 0.0007278401    1.995    0.499
         9 -11.1917    229.2835     29.3069   3.0464629599e+01   2.5686644121e+01     0.667293    0.3626828 -37.02  0.003811499    1.678    0.404
        10 -11.1169    207.3365     14.2270   2.8926182455e+01   3.1925354837e+01    0.5519427    0.4374732   8.72  0.001180456    1.999    0.500
        11 -14.0512    226.9677     88.9659   4.3607671310e+01   1.7840555613e+01     7.304766     1.838397 -50.27   0.01905965    6.413    0.844
        12  -8.8931    232.3319     16.7218   2.7644354694e+01   2.6527319799e+01    0.4579539    0.1097208 -29.81  0.001648578    4.811    0.792
        13 -10.0578    134.7702     14.8206   3.7102970560e+01   4.8710543226e+01    0.3238035    0.2150195 -24.60  0.001100705    1.723    0.420
        14  -8.8881    164.9439     14.6878   3.3060377661e+01   4.1466926552e+01    0.2092312    0.2026408  44.39 0.0006271796    1.247    0.198
        15 -11.2021    247.4780      8.1939   2.5062655374e+01   2.4562376536e+01    0.3663045    0.2352753 -16.09  0.001530304    2.490    0.598
        16  -9.9722    250.5196      1.9649   2.3746276822e+01   2.4650582998e+01    0.1872362     0.139558 -26.94  0.001355303    1.703    0.413
        17  -9.2425    224.2267     10.3975   2.6884569431e+01   2.8821892677e+01    0.2982774    0.2149906 -11.91  0.001864697    2.103    0.524
        18  -8.1555    242.1218     10.7986   2.5859760786e+01   2.5285839429e+01    0.1597332    0.1097763 -74.41  0.001108683    1.211    0.174
        19  -9.9673    120.2239      9.2637   3.7605722314e+01   5.2738152647e+01    0.3239678     0.283283 -64.30  0.001056526    1.240    0.194
        20  -8.4886    142.6637      6.9517   3.3538049446e+01   4.7523886740e+01     0.166283    0.1604639 -77.15 0.0007586064    1.149    0.129
        21  -8.4576    182.2928      2.9226   2.8306806310e+01   3.8573470252e+01    0.1695938    0.1453906 -70.76 0.0008867807    1.084    0.077
        22 -10.4837    235.6214      6.1939   2.5336491411e+01   2.7011246083e+01    0.3575392    0.1684979 -36.10 0.0008267509    1.919    0.479
        23  -7.8623    171.4542      2.1946   2.9071423513e+01   4.1122160500e+01    0.1670737   0.09774615 -47.61 0.0008821758    1.643    0.392
        24  -7.6220     79.3053      2.6989   4.3613739593e+01   6.2806081691e+01    0.1170676   0.09564862 -74.88 0.0003939091    1.594    0.373
        25  -9.9214    238.2767    175.7937   5.9897346720e+01   1.7852579814e+00    0.3004984    0.2223808  66.03  0.001248047    2.686    0.628
        26  -9.2469    135.9030    249.4162   9.2364436658e+01   4.0819641200e+00    0.3159738    0.1953926  56.12  0.001633433    2.257    0.557
        27  -8.9448    249.7025    168.9922   5.6819339454e+01   1.2835564321e+00    0.1801096    0.1299921 -28.86  0.001140947    1.101    0.092
        28  -9.0637    187.3154    169.0353   6.7824491860e+01   1.0881827020e+01    0.2298664    0.2027961  38.46 0.0004170955    1.267    0.211
        29  -8.0404    184.7095    166.3219   6.7799799848e+01   1.1849317809e+01    0.2086837    0.1425297  42.03 0.0003559575    1.578    0.366
        30 -13.1462     28.7708    155.7260   1.0739460146e+02   3.9064371633e+01     1.849258    0.9992528   6.59  0.001487282    2.640    0.621
        31  -9.2996    180.4132    245.2275   8.2646194995e+01  -1.2457154782e+00    0.2518089    0.2336433  74.79  0.001043626    1.772    0.436
        32  -9.4244    112.7071    241.9963   9.6429645221e+01   8.5812705128e+00    0.3973876    0.2161452  55.54  0.001880979    2.347    0.574
        33  -8.4640    219.1634    159.3296   5.9852501552e+01   7.3542738478e+00    0.1673589    0.1570219  -2.73  0.000507341    1.167    0.143
        34 -10.4492    193.3836    156.5287   6.4009991667e+01   1.2195687549e+01     0.551817    0.3709033 -62.69  0.001437029    2.189    0.543
        35  -9.7290    169.2767    156.5096   6.9006812725e+01   1.6572096105e+01    0.2659739    0.2351094 -21.24 0.0002804678    1.074    0.069
        36 -10.2991    201.2369    239.4015   7.7716858183e+01  -3.0597298262e+00    0.2088979    0.1708818  -2.78 0.0002307863    1.102    0.093
        37  -9.0073    173.9323    152.9832   6.7232429029e+01   1.6421342438e+01    0.2766053    0.2128514 -63.16   0.00135945    1.630    0.387
        38 -12.4281     40.4875    150.7927   1.0325999818e+02   3.9154147669e+01      1.01283    0.8790622 -64.40  0.002691522    1.093    0.085
        39  -7.9018    203.9589    152.2693   6.1099360138e+01   1.1138169207e+01    0.1641337    0.1218694  39.57 0.0006124157    1.482    0.325
        40  -8.1534    112.9407    151.7129   8.1940625089e+01   2.8189952040e+01    0.2031989    0.1920792  31.14 0.0003431757    1.057    0.054
        41 -10.6344     55.5620    141.9079   9.7200755058e+01   3.9703911524e+01     0.734869    0.4827979  78.14  0.003268712    1.938    0.484
        42  -8.8503    168.0175    239.0175   8.4222759217e+01   1.3791461686e+00    0.1849402    0.1539604   8.77            0    1.027    0.026
        43  -8.8927    133.1638    141.5712   7.4294318397e+01   2.6757518355e+01    0.7155053    0.1666779 -53.43  0.001491862    6.963    0.856
        44  -9.3669    174.0038    146.9596   6.5890208908e+01   1.7623648076e+01    0.2400557    0.1769281  -5.54 0.0007238321    1.685    0.407
        45  -7.7800    163.2370    146.9436   6.8246561679e+01   1.9695089680e+01    0.1962941    0.1217482 -44.41 0.0004284898    1.560    0.359
        46  -8.8562    160.1408    143.4249   6.8153022724e+01   2.1037274402e+01    0.3195041    0.2393738  46.84 0.0009479388    1.421    0.296
        47  -9.9553     70.1932    145.4060   9.3235848503e+01   3.6806086699e+01    0.4308921    0.3393926  62.79  0.001710588    1.395    0.283
        48 -10.3904     66.3955    144.1716   9.4189774485e+01   3.7665771814e+01    0.5865044    0.3831165 -79.94  0.001897888    1.777    0.437
        49  -9.0781    223.6062    145.5607   5.6275060917e+01   9.0035102328e+00    0.2467853    0.2098219 -88.76 0.0007328867    1.720    0.418
        50 -10.1850    210.1808    137.7656   5.6879860693e+01   1.2670707308e+01    0.3106443    0.2909442  88.99 0.0007238697    1.324    0.245
        51  -9.4191    217.2468    144.8275   5.7179597306e+01   1.0192459638e+01    0.3352912    0.2976143 -28.52  0.001202755    1.051    0.048
        52  -8.8090    214.7359    140.5499   5.6698289347e+01   1.1375081125e+01    0.2235306    0.2148767 -54.12 0.0006153174    1.208    0.172
        53  -9.5950    192.4326    143.8677   6.1460391254e+01   1.4766553156e+01    0.3354806    0.2370852  34.08 0.0009992686    1.539    0.350
        54  -9.0540    145.8541    141.7548   7.1144480141e+01   2.4216425264e+01    0.2785403    0.2005773 -73.19 0.0005602622    1.969    0.492
        55  -8.9080    173.7847    138.3397   6.3988482970e+01   1.9405985203e+01    0.2544467    0.1903493 -50.16 0.0005817313    1.361    0.265
        56  -9.7897    191.4571    137.8109   6.0303122500e+01   1.6101172121e+01    0.2754647    0.2326989  57.87 0.0007301851    1.401    0.286
        57  -9.2644    141.7872    134.4794   7.0446388307e+01   2.6637780640e+01    0.4777047    0.2103583 -61.41  0.001248775    4.921    0.797
        58 -10.0538    223.8789    128.9920   5.2741537344e+01   1.1796539291e+01    0.3141865    0.2356331  47.82  0.001146596    1.566    0.362
        59  -8.9003    160.3708    128.3841   6.4575157814e+01   2.4146990733e+01    0.2756287    0.2545189 -69.11  0.001469473    1.186    0.157
        60  -9.3086    136.0243    127.3382   7.0175811286e+01   2.9400606698e+01     0.501326    0.1825889 -53.00  0.001504268    3.332    0.700
        61  -9.4220    201.9650    125.9495   5.5699426968e+01   1.6319755700e+01    0.2133956    0.1888987 -38.61 0.0004688723    1.032    0.031
        62  -9.8127    172.8600    123.7457   6.0754122331e+01   2.2517393709e+01     0.415853    0.3148091 -67.97  0.001987155    1.658    0.397
        63  -9.7883    169.2392    117.8601   6.0079064222e+01   2.4440410359e+01     0.346041     0.272695 -82.60  0.001072439    1.680    0.405
        64 -12.5663    202.8611     79.1333   4.4623305270e+01   2.4228160678e+01     1.469939     1.028871 -61.57  0.007807193    1.468    0.319
        65  -8.2896    205.6107    122.2700   5.4239334796e+01   1.6292969848e+01    0.2207644    0.1735691  68.41 0.0005263031    1.604    0.376
        66 -10.7432    230.2754    118.7278   4.9593329891e+01   1.2412572732e+01    0.4918783    0.2693477 -44.37  0.002474629    1.586    0.369
        67 -10.0179    226.5056    114.4709   4.9227243499e+01   1.3785767766e+01    0.3854724    0.1969558 -54.48  0.001702511    2.310    0.567
        68  -8.5203     63.0555    118.0677   9.0081796798e+01   4.4876626040e+01     0.213627    0.2037346  83.49            0    1.113    0.101
        69  -9.5281    201.1109    116.0398   5.3587593306e+01   1.8280595409e+01    0.3339456    0.1985882  46.23  0.001575102    1.870    0.465
        70  -9.9306    134.8335    108.6260   6.5677222605e+01   3.3743402028e+01    0.9734864    0.1708211 -43.87   0.00221866    5.601    0.821
        71  -9.0573    176.9097    110.6920   5.6752469465e+01   2.4216296801e+01    0.3393271    0.2310266 -27.18  0.001186699    1.609    0.378
        72 -10.3890    205.5374    109.9327   5.1442239109e+01   1.8497952396e+01     0.410258    0.3449717  18.65  0.002042731    1.443    0.307
        73  -8.9717    225.2786    108.7942   4.8173244235e+01   1.4950954205e+01    0.2892194    0.1986433 -49.25  0.001003643    1.335    0.251
        74 -10.2418    122.4610    102.9277   6.7395420926e+01   3.7631843661e+01    0.5364085    0.4027943 -89.84  0.001375593    1.935    0.483
        75 -10.0055    120.2838     97.2343   6.6392451593e+01   3.9315762177e+01    0.4341815    0.2594073 -63.26  0.001300314    2.400    0.583
        76  -9.1073    151.3917    102.7792   6.0117202554e+01   3.1314358808e+01    0.2833475    0.2705276  30.43 0.0007277349    1.090    0.083
        77 -10.2393     81.7757    100.7196   7.9309198141e+01   4.6172827345e+01    0.2540703    0.2471919 -60.64 0.0002416536    1.082    0.076
        78  -9.2735    203.8464     97.1462   4.8741341474e+01   2.1048730601e+01    0.3284602    0.1859054 -50.27  0.000767388    1.718    0.418
        79  -9.3679    208.6639     95.7827   4.7685912443e+01   2.0306272371e+01    0.3350819     0.200127 -51.55  0.001373215    1.628    0.386
        80  -9.8814    145.4842     93.3176   5.8898526286e+01   3.4504037581e+01    0.3392719    0.2871916 -52.66 0.0006654893    1.190    0.160
        81  -9.6844    113.9667     92.6731   6.6849450391e+01   4.1636612126e+01    0.3075336    0.3050856  15.28 0.0007833262    1.019    0.019
        82 -13.1089    239.5337     65.7505   3.7188689675e+01   1.8939039046e+01    0.9210224    0.6322252  77.35  0.005639722    1.647    0.393
        83  -9.5819    136.8100     98.8457   6.2514446937e+01   3.5351008309e+01    0.3379587    0.2664557  59.85  0.001367751    1.367    0.268
        84 -10.8526    164.1742     97.9290   5.6066285283e+01   2.9412945081e+01     0.924584    0.3494286  47.07  0.003246628    2.767    0.639
        85 -10.8848    162.0145     88.8369   5.4090953393e+01   3.1589560447e+01    0.3375658    0.2667485 -30.49 0.0007663487    1.318    0.241
        86  -9.0184    208.9407     85.8522   4.5338823468e+01   2.1886469978e+01    0.3194453    0.2304388  85.44 0.0008943022    1.690    0.408
        87 -10.8417    140.2043     79.3695   5.6138333311e+01   3.8345445225e+01    0.4472574    0.3149515  44.22  0.001435757    1.454    0.312
        88  -8.1953     20.6811     83.1637   9.8671266731e+01   5.8358039125e+01    0.2959234    0.1348397 -14.96  0.001095709    3.416    0.707
        89  -9.1857    149.8359     82.2881   5.4830535113e+01   3.5579224705e+01    0.3715822    0.1629134  37.62  0.001208967    3.330    0.700
        90 -10.8285    131.6290     81.2671   5.8745224778e+01   3.9975371566e+01    0.4649932     0.375684 -44.00 0.0008469009    1.243    0.196
        91  -7.5704     53.5177     81.5372   8.4380593267e+01   5.5125260193e+01    0.1426387    0.1335235 -27.70 0.0001615332    1.042    0.040
        92  -9.1090    169.8464    234.4570   8.3159926034e+01   1.8653735068e+00    0.2192588    0.1887821 -11.02 0.0005664633    1.144    0.126
        93 -11.1859    152.1665     71.6662   5.1314302624e+01   3.6894352767e+01    0.6502103    0.3147442  57.77  0.002622707    2.096    0.523
        94 -10.5563    153.7317     57.9649   4.7050158461e+01   3.8721377818e+01    0.3909506    0.3044131 -31.02  0.002065056    1.368    0.269
        95  -8.3530    170.4728    229.9216   8.2330779479e+01   2.5244053806e+00        0.191    0.1480968  18.88 0.0004802908    1.108    0.097
        96  -7.4048    198.6851    227.7110   7.6330275091e+01  -9.8800313200e-01    0.1279028   0.08202362  -2.20 0.0003102263    1.589    0.371
        97  -7.9892    115.8625     57.8630   5.5344087140e+01   4.7736711482e+01    0.1926758    0.1689446  87.90  0.001029198    1.294    0.227
        98  -7.7477     72.5970     58.4665   6.9169368197e+01   5.6808978715e+01    0.1413415    0.1303618  -1.40 7.936959e-05    1.019    0.018
        99  -9.3336    178.8211     51.8944   4.1257690218e+01   3.3689597871e+01    0.4177865    0.2455882 -11.77  0.001722159    2.964    0.663
       100  -9.5227    133.8478     52.2241   4.9265303354e+01   4.4358881783e+01    0.3879462    0.2129975 -44.07  0.001709245    1.905    0.475
       101  -8.4955      2.6628     53.3296   1.0007227110e+02   6.6432921436e+01    0.1171328   0.09377027  61.78 0.0007051988    1.732    0.423
       102  -7.8334    106.5808     52.5711   5.6005418023e+01   5.0715463445e+01    0.1409404    0.1352055  46.76 0.0008004021    1.039    0.038
       103  -9.2025    116.2055     45.7552   5.1141390507e+01   4.9509382433e+01    0.2264544    0.2178472  68.75 0.0003703463    1.054    0.051
       104  -8.4650    105.6876     46.0483   5.3932074791e+01   5.1913805375e+01    0.1956308     0.176214 -26.66 0.0006171998    1.173    0.148
       105 -11.6914    134.3026     40.1280   4.5312475818e+01   4.5945166155e+01    0.6280552    0.4746446 -63.83  0.003324618    1.484    0.326
       106  -8.7811     26.5531     42.0733   8.3562930465e+01   6.6807872933e+01    0.1944517    0.1135159 -44.77  0.001022062    1.579    0.367
       107  -8.7694    204.3472     39.7847   3.5077914359e+01   2.9580707843e+01    0.2243973    0.1340401 -36.24 0.0007165958    1.610    0.379
       108 -10.0970    137.7490    222.6974   8.8283298561e+01   8.5731059136e+00    0.2413114    0.2140439 -19.10 0.0004547014    1.177    0.150
       109  -8.5268    224.8864    218.7309   6.9967768283e+01  -3.0164180155e+00    0.2413045    0.1775761  49.59  0.001218821    2.296    0.564
       110  -9.5103    139.2444     33.4127   4.2258665993e+01   4.5595669362e+01    0.2312315    0.1823907  59.23 0.0006256404    1.179    0.152
       111  -9.1169    200.2769     31.6062   3.3568702752e+01   3.1485811124e+01    0.2050483    0.1847117 -72.47 0.0002563892    1.098    0.089
       112  -7.7209     86.7006     31.7249   5.3892131307e+01   5.8151329766e+01    0.1379584   0.09583843  25.98 0.0002232909    1.534    0.348
       113  -8.0775    111.2112     30.6115   4.6976579013e+01   5.2689530965e+01    0.2027569    0.1103414  49.10 0.0005914091    1.669    0.401
       114  -8.4576     89.2359    216.3420   9.8677307389e+01   1.6969828335e+01    0.1946728    0.1781854 -46.92 0.0007892343    1.227    0.185
       115  -8.2338    166.3074     26.3898   3.6101349940e+01   3.9891027274e+01    0.2499209    0.1657044 -10.67  0.001271132    2.118    0.528
       116  -9.3660    179.4457     23.7936   3.3842956360e+01   3.7101442316e+01    0.4117791    0.2792267  87.21  0.001870096    1.392    0.282
       117  -7.9151    101.6943     25.7037   4.7418585255e+01   5.5497470647e+01    0.1395193   0.09407672  31.92  0.000259805    1.585    0.369
       118  -9.1350     36.0301    214.5113   1.1107039832e+02   2.4038185247e+01    0.1923011    0.1158742  30.96  0.001042481    1.624    0.384
       119  -9.3656    187.8272    209.2028   7.5336907387e+01   3.5227138426e+00    0.3403506     0.261493  68.78   0.00151789    2.505    0.601
       120  -8.1731    224.2226     19.7937   2.8850220688e+01   2.7801969371e+01    0.1367999    0.1332878 -31.64 0.0005325761    1.395    0.283
       121  -9.8694    129.9247     19.5450   3.9420754363e+01   4.9416870093e+01    0.2779827    0.1907278  28.35 0.0009362022    1.806    0.446
       122  -8.9907    171.6479     18.0268   3.3202633766e+01   3.9544511744e+01    0.2103666     0.165508  70.02 0.0004662286    1.201    0.167
       123  -8.7004    189.3495     16.3550   3.0967925277e+01   3.5649188432e+01    0.2185328    0.1816479  29.93 0.0006891431    1.665    0.399
       124  -8.6824    160.9354    209.0747   8.0970976223e+01   7.6022448989e+00    0.1980519    0.1721833   5.62 0.0003083425    1.026    0.025
       125  -8.0608    161.7914     16.0243   3.3796235696e+01   4.2080071119e+01    0.1903715    0.1507314 -74.06  0.000333309    1.185    0.156
       126  -7.8769    237.7452    203.9909   6.5174976571e+01  -2.4573866333e+00    0.1712302    0.1357599  76.31 0.0008836705    3.508    0.715
       127  -8.6142     92.7931     12.5980   4.4433912453e+01   5.8913381400e+01    0.1811386    0.1526523  37.19 0.0008694567    1.106    0.096
       128  -7.6947    134.6216    203.4971   8.6005193659e+01   1.2829508135e+01    0.1357934    0.1284607  23.20 9.818682e-05    1.065    0.061
       129  -9.6518     21.6961    200.5313   1.1337990607e+02   2.8688656637e+01    0.2397586    0.1990495 -79.56 0.0002561618    1.183    0.154
       130  -9.3271    192.6620    194.5627   7.1722774445e+01   5.3377305391e+00    0.7572379    0.3772847 -60.36  0.002205183    6.545    0.847
       131  -8.0747    225.3176    191.6565   6.5065216607e+01   1.0626203748e+00    0.1133903    0.1006175 -59.98 0.0007048929    1.718    0.418
       132  -8.8318     24.5985    185.0388   1.1144712344e+02   3.2094390268e+01    0.2050946    0.1848468  25.07 0.0004012021    1.284    0.221
       133  -8.4325    242.1646    183.5649   6.0732288650e+01   4.9406350383e-02    0.1575899    0.1447969  20.35 0.0004910108    1.398    0.285
       134 -11.4946    249.0492     60.2832   3.5153115630e+01   1.7956081272e+01    0.3185725    0.1977774 -45.94 0.0005142541    1.276    0.216
       135  -7.9017    180.4770    182.1139   7.1847437835e+01   9.5515797815e+00    0.1960569    0.1306154 -39.81 0.0003443252    1.453    0.312
       136  -9.2891    212.1311    176.9619   6.4624028491e+01   5.4156716700e+00     0.413892    0.2181164  21.01  0.001828783    2.518    0.603
       137 -11.2600    227.9982    173.0471   6.1068641420e+01   3.6920780158e+00    0.7771482    0.4205108  -8.23  0.003193686    3.166    0.684
