#   1 NUMBER                 Running object number                                     
#   2 MAG_AUTO               Kron-like elliptical aperture magnitude                    [mag]
#   3 X_IMAGE                Object position along x                                    [pixel]
#   4 Y_IMAGE                Object position along y                                    [pixel]
#   5 X_WORLD                Barycenter position along world x axis                     [deg]
#   6 Y_WORLD                Barycenter position along world y axis                     [deg]
#   7 A_WORLD                Profile RMS along major axis (world units)                 [deg]
#   8 B_WORLD                Profile RMS along minor axis (world units)                 [deg]
#   9 THETA_WORLD            Position angle (CCW/world-x)                               [deg]
#  10 FWHM_WORLD             FWHM assuming a gaussian core                              [deg]
#  11 ELONGATION             A_IMAGE/B_IMAGE                                           
#  12 ELLIPTICITY            1 - B_IMAGE/A_IMAGE                                       
         1 -11.9244     30.7883     14.6446   6.0034420693e+01   7.0253834073e+01    0.3684388    0.1771048 -25.38  0.001830229    2.402    0.584
         2 -12.2805     10.8123     15.2705   7.2586280575e+01   7.2827102828e+01      0.33504    0.2708198  26.42   0.00228451    1.435    0.303
         3 -10.9209    214.6031     10.5909   2.0682802871e+01   3.1893508275e+01    0.1954336    0.1363754 -69.60 0.0002385036    1.119    0.106
         4 -10.3648     54.6494     11.0805   4.7323829090e+01   6.6421321826e+01    0.2230534    0.1540773  52.99  0.001325095    1.366    0.268
         5 -10.9951     84.4610      8.7666   3.7095806946e+01   6.0343351462e+01    0.2800117    0.1863207 -44.78  0.001576171    1.885    0.469
         6 -13.6356     19.4292      5.8625   6.2028923344e+01   7.3033042816e+01     1.148903    0.4264611  38.62  0.005454079    2.389    0.581
         7 -10.6739     88.3001      4.0234   3.4402631336e+01   5.9878109211e+01    0.1725094    0.1482397  53.57 0.0008380123    1.076    0.071
         8 -12.1251    200.1494      4.1246   2.0406508583e+01   3.5300629668e+01    0.4320717    0.1504212  55.78  0.002033945    3.567    0.720
         9 -11.1688    189.6988      1.9054   2.0696384782e+01   3.7588108496e+01    0.2503435    0.1222728  63.39  0.001467797    1.989    0.497
        10 -10.4343    161.3209      2.6813   2.3241141797e+01   4.3476989442e+01    0.1229935   0.07163393 -69.47 0.0003755775    1.666    0.400
        11  -9.4827    101.3468      2.3240   3.1139458115e+01   5.7054327069e+01    0.1319606   0.07464517  43.23 0.0007049823    1.743    0.426
        12 -13.1912      7.4711    205.5855   1.0962332289e+02   2.7948754007e+01     1.106976    0.7284737 -64.83  0.004773349    1.516    0.340
        13 -12.7596     32.8342    206.4633   1.0304066748e+02   2.5536383184e+01    0.4693459    0.4414597 -64.37 0.0006216764    1.125    0.111
        14 -12.8569     65.4184    243.8276   9.8135870323e+01   1.3532036399e+01    0.9530534    0.6023943  61.91  0.002756506    1.839    0.456
        15 -14.3883     57.4123    230.0028   9.8806427165e+01   1.7432881128e+01     2.619205    0.9373277  31.13    0.0072939    2.304    0.566
        16 -14.6086     20.5075    212.8069   1.0676707687e+02   2.5146147905e+01     1.880199    0.9609466 -89.90  0.004760936    2.117    0.528
        17 -16.7479     70.5404    195.5286   9.1364858739e+01   2.4025028116e+01     4.370634     3.552346  24.87   0.02327326    1.178    0.151
        18  -9.9932    209.9848    211.4892   6.0377813473e+01   1.4878052013e+00    0.1528222    0.1052744  49.96 0.0008102522    2.528    0.604
        19 -11.6085    153.0934    210.4167   7.2098214482e+01   9.0864338931e+00    0.3277088    0.2423511  -2.88  0.001757541    1.324    0.245
        20 -14.9186     15.0030    237.4448   1.0964460524e+02   2.0021613117e+01    0.8559044    0.6265109 -16.68  0.003952397    1.839    0.456
        21 -10.3549    224.5078    206.4903   5.6917623191e+01   6.3094942269e-01    0.1227851   0.09576806 -19.65 0.0008102873    1.037    0.036
        22 -11.1707     56.4244    249.2174   1.0076393718e+02   1.3411604710e+01    0.3408398    0.2340852 -15.38  0.001689012    1.939    0.484
        23 -11.9007    148.5331    202.8678   7.1880404688e+01   1.1267167624e+01    0.3763934    0.3008314  70.61  0.001910309    1.994    0.499
        24 -13.1138      4.2517    221.0351   1.1128803807e+02   2.4573598194e+01    0.5030828    0.3577196 -39.49  0.001787624    1.752    0.429
        25 -10.1877    212.2360    199.9820   5.7979556287e+01   3.1561265320e+00    0.1676793   0.09049683 -39.60 0.0006779099    1.611    0.379
        26 -10.1923    142.4985    211.5244   7.4782944501e+01   1.0350254947e+01    0.1433197    0.1235491  -0.77 0.0008101226    1.018    0.017
        27  -9.9901    245.0074    197.7243   5.2065136544e+01  -2.3993243777e-01    0.1581601    0.1232438 -15.40 0.0004050615    1.099    0.090
        28 -10.6685    134.8053    198.2035   7.4417282463e+01   1.4275674406e+01    0.2125415    0.1974874  31.32   0.00120761    1.188    0.158
        29 -10.3187    214.2084    233.2177   6.3173014862e+01  -2.4785886413e+00    0.1470872    0.1272151  -9.76 0.0003403376    1.309    0.236
        30 -10.8903    124.5203    195.6176   7.6586275730e+01   1.6385601910e+01    0.4313082    0.2679203 -43.86  0.001997567    1.617    0.382
        31 -11.5333    189.3773    194.6894   6.1427058895e+01   7.0652028836e+00    0.2988555    0.2314718 -31.81   0.00173535    1.160    0.138
        32  -9.8041    114.1510    233.1861   8.4946019191e+01   9.7566676393e+00    0.1781556    0.1541241  48.24 0.0004296688    1.328    0.247
        33 -11.2392    110.7978    187.8614   7.8897052037e+01   2.0241232283e+01     0.331163    0.2148242 -48.92 0.0006663302    1.562    0.360
        34 -12.3806      7.3487    186.1440   1.0837609553e+02   3.2754431201e+01    0.6505359    0.3496555  52.97  0.003134976    1.856    0.461
        35 -11.1659     11.5371    183.3348   1.0699508533e+02   3.3160885744e+01    0.3654351    0.2198427  27.19  0.001624785    1.664    0.399
        36 -14.0512     52.1016    195.2685   9.6581413777e+01   2.6298798696e+01     1.238268    0.8961937  83.07  0.006240568    1.572    0.364
        37 -10.4908    248.1949    185.9485   4.9588521007e+01   1.2371100135e+00    0.1836927    0.1512022  -6.80 0.0006410232    1.210    0.174
        38 -11.5928    220.1448    230.9400   6.1727012080e+01  -2.7477119742e+00    0.2372285    0.1888793 -14.99 0.0004876914    1.144    0.126
        39 -10.2584      1.9674    182.9395   1.0964667410e+02   3.3933520597e+01    0.1911368     0.173558  76.56 0.0003699401    1.022    0.022
        40 -11.0163     53.6437    246.3113   1.0118092543e+02   1.4317595348e+01    0.4406136    0.1810661  40.32  0.002009336    2.036    0.509
        41 -10.1635     24.2105    179.7609   1.0302391781e+02   3.3061227287e+01    0.3056359    0.1979722 -58.98  0.001136915    1.490    0.329
        42 -10.5229     21.9100    173.6449   1.0311764094e+02   3.4849275908e+01    0.4770897    0.2371768  85.59   0.00193303    2.428    0.588
        43 -12.9189     46.6099    172.1834   9.5375783789e+01   3.2860743549e+01     1.337479    0.3366066 -49.11  0.003922005    3.995    0.750
        44 -12.1894     96.1743    177.0270   8.1126863530e+01   2.5071232899e+01    0.5421017      0.33648 -49.25  0.001540156    1.613    0.380
        45 -12.3765     91.9841    169.2121   8.0974949205e+01   2.7653007710e+01     0.619832    0.4073151  66.80  0.002509449    2.272    0.560
        46 -10.8615     85.9099    229.1578   9.1486210268e+01   1.4227475562e+01    0.5674273    0.2108729  43.81   0.00211853    2.812    0.644
        47  -9.8847     38.3796    176.6764   9.8456942706e+01   3.2543164377e+01     0.197797    0.1241464 -58.36 0.0006473075    1.537    0.349
        48 -10.0087    112.9448    227.8389   8.4512023371e+01   1.1016677451e+01    0.2199309    0.1735133  -4.59 0.0008622187    1.270    0.212
        49 -12.3688    106.1340    170.4233   7.7070605011e+01   2.5151043073e+01     0.482281    0.4126434  82.97    0.0024131    1.471    0.320
        50  -9.9041      2.8784    170.2610   1.0849529846e+02   3.7115499173e+01     0.252035    0.1303006 -50.88 0.0008031135    1.919    0.479
        51 -10.9943    152.4968    168.9934   6.4619484299e+01   1.7819564207e+01     0.338754    0.1441438 -53.28  0.001222598    2.678    0.627
        52 -11.9315    131.8018    168.8282   6.9743245948e+01   2.1316861828e+01    0.4336923    0.2266547  42.25   0.00174812    2.024    0.506
        53  -9.7668    230.1983    228.5977   5.9579106232e+01  -3.4158948967e+00    0.1502095   0.09201235   5.30 0.0002658199    1.555    0.357
        54 -11.2367    215.1268    226.4870   6.1920388071e+01  -1.5255595672e+00    0.1816471    0.1549449 -24.33 0.0008810518    1.327    0.246
        55 -11.2284     27.4661    166.6060   1.0067612951e+02   3.6228128938e+01    0.2922903    0.1781472  48.55  0.001070741    1.724    0.420
        56  -9.9241     10.4534    167.6103   1.0602199397e+02   3.7303745664e+01    0.2847359    0.1270423  19.82  0.000960636    2.327    0.570
        57 -10.5710    205.4838    164.9943   5.2801574037e+01   1.0235624982e+01    0.1923438    0.1694939   5.97 0.0004734827    1.183    0.155
        58 -11.8205     64.3721    164.6288   8.8695992029e+01   3.2733913384e+01    0.3059612    0.2486867  19.24 0.0008204209    1.237    0.192
        59 -10.5532     26.8504    172.7383   1.0152874905e+02   3.4664344726e+01    0.2771848     0.180168  44.60  0.001360024    1.553    0.356
        60 -11.1035    125.3190    221.9812   8.0607688868e+01   1.0574441307e+01     0.284539    0.2522268 -68.09 0.0007134882    1.434    0.302
        61 -14.6618      8.8443    227.5594   1.1054256157e+02   2.2727932183e+01     1.109349    0.9209119   0.38  0.007182599    1.446    0.309
        62 -10.5516     91.1030    236.4093   9.1042947405e+01   1.2028792161e+01    0.2532815    0.2090299 -51.65  0.001492586    1.355    0.262
        63 -11.1903     28.1369    160.4304   9.9755276848e+01   3.7810606547e+01     0.258504    0.2464952  56.85 0.0004018708    1.074    0.069
        64 -10.0516     24.8664    144.9452   9.8927077467e+01   4.2234616532e+01     0.226952    0.1728796 -41.44 0.0003935732    1.292    0.226
        65 -13.1475     21.8090    153.4473   1.0100141990e+02   4.0207169475e+01    0.9678561    0.6748065 -58.52  0.003846779    1.328    0.247
        66 -10.1507    123.8363    187.9765   7.5430823923e+01   1.8217941057e+01    0.2281094     0.189182 -12.98 0.0004926326    1.206    0.171
        67 -11.0510    223.3156    220.3482   5.9442270341e+01  -1.4412997891e+00    0.2271659    0.1868891 -31.56  0.000801698    1.352    0.261
        68 -11.5089    113.3322    157.2494   7.2436320052e+01   2.7160541249e+01     0.390589    0.2766526  88.56  0.001587331    2.341    0.573
        69 -10.9652    131.0073    155.8947   6.7312524330e+01   2.4415344261e+01    0.2315655      0.21178 -12.74 0.0005013369    1.052    0.050
        70 -10.7906    126.9395    156.3145   6.8482293833e+01   2.5031537800e+01    0.2150196    0.1924216  19.09 0.0003682042    1.096    0.088
        71  -9.3826    159.6866    221.7189   7.2458229780e+01   5.9959139573e+00    0.1390988   0.09209785  -8.78  0.000243728    1.571    0.363
        72 -10.9415    212.6728    154.1699   4.9473775101e+01   1.1115012471e+01    0.1706187    0.1618134 -23.24  0.001006795    1.162    0.139
        73  -9.7054     50.6187    154.2104   9.1514866001e+01   3.7182941640e+01    0.2116948     0.128564 -52.72 0.0004826501    1.572    0.364
        74 -10.1482    173.5237    220.0408   6.9139950107e+01   4.5036499541e+00    0.1973519    0.1216196 -41.79 0.0009654038    1.600    0.375
        75  -9.5648    232.0303    151.9899   4.5990135158e+01   8.7233410195e+00    0.1484413     0.115597 -35.15            0    1.033    0.031
        76 -10.8380    147.4213    150.7745   6.2067480483e+01   2.2641823957e+01    0.2946511    0.1429942 -50.81  0.001145349    2.126    0.530
        77 -11.6024    128.8960    151.2278   6.6881693421e+01   2.5860919608e+01    0.4840636    0.2164131  32.13  0.001757027    2.366    0.577
        78 -12.4518    108.9558    148.2968   7.1827225559e+01   3.0073906454e+01    0.5215996    0.3653062 -42.35   0.00160327    1.424    0.298
        79 -13.4685    103.9177    142.2930   7.2025297160e+01   3.2407567029e+01     1.103839    0.5055169  34.35  0.003623453    2.155    0.536
        80 -11.5725    171.6662    150.6661   5.6535941882e+01   1.8387099019e+01    0.3394585    0.2342399  61.02  0.001589227    2.080    0.519
        81 -10.7771     92.8826    219.3247   8.8459470897e+01   1.5505331018e+01    0.2685947    0.2048458 -49.33  0.001441701    1.402    0.287
        82 -10.1071     14.3259    156.4904   1.0376927856e+02   3.9962045091e+01    0.2327021    0.1556069 -80.93 0.0005561447    1.442    0.307
        83 -14.2798    154.5067    129.7507   5.5738296117e+01   2.5794374389e+01     1.282329    0.7070671  41.75   0.00556002    1.885    0.469
        84 -12.4564    136.9732    130.9749   6.0239955945e+01   2.8908469930e+01    0.7127392    0.2813421  41.85  0.002519868    2.567    0.610
        85 -14.6385     95.0278    194.3828   8.4306834056e+01   2.1004883761e+01     1.566705     1.171989 -88.66  0.007484847    1.796    0.443
        86  -9.8437     10.8152    140.8240   1.0327522982e+02   4.4366094667e+01    0.1951201    0.1546181  65.53 0.0009660601    1.361    0.265
        87  -9.5334     36.6443    138.6914   9.3898099963e+01   4.2840670579e+01    0.1612887    0.1017409 -31.50 0.0007042626    1.726    0.421
        88 -13.9086    142.3140    133.5995   5.9509544513e+01   2.7315525136e+01     1.071108    0.5572851 -30.67  0.003987458    2.498    0.600
        89 -10.1667    184.4651    213.5309   6.5738508357e+01   4.2769204454e+00     0.133908    0.1089445 -10.05 -1.319281e-05    1.007    0.007
        90  -9.4540     11.5863    133.1978   1.0212157990e+02   4.6344453774e+01    0.2005054    0.1110668 -58.00  0.000566123    1.573    0.364
        91 -10.5657    103.8605    132.1310   6.9757301917e+01   3.4871915295e+01    0.2242373    0.1809963 -18.85 0.0006689471    1.353    0.261
        92 -10.1323     30.5089    129.7923   9.4722990225e+01   4.5797374693e+01    0.2830893    0.1648263  55.65  0.001189224    2.194    0.544
        93  -9.4974     15.3056    127.3497   1.0001669895e+02   4.7651819849e+01    0.1569802    0.0893359 -40.57 0.0007041991    1.703    0.413
        94  -9.7084     67.7518    122.7244   7.9593763351e+01   4.3190187438e+01    0.2106135    0.1815448  65.57  0.001049237    1.382    0.276
        95  -9.4587    205.6717    121.6983   4.4173357710e+01   1.7963315071e+01    0.1265142    0.0986743  -7.51  0.000703226    1.644    0.392
        96  -9.8933    189.3753    121.2232   4.6809994328e+01   2.0913896311e+01     0.191348    0.1152674 -50.38  0.000363488    1.607    0.378
        97 -10.2220     43.0599    120.9573   8.8417902453e+01   4.6858838145e+01     0.254281    0.1643869 -27.65  0.001065357    1.684    0.406
        98 -11.2067    100.8614    119.5798   6.7682127727e+01   3.8386229978e+01    0.4661289    0.2574553  44.50  0.001867641    1.876    0.467
        99 -10.3171     35.9858    120.4976   9.1054170977e+01   4.7728312629e+01    0.2175239    0.1446692  15.64   0.00102162    1.562    0.360
       100 -12.9587    154.6078    117.8618   5.2958694335e+01   2.8189030505e+01    0.5784776     0.306895  44.98  0.002474464    1.951    0.487
       101 -10.4460     31.0815    118.6658   9.2629800467e+01   4.8680640188e+01    0.3077221    0.2018148 -55.38  0.001479264    1.392    0.282
       102 -11.4113     48.3883    116.0936   8.5378091002e+01   4.7494463790e+01    0.4275868    0.3281105 -21.47  0.001337039    1.345    0.257
       103  -9.8559     23.7334    116.7775   9.5191461093e+01   4.9811781379e+01    0.3429124    0.1241848 -69.69  0.001203555    2.806    0.644
       104 -11.3819    192.0151    111.9759   4.4366101196e+01   2.2090859645e+01    0.2039425     0.184565 -45.52  0.000398796    1.015    0.015
       105 -12.9541    140.9241    110.6889   5.4386659967e+01   3.2393128399e+01    0.8873913    0.5102163  16.51  0.002866467    3.966    0.748
       106 -10.5163     30.2037    113.1930   9.1981297447e+01   5.0185244538e+01     0.197301    0.1717909  60.93  0.000618291    1.341    0.254
       107 -16.1595     25.5908    237.0453   1.0715245857e+02   1.9148772285e+01     1.822732     1.561303  16.82   0.01119791    1.250    0.200
       108  -9.9737    242.4497    111.4538   3.7090646089e+01   1.3757624859e+01    0.1176522   0.09349956 -45.30  0.000122421    1.009    0.009
       109 -12.3070     56.1467     92.5829   7.6642904852e+01   5.2222313170e+01     1.036596    0.3813649  23.45    0.0033711    3.239    0.691
       110 -12.1231     53.5218    110.8687   8.2235522841e+01   4.8168335339e+01    0.4990598    0.3455387 -39.01  0.002032396    1.412    0.292
       111 -12.2065     57.1014     99.8100   7.8153198267e+01   5.0385443438e+01    0.7096045     0.372101 -47.96  0.002974182    1.835    0.455
       112 -12.2594     50.2984    107.7152   8.2779381327e+01   4.9373747123e+01    0.7001016     0.327983 -27.52  0.002310995    3.263    0.694
       113 -12.5807     52.0146    101.9285   8.0719569071e+01   5.0575173467e+01    0.6662933    0.2520348 -57.01  0.002361489    2.641    0.621
       114  -9.9322    210.5489    110.5020   4.1139950382e+01   1.9038169239e+01    0.1276114    0.1097909 -45.82 0.0002092095    1.015    0.015
       115 -13.5713    150.4004    105.7706   5.0986553137e+01   3.1417064824e+01    0.8073716    0.5275151 -64.59  0.003590703    1.998    0.499
       116  -9.9161     91.9846    108.2357   6.7647971854e+01   4.2646892459e+01     0.210492    0.1962651  15.28 0.0002161576    1.032    0.031
       117 -10.1679    116.9645    103.5144   5.8770868157e+01   3.8794132428e+01    0.2350273    0.1467446  41.76 0.0009580986    1.574    0.365
       118  -9.9016     79.3646    101.2238   7.0115655630e+01   4.6514116844e+01    0.2100912    0.1466063 -59.52 0.0009446786    1.649    0.394
       119 -10.2731    237.9139     98.8949   3.5295947920e+01   1.6371187233e+01    0.1739975    0.1378155 -54.73 0.0003688109    1.083    0.077
       120 -10.6517     20.4398     97.9729   9.3158760620e+01   5.4889249572e+01    0.3734597    0.1978409 -42.85  0.001645457    1.700    0.412
       121  -9.6805    117.3392     95.6611   5.6558614421e+01   4.0326485628e+01    0.1540459    0.1203048  87.74 0.0007050543    1.763    0.433
       122 -12.8814     45.8136     87.2691   7.9548692930e+01   5.4865508968e+01    0.5227228    0.3712592 -47.39  0.002636182    1.369    0.270
       123 -13.2080     48.8421     80.7212   7.6407001441e+01   5.5941553255e+01    0.8229052    0.7159194  49.06  0.004555224    1.382    0.276
       124  -9.1204    232.2840     89.3001   3.4132301997e+01   1.8718181172e+01     0.105241   0.08830519 -16.79 0.0002581339    1.551    0.355
       125 -10.7596    160.2443    107.8552   4.9377154432e+01   2.9006821146e+01     0.262381    0.1927894 -22.97  0.001110004    1.619    0.382
       126  -9.3902    208.2800     86.7049   3.6565204606e+01   2.3288422900e+01    0.1242554   0.08535373 -66.37 0.0001744362    1.534    0.348
       127  -9.5034    211.5954     81.5383   3.5072803234e+01   2.3473897664e+01    0.1223164    0.1031814 -56.19   0.00012266    1.018    0.017
       128 -10.9214     21.9104     80.7066   8.8749317622e+01   5.8963111825e+01    0.2302144    0.1886588 -55.04 0.0002738817    1.232    0.189
       129  -9.8564    153.1597     81.1810   4.4251187349e+01   3.5297916970e+01    0.1981137    0.1579834 -66.77  0.001067323    1.344    0.256
       130  -9.9106     88.5030     78.5202   6.0380600542e+01   4.9626922051e+01    0.1481595    0.1375046  22.63 0.0008103431    1.002    0.002
       131 -10.0282    183.2145     77.5992   3.8151528454e+01   2.9556847575e+01    0.1823986    0.1169825  48.39 0.0009557941    1.739    0.425
       132 -10.3460    111.9780     76.4955   5.2610946130e+01   4.5121260032e+01    0.2555682    0.2041362  38.26 0.0009112071    1.219    0.179
       133 -10.2684    116.0194     74.4807   5.0929494323e+01   4.4600747111e+01    0.2701285    0.2080899 -13.88  0.001239383    1.625    0.384
       134 -10.2943     75.0517     75.5535   6.4210192967e+01   5.2778979148e+01    0.2105121    0.1938482  -8.93 0.0004029704    1.072    0.067
       135 -13.0538     29.9769     65.9472   8.0820973467e+01   6.1493553646e+01     1.715582    0.6384403  32.39  0.006844166    2.621    0.619
       136 -10.5883     94.7772     72.3022   5.6412060014e+01   4.9528096266e+01     0.235237    0.2024948 -53.18 0.0007281514    1.314    0.239
       137 -11.3286    100.5350     68.0830   5.3331088004e+01   4.9067660765e+01    0.6859056    0.2726531 -32.11  0.002349832    3.394    0.705
       138 -10.2195    199.0135     65.4829   3.3287027808e+01   2.8218918749e+01    0.1716138     0.116192  65.86 0.0004175704    1.527    0.345
       139 -10.1798    177.8934     64.6931   3.5971543558e+01   3.2612018792e+01    0.1992368    0.1710408 -36.51 0.0005398056    1.271    0.213
       140 -10.3389    165.9424     58.4321   3.6283294671e+01   3.6066865621e+01    0.2049385    0.1629404 -59.26  0.001216899    1.216    0.178
       141 -10.2404      3.5772     59.1618   9.2850582863e+01   6.5138401067e+01    0.2354007    0.1484917 -19.66  0.001291594    1.425    0.298
       142 -11.8447     51.9073     56.3382   6.7185465361e+01   6.0438031641e+01    0.7743233    0.4583148  57.74  0.003114827    3.131    0.681
       143  -9.6814    153.6870     57.3233   3.8016143733e+01   3.8918407765e+01    0.1382359   0.09640756 -74.36 0.0002775866    1.658    0.397
       144  -9.9513    167.0141     51.9761   3.4538565056e+01   3.6734583122e+01    0.1852552     0.168008 -87.68            0    1.036    0.035
       145 -10.4850      9.6117     44.2090   8.5070749063e+01   6.7865354029e+01    0.1849197   0.09678879 -42.27 0.0009210663    1.662    0.398
       146  -9.5469    195.3164     43.7203   2.9047190763e+01   3.1886518026e+01    0.1232603    0.0776713 -70.55 0.0002890146    1.575    0.365
       147 -10.8889     51.6727     43.0328   6.2308174467e+01   6.2772242652e+01    0.1921122    0.1666644   1.20  0.001168702    1.085    0.079
       148 -10.0172    122.4577     41.5358   3.9537129491e+01   4.8164423868e+01    0.1338493    0.1192404  68.58 0.0001644784    1.025    0.024
       149  -9.4207    225.3156     39.2741   2.5304679490e+01   2.6723209492e+01   0.09259226    0.0855914  47.39 0.0001982761    1.563    0.360
       150 -11.5839     57.0221     40.9779   5.9176108805e+01   6.2161840243e+01    0.3955556    0.2189269   4.06   0.00145373    3.649    0.726
       151  -9.5765     36.5028     39.5010   6.8176744383e+01   6.5731665860e+01    0.1337632    0.1107047   6.96 -0.0001635152    1.005    0.005
       152 -11.9536     71.6671     35.6549   5.1410517268e+01   6.0121629217e+01    0.3132245    0.2018425  21.96  0.001574806    1.776    0.437
       153 -10.9010    106.9007     31.4769   3.9779018153e+01   5.2965595639e+01    0.3028792    0.2353788  41.20  0.001429634    1.261    0.207
       154 -10.6833     32.0168     30.9740   6.6977312199e+01   6.7753001178e+01    0.3628601    0.1351186 -31.80  0.001420712    3.336    0.700
       155 -10.9592     77.6373     30.9495   4.7579348652e+01   5.9497039853e+01      0.23424     0.173582  64.54 0.0005360519    1.496    0.332
       156 -11.4010     70.9210     30.1020   4.9495431884e+01   6.0999208372e+01    0.2603444    0.1581282  43.25  0.001096837    1.396    0.284
       157 -10.7123     84.6559     24.1044   4.2858027996e+01   5.8790323726e+01     0.291279    0.1780862  69.43  0.001436008    1.877    0.467
       158 -10.1756     20.8324     23.1303   6.9875472455e+01   7.0460758081e+01    0.1819101    0.1243905  -1.97  0.001081662    1.334    0.250
       159  -9.7922    134.9916     22.4873   3.1666932265e+01   4.7494699722e+01    0.1728403   0.09690852 -84.99 0.0004232567    2.268    0.559
       160 -10.3633    238.4236    248.7550   6.1314543750e+01  -7.0784258626e+00    0.1986856   0.09052481 -40.67  0.001134767    2.084    0.520
       161 -10.2577    186.5980    249.1823   7.1001317207e+01  -2.0103895324e+00    0.1742484   0.09520516 -29.43 0.0009521973    1.693    0.409
       162  -9.3663    172.3335    249.3309   7.3967269449e+01  -4.3784388907e-01    0.1354052   0.08035874  -9.62 0.0006981528    1.726    0.421
       163  -9.8727     93.3428    248.7912   9.1914052580e+01   9.2283413872e+00    0.1634943    0.1162707 -43.95 0.0003950342    1.580    0.367
       164  -9.6392     83.9587    245.9993   9.3866463289e+01   1.0917791726e+01    0.1606496    0.1348032  25.88 0.0004697347    1.023    0.023
       165 -10.1374    179.8096    244.4214   7.1672714967e+01  -4.8477317231e-01    0.1839379    0.1571871 -22.44 0.0005632647    1.280    0.219
       166 -10.2777    227.5249    211.5133   5.7242843119e+01  -5.0634812423e-01     0.122091   0.09257507 -18.55 0.0001982113    1.008    0.008
       167  -9.9505     83.1172    241.8570   9.3626382091e+01   1.1869773975e+01    0.2078929    0.1625532  52.90 0.0009711793    1.358    0.264
       168 -11.8295    116.1875    240.2623   8.5394349601e+01   8.0775429125e+00    0.2293938    0.1998241   7.69 0.0002519986    1.040    0.038
       169 -10.1687    109.0124    237.5095   8.6771951318e+01   9.5409997307e+00    0.2831368    0.1407811 -36.71  0.001112723    2.405    0.584
