#   1 NUMBER                 Running object number                                     
#   2 MAG_AUTO               Kron-like elliptical aperture magnitude                    [mag]
#   3 X_IMAGE                Object position along x                                    [pixel]
#   4 Y_IMAGE                Object position along y                                    [pixel]
#   5 X_WORLD                Barycenter position along world x axis                     [deg]
#   6 Y_WORLD                Barycenter position along world y axis                     [deg]
#   7 A_WORLD                Profile RMS along major axis (world units)                 [deg]
#   8 B_WORLD                Profile RMS along minor axis (world units)                 [deg]
#   9 THETA_WORLD            Position angle (CCW/world-x)                               [deg]
#  10 FWHM_WORLD             FWHM assuming a gaussian core                              [deg]
#  11 ELONGATION             A_IMAGE/B_IMAGE                                           
#  12 ELLIPTICITY            1 - B_IMAGE/A_IMAGE                                       
         1 -15.9254    145.7980    135.3490   8.3771431650e+01   2.5822375628e+01     2.957804      2.16714 -81.46  0.008109521    2.031    0.508
         2 -14.3641    118.9959    100.1471   8.1720014076e+01   3.9269344248e+01     2.641717     1.613814 -54.48   0.01095919    1.798    0.444
         3 -15.9738    156.5323     94.3085   7.0264979984e+01   3.2141588445e+01     4.140533      2.91125 -72.97   0.00990106    2.121    0.529
         4 -13.1330      2.3299     78.0595   1.1564837339e+02   5.9207039969e+01     1.593611    0.1350166 -68.93  0.003734787    8.520    0.883
         5 -12.2880    228.3157     13.5641   3.6840590935e+01   2.6880173595e+01    0.6571009    0.4751416 -66.52  0.003965371    1.240    0.194
         6 -12.0321    158.0719     12.3181   4.4474664161e+01   4.4049856514e+01    0.7444979    0.4927104 -62.81  0.003311011    1.779    0.438
         7 -12.1215    147.3923      8.8716   4.5008564876e+01   4.7035728600e+01    0.8752627    0.5068375 -84.30  0.003886977    2.340    0.573
         8 -10.9007    221.4793      2.0448   3.4739366346e+01   2.9634436827e+01    0.5486498    0.1979974  72.59  0.002412817    2.515    0.602
         9 -10.6156     89.1134    228.6671   1.1261466641e+02   1.5632613667e+01    0.3067718     0.185637 -86.99  0.001674334    1.992    0.498
        10 -13.8129    223.3362    246.8174   8.8988692777e+01  -7.7082927576e+00     1.062348    0.5068445  31.30  0.004939665    1.729    0.422
        11 -13.8225     48.9412    140.4967   1.1105376257e+02   4.0589350866e+01     1.371016    0.8580168 -78.35   0.00558522    1.533    0.348
        12 -14.4768     65.2375    119.7016   1.0271250999e+02   4.3743972163e+01     2.379614     1.716965 -38.26   0.01022064    1.458    0.314
        13 -13.2104    159.1278    248.1843   1.0118308104e+02   1.6878442400e+00    0.7340968    0.5206925  47.16  0.004620797    1.328    0.247
        14 -15.8024    107.1038    182.3954   1.0272564672e+02   2.2435625072e+01     2.910695     1.448218 -51.84  0.009553874    2.077    0.518
        15 -14.3669    100.3221    150.2716   9.8825356900e+01   3.0995534625e+01     1.781143     1.158566 -66.89  0.006151004    1.635    0.388
        16 -16.0170    153.4294    215.9444   9.7698903229e+01   7.8624706332e+00     3.634068     2.515965  89.48    0.0172609    2.642    0.621
        17 -13.4918     91.0981    210.4314   1.1018288793e+02   1.8936172987e+01    0.9097765    0.5097846  48.55  0.002784337    1.593    0.372
        18 -13.9095    107.1568    207.0360   1.0629723935e+02   1.7186675258e+01     1.768971    0.6027811  42.07  0.007016808    2.556    0.609
        19 -15.0205     64.8005    172.7486   1.1146190196e+02   3.0911746681e+01     1.540021     1.004861  66.95  0.008072605    1.606    0.377
        20 -15.6336     82.3919    161.1308   1.0540755961e+02   3.1221175079e+01     2.793512     1.819662 -88.42   0.01200409    1.848    0.459
        21 -11.5884     82.3690    248.4682   1.1578807813e+02   1.2968738227e+01    0.4275934    0.2797946  64.55  0.001722616    1.381    0.276
        22 -11.5306     76.7186    244.5302   1.1649260385e+02   1.4419996553e+01    0.3455608    0.2523884  55.50  0.001281524    1.083    0.077
        23 -13.0866     30.1244    249.8509   1.2508572945e+02   1.9098202659e+01    0.3702331    0.1727524  41.85  0.001536675    1.805    0.446
        24 -12.9727     58.9125    237.8700   1.1924566926e+02   1.7927156205e+01     1.138119    0.6719592 -64.93  0.007122663    1.848    0.459
        25 -13.8415     28.8431    222.6321   1.2372139859e+02   2.4319124906e+01     2.062052    0.6940566  89.10  0.008378526    3.955    0.747
        26 -13.1684      5.5402    204.0993   1.2695422687e+02   3.0303161097e+01     1.009166    0.3975309  59.18  0.004697285    2.195    0.544
        27 -15.1645     16.9345    221.2787   1.2580846671e+02   2.5797484896e+01     1.481689     0.605345  86.33  0.007782619    2.368    0.578
        28 -14.4670      6.0971    223.6759   1.2784615901e+02   2.6359099794e+01     1.297387     0.472379 -74.33   0.00720272    2.378    0.579
        29 -15.2115     50.0200    220.0792   1.1952991651e+02   2.2444939576e+01     1.442191     0.637063  87.86  0.006248723    2.806    0.644
        30 -15.0159     36.9125    205.6836   1.2097544428e+02   2.6898686636e+01     1.124874    0.5812629 -76.14  0.003487131    1.754    0.430
        31 -13.8389     28.3671    195.8292   1.2194416035e+02   2.9895961270e+01     0.611908    0.4000444  82.32  0.002066796    1.294    0.227
        32 -15.2208      9.9416    246.7614   1.2824588338e+02   2.1721620238e+01    0.5746259     0.491663  62.55  0.004957841    1.362    0.266
        33 -14.4682      2.5922    247.3488   1.2944016737e+02   2.2319118285e+01    0.5553849    0.2178443 -85.20  0.003378324    2.227    0.551
        34 -10.5453    219.5733    229.9663   8.6929079741e+01  -5.0125172499e+00    0.2928673       0.2298 -24.60  0.001917857    1.365    0.267
        35 -10.1429    195.7782    230.4277   9.1495985039e+01  -1.4274567184e+00    0.2488202    0.2080633  13.76  0.001023807    1.048    0.045
        36 -11.2753    203.6877    219.0149   8.8063488425e+01  -1.0036668976e+00    0.4827214    0.3419699 -22.55  0.002306033    1.454    0.312
        37  -9.4593    201.6501    210.3034   8.6929730228e+01   6.5906070293e-01    0.1221681     0.104607  63.04 0.0007040379    1.699    0.411
        38 -13.5073     56.4335    197.8946   1.1623203855e+02   2.6294912965e+01    0.7114838    0.5432774 -86.60  0.001967548    1.180    0.153
        39 -11.6784     58.9271    190.1241   1.1488037050e+02   2.7693205667e+01    0.6674117     0.278758  58.34  0.002781905    2.788    0.641
        40 -10.8100     83.6643    200.5100   1.1060132771e+02   2.2090012498e+01    0.4276827    0.2934901  67.62  0.001412977    1.461    0.316
        41 -14.1281    169.8819    213.6870   9.3920877907e+01   5.4639989462e+00     1.001524    0.9349688 -46.16  0.003788045    1.271    0.213
        42  -9.8084    206.3613    194.5604   8.3078802769e+01   2.3839883031e+00    0.2443722    0.2102183 -22.25  0.001234272    1.179    0.152
        43 -11.2870      1.5975    187.2177   1.2676714425e+02   3.4171227731e+01    0.5139289    0.1132422 -77.34  0.002052033    3.601    0.722
        44 -11.3694    193.0411    185.7447   8.4044334743e+01   6.2496304549e+00    0.7654001    0.4927547  -8.54  0.003490538    2.057    0.514
        45 -12.4900     37.2682    161.1997   1.1674408677e+02   3.6836648329e+01    0.9689115    0.4849443  89.53  0.004429997    2.201    0.546
        46 -12.2121      2.1544    165.0090   1.2523411682e+02   3.9006724473e+01    0.9343335    0.2620635 -71.18  0.004048844    2.636    0.621
        47 -14.9493     26.0901    176.8891   1.2088587198e+02   3.4307064894e+01     1.364016    0.7772617 -59.99  0.005932746    1.720    0.419
        48 -13.8156     16.1335    170.2522   1.2253931871e+02   3.6714978379e+01    0.6094677    0.4634023  -1.11  0.002538522    2.045    0.511
        49 -13.9598     14.9943    163.4907   1.2223648089e+02   3.8355910578e+01    0.6129867    0.5613294 -13.50  0.002763633    1.533    0.348
        50 -13.7836     18.3187    153.4570   1.2054723926e+02   4.0413375744e+01    0.7906135    0.3874707 -65.37  0.003056102    1.684    0.406
        51  -9.9886     46.8228    184.4084   1.1697983628e+02   3.0425894055e+01    0.2567245    0.1836323  27.05 0.0009936453    1.709    0.415
        52 -11.9530     47.1983    178.4125   1.1627200498e+02   3.1746416032e+01    0.6339341    0.2943197 -58.71  0.002160307    2.057    0.514
        53 -10.4505    131.8788    181.5270   9.6754452728e+01   1.8359554032e+01    0.3651405    0.2656544  43.82  0.001306028    1.304    0.233
        54 -15.0344    145.4694    162.6380   8.9926078847e+01   1.9886575060e+01     2.050108        1.477  81.48  0.007423512    2.136    0.532
        55 -10.1635    135.9990    247.3289   1.0551884708e+02   5.3747349554e+00    0.1818477     0.132623  39.53  0.000797726    1.116    0.104
        56 -12.6688    245.1570    172.1251   7.1339772426e+01  -6.0927052550e-01    0.5196026    0.4814067  -0.13  0.002505635    1.232    0.188
        57  -9.8191    172.7098    169.7686   8.5143300933e+01   1.3083996655e+01    0.3057399    0.2021323  49.26    0.0014146    1.611    0.379
        58 -11.8524    126.2458    157.7934   9.3636731844e+01   2.4630139376e+01    0.8549302     0.478497 -63.67   0.00261156    2.218    0.549
        59 -14.2687      6.2016    144.2955   1.2265600973e+02   4.3475374843e+01     1.711882    0.7110369  88.66  0.007830907    2.453    0.592
        60  -9.7079    217.9305    158.5107   7.3374264616e+01   6.4297621166e+00    0.2118094     0.137839  39.70  0.001030152    1.582    0.368
        61 -14.0834    173.6406     71.1247   5.9774777760e+01   3.2256810035e+01     2.207539     1.481517  78.39  0.009460185    1.950    0.487
        62 -13.1395    101.6374    107.6699   8.8842102319e+01   4.0935255293e+01     1.131272     1.061384 -53.07  0.003988727    1.058    0.055
        63 -12.2567    249.0587    239.4626   8.3268851177e+01  -1.0331634766e+01    0.7934936    0.3196442 -32.07  0.004146013    2.491    0.598
        64 -13.8213    184.1463     85.5103   6.1817120439e+01   2.7192821505e+01     1.737592     1.197208  75.87  0.007560508    1.886    0.470
        65 -14.0827    223.8814    190.0587   7.8824795697e+01   1.2699497148e-01     1.894566     1.067385 -38.37  0.009453946    1.805    0.446
        66 -13.7226    137.8977     99.1516   7.6285353701e+01   3.5428049327e+01     1.199533     1.078782  80.87  0.003554319    1.293    0.227
        67 -12.1263    107.2449    132.8587   9.3338069725e+01   3.3961937453e+01    0.9612294    0.5328234 -67.04  0.003659541    2.365    0.577
        68 -12.3366     96.3446    126.3853   9.4952246235e+01   3.7422114700e+01     1.045103    0.5956261  38.65  0.003680017    1.837    0.456
        69 -11.4146     81.0193    130.8775   1.0031938990e+02   3.8779031724e+01    0.5436973    0.4318469 -86.81  0.001935229    1.392    0.282
        70 -11.2373     20.3393    128.4796   1.1729111324e+02   4.6207936371e+01    0.4514861    0.4095123 -55.29  0.002072796    1.212    0.175
        71 -11.7748     14.0575    124.3572   1.1853399260e+02   4.7658382208e+01    0.4653237    0.2923216 -73.26   0.00207845    1.267    0.211
        72 -12.3973     11.3117    119.7754   1.1875587207e+02   4.8938533218e+01     0.492334    0.4788497  88.95  0.002574107    1.243    0.195
        73 -12.1312    109.2271    123.1439   9.0530420918e+01   3.5908384030e+01     1.188464    0.7479348  71.08  0.004442806    2.736    0.635
        74 -13.1039      7.0893    109.8256   1.1875253866e+02   5.1565269556e+01    0.7057644    0.6247303 -39.87  0.004507431    1.290    0.225
        75 -13.8674    238.2320    187.2714   7.5637459769e+01  -1.7968265160e+00      1.25297    0.5875317 -30.24  0.005259925    2.022    0.505
        76 -12.5364    196.0023    107.0062   6.5283102308e+01   2.0474896488e+01     1.499692     1.113188  73.53   0.00690909    1.745    0.427
        77 -11.6857    199.7950     96.4851   6.1813437848e+01   2.1529116964e+01    0.6071711    0.4544535 -48.15   0.00221833    1.332    0.249
        78 -13.2015    208.9974     81.9973   5.6403212427e+01   2.1903244582e+01     1.361761    0.8440698  78.96  0.004786202    2.289    0.563
        79 -10.6777     97.4526     91.8686   8.5755993187e+01   4.5291966416e+01    0.4245243    0.3364657  54.18  0.002109733    1.468    0.319
        80 -11.7613     34.7529     87.3204   1.0584784091e+02   5.4905985590e+01    0.5943566    0.3315758 -48.37  0.001939144    1.488    0.328
        81 -10.4557    126.6007     74.7305   7.1877756507e+01   4.2866208352e+01    0.5365292    0.3990797 -82.18  0.002310907    2.109    0.526
        82 -11.2182    121.7839     72.4178   7.2452049216e+01   4.4375502729e+01     1.196545    0.7150818   5.15  0.003948275    3.509    0.715
        83 -13.4178    194.5434     56.9952   5.2016597567e+01   2.9340661449e+01     1.325416    0.9673047  32.56  0.004891114    1.674    0.403
        84 -10.5583     13.4925     59.9885   1.0761111928e+02   6.2645176187e+01    0.1894559   0.09739008 -58.59 0.0004806937    1.543    0.352
        85 -10.8247    228.4744     56.9954   4.7225505668e+01   2.1315295051e+01    0.3143769    0.2396739 -39.52  0.001251676    1.211    0.174
        86 -11.4943    141.9903     56.4546   6.1997838039e+01   4.2457563834e+01    0.6879591    0.3156361  53.96  0.002640921    2.127    0.530
        87 -12.9344    217.0222     94.3787   5.8258551136e+01   1.7980960397e+01     1.576152    0.5720387  55.98  0.005535488    3.052    0.672
        88 -10.7375    167.7624     33.2751   4.9453230290e+01   3.9301795698e+01    0.4258914    0.2938965  54.76  0.002141428    1.369    0.270
        89 -11.0375    159.3351     33.9865   5.1120599927e+01   4.1338675232e+01    0.5450152    0.1877355  53.39  0.001971681    2.568    0.611
        90 -10.3574    243.6634     29.9278   3.9213397604e+01   2.1572833502e+01    0.2099457    0.1721072  66.83  0.001324708    1.334    0.250
        91 -10.5732    217.3986     25.3569   4.0698917345e+01   2.8049635255e+01    0.2705999    0.1993157  34.91  0.001031406    1.799    0.444
        92 -10.6184    119.0716     22.2481   5.5248738147e+01   5.2589243049e+01    0.4076508    0.1586948 -38.93  0.001568784    2.898    0.655
        93 -14.4018    233.7041    213.6800   8.1486342093e+01  -4.9108472841e+00     1.617476    0.9733309  -8.75   0.00638765    1.778    0.438
        94 -13.7959    246.0435    205.8310   7.7836240308e+01  -5.6658878195e+00     0.839501     0.747587  -9.81  0.003552504    1.314    0.239
        95  -9.0694     41.9796    236.9701   1.2226399063e+02   2.0118420305e+01    0.1305418   0.09865128  69.89 0.0009439059    1.024    0.023
        96 -10.0662    138.9908     12.6822   4.7706495763e+01   4.8763451633e+01    0.2029282    0.1636738  62.03  0.001069148    1.128    0.113
