#   1 NUMBER                 Running object number                                     
#   2 MAG_AUTO               Kron-like elliptical aperture magnitude                    [mag]
#   3 X_IMAGE                Object position along x                                    [pixel]
#   4 Y_IMAGE                Object position along y                                    [pixel]
#   5 X_WORLD                Barycenter position along world x axis                     [deg]
#   6 Y_WORLD                Barycenter position along world y axis                     [deg]
#   7 A_WORLD                Profile RMS along major axis (world units)                 [deg]
#   8 B_WORLD                Profile RMS along minor axis (world units)                 [deg]
#   9 THETA_WORLD            Position angle (CCW/world-x)                               [deg]
#  10 FWHM_WORLD             FWHM assuming a gaussian core                              [deg]
#  11 ELONGATION             A_IMAGE/B_IMAGE                                           
#  12 ELLIPTICITY            1 - B_IMAGE/A_IMAGE                                       
         1 -13.4380     68.4996    144.2495   1.0521868060e+02   3.7234309514e+01     3.356101     1.710353  74.47  0.004858342    4.051    0.753
         2 -12.3662    197.2585     39.0860   4.6682229816e+01   3.1097005018e+01     1.037887      1.02585 -84.41  0.003861369    1.127    0.112
         3 -12.4566    207.1680     28.7838   4.2753415533e+01   3.0022715360e+01    0.8374548    0.7568242  17.23  0.001919139    1.401    0.286
         4 -11.8070     32.3674     15.1625   8.0763781284e+01   6.9224253602e+01     1.110767    0.2352498 -36.27  0.003917877    4.368    0.771
         5 -10.8935    228.6224      4.0377   3.4794087285e+01   2.7861606317e+01    0.4907691    0.3573198 -74.08  0.002494806    1.183    0.155
         6  -9.3067     58.2316      3.6169   6.4040768725e+01   6.6764409618e+01     0.303529    0.1638102 -48.87  0.001327398    3.792    0.736
         7 -10.8256    234.0858      4.1063   3.4406603997e+01   2.6648025405e+01    0.5031479    0.4100197  43.62  0.003155333    1.646    0.393
         8  -8.2043    112.3212    198.6526   1.0317565886e+02   1.7879518425e+01    0.1439175   0.09806323  71.96 0.0003881057    1.737    0.424
         9 -13.5681     49.3291    221.2971   1.1884325752e+02   2.2209471836e+01     6.735802       1.0504  37.13   0.02332454    4.822    0.793
        10 -15.7411      5.8379    246.2946   1.2801033028e+02   2.2192137385e+01     17.03342     1.414764 -78.14   0.02219642   12.202    0.918
        11 -15.7800      2.4630    221.9213   1.2746346040e+02   2.7091811551e+01     17.84197          nan -74.70   0.01931075   13.667    0.927
        12  -8.1351    192.1888    192.7950   8.5148444574e+01   4.9051223994e+00    0.2137883    0.1560725  85.61 0.0009464848    2.814    0.645
        13  -8.6828     71.8679    186.0427   1.1051701676e+02   2.6834873347e+01    0.1989035    0.1709708  78.85 0.0004359945    1.011    0.011
        14  -8.6806    145.4154    181.2232   9.2895596023e+01   1.5716180803e+01    0.2753679    0.1781431  29.49  0.001274703    1.692    0.409
        15  -9.1159     99.4955    181.1345   1.0344738934e+02   2.3787097642e+01    0.2512404    0.1872645  45.08 0.0007528322    1.299    0.230
        16 -10.1237     70.5287    175.5116   1.0945431158e+02   2.9442444583e+01    0.3160072    0.2494741 -44.32 0.0007146596    1.524    0.344
        17 -10.6432     75.1492    170.1201   1.0759221687e+02   3.0055968703e+01     0.510664     0.320875 -36.23  0.002360983    2.309    0.567
        18 -10.0073    112.1118    172.6399   9.9070194853e+01   2.3597082589e+01    0.5941139    0.2647901  36.10  0.002331411    2.353    0.575
        19 -11.3319     83.4861    161.3208   1.0417606076e+02   3.0916460873e+01     1.080964     0.518098  61.98 0.0005796438    3.198    0.687
        20 -12.0715     72.0245    156.1518   1.0625141159e+02   3.3840358392e+01    0.5946175    0.4662246 -49.29  0.001269549    1.353    0.261
        21  -9.5860     59.8601    232.1650   1.1773729275e+02   1.8754971638e+01    0.2237509    0.1668325  88.71 0.0004789257    1.232    0.188
        22  -9.3575     44.8255    168.4809   1.1466545974e+02   3.4351647262e+01    0.3356985     0.126341 -54.44  0.001404979    2.649    0.623
        23 -12.7323     18.6284    192.1948   1.2264798631e+02   3.1714710790e+01     1.349334    0.6853252 -67.56   0.00258011    1.770    0.435
        24  -8.0880    157.9802    160.9833   8.6044712095e+01   1.7537962574e+01    0.2361363    0.1868291  89.95 0.0007624812    1.711    0.416
        25 -10.5098     90.1055    154.4826   1.0132376766e+02   3.1525534202e+01    0.6063589    0.4090442 -24.21  0.002402135    2.356    0.576
        26  -9.6163    133.9832    144.4548   8.8132278672e+01   2.5966533740e+01     1.000482    0.2320317 -53.49  0.002261485    6.059    0.835
        27 -11.0872     52.3097    147.4385   1.1003370114e+02   3.8536557430e+01    0.5098753    0.3290511  64.86  0.002609117    1.712    0.416
        28  -9.8756     41.0660    147.3241   1.1295636659e+02   3.9842784550e+01    0.3043638    0.1700056 -69.78  0.001156934    1.528    0.346
        29 -11.0855     57.9068    145.4383   1.0824818004e+02   3.8338702804e+01    0.5532571    0.3825958  88.95  0.002877389    1.519    0.342
        30  -8.1969     84.2780    143.9896   1.0093435763e+02   3.4985128370e+01    0.2011089    0.1733725 -65.29 0.0003926276    1.076    0.071
        31 -10.5738     91.2372    139.4898   9.8185650507e+01   3.4970518324e+01    0.2981212    0.2766078 -63.16 0.0004691261    1.042    0.040
        32  -9.0137     40.1388    142.1130   1.1248743117e+02   4.1210695119e+01    0.1976396    0.1599842 -57.50 0.0004000539    1.217    0.178
        33  -9.7467    103.6104    139.5952   9.4883684521e+01   3.2838814524e+01     0.530573    0.3419332 -25.62  0.002163322    2.359    0.576
        34  -9.0093    106.0135    130.5957   9.2268571851e+01   3.4561244254e+01     0.318392    0.2953567  44.23  0.001514699    1.131    0.116
        35  -9.5641    112.5427    129.9910   9.0366933083e+01   3.3495615450e+01    0.3200688    0.2263705  19.39 0.0009566919    1.870    0.465
        36 -11.5488     41.8682    126.8750   1.0971584118e+02   4.4760027043e+01    0.6102852    0.3581429 -84.94  0.002929183    1.876    0.467
        37  -7.9843     49.2255    170.9661   1.1391648350e+02   3.3253139414e+01    0.2148904    0.1275765 -47.34  0.001078602    2.019    0.505
        38  -9.3291     99.7387    126.1234   9.2975987723e+01   3.6755238036e+01    0.3113441    0.2689951   7.21  0.001498682    1.389    0.280
        39  -8.9028    135.1911    125.7645   8.3435471467e+01   2.9962302090e+01    0.3659904    0.1168144 -51.85  0.001032001    3.586    0.721
        40  -9.9849    118.8469    123.3253   8.7086961043e+01   3.3841521391e+01     0.516499    0.3125091 -18.69  0.001761519    3.199    0.687
        41  -8.4635    108.5098    119.1542   8.8877185361e+01   3.6808393877e+01    0.2508799    0.2137307  41.12 0.0003409278    1.234    0.190
        42 -11.4929     44.7923    114.8796   1.0676262738e+02   4.7383839921e+01    0.6511844    0.3837684  32.84  0.003307943    1.936    0.483
        43 -11.3772     41.8882    109.3348   1.0661058078e+02   4.9040499498e+01    0.4737519    0.4081119 -54.56  0.002919841    1.072    0.068
        44  -7.9591    168.0099    112.7635   7.2283410854e+01   2.5547910601e+01    0.2902806    0.1690802 -70.51 0.0008994167    3.632    0.725
        45  -9.7216    116.0613    109.1697   8.4223519600e+01   3.7646731138e+01    0.4456295    0.2544157 -25.99  0.001595471    2.670    0.625
        46  -8.1523    205.7182    110.1068   6.4046236358e+01   1.7536692498e+01    0.2096803    0.1881053 -31.78 0.0005359999    1.052    0.049
        47 -10.0803     52.6556    109.6311   1.0330095448e+02   4.7767363145e+01    0.2677563    0.2308091 -81.13  0.001050459    1.177    0.151
        48  -8.7225    135.0000    104.9821   7.8040292850e+01   3.4602960891e+01    0.2647126   0.08760675 -43.59 0.0008004112    2.928    0.659
        49 -10.0213     45.9473    109.2976   1.0533279313e+02   4.8614951300e+01    0.3182783    0.1933497  54.04  0.001169935    2.064    0.515
        50  -9.1461     59.5719    108.9846   1.0100074273e+02   4.7068791628e+01    0.2397098    0.1845209 -18.69  0.001266305    1.599    0.374
        51  -8.0697    194.2883    196.6510   8.5457488124e+01   3.8712174084e+00    0.1258069    0.1102811 -89.81 0.0004643005    1.662    0.398
        52  -8.4400    208.0000    194.0378   8.2291690727e+01   1.9285701585e+00    0.2136035   0.07341322 -39.61 0.0005690508    2.938    0.660
        53  -8.4904     57.4921     67.4597   9.0743304232e+01   5.6786472142e+01    0.1374277    0.1185567 -31.20 4.572954e-05    1.006    0.006
        54 -11.8521    186.4743     47.9340   5.0666441469e+01   3.2527176584e+01    0.7968208    0.6272515   1.86  0.002482646    1.655    0.396
        55 -12.9311     21.4896    241.7907   1.2522624293e+02   2.1418579888e+01    0.6524155    0.3656479 -62.65  0.004253462    2.116    0.527
        56  -8.8592     92.7184    217.3545   1.0980023288e+02   1.7119244736e+01    0.2091665    0.1718379  83.73 0.0002836301    1.172    0.146
        57  -9.9220    147.4675     51.5651   5.8806385048e+01   4.1667491993e+01    0.4755322    0.3134513 -76.98  0.001982283    2.311    0.567
        58  -8.8462    149.2011     45.2550   5.6411385431e+01   4.2170898576e+01    0.2539236    0.2178707 -75.43 0.0004140847    1.295    0.228
        59  -9.9856     32.7845     34.1696   8.8988271947e+01   6.6160400123e+01    0.5227863    0.1296209 -50.49  0.001686072    4.921    0.797
        60 -12.8465     57.6959    240.8861   1.1883224287e+02   1.7384127956e+01    0.7741829    0.3283376  50.78  0.004190744    1.894    0.472
        61 -13.8531     47.1334    200.7427   1.1749801848e+02   2.6767896427e+01     4.391808     2.416795  82.95   0.01597435    1.850    0.460
        62 -14.5591     35.4372    249.6431   1.2331823086e+02   1.8455636258e+01     8.115809      2.39347  28.82   0.02024955   13.287    0.925
