#   1 NUMBER                 Running object number                                     
#   2 MAG_AUTO               Kron-like elliptical aperture magnitude                    [mag]
#   3 X_IMAGE                Object position along x                                    [pixel]
#   4 Y_IMAGE                Object position along y                                    [pixel]
#   5 X_WORLD                Barycenter position along world x axis                     [deg]
#   6 Y_WORLD                Barycenter position along world y axis                     [deg]
#   7 A_WORLD                Profile RMS along major axis (world units)                 [deg]
#   8 B_WORLD                Profile RMS along minor axis (world units)                 [deg]
#   9 THETA_WORLD            Position angle (CCW/world-x)                               [deg]
#  10 FWHM_WORLD             FWHM assuming a gaussian core                              [deg]
#  11 ELONGATION             A_IMAGE/B_IMAGE                                           
#  12 ELLIPTICITY            1 - B_IMAGE/A_IMAGE                                       
         1 -13.8531    138.6709     35.6289   7.2157612707e+00   4.4990365822e+01     2.327526    0.9042246  67.44  0.009479661    2.453    0.592
         2 -13.5982    151.6106     49.5520   9.3116363647e+00   4.0079049471e+01     1.634174    0.9024103 -65.84   0.00736054    2.170    0.539
         3 -12.9861    161.5973     61.0353   1.0916520928e+01   3.6178533042e+01     1.499282    0.9792854 -15.06  0.007119857    2.340    0.573
         4 -15.0174    171.9066     42.0524   4.6330052194e+00   3.6586535639e+01     3.394028     2.021633  82.34   0.01811257    1.759    0.431
         5 -12.3472     64.0597     50.9175   3.2531521026e+01   6.0306970834e+01    0.7738788    0.4742775 -51.40  0.003492042    1.846    0.458
         6 -13.4156    203.8112     61.7028   5.8107119264e+00   2.7580339145e+01     1.470991    0.6902353 -29.18  0.007126901    2.324    0.570
         7 -12.5888    248.5780     40.6089   3.5798484733e+02   2.2613964743e+01    0.9499666    0.2032111 -34.36  0.004092836    3.531    0.717
         8 -10.8367     27.6276     29.1705   4.2261105737e+01   7.1174627642e+01    0.5445073    0.2864846 -44.22  0.002536945    2.009    0.502
         9 -10.6524     13.1483     26.7059   5.2024369982e+01   7.3616329681e+01    0.5069009    0.2366496 -56.54  0.002276434    2.322    0.569
        10 -12.8242     38.1525     57.4620   4.7776499635e+01   6.3666579037e+01    0.9015124    0.4740945 -36.06  0.003655422    2.262    0.558
        11 -10.4764    243.1527    227.8972   3.0781177955e+01  -1.0584041925e+00    0.2562641    0.1095486 -17.07   0.00144769    2.470    0.595
        12 -10.9739    198.8834    235.1702   3.8869048289e+01   1.8759488303e+00    0.2206535    0.1806029 -56.16  0.001538711    2.279    0.561
        13  -9.1588    126.5098    227.0098   5.2292129140e+01   1.0821764174e+01     0.156884    0.1150637  83.12  0.000810479    2.678    0.627
        14  -9.1183    249.3397    227.3051   2.9816248319e+01  -1.4798175354e+00     0.105162   0.05471146 -11.80 0.0007040824    1.678    0.404
        15  -9.0626    133.2893    214.5766   4.9066901600e+01   1.2242365935e+01    0.2587239    0.1051402  31.20  0.001147377    2.157    0.536
        16  -9.4058     41.7533    214.0130   7.2337904471e+01   2.2963121287e+01    0.1634217    0.1145243 -78.39 0.0006445453    1.629    0.386
        17 -10.2030     92.8500    212.8844   5.8661295983e+01   1.7528700691e+01    0.2180352     0.172763  -6.14  0.001250472    1.293    0.227
        18  -9.5931     77.7093    213.4661   6.2662213064e+01   1.9203597136e+01    0.2759776    0.1075884  29.48  0.001141906    2.078    0.519
        19 -11.0969     85.8407    208.7072   5.9983160775e+01   1.9249201840e+01    0.4406616    0.2556631  68.08  0.001859699    2.899    0.655
        20 -11.3843     98.4431    205.3212   5.6273826281e+01   1.8403707659e+01    0.2901035     0.212948 -62.81  0.001582834    1.626    0.385
        21 -10.5412    198.5809    204.8663   3.4403536798e+01   6.2042736334e+00    0.2071362    0.1448027  38.34  0.001325114    1.895    0.472
        22  -9.4535     26.6559    205.6891   7.5907603968e+01   2.6271955265e+01    0.1332473   0.09691704 -26.44 0.0007045615    1.702    0.413
        23  -9.3143     35.3386    203.6646   7.3347243807e+01   2.5940997616e+01    0.1522117    0.0825564  50.76 0.0007051516    1.751    0.429
        24 -11.6874    187.5611    204.6026   3.6338980286e+01   7.4668891292e+00    0.6480394    0.4033065  47.97  0.003469032    2.764    0.638
        25 -10.4679    184.7179    195.3309   3.5372193377e+01   9.2592247960e+00      0.29216    0.1904296 -40.44  0.001758231    1.502    0.334
        26 -10.4425    125.0983    198.3399   4.8612196774e+01   1.6359812177e+01     0.325832    0.3138656 -65.51  0.002066409    1.311    0.237
        27 -12.7724     88.7938    197.3522   5.7783306228e+01   2.1337121317e+01    0.5266312    0.4487329  81.70  0.002995006    1.452    0.311
        28  -9.5568    140.1351    198.8935   4.5173471578e+01   1.4269058858e+01    0.1963883    0.1787732  28.92  0.001240946    1.253    0.202
        29  -9.8524    226.2068    194.4940   2.8249406745e+01   4.7776846905e+00    0.2129159    0.1257582 -31.85  0.001407558    1.349    0.258
        30 -12.0449    103.0950    192.3314   5.3269385432e+01   2.0551886098e+01    0.6651126    0.2630734 -57.06  0.002606861    2.783    0.641
        31  -9.9985    247.0517    192.0261   2.4871781367e+01   3.0684895967e+00    0.3357708    0.1691381 -46.15  0.001998948    2.401    0.584
        32 -11.5990     77.8344    191.4494   6.0052140390e+01   2.4059424943e+01    0.4647009    0.3944794 -85.96  0.002601887    1.387    0.279
        33 -10.6389    130.6990    188.9414   4.5792220278e+01   1.7462939246e+01    0.4274109    0.3658654 -64.11  0.002495197    1.478    0.324
        34 -11.5171     86.3432    187.3740   5.7118870482e+01   2.3894935397e+01    0.3598943    0.2378302 -68.06  0.001743766    1.789    0.441
        35 -10.4947    167.0246    185.5591   3.7178682951e+01   1.3134169520e+01    0.3462429    0.2671773 -55.38  0.002039042    1.670    0.401
        36  -9.0996    121.3006    187.6798   4.7886497023e+01   1.9028796851e+01    0.1334942    0.1070364  58.95 0.0004865275    1.624    0.384
        37 -10.8849     11.6004    183.7990   7.8988936810e+01   3.2801148200e+01    0.2549492    0.2002003 -87.17  0.001145392    1.300    0.231
        38 -10.9596      6.3099    184.6570   8.0613469221e+01   3.2975198145e+01     0.326428    0.1710203  51.21  0.001552066    1.714    0.417
        39 -10.5011    147.6170    179.8953   4.0343139273e+01   1.6848072061e+01      0.23401    0.2224008  67.54  0.001160632    1.394    0.283
        40 -10.2422     61.5814    178.1123   6.3153858563e+01   2.9269433336e+01    0.4628355    0.1123734  30.61  0.001451265    3.173    0.685
        41  -9.5200    118.3935    177.1805   4.6899492245e+01   2.1653358476e+01    0.1891306    0.1393761 -65.95 0.0007211516    1.699    0.411
        42 -11.7040     96.4610    189.0210   5.4562543133e+01   2.2170391263e+01     0.414409    0.2225718  40.78  0.001844098    1.817    0.450
        43 -10.1581     77.8945    173.1061   5.7543271635e+01   2.8394978858e+01     0.235823    0.1964714  53.52  0.001010187    1.257    0.205
        44  -9.4341     19.6634    189.6832   7.6924239360e+01   3.0700012246e+01    0.1381164   0.09879494 -32.16 0.0007048264    1.699    0.411
        45 -10.8016    150.6558    169.3328   3.7776410019e+01   1.8436949271e+01    0.4470346    0.2824833 -52.31  0.002240104    1.754    0.430
        46 -10.9223     56.6584    168.8981   6.3537663137e+01   3.2184410244e+01    0.4869165     0.356369  34.99  0.002429695    1.255    0.203
        47 -10.4099    134.4183    167.2449   4.1148571232e+01   2.1323994136e+01    0.2492274    0.1857901 -56.72  0.001160964    1.532    0.347
        48  -9.0997     87.9874    166.9890   5.3598987368e+01   2.8454728271e+01    0.1799913    0.1754228 -31.36  0.001010832    1.082    0.076
        49 -12.4973    172.2058    161.5373   3.1820653553e+01   1.6682920919e+01     1.030457     0.440008 -38.89  0.004542985    2.183    0.542
        50 -12.0768    213.9619    161.1597   2.4492529746e+01   1.1021464153e+01    0.5314412     0.408841 -14.13  0.003649915    1.174    0.148
        51  -9.6645     37.2407    163.2696   6.9221911668e+01   3.5829767940e+01    0.2297893    0.1186952  88.21 0.0008924536    2.397    0.583
        52 -10.5908    223.7064    160.7019   2.2960292056e+01   9.8872139696e+00    0.2360478    0.1892357  -4.71  0.001341339    1.216    0.178
        53 -10.7942    247.2356    151.5092   1.8227700642e+01   8.4423112352e+00    0.4013008     0.254793   8.89  0.002621304    2.126    0.530
        54  -9.2762     91.8858    152.1304   4.9871387112e+01   3.1461255141e+01     0.415561    0.1411512  38.51  0.001375759    2.728    0.633
        55 -12.7489    154.2087    130.5768   2.9214838977e+01   2.5417955710e+01    0.9575003    0.7394497  78.83  0.004868676    1.890    0.471
        56 -11.6777    146.5526    131.6544   3.1118862029e+01   2.6577975641e+01    0.5214293    0.4590736 -76.58  0.002917452    1.359    0.264
        57 -14.0955    192.7177    135.2468   2.2980856361e+01   1.8143960417e+01     1.719538    0.8868904 -38.41  0.008737862    1.683    0.406
        58 -11.2932    204.2067    140.7733   2.2225782806e+01   1.5526145813e+01    0.2629381    0.2090732 -27.04  0.001304921    1.075    0.070
        59  -9.8009    226.7065    138.5440   1.8566676214e+01   1.2773038120e+01    0.2001511    0.1185634 -49.70 0.0008880594    1.771    0.435
        60  -9.3743     48.5445    138.0057   6.1993274002e+01   4.1347588718e+01    0.2348915    0.1515501 -69.43  0.001004604    1.606    0.377
        61 -14.0017    173.2125    128.9407   2.5091394598e+01   2.2406309817e+01     1.667722     1.271361  89.17  0.008752964    2.059    0.514
        62 -10.0574    227.2858    132.6165   1.7398731865e+01   1.3566665797e+01    0.3389184    0.1962829  -0.41  0.001546089    3.713    0.731
        63 -14.0247    184.8160    122.5616   2.1692714908e+01   2.1561316010e+01       1.5886     1.082301 -43.65  0.008962738    1.313    0.239
        64 -10.3289     12.9990    130.0069   7.4659201950e+01   4.7042666985e+01    0.2902006    0.1051351  41.20  0.001030934    2.627    0.619
        65 -10.7568    146.8852    120.4592   2.8530316422e+01   2.8744169767e+01    0.2971104    0.2699197  21.94  0.001699536    1.165    0.142
        66  -9.8666    240.3714    141.4906   1.7339130792e+01   1.0626565691e+01    0.2420914    0.1569585 -21.20  0.001610877    1.462    0.316
        67  -9.2921     57.3072    120.6430   5.5631086438e+01   4.4863014721e+01    0.1665405    0.1159319  64.41  0.000391405    1.726    0.421
        68 -12.6358    127.0766    110.6315   3.0837125388e+01   3.4610846759e+01     1.171514    0.8282911  87.83   0.00504629    2.223    0.550
        69 -12.4325    129.3305    103.0074   2.8357300764e+01   3.5722753420e+01     1.038913    0.5595035 -57.14  0.004150307    2.226    0.551
        70 -11.4926    207.5536    148.3627   2.3144169014e+01   1.3850105173e+01    0.3543658    0.2256289  32.65   0.00212405    1.816    0.449
        71 -10.7906     78.6824    110.5825   4.5444933284e+01   4.4010226423e+01    0.4005215    0.2979153  52.24  0.001844653    1.416    0.294
        72 -11.9262     75.6963    103.0319   4.4642199868e+01   4.6414786131e+01    0.6929017    0.5270876 -82.48  0.003154329    1.643    0.391
        73 -10.5870    211.6015    101.0936   1.3283116838e+01   2.0575078653e+01     0.313129    0.2850142  38.89  0.001903624    1.347    0.257
        74 -11.3348    201.1579    100.2353   1.4476277778e+01   2.2434832767e+01    0.5263084    0.3407592  81.67   0.00276577    2.440    0.590
        75 -11.9775    200.2756     93.2902   1.3113315085e+01   2.3654668938e+01     0.707633    0.4398355 -38.66  0.004046026    1.374    0.272
        76 -12.7121     97.6136     96.8375   3.5501018898e+01   4.3623368423e+01     1.144292    0.6673705  42.45  0.004814228    1.681    0.405
        77 -13.0353     34.9738     87.7601   5.8240742113e+01   5.6624685934e+01    0.9172665    0.8230485 -45.14  0.004147278    1.107    0.097
        78 -12.4081    132.8133     59.4747   1.5439346060e+01   4.2931986593e+01    0.9392675     0.477625 -29.99  0.003897509    2.362    0.577
        79 -12.4067    123.0611     62.5698   1.8429445329e+01   4.4706727211e+01    0.7677237    0.6078726  75.24  0.003632957    1.275    0.216
        80 -13.6363     86.1010     82.7898   3.5219807272e+01   4.9117672627e+01     1.696481    0.9151375 -55.80  0.006700973    2.100    0.524
        81 -12.6014    131.6865     70.7592   1.8989916264e+01   4.1311399015e+01    0.9686494    0.6265649  78.61  0.004371186    1.946    0.486
        82 -14.2086    101.7739     77.2354   2.8494682520e+01   4.6898520826e+01     2.490663     1.520997  76.82  0.009179355    2.809    0.644
        83 -13.6509    117.8245     72.3538   2.2651978407e+01   4.4200111267e+01     2.655051     1.164043  66.40  0.008279225    3.781    0.736
        84 -12.8239    123.4888     87.4219   2.5626495937e+01   4.0074137678e+01     1.657003    0.7449838  52.99  0.006338367    2.301    0.565
        85 -11.7009    120.5500     79.2606   2.4027790588e+01   4.2294972798e+01    0.7164312    0.6019246  50.60  0.003262874    1.192    0.161
        86 -11.1523      4.4423     88.7462   7.3969037397e+01   5.9006480947e+01     0.497777     0.360292 -85.61  0.001909855    1.404    0.288
        87 -11.2524     50.8636     85.3264   5.0091116220e+01   5.5039472507e+01    0.3862121    0.3461128  78.70  0.001611962    1.247    0.198
        88 -11.8474     46.9052     81.5777   5.0889893674e+01   5.6584307167e+01    0.7821167     0.356483  34.54  0.002991699    2.071    0.517
        89 -11.9564     20.4918     85.0475   6.4999308758e+01   5.8877517633e+01    0.6218949    0.3108191 -34.00  0.002435482    2.294    0.564
        90 -12.7350     62.4752     71.2871   4.0658038905e+01   5.6380582139e+01     1.049664    0.6051226 -65.13   0.00413578    2.352    0.575
        91 -12.2348     74.6135     78.5804   3.8090247856e+01   5.2391508140e+01    0.7147101    0.5403984 -58.27  0.003125595    1.431    0.301
        92 -11.6708     69.7150     78.9987   4.0137937882e+01   5.3256649204e+01    0.4269376    0.3871746  51.30  0.001734185    1.094    0.086
        93 -10.0129    212.5529    246.7542   3.8149532881e+01  -8.3153603958e-01    0.1882267   0.07801867 -33.14  0.001123786    2.065    0.516
        94 -10.4754    156.2294    246.8982   4.8481973031e+01   4.3808121337e+00    0.2247036    0.1348638 -21.31  0.001372164    1.623    0.384
        95  -8.6031    113.3224    245.6510   5.7507572596e+01   9.0682402276e+00    0.1218144   0.08294149  45.77 0.0007048965    1.745    0.427
        96  -9.5766    140.3278    244.6535   5.1483171415e+01   6.3596039567e+00    0.1132355    0.0847019  43.32 0.0005467361    1.752    0.429
        97 -12.1451     49.3965     63.2716   4.3947770417e+01   6.0536677652e+01    0.6169895    0.3105007 -46.49   0.00251563    2.060    0.514
        98 -11.6363     80.7066     55.7775   2.7997747248e+01   5.5776352943e+01    0.3994821    0.3299019  73.99  0.002058635    1.324    0.245
        99 -12.8431     73.9406     56.1493   3.0603456440e+01   5.7201431480e+01     1.211826    0.5973264 -44.15  0.004907071    2.165    0.538
       100  -9.6079    169.8200    241.7021   4.5121733811e+01   3.7777296883e+00    0.1940395    0.1187343   3.56  0.001209992    1.415    0.293
       101 -12.9055     25.3047     49.4658   5.2574130692e+01   6.7264119755e+01    0.9621603    0.6545868 -23.79  0.004724061    1.623    0.384
       102 -12.1706     66.5826     59.7717   3.4878511432e+01   5.8039806551e+01    0.6590505    0.4373908 -36.85  0.003035854    1.677    0.404
       103 -10.8791     53.4667     52.5086   3.7949093077e+01   6.2107938838e+01    0.4781908    0.1471164 -48.22  0.001539958    3.490    0.713
       104 -11.9089     43.6639     69.9161   4.9021770957e+01   5.9927053309e+01    0.4843217    0.3894303  -2.93  0.001968428    1.374    0.272
       105  -9.6150    106.3405     50.0869   1.8309382898e+01   5.0742086419e+01    0.2620963    0.1907178  49.05  0.001112393    1.364    0.267
       106  -9.3458    250.2482    245.0092   3.2142255509e+01  -3.5664831722e+00    0.1240261   0.06038882 -30.72 0.0008873069    1.591    0.371
       107  -9.4029     92.3399    238.6892   6.1639394678e+01   1.2566156512e+01    0.1306008   0.08186967  45.47 0.0004447133    1.692    0.409
       108 -11.3234    110.8474     60.0262   2.0519415883e+01   4.8016274805e+01    0.4874879    0.3876775  -0.96  0.002410407    1.772    0.436
       109 -10.9225     38.6376     36.6669   3.8960855145e+01   6.7932184090e+01    0.3155141    0.2269912   0.54  0.001554242    1.741    0.426
       110 -11.9658    232.0176     33.2090   3.5756979168e+02   2.6113393052e+01    0.5124211    0.3861454  27.71  0.003456507    2.402    0.584
       111 -12.2588    167.4084     73.8079   1.3302435587e+01   3.2976795017e+01     0.988802    0.8609772 -69.38  0.006074431    1.085    0.078
       112 -11.5322    188.4811    232.6682   4.0370350298e+01   3.2182237802e+00    0.6366052    0.3694973 -58.64  0.003087312    4.099    0.756
       113 -13.4913    223.0059     69.5641   5.5702889271e+00   2.3163116134e+01     2.310056    0.8331398  54.92   0.01127906    3.357    0.702
       114  -9.0853    248.6536    233.3073   3.0759112299e+01  -2.1250848153e+00   0.08156041   0.07060862 -13.94 0.0007043335    1.699    0.412
       115 -10.9442    108.9892     15.4955   5.2444224585e+00   5.4664159399e+01     0.278438    0.1981634  37.93  0.001486001    1.708    0.414
       116  -9.4571     20.9962     18.0162   4.0973372116e+01   7.4218219363e+01    0.2222593    0.1518432  -2.29  0.001149326    1.739    0.425
       117 -13.0749     30.0402     62.6777   5.4118751220e+01   6.3575607674e+01    0.9619785     0.536656 -53.02  0.004285591    1.764    0.433
