#   1 NUMBER                 Running object number                                     
#   2 MAG_AUTO               Kron-like elliptical aperture magnitude                    [mag]
#   3 X_IMAGE                Object position along x                                    [pixel]
#   4 Y_IMAGE                Object position along y                                    [pixel]
#   5 X_WORLD                Barycenter position along world x axis                     [deg]
#   6 Y_WORLD                Barycenter position along world y axis                     [deg]
#   7 A_WORLD                Profile RMS along major axis (world units)                 [deg]
#   8 B_WORLD                Profile RMS along minor axis (world units)                 [deg]
#   9 THETA_WORLD            Position angle (CCW/world-x)                               [deg]
#  10 FWHM_WORLD             FWHM assuming a gaussian core                              [deg]
#  11 ELONGATION             A_IMAGE/B_IMAGE                                           
#  12 ELLIPTICITY            1 - B_IMAGE/A_IMAGE                                       
         1 -11.5859    168.3349     46.7231   6.7732748543e+01   3.7148748103e+01    0.9842879    0.8124095  -4.73   0.00564449    1.670    0.401
         2 -10.7233    187.7854     17.1375   5.8064515292e+01   3.6332876206e+01    0.6204876    0.3956024 -26.68  0.003602361    2.048    0.512
         3 -10.8018    182.1782     15.6975   5.8389191306e+01   3.7730498431e+01    0.6407953    0.4499117 -26.46  0.003936294    1.838    0.456
         4  -7.1478    144.5491      7.5089   6.1332038574e+01   4.6916606784e+01    0.1213876   0.09964229  66.16 0.0001318752    1.031    0.030
         5  -8.8153    120.2114      9.0096   6.5764104213e+01   5.2109837913e+01    0.2554409    0.2000415  31.50  0.001559111    1.341    0.254
         6  -9.1951    135.6042    241.0964   1.1777653242e+02   3.7920224527e+00    0.5516256    0.2689267  48.19  0.001841748    2.043    0.511
         7  -8.3338    229.5195    250.3774   1.0021198205e+02  -1.2207181513e+01    0.2124572    0.1285743   9.74  0.001173257    1.752    0.429
         8  -9.1513    165.9389    249.5372   1.1265137389e+02  -2.7296238625e+00    0.2146665    0.1851562 -35.69 0.0002886358    1.259    0.206
         9  -7.6755    140.6091    250.2634   1.1804553290e+02   1.2052884969e+00     0.206821    0.1510584  69.40  0.001104567    1.744    0.427
        10 -18.0868     59.0166    227.4094   1.3253942763e+02   1.8591293672e+01     4.522254     3.539475 -72.29    0.0125992    1.246    0.197
        11 -10.6621    114.9425    186.5797   1.1361557994e+02   1.9514991849e+01     1.145214    0.3808609  48.99  0.003412768    3.692    0.729
        12  -7.8438    169.7643    240.8307   1.1047505656e+02  -1.7712659462e+00    0.1743591    0.1532637  60.10 0.0004790255    1.346    0.257
        13  -9.8845    112.9072    194.5607   1.1553125825e+02   1.7947642975e+01    0.4181948    0.2679571  83.63   0.00168418    2.363    0.577
        14  -8.0761    152.1492    238.5330   1.1383803306e+02   1.5532397205e+00    0.2887354    0.2025806  -6.69 0.0009196363    2.036    0.509
        15  -9.1472    191.6592    191.1434   9.6822986849e+01   4.2269913490e+00    0.5834034    0.2932255 -57.90   0.00219076    2.737    0.635
        16  -8.8659    187.0000    216.0878   1.0257310704e+02   4.9928353262e-02    0.3088967    0.1712871 -47.84  0.001413858    1.872    0.466
        17 -10.9806     32.2050    190.8234   1.3447560317e+02   3.0563707743e+01    0.4657683    0.3569169 -27.11  0.001288648    1.882    0.469
        18  -8.9497    185.9015    229.8146   1.0525493945e+02  -2.3630932455e+00    0.4391224    0.1710937 -53.62  0.001580191    3.562    0.719
        19  -9.0677     29.8906    184.3096   1.3428169024e+02   3.2405798118e+01     0.305541    0.1897899  55.26 0.0005695024    1.659    0.397
        20  -7.7847    169.4928    190.4371   1.0146663916e+02   8.4585744138e+00    0.2427317    0.1427346 -59.38 0.0005295763    2.045    0.511
        21  -8.0786    156.1850    189.9634   1.0438486980e+02   1.1067816120e+01    0.2256779    0.2020195  77.85  0.001108777    1.260    0.206
        22  -9.1270    132.0038    189.6309   1.1001713533e+02   1.5678736467e+01    0.2840071    0.2169682 -54.87 0.0006364804    1.309    0.236
        23  -7.7268      5.8211    190.2291   1.4034218854e+02   3.3304232833e+01    0.1461347    0.1155443 -59.87 0.0003842063    1.346    0.257
        24  -9.3980    167.1146    222.7896   1.0800783720e+02   2.1192762207e+00    0.2760624    0.2055444 -46.47 0.0007380064    1.403    0.287
        25  -8.1206    153.4551    185.4648   1.0412873222e+02   1.2603770130e+01    0.3047935    0.1475435 -49.56  0.001172445    2.049    0.512
        26  -7.8776     22.8442    184.2644   1.3592935825e+02   3.3143269017e+01    0.3484995    0.2035107 -62.59  0.001436992    1.496    0.331
        27 -10.9675    154.4065    218.4004   1.1002733497e+02   5.2148779618e+00    0.8867708    0.4097112  39.12  0.003649602    2.063    0.515
        28  -9.5423    248.0290    181.1346   8.4198179986e+01  -3.2713781511e+00    0.3247806    0.2528104 -70.98  0.001357427    1.869    0.465
        29  -9.1409    161.2324    176.5555   1.0052216492e+02   1.3127725409e+01    0.5395032    0.2798756 -54.17  0.002104103    2.038    0.509
        30  -9.8366      3.6634    177.3520   1.3965190202e+02   3.6545150090e+01    0.3169901    0.2117272 -88.50  0.001001264    1.254    0.202
        31  -9.1310    188.9779    176.8773   9.4483580571e+01   7.7034276756e+00    0.4487982    0.2554014 -48.04  0.001880805    1.705    0.414
        32  -9.4306    236.5520    176.3935   8.5232410981e+01  -6.0494295137e-01    0.3001608    0.2343192  49.73 0.0001460068    1.559    0.359
        33  -7.6518     11.1115    174.4677   1.3764085259e+02   3.6615264374e+01    0.2545569    0.1183913 -70.58 0.0004553038    1.715    0.417
        34  -9.4823    134.1969    172.9553   1.0621812584e+02   1.9234607473e+01    0.4252048    0.2792982 -67.47  0.001146446    1.801    0.445
        35 -10.9573    146.5889    223.3229   1.1259455951e+02   5.5499565215e+00    0.7374963    0.4552146 -64.13  0.003381828    2.022    0.505
        36  -9.6374     10.9003    221.8694   1.4185530538e+02   2.5542150830e+01    0.4330666    0.2158952 -61.40  0.001820547    1.969    0.492
        37  -8.2446     22.9667    173.3935   1.3468226316e+02   3.5791235614e+01    0.2475592    0.1291746  27.14  0.001023341    2.306    0.566
        38  -9.2118    236.9880    171.5607   8.4195164151e+01   2.2938467015e-01    0.2504863    0.2035797 -31.82 0.0003641875    1.087    0.080
        39  -9.4667    140.2321    177.4540   1.0565848734e+02   1.7001942271e+01    0.3035789    0.2132797 -51.79  0.001388081    1.405    0.288
        40 -10.1473     16.8501    168.3612   1.3559564448e+02   3.7596559770e+01    0.7037564    0.3488595  71.26  0.002045511    2.619    0.618
        41  -8.7584     17.5290    164.4956   1.3497697575e+02   3.8483040231e+01     0.214544    0.1939048  87.13 0.0005846045    1.139    0.122
        42  -9.6888    185.1344    221.6505   1.0397205510e+02  -7.0630652377e-01    0.6106431    0.1960579 -45.86  0.001867237    3.157    0.683
        43  -8.5709    158.0373    167.3186   9.9316552301e+01   1.5869047097e+01     0.261746    0.2131029 -53.04 0.0002612151    1.211    0.174
        44 -10.2135    182.8761    207.8899   1.0192195379e+02   2.3759820962e+00    0.8767963    0.3051273 -48.69  0.002986831    2.994    0.666
        45  -8.8749    236.9952    166.7058   8.3222266223e+01   1.1426689112e+00    0.2413251    0.1748132 -47.83 0.0003500649    1.274    0.215
        46  -7.5617    246.7547    166.9455   8.1635494629e+01  -4.9240980608e-01    0.1791767   0.09788364 -40.76 0.0007731488    1.547    0.354
        47 -10.0127    205.1282    164.2925   8.8562459583e+01   7.2854794349e+00    0.2553276    0.2435456 -31.88 0.0003124879    1.043    0.041
        48  -7.9540    119.6273    163.7794   1.0799861591e+02   2.4241939307e+01    0.2121003    0.1450232 -64.56 0.0003623054    1.561    0.359
        49  -9.1566      3.6749    157.3493   1.3761645905e+02   4.1348824382e+01    0.5249566    0.2300458 -35.04  0.001822806    3.606    0.723
        50  -8.8657    133.2469    156.5906   1.0299630053e+02   2.3354841951e+01    0.4443207    0.2847836  74.31  0.001643315    2.572    0.611
        51  -8.6815    177.6974    220.8141   1.0539121023e+02   7.0488679802e-01    0.3204664    0.1264508 -49.35  0.001222586    2.717    0.632
        52  -9.3492    155.6653    153.7517   9.6901681853e+01   1.9477220177e+01    0.4439507    0.3100702 -85.67  0.001787984    2.194    0.544
        53 -10.1486    133.8780    146.9650   1.0068641753e+02   2.5530582163e+01     1.196005    0.4705662 -57.37  0.003651604    3.185    0.686
        54 -11.2506     14.6504    138.1006   1.3230924615e+02   4.5171474532e+01    0.6842558    0.4509147  78.37  0.003723201    1.772    0.436
        55 -11.6782     29.2666    124.1848   1.2580534784e+02   4.7279079033e+01     2.459185     0.409199 -49.04  0.007265134    4.553    0.780
        56 -11.0271     17.5243    128.3033   1.3001684963e+02   4.7302318222e+01    0.8762524    0.2622789 -44.92  0.003219374    3.324    0.699
        57 -11.3469      7.9018    145.9229   1.3519099699e+02   4.3794385418e+01    0.7784303    0.7239797  67.97  0.003988433    1.241    0.194
        58 -11.5065      3.8907    135.4522   1.3493409289e+02   4.6588020237e+01     1.974952    0.4812928 -65.93  0.007578718    2.874    0.652
        59  -7.7974    210.5427    145.7880   8.3574982544e+01   1.0037291652e+01    0.2070178    0.1280507 -54.41 0.0009301251    1.636    0.389
        60  -8.2449    152.9043    144.5139   9.5452594361e+01   2.2176675471e+01    0.2406585    0.2099616 -80.41 0.0005427289    1.257    0.204
        61 -10.5707      4.6497    112.4432   1.3136753916e+02   5.1927999076e+01    0.8151224    0.2648306 -52.93  0.003655919    2.213    0.548
        62 -10.8475     34.2455    135.2429   1.2625455186e+02   4.4120599377e+01     0.417094    0.3338751 -35.56  0.002227474    1.313    0.238
        63 -11.7505     28.3188    140.9060   1.2888336950e+02   4.3306979847e+01    0.6746477     0.648315  59.28  0.003390524    1.204    0.169
        64  -9.8986     21.8394    137.7997   1.3024104255e+02   4.4651996724e+01    0.3587527    0.2068182  16.52   0.00183541    2.225    0.550
        65  -8.8524    134.7953    236.9894   1.1734101618e+02   4.7475653212e+00    0.3064089    0.2387536 -82.42 0.0006836716    1.584    0.369
        66  -8.9392    118.1087    140.6582   1.0333801637e+02   3.0172056035e+01    0.2895035    0.2200768 -71.42 0.0009065759    1.499    0.333
        67  -8.1599    157.3488    140.1179   9.3386145580e+01   2.2240500913e+01    0.2213916    0.1883633 -51.55 0.0003685953    1.137    0.120
        68 -10.2664    105.1601    135.9936   1.0578296075e+02   3.3750656743e+01    0.6300409    0.4009732 -56.35  0.002055328    1.557    0.358
        69 -10.1807    112.6682    134.4069   1.0334687646e+02   3.2719876892e+01    0.6724586    0.3540024  54.77  0.001452829    2.420    0.587
        70  -9.9861     12.1076    207.1640   1.4045624724e+02   2.8762195697e+01    0.5507402    0.3248428  57.76  0.003180214    1.599    0.374
        71  -8.6672     97.1575    135.8432   1.0798975716e+02   3.5230324059e+01    0.3066501    0.1952006  42.05 0.0007039483    1.646    0.392
        72 -10.0772    101.0822    129.7397   1.0546146322e+02   3.5998053186e+01    0.6152817    0.3213945  34.79  0.002068951    2.085    0.520
        73 -10.3255    141.3059    229.0555   1.1469303570e+02   5.2694811047e+00    0.2940023    0.2683624 -47.42  0.000322325    1.171    0.146
        74  -7.3824    149.5269    127.4943   9.2217257450e+01   2.6746608436e+01     0.155736    0.1508971 -57.71   0.00081002    1.012    0.012
        75  -7.7162    108.5585    123.2870   1.0179629054e+02   3.6123409438e+01    0.2097855    0.1417647 -38.97  0.000926759    1.513    0.339
        76  -7.8812    181.0861    122.1331   8.3951946781e+01   2.1021547259e+01    0.2158978    0.2026832 -12.13 0.0003209964    1.210    0.174
        77  -8.5563    224.7746    147.0220   8.1288109915e+01   7.0888063389e+00     0.201051    0.1981527 -69.62 0.0003871182    1.126    0.112
        78  -9.4795     40.0042    117.7227   1.2123821424e+02   4.7751332890e+01    0.1843092    0.1735608 -39.21  0.001156374    1.099    0.090
        79  -9.0388    118.0703    147.0000   1.0478967419e+02   2.8646034038e+01    0.3427837    0.2158477  47.88 0.0008992575    1.672    0.402
        80  -8.5287    168.1562    113.9384   8.4677362584e+01   2.5564608445e+01    0.3786039    0.2021926 -53.32  0.001024702    1.982    0.495
        81  -8.5325    250.0889    199.3450   8.7327747466e+01  -6.7710712505e+00    0.2184443    0.1567433 -39.77 0.0003132659    1.259    0.206
        82 -10.1523     65.2009    104.0277   1.1001930109e+02   4.7793803537e+01    0.4204192    0.2577642 -62.28  0.001556862    1.841    0.457
        83  -8.9319    114.8073    144.5803   1.0511444161e+02   2.9859092548e+01    0.3321518    0.2472539  59.42  0.001012397    1.524    0.344
        84  -8.7591    167.0350     98.9260   8.1192191839e+01   2.8818954189e+01    0.2164053    0.2027775 -79.41            0    1.027    0.026
        85  -8.4219    195.0703    199.5075   9.7759780872e+01   1.9288120157e+00    0.2121578    0.1383422  38.33  0.001026402    1.574    0.365
        86  -7.5341    130.1617     97.3925   8.9251993709e+01   3.7337187957e+01    0.1959124    0.1415783  59.08 0.0002245429    1.502    0.334
        87  -8.0095     16.2790     96.4387   1.2466261826e+02   5.4744495104e+01    0.1898195    0.1216631   7.13 0.0006170466    1.839    0.456
        88  -7.4471     21.4916     95.4293   1.2266584165e+02   5.4561300162e+01    0.1280762    0.1040638 -42.62 5.675423e-05    1.022    0.022
        89  -8.2135     87.5365     93.8701   1.0023670952e+02   4.6444467026e+01      0.39684    0.1797565  43.93  0.001156136    2.348    0.574
        90  -8.2458    205.3304    198.3227   9.5441989631e+01   3.9754104937e-01    0.1464718    0.1044394  -7.68 0.0006338275    1.698    0.411
        91  -9.6987    223.2791     92.0163   6.9811815837e+01   1.7750371194e+01    0.2249789    0.1996304 -84.60 0.0002661035    1.097    0.088
        92  -8.0961     56.9863     94.0000   1.1015061581e+02   5.1104261726e+01    0.1999891   0.07742562  31.17 0.0004670072    2.777    0.640
        93  -7.7827    128.0000     90.9461   8.8040024691e+01   3.9070109610e+01    0.2357958   0.08410981 -42.16 0.0007864543    2.833    0.647
        94  -8.1228    227.9941     88.2650   6.8355428501e+01   1.7433749815e+01    0.2172027    0.1854625 -23.96 0.0003485314    1.524    0.344
        95  -7.5334     20.0092     88.0000   1.2153834374e+02   5.6283863442e+01    0.1863945   0.07051104  20.71 0.0008146566    3.028    0.670
        96  -8.4860    110.4371     79.1523   8.9317480547e+01   4.4961202027e+01    0.2469772    0.1961103  48.30 0.0003950676    1.260    0.206
        97  -7.8599    167.3773     72.1844   7.4352797986e+01   3.3542073442e+01    0.2308052    0.1818574  51.42 0.0005285058    1.281    0.219
        98 -10.5185    156.6951     61.4374   7.3585636059e+01   3.7711570835e+01    0.4757548    0.3136194  72.06   0.00165477    1.617    0.382
        99  -8.4922    140.7315     61.7104   7.6892072189e+01   4.1316705812e+01    0.2081867    0.1694772  54.29  0.001150733    1.151    0.131
       100  -8.5533    143.4876     59.5730   7.5716695633e+01   4.1016955362e+01    0.2190994    0.1915608  60.58 0.0006921954    1.066    0.062
       101 -10.3476    124.0533     57.5624   7.9456620038e+01   4.5649414702e+01    0.2332332     0.228423   8.48 0.0001681514    1.073    0.068
       102  -8.9598    128.4293    196.4062   1.1211919068e+02   1.4742584767e+01    0.3397057    0.2282654 -64.28  0.001140687    1.619    0.382
       103 -10.1186    173.2492     39.0043   6.5056273468e+01   3.7037901938e+01    0.3679484    0.3322804 -25.81 0.0008927074    1.365    0.268
       104  -9.3844    220.0148     43.2958   6.0007677681e+01   2.6087001703e+01    0.3641756    0.2323849 -34.53  0.001354807    1.840    0.456
       105  -7.8289    193.2317     36.1291   6.1639466983e+01   3.2882126946e+01    0.1774003    0.1281412 -76.02  0.001038067    1.312    0.238
       106  -7.4631    166.4966     26.0196   6.2858009510e+01   4.0134795935e+01    0.1615751     0.126165 -35.17  0.000375121    1.482    0.325
       107  -9.9835    122.0443    186.7514   1.1189867028e+02   1.8193175552e+01    0.4630562    0.3074243 -58.55   0.00210394    1.518    0.341
       108  -8.8629    247.2524    242.0678   9.5559827867e+01  -1.3241787322e+01      0.19557    0.1795059 -16.41 0.0003756827    1.368    0.269
       109 -10.0512    132.8639    230.3140   1.1674948326e+02   6.4410969433e+00    0.4159936    0.2680505 -36.69  0.001173529    1.902    0.474
