#   1 NUMBER                 Running object number                                     
#   2 MAG_AUTO               Kron-like elliptical aperture magnitude                    [mag]
#   3 X_IMAGE                Object position along x                                    [pixel]
#   4 Y_IMAGE                Object position along y                                    [pixel]
#   5 X_WORLD                Barycenter position along world x axis                     [deg]
#   6 Y_WORLD                Barycenter position along world y axis                     [deg]
#   7 A_WORLD                Profile RMS along major axis (world units)                 [deg]
#   8 B_WORLD                Profile RMS along minor axis (world units)                 [deg]
#   9 THETA_WORLD            Position angle (CCW/world-x)                               [deg]
#  10 FWHM_WORLD             FWHM assuming a gaussian core                              [deg]
#  11 ELONGATION             A_IMAGE/B_IMAGE                                           
#  12 ELLIPTICITY            1 - B_IMAGE/A_IMAGE                                       
         1 -11.8692    225.8695     15.5035   3.8430449785e+01   2.7082770780e+01     0.730853    0.6413394 -72.41  0.002860063    1.062    0.058
         2 -12.3863    208.7852     32.9209   4.4489756449e+01   2.9039542849e+01     1.050942    0.9497474 -72.75  0.005537132    1.024    0.024
         3 -10.3970      2.0000     22.4875   1.0238790304e+02   7.0978474936e+01    0.5698588    0.1556832 -61.37  0.001955597    5.454    0.817
         4 -10.9152    215.9861     25.5352   4.1811813875e+01   2.8225259390e+01    0.5039627    0.4043908  35.65  0.001217206    1.619    0.382
         5 -10.5494      2.5329      5.0775   9.4763954803e+01   7.3886220687e+01    0.5124418    0.2008532 -46.15  0.002833394    2.096    0.523
         6  -9.6179    119.1998    241.3646   1.0846516287e+02   8.8107891620e+00    0.1667298    0.1477272  47.59    0.0011504    1.117    0.105
         7 -10.8204     87.3379    249.9364   1.1536960768e+02   1.2040601880e+01    0.7801209    0.1936325  34.97  0.002660581    4.804    0.792
         8  -9.5853     61.9955    246.3049   1.1968927893e+02   1.6096816688e+01    0.5453192    0.2948172  26.39  0.002847843    2.781    0.640
         9 -10.6730     69.4278    249.3801   1.1858552853e+02   1.4579739377e+01    0.5775615    0.2530249  34.74  0.002978548    2.351    0.575
        10  -9.2449     61.8902    250.5763   1.2002191859e+02   1.5350077982e+01    0.3355382    0.1086524  38.06 0.0003678001    2.693    0.629
        11  -9.4859     34.2182    244.3915   1.2445518169e+02   1.9809970521e+01    0.3738615    0.1503401  58.81  0.002077485    2.015    0.504
        12 -10.0425     32.8346    249.8263   1.2499699249e+02   1.8987849552e+01    0.3581014    0.2652762 -82.94  0.001373153    1.393    0.282
        13 -10.1694     29.6979    247.9606   1.2542312738e+02   1.9672399670e+01    0.3500637    0.2890402 -69.47  0.002769088    1.610    0.379
        14 -12.2263      3.8363    181.3094   1.2636336344e+02   3.5596930973e+01     2.062664    0.3833423 -77.87  0.000452839    4.447    0.775
        15 -11.3136     21.8361    223.3131   1.2541975829e+02   2.5155304862e+01    0.5046142    0.3486126 -76.34  0.002347962    1.432    0.302
        16 -13.4920     43.1457    198.0466   1.1945162614e+02   2.8034159606e+01     2.851392     1.075503  65.57   0.01109947    3.526    0.716
        17  -9.2708     41.8716    236.8781   1.2264632154e+02   2.0315570511e+01    0.2462876    0.1474875  54.44 0.0003783029    1.306    0.234
        18 -10.1381     39.3573    233.0561   1.2284853103e+02   2.1333491754e+01    0.2403973    0.1981738  58.15 0.0005373579    1.234    0.189
        19  -8.6377     94.0485    222.4531   1.1134084973e+02   1.6112446975e+01    0.3391965     0.231851 -31.24  0.001757163    2.569    0.611
        20 -11.6937     89.1611    228.9325   1.1301493933e+02   1.5588753732e+01    0.7599962    0.3765197  66.30 0.0009441811    2.489    0.598
        21 -10.3118    134.2192    230.7810   1.0420219746e+02   8.2575326132e+00    0.3252375    0.1987916 -67.96  0.001709217    2.202    0.546
        22 -11.4264    123.2986    227.1777   1.0594412036e+02   1.0663878852e+01    0.8146532     0.461403  64.44  0.003894346    2.281    0.562
        23 -11.5927    118.2219    230.9580   1.0743705285e+02   1.0789497575e+01    0.7044476    0.3014465  48.67  0.003254754    2.070    0.517
        24  -8.6069     33.6604    227.8255   1.2354508963e+02   2.2992067309e+01    0.1586752     0.118977 -73.69 0.0006892721    1.444    0.308
        25 -10.5603    141.3405    229.5586   1.0260701047e+02   7.3063120634e+00    0.4147861    0.2670223 -16.59  0.001934259    2.951    0.661
        26  -8.1250    168.3647    225.7749   9.6634552518e+01   3.4490043627e+00    0.1595741    0.1200992 -30.00 0.0005105187    1.550    0.355
        27  -9.7315     48.4340    216.2095   1.1990526320e+02   2.3580870369e+01    0.3169931    0.1545037 -61.97  0.001707255    2.154    0.536
        28  -9.1340     48.6002    225.1790   1.2057568907e+02   2.1762067641e+01    0.2029865    0.1676073 -78.25 0.0008510172    1.329    0.248
        29  -9.2844     45.6431    221.0974   1.2083027945e+02   2.2929881524e+01    0.3783304    0.1858179  71.82  0.001996566    2.034    0.508
        30 -13.8627      5.9342    141.3709   1.2288698304e+02   4.4504510444e+01     5.881454     1.356166 -81.46   0.01804068    5.157    0.806
        31  -8.3095     37.4395    223.8078   1.2258015377e+02   2.3351262498e+01    0.1646763    0.1466977  61.16  0.001024298    1.317    0.241
        32 -11.6949     34.3292    208.7682   1.2210595661e+02   2.6756062285e+01    0.5390692    0.4206629  29.13  0.001481143    1.670    0.401
        33  -9.3480     29.6163    216.7454   1.2357370237e+02   2.5636204828e+01    0.1575503   0.08733235  86.52  0.000632469    1.583    0.368
        34  -8.1523     52.8780    240.8660   1.2093685627e+02   1.8240876977e+01    0.1577382    0.1343819  74.56 0.0004146054    1.206    0.170
        35  -7.7108    193.9888    191.5112   8.5559811218e+01   4.7406072614e+00    0.1971301    0.1110917  19.27 0.0008087282    2.411    0.585
        36 -10.1238     61.1171    180.9197   1.1374803121e+02   2.9647365638e+01    0.3674543    0.2748888 -35.76  0.001325202    1.912    0.477
        37 -10.1156     66.7057    175.0405   1.1171472412e+02   3.0264523605e+01    0.3202103     0.237731 -48.15 0.0008343731    1.580    0.367
        38 -10.1610     76.2289    165.0589   1.0800983871e+02   3.1282558684e+01    0.3206498     0.306006  76.06 0.0005926888    1.127    0.113
        39 -11.2401     83.1545    158.9606   1.0530789289e+02   3.1710984577e+01    0.7546184    0.5591149 -52.65  0.001759468    1.381    0.276
        40 -10.6197     73.6508    155.3128   1.0717665233e+02   3.3993071727e+01    0.6837772     0.354645  68.91  0.002596792    2.967    0.663
        41 -11.7605     68.2327    144.6042   1.0688514229e+02   3.7361995242e+01    0.7802012    0.5334091  76.32  0.002977716    1.677    0.404
        42  -8.7376     34.8723    239.2396   1.2403756468e+02   2.0683874596e+01    0.1752138    0.1277486  82.63 0.0004284295    1.168    0.144
        43  -8.4542     62.7865    237.2512   1.1884732493e+02   1.7654130916e+01    0.1976582    0.1286547  83.97 0.0007147793    1.458    0.314
        44  -9.3462     97.8459    143.8559   9.8728343073e+01   3.2985507232e+01    0.2800968    0.2529194  22.44  0.001297412    1.261    0.207
        45  -8.1050    101.2055    139.9555   9.7035861111e+01   3.3346443879e+01    0.3122769    0.1977029 -29.36  0.001273567    2.288    0.563
        46 -10.5538     86.0297    142.5083   1.0166884067e+02   3.5252200994e+01    0.3116057    0.2634143 -43.31 0.0004705613    1.272    0.214
        47  -8.0159    133.4918    140.9878   8.8768575952e+01   2.6970786597e+01    0.2195937    0.1373292 -74.27 0.0008100565    2.501    0.600
        48 -11.7479     63.7000    161.2816   1.1060968487e+02   3.3921384022e+01    0.5067209    0.2929165 -44.90   0.00155046    2.098    0.523
        49  -8.7862     96.3956    128.3917   9.5909363968e+01   3.6977663686e+01    0.2760639    0.2211162  -4.41  0.001187506    1.663    0.399
        50  -8.3494    115.5254    125.5189   8.9915441292e+01   3.4145816795e+01    0.1533272    0.1490248 -53.30 0.0008097281    1.023    0.022
        51  -9.1385    108.0074    131.5999   9.3383975479e+01   3.4129718459e+01    0.5149081    0.2628567  43.37  0.002056515    2.000    0.500
        52  -8.2676    106.5491    120.2896   9.1162379457e+01   3.7093930728e+01    0.2360459    0.1854829  10.26   0.00054566    1.634    0.388
        53 -13.3895      6.6472    239.1785   1.2883486539e+02   2.3672016970e+01     1.898096     1.115463 -85.34   0.01367384    1.470    0.320
        54  -7.8094    205.6340    110.2516   6.5078868395e+01   1.7403505958e+01    0.2085205    0.1383169 -29.40 0.0006257732    1.534    0.348
        55 -12.7398      9.4271    207.5067   1.2680603929e+02   2.9556782547e+01    0.9071968    0.7782256  21.14  0.003789587    1.748    0.428
        56  -7.5560    134.3445    102.7187   7.8907768915e+01   3.5393086125e+01    0.1589337     0.126499  87.43 0.0007012265    1.636    0.389
        57 -10.1598      2.0000     54.9916   1.1176655316e+02   6.4557645813e+01     0.511591   0.04623599 -62.43  0.001625882    4.855    0.794
        58  -7.9606     46.8029     62.3529   9.5242890082e+01   5.9430142658e+01    0.1650639    0.1197756   8.04 0.0003740261    1.537    0.350
        59  -9.7625     13.0642     60.0164   1.0833278995e+02   6.2895517029e+01    0.1880061    0.1496048 -49.03 0.0006440582    1.028    0.027
        60 -10.5197     98.7403    247.4874   1.1302161633e+02   1.0832260290e+01    0.4481685    0.1734367  34.04  0.001995655    2.725    0.633
        61 -12.2511    200.5529     38.5527   4.7006138803e+01   3.0324219102e+01    0.7845074    0.7459454  22.72  0.003881179    1.248    0.199
        62 -10.4629     83.1259    245.1629   1.1572580462e+02   1.3466086027e+01    0.4523287    0.1633222  41.97  0.002186418    2.187    0.543
        63 -10.1786      3.1345     38.0412   1.0689236248e+02   6.7976812712e+01    0.2935782    0.2079802 -79.45  0.001868521    1.862    0.463
        64 -10.4190    114.4752    242.2033   1.0947422620e+02   9.3928617308e+00    0.4355845    0.2132819 -74.86  0.001977809    3.341    0.701
        65  -7.3372     40.3163    243.3370   1.2333442069e+02   1.9300056561e+01   0.09291486   0.08483267 -54.16 0.0007048106    1.699    0.411
