#   1 NUMBER                 Running object number                                     
#   2 MAG_AUTO               Kron-like elliptical aperture magnitude                    [mag]
#   3 X_IMAGE                Object position along x                                    [pixel]
#   4 Y_IMAGE                Object position along y                                    [pixel]
#   5 X_WORLD                Barycenter position along world x axis                     [deg]
#   6 Y_WORLD                Barycenter position along world y axis                     [deg]
#   7 A_WORLD                Profile RMS along major axis (world units)                 [deg]
#   8 B_WORLD                Profile RMS along minor axis (world units)                 [deg]
#   9 THETA_WORLD            Position angle (CCW/world-x)                               [deg]
#  10 FWHM_WORLD             FWHM assuming a gaussian core                              [deg]
#  11 ELONGATION             A_IMAGE/B_IMAGE                                           
#  12 ELLIPTICITY            1 - B_IMAGE/A_IMAGE                                       
         1 -12.6137    166.8194     52.7666   5.5461027691e+01   3.6636460887e+01     5.776309     3.540256 -45.07   0.02583195    1.606    0.377
         2 -13.8152    231.8115     57.7851   4.7895180956e+01   2.0863748856e+01     10.15178          nan -34.86  0.009169165    6.761    0.852
         3 -13.5633    233.0961     33.7787   4.1769320320e+01   2.3511911280e+01      4.08199     1.260779  58.13   0.01628613    3.401    0.706
         4 -10.4140    133.2442     19.7124   4.9852898406e+01   4.9867053715e+01    0.7808084    0.5257739  24.49  0.002001623    1.857    0.462
         5  -8.6976    159.7097     15.2439   4.4073181724e+01   4.3348500506e+01    0.3527055    0.1864238 -23.35 0.0009209279    1.954    0.488
         6  -8.7429    194.8744     11.3258   3.9039404770e+01   3.4755596116e+01    0.3118815     0.167727 -51.62  0.001466617    1.750    0.429
         7  -8.1633    236.2444      9.3751   3.5495368294e+01   2.5447148404e+01    0.4837734    0.2305679  60.38   0.00242365    2.372    0.578
         8  -8.6636    233.1690      6.4041   3.4950288812e+01   2.6395329827e+01    0.2266624    0.2067736 -60.72  0.001059964    1.122    0.109
         9  -8.3036    146.1716     10.2799   4.4130733595e+01   4.7453395585e+01    0.2737482    0.1483202 -35.36   0.00109855    1.796    0.443
        10  -8.3066    214.1992     10.1008   3.7146338355e+01   3.0267326176e+01    0.1736315    0.1596573 -36.18 0.0002624241    1.138    0.121
        11  -9.9290    248.5457      3.2491   3.3364707671e+01   2.3489872562e+01    0.4078458    0.3183003  32.70   0.00170346    1.777    0.437
        12  -7.7521    243.7297      1.3609   3.3164040511e+01   2.4650131340e+01    0.1850963    0.1294589 -59.88 0.0004719653    1.238    0.192
        13  -7.9216    123.1475      7.1741   4.6533602244e+01   5.3890014614e+01    0.1936148    0.1599784 -60.45 0.0003976158    1.281    0.219
        14  -7.8238    217.9251      4.4697   3.5398755946e+01   2.9960206296e+01    0.1843434    0.1433676 -36.62 0.0004719363    1.169    0.144
        15  -8.1501    208.9623      3.3206   3.5686296766e+01   3.2144408523e+01     0.203875    0.1442906 -44.18 0.0003099724    1.229    0.187
        16  -8.8534    231.7597     17.6091   3.7825187614e+01   2.5571716580e+01    0.4368815    0.1527749 -33.20     0.001908    2.213    0.548
        17  -8.9522    195.0775    179.3319   8.0826797570e+01   9.9410307348e+00    0.1953971    0.1659359 -19.25 0.0002433085    1.202    0.168
        18  -6.9221    180.6742    177.3353   8.3216057960e+01   1.2544324033e+01    0.1191817    0.1031469  72.15 0.0007051454    1.718    0.418
        19 -11.3075     15.4579    169.2916   1.2117558634e+02   3.7325647770e+01    0.7435384      0.30215 -79.66  0.003692012    2.263    0.558
        20  -8.6188     59.5929    171.1314   1.1023814914e+02   3.2370636247e+01    0.2013505    0.1663715  37.26  0.000335933    1.211    0.174
        21 -11.9450     35.0042    165.7098   1.1603521376e+02   3.6318338050e+01    0.6303297    0.5780417  59.93  0.001574056    1.160    0.138
        22 -11.8409     45.5398    159.6903   1.1277371061e+02   3.6572866650e+01    0.8053324    0.7529122  62.90  0.002692094    1.147    0.128
        23  -7.3762    122.8375    170.3897   9.4515162041e+01   2.3353382498e+01    0.1721014    0.1198785  28.09 0.0002204573    1.429    0.300
        24 -11.3619    236.1650    154.9221   6.9212042353e+01   6.8924886142e+00    0.6235332    0.4116709 -19.04  0.003770144    1.335    0.251
        25  -9.9243     60.1236    153.6338   1.0819513619e+02   3.6255367439e+01    0.3104664      0.24766  10.76  0.001769431    1.590    0.371
        26 -11.5891    182.5157     82.5924   6.1465605952e+01   2.8115718548e+01     1.140021    0.9863454  -1.90  0.004006932    1.254    0.203
        27 -11.5672    177.9434     71.4936   5.9154419738e+01   3.0988868005e+01    0.6675185    0.4560779 -38.70  0.003193306    1.383    0.277
        28  -7.9921    230.4982    243.9722   8.4809900680e+01  -2.5126581786e+00    0.1320125   0.08636232 -17.96 0.0004054191    1.509    0.337
        29  -9.0238    203.2383    110.5948   6.5006081082e+01   1.9122882295e+01    0.2708406    0.1680238  40.92  0.001322574    1.702    0.413
        30  -8.3494    134.6470    110.8531   7.9527265821e+01   3.3470726024e+01    0.2178436    0.1393936 -54.75 0.0008750695    1.714    0.416
        31  -8.1615    216.5062    110.5104   6.2806532326e+01   1.6537787924e+01    0.1359409    0.1199983 -16.61 0.0008105729    1.001    0.001
        32  -8.0372    202.4839    104.5411   6.3671588319e+01   2.0232449190e+01    0.2596815    0.1294174 -22.43  0.001030996    2.385    0.581
        33  -9.1219     69.8424    145.1653   1.0439600987e+02   3.6966487360e+01    0.3923614    0.2844527  71.09  0.001606842    1.416    0.294
        34  -8.9274    150.1130    101.3795   7.3297295567e+01   3.2065970668e+01    0.3813814    0.2561206  36.11 0.0006841879    1.604    0.377
        35  -7.6519    146.1767    100.6310   7.4025344739e+01   3.3080081364e+01    0.2177178    0.1489486  46.94 0.0001810136    1.471    0.320
        36  -8.3033     88.5454    100.2090   9.0151292005e+01   4.4893010362e+01    0.2284589    0.2029051  39.86 0.0002632713    1.157    0.136
        37  -8.3157    135.7935     97.5305   7.5740677340e+01   3.5988031082e+01    0.2882923    0.2335947 -78.26  0.001232933    1.522    0.343
        38  -9.0345     66.3821    143.2062   1.0510621584e+02   3.7896435627e+01     0.385705    0.2614151  83.56  0.001482119    1.602    0.376
        39  -9.9413    161.4603     94.6743   6.8944481571e+01   3.0806878888e+01    0.6266927    0.3592977  35.66  0.002564437    2.056    0.514
        40  -8.0355    161.0243    129.0397   7.7629151429e+01   2.4442500919e+01     0.225949     0.185521 -86.50  0.001140607    1.683    0.406
        41  -9.0360    143.9685     91.1403   7.1937071006e+01   3.5445405016e+01    0.3144294    0.2519718 -49.05  0.001543795    1.264    0.209
        42  -8.6209    142.1701    126.7347   8.1455336586e+01   2.8659707808e+01    0.2415343       0.2048 -37.92 0.0002607753    1.206    0.171
        43  -9.7301    198.7932    125.4339   6.9248296576e+01   1.7625641153e+01    0.2514288    0.2305593  14.89 0.0003419728    1.079    0.074
        44 -10.3447    159.5454     85.3910   6.6761883705e+01   3.2945820577e+01    0.3650005    0.2822057 -21.48 0.0008342614    1.402    0.287
        45  -9.1078    184.6618    124.9673   7.1790252249e+01   2.0460208421e+01    0.2666687    0.1932285  16.47   0.00133179    1.596    0.374
        46 -10.3821    105.0011     80.3767   7.9400083591e+01   4.6276746050e+01    0.2711728    0.2411218 -42.91 0.0003802005    1.114    0.103
        47  -9.0478    201.2238     77.9398   5.7089574013e+01   2.4634137105e+01    0.3337486    0.2244446 -18.03  0.001570791    1.606    0.377
        48 -10.0331    195.9984     75.3712   5.7216030604e+01   2.6193154099e+01    0.3777994    0.2557967  41.10  0.001088341    1.651    0.394
        49  -9.9246    201.8451     72.3687   5.5509146591e+01   2.5329958025e+01    0.3726555     0.274655  30.99  0.001204703    1.613    0.380
        50  -7.5833    116.4835     78.5540   7.5405583610e+01   4.4191591441e+01    0.1520479    0.1508014 -15.16 1.379487e-05    1.025    0.025
        51  -8.3711    246.9505    242.3530   8.2067792854e+01  -4.1885596955e+00    0.1406351   0.08909486  18.62 0.0003836737    1.167    0.143
        52  -8.4484    110.2919     73.8367   7.5722843914e+01   4.6539883808e+01    0.2464297      0.19097 -63.35 0.0008712772    1.452    0.311
        53 -11.8993    218.5276     63.5777   5.0912151975e+01   2.2907384709e+01    0.8873013    0.8220732  84.15  0.003244181    1.200    0.167
        54  -8.3389    196.9103     63.2921   5.3760173697e+01   2.7787003109e+01    0.2408728    0.1789991 -42.81 0.0004140129    1.254    0.203
        55  -8.4645    203.9021    122.0289   6.7565608716e+01   1.7187494078e+01    0.2076007    0.1831838 -12.10 0.0003449117    1.026    0.025
        56  -9.0783     58.9675    147.3098   1.0775174808e+02   3.7880683499e+01    0.1923449    0.1684418  53.00  0.001163083    1.089    0.081
        57  -7.4036    106.9121    238.8418   1.0624297959e+02   1.3738950594e+01    0.1550591     0.100582  48.36 0.0004208052    1.324    0.245
        58  -8.4575    195.9931     53.8307   5.1233872800e+01   2.9347966021e+01    0.2569234    0.1896026 -35.93 0.0006453526    1.243    0.196
        59  -8.6760    133.6137     39.1655   5.7274708516e+01   4.7173543102e+01    0.2178281    0.1466555 -15.76 0.0009549069    1.750    0.429
        60  -8.0605    123.3311     38.2916   5.9299325302e+01   4.9932440919e+01    0.1560161    0.1141517  26.96 0.0002643742    1.629    0.386
        61  -8.5617    201.5251    115.4921   6.6463492055e+01   1.8685610958e+01    0.3245528    0.1236961  43.44  0.001240105    2.768    0.639
        62  -8.0653    206.7557     30.5135   4.3374003783e+01   2.9793042231e+01    0.2544908    0.1787706 -31.05   0.00131489    1.317    0.241
        63  -8.3890    135.4724     27.4883   5.2460516350e+01   4.8317871599e+01    0.1463704    0.1428935  76.97 -2.595073e-05    1.009    0.009
        64  -6.9751    167.6905    113.3324   7.2458886831e+01   2.6000036078e+01     0.146295    0.1177226 -76.65 0.0007042181    1.671    0.402
        65  -7.9647    163.2340     25.3351   4.7042284036e+01   4.1282182900e+01    0.2170895    0.1636514  51.60  0.000691945    1.376    0.273
        66  -7.5364     93.6636     25.3290   6.1848499004e+01   5.9174916945e+01     0.149667    0.1134297 -69.14 0.0007051989    1.729    0.422
        67  -8.2967    217.8892    231.9873   8.5169624878e+01   1.8192488540e-01    0.1581147    0.1164645  14.07 0.0004020608    1.042    0.041
        68  -8.6438    162.4243    120.1241   7.5243903727e+01   2.5835820265e+01    0.4100428    0.2522109 -64.21  0.001515091    2.638    0.621
        69  -7.3873    105.0500    120.5835   8.9855173826e+01   3.7140800219e+01    0.2013974    0.1411625  41.88 5.201808e-05    1.400    0.286
        70  -9.0419    216.4198    214.4202   8.2834541688e+01   2.3143301945e+00    0.1962965      0.18376   9.56 0.0006107596    1.530    0.346
        71  -7.3522    238.3251     13.2598   3.6312877535e+01   2.4618758456e+01    0.1113428   0.09297335  34.74 0.0002007124    1.556    0.357
        72 -10.4638    235.9867    207.5866   7.8578625856e+01   5.6407434162e-01    0.2021569    0.1563598   3.47 0.0003593891    1.091    0.084
        73  -9.0586    204.6151    209.0262   8.4025355168e+01   4.5442820961e+00    0.2424784    0.1405138  34.55 0.0009778646    1.514    0.340
        74  -9.1517    205.6882    204.3608   8.3107906546e+01   4.9789157745e+00    0.2131363    0.1739025   2.29 0.0003297728    1.099    0.090
        75  -9.0395    206.2213    199.4702   8.2230841715e+01   5.5254774821e+00    0.2127537    0.1741255   2.01 0.0002529963    1.088    0.081
        76  -7.4798    216.0000    199.9917   8.0627829708e+01   4.0902199994e+00    0.1632639   0.06089068 -34.78 0.0003453535    2.767    0.639
        77  -7.7510    232.8503    195.5774   7.7115924225e+01   2.3291887173e+00    0.1674107    0.1176244 -24.25 0.0002554564    1.394    0.283
        78 -10.2639    173.8271    194.7390   8.7468577041e+01   1.0973782042e+01    0.2220265    0.2013342  16.87 0.0003996865    1.142    0.124
        79  -8.2210    126.0265    193.5745   9.7211244283e+01   1.8521462027e+01    0.1678381    0.1557163  36.87 0.0004017536    1.087    0.080
        80 -11.3786      3.1298    185.0603   1.2470094167e+02   3.4968106000e+01    0.7544752    0.2980558 -86.96  0.003961996    2.304    0.566
        81  -9.2386     58.5343    186.9259   1.1196761161e+02   2.9134408139e+01    0.2091884    0.1675614  42.75 0.0003778908    1.144    0.126
        82  -7.7050    227.1377    111.1834   6.1334567975e+01   1.4441052313e+01    0.1710985    0.1462016 -46.84 0.0003880917    1.312    0.238
