#   1 NUMBER                 Running object number                                     
#   2 MAG_AUTO               Kron-like elliptical aperture magnitude                    [mag]
#   3 X_IMAGE                Object position along x                                    [pixel]
#   4 Y_IMAGE                Object position along y                                    [pixel]
#   5 X_WORLD                Barycenter position along world x axis                     [deg]
#   6 Y_WORLD                Barycenter position along world y axis                     [deg]
#   7 A_WORLD                Profile RMS along major axis (world units)                 [deg]
#   8 B_WORLD                Profile RMS along minor axis (world units)                 [deg]
#   9 THETA_WORLD            Position angle (CCW/world-x)                               [deg]
#  10 FWHM_WORLD             FWHM assuming a gaussian core                              [deg]
#  11 ELONGATION             A_IMAGE/B_IMAGE                                           
#  12 ELLIPTICITY            1 - B_IMAGE/A_IMAGE                                       
         1 -12.1423     42.4591     19.9302   1.0893700374e+02   6.6922937810e+01    0.5966417    0.5433106 -39.93  0.003592633    1.147    0.128
         2 -12.1949    216.6601     16.6141   6.6953424338e+01   2.8218905549e+01    0.4443538    0.3396704  59.48   0.00123664    1.335    0.251
         3 -13.6335    185.5865      6.3355   6.7233227695e+01   3.7410689726e+01    0.8596688    0.6319688 -63.72  0.004253301    1.497    0.332
         4 -11.8235     43.7402      8.3805   1.0305313813e+02   6.8771026371e+01    0.2711859    0.2475682 -23.98  0.001160211    1.163    0.140
         5 -11.4979     58.0894      7.2513   9.6571516191e+01   6.6853557977e+01      0.43602    0.1952095  58.16  0.001634556    4.595    0.782
         6 -11.2046    165.1997      2.3724   6.8477626027e+01   4.3239008753e+01    0.2126184    0.1377585  85.65 0.0009576151    1.749    0.428
         7 -10.1098    103.6470    225.1973   1.3129621291e+02   1.9425140993e+01    0.1176184   0.09221321 -59.21 0.0009453974    1.702    0.412
         8 -11.4574     95.8904    224.1598   1.3244940137e+02   2.0602676490e+01    0.2632032    0.2075131  87.61  0.002202122    1.332    0.249
         9 -11.3328    149.7213    222.1121   1.2360787037e+02   1.3252230333e+01    0.3188907    0.1949712 -54.89  0.002193449    2.175    0.540
        10 -11.3010    226.5301    221.2908   1.1163934361e+02   1.6576222627e+00    0.1612361    0.1002051 -33.03    0.0011295    2.065    0.516
        11 -10.1490    173.8242    221.5808   1.1972017052e+02   9.6609250995e+00    0.1684217   0.08237913 -39.45  0.001011135    2.747    0.636
        12 -10.6231    211.4162    217.7856   1.1341143942e+02   4.2752790796e+00    0.1655634    0.1031902 -37.00  0.001129638    2.093    0.522
        13 -10.8321    219.4404    212.4674   1.1144992783e+02   3.5564095116e+00     0.277301    0.1793425  69.04  0.001458073    3.502    0.714
        14 -10.9133    116.0804    209.2442   1.2776362705e+02   1.9946773857e+01    0.2410925    0.1445338 -60.81  0.001614731    2.016    0.504
        15 -11.0394    185.7642    203.2381   1.1541660245e+02   9.9022058623e+00    0.2354404    0.1394057 -47.57  0.001448216    2.267    0.559
        16 -10.4591     48.7644    201.7588   1.3854811840e+02   2.9796405084e+01    0.1518067   0.06699547  89.98 0.0008868622    2.443    0.591
        17 -10.7425      4.6096    198.8616   1.4569283027e+02   3.4644549709e+01    0.2465629   0.05625045  58.51   0.00129375    3.123    0.680
        18 -10.0440    177.6682    198.3337   1.1605660803e+02   1.1820627457e+01    0.1114482   0.08287254  69.08 0.0007052209    1.729    0.422
        19 -10.7412    112.6546    197.8435   1.2715309883e+02   2.2142397830e+01    0.2239483    0.1242194  86.20  0.001155199    2.944    0.660
        20 -10.1413    133.2297    195.2898   1.2325098176e+02   1.9409670219e+01    0.1545202   0.09053098 -69.16 0.0007969426    2.350    0.574
        21 -10.1712    215.3748    194.1848   1.0933422712e+02   6.0689434814e+00    0.1409178    0.1052411 -41.74 0.0007452932    1.785    0.440
        22 -12.0506    159.6608    192.3815   1.1827259344e+02   1.5571166539e+01    0.5018287     0.340365 -85.42  0.002828244    2.547    0.607
        23 -10.1339    192.9986    188.4942   1.1205652353e+02   1.0469215240e+01    0.1645988   0.09362593  62.21 0.0008106289    2.593    0.614
        24 -10.3648     94.6691    186.3463   1.2914240496e+02   2.6566881091e+01    0.1203968   0.07054479  69.22 0.0007049826    1.760    0.432
        25 -10.6270    183.2618    183.2547   1.1287600898e+02   1.2798935168e+01    0.2439918    0.1701434 -28.43  0.001525212    1.749    0.428
        26 -10.3580    210.5831    182.6812   1.0824623242e+02   8.1538313920e+00    0.2044993    0.1133204 -25.69  0.001142539    2.142    0.533
        27 -10.5069    158.9979    187.7579   1.1773981521e+02   1.6322650851e+01    0.2599433    0.1265254  47.48 0.0009410813    1.710    0.415
        28  -9.9886    137.3508    178.6830   1.2034207886e+02   2.1269203743e+01    0.1235637   0.08298688  70.32  0.000496976    1.735    0.424
        29 -11.6162     34.8320    173.7345   1.3913427652e+02   3.6110460089e+01    0.2619783    0.1105915  82.71  0.001410736    2.525    0.604
        30 -11.8944    120.8323    167.9204   1.2195091277e+02   2.5723268006e+01    0.3302615    0.1578008 -62.26  0.001628531    2.540    0.606
        31 -10.2071     55.3161    167.6750   1.3474289947e+02   3.4961705986e+01    0.1178496   0.06532328  69.01 0.0004238593    1.669    0.401
        32 -10.8693     98.9796    166.0109   1.2596623881e+02   2.9449279370e+01    0.1979526    0.1245327  72.53  0.001076819    1.718    0.418
        33 -10.2048    138.3150    163.9744   1.1799868609e+02   2.3467701114e+01    0.1883633   0.09773176 -72.99 0.0007047816    4.297    0.767
        34 -11.9482    106.2758    157.0922   1.2330951085e+02   2.9944553374e+01    0.5423939    0.3499928 -85.63  0.003027498    1.880    0.468
        35 -10.2368    128.3365    158.6732   1.1912066645e+02   2.6065842135e+01    0.1295092   0.08909996  74.74 0.0004107197    1.723    0.420
        36 -10.6034    218.4722    156.5285   1.0230678906e+02   9.8645802406e+00    0.2058867    0.1112607 -42.23 0.0009357098    2.284    0.562
        37 -11.2092    167.2238    156.7099   1.1131324842e+02   1.9440067256e+01    0.2825732    0.1920501 -75.17  0.001409281    2.442    0.591
        38 -10.2640      7.0000    155.9375   1.4331878525e+02   4.1975038967e+01    0.1594681   0.04562275 -79.31 0.0006974799    2.869    0.651
        39 -10.9307    189.9141    150.3084   1.0599162370e+02   1.6090252980e+01    0.2736616    0.1852901 -54.38  0.001454033    1.968    0.492
        40 -10.5954     28.4803    155.9620   1.3907907113e+02   4.0047322860e+01     0.158734   0.06673349  78.07 0.0008098161    2.537    0.606
        41 -11.5250    107.0885    145.3389   1.2139406075e+02   3.1992346673e+01    0.3680615     0.208827  76.31  0.001656491    2.717    0.632
        42 -10.4553    148.4695    144.9686   1.1280613928e+02   2.4834644530e+01    0.1775213    0.1120707 -73.64 0.0007349651    2.524    0.604
        43 -10.0244    181.3563    141.6688   1.0585453640e+02   1.9029570049e+01    0.1325077    0.1044817  87.20 0.0007044028    1.789    0.441
        44 -11.9140     82.9461    129.3877   1.2423474917e+02   3.8820285189e+01    0.5590784    0.1664537 -63.30  0.002054381    3.677    0.728
        45 -10.5637    131.3888    129.9769   1.1351031735e+02   3.0675708310e+01    0.3566632    0.1158991 -58.54 0.0009603357    6.247    0.840
        46 -12.0743     98.3764    127.8215   1.2043540148e+02   3.6791034651e+01    0.5726681    0.2932321 -80.70  0.002171954    3.675    0.728
        47 -11.1695     42.6484    121.9434   1.3269991980e+02   4.5426670055e+01    0.4797369     0.156869 -80.31    0.0016819    4.579    0.782
        48 -11.1752     27.1982    121.1245   1.3630158010e+02   4.7128144141e+01    0.5139482    0.1812275  83.45  0.001653078    6.068    0.835
        49 -11.3445    193.0505    118.6264   9.8767871727e+01   2.0131212354e+01    0.5067152    0.3748707 -62.71  0.002563167    1.850    0.459
        50 -10.6131     37.7349    121.0576   1.3377405984e+02   4.6122927425e+01    0.1730688     0.142829  69.25 0.0003550857    1.159    0.137
        51 -10.8163     70.6734    119.8398   1.2563668413e+02   4.2501041461e+01    0.2751491    0.1417425 -89.80  0.001166232    2.988    0.665
        52 -11.5518    141.2345    114.7922   1.0822545607e+02   3.1602158683e+01    0.6066671    0.2382798 -37.52  0.002200106    3.149    0.682
        53 -10.8042    108.0033    112.2784   1.1525211164e+02   3.8313617080e+01    0.4117833    0.1765615 -63.79  0.001499721    3.313    0.698
        54 -11.1263     78.5806    112.3396   1.2243874398e+02   4.2975954706e+01    0.4017867    0.2045971 -84.29  0.001565776    3.412    0.707
        55 -10.4946    174.2767    111.6131   1.0067014906e+02   2.5267847690e+01     0.256114    0.1685955 -48.07 0.0007880002    1.669    0.401
        56 -11.6060    159.7466    111.1089   1.0346530708e+02   2.8458329959e+01    0.4615867    0.2617004 -49.22  0.002073562    1.931    0.482
        57 -11.5361    121.5674    111.2399   1.1185142689e+02   3.6077524903e+01    0.3429936    0.1296685 -46.87  0.001320313    2.676    0.626
        58 -10.9130     58.8508    124.1326   1.2910995194e+02   4.3119121208e+01    0.3136128    0.1437596  87.65  0.001213487    3.795    0.736
        59 -11.7056     13.7823    108.8732   1.3834964866e+02   5.0829827373e+01    0.4676806    0.1524951 -73.60  0.002296236    2.385    0.581
        60  -9.8379     59.3142    109.6493   1.2684744886e+02   4.6119456903e+01    0.1304581   0.08329558  78.07  0.000704647    1.727    0.421
        61 -12.3579    140.7756    102.7747   1.0553982700e+02   3.3928057904e+01    0.5610281     0.341901 -47.18  0.002645959    1.664    0.399
        62 -12.2724     44.0007    100.7518   1.2946495125e+02   4.9797131767e+01    0.5397599    0.2759186  83.47  0.002516939    2.652    0.623
        63 -11.8034    150.0112    102.5288   1.0345830162e+02   3.2043962376e+01    0.2887484     0.199282 -57.75  0.001391863    1.656    0.396
        64 -11.6773    127.8104    101.3737   1.0815366094e+02   3.6805357938e+01    0.4134547    0.1923749 -53.82  0.001658592    2.376    0.579
        65 -12.4336    108.3322     98.9562   1.1226690016e+02   4.0953494613e+01    0.6371512    0.4159852  83.84  0.002861963    2.342    0.573
        66 -10.8732     81.3987    100.1932   1.1940854693e+02   4.5130369291e+01    0.1927804    0.1145365 -69.75 0.0009530656    1.756    0.431
        67 -11.0274     19.6043     97.5496   1.3560504461e+02   5.2775630948e+01    0.2896402   0.09421854 -77.69  0.001258088    2.855    0.650
        68 -10.8463     94.3363     96.8372   1.1532810953e+02   4.3802275252e+01    0.2762873    0.1179356 -60.37  0.001089875    2.589    0.614
        69 -10.9792     62.4995     95.0007   1.2344799152e+02   4.8870328542e+01    0.3236076    0.1161313 -71.60  0.001041115    4.507    0.778
        70 -12.8436    170.0642     90.7205   9.6262379582e+01   2.9683486928e+01    0.3536399    0.3234486  86.93 0.0007419975    1.219    0.179
        71 -10.0889    173.4396     86.4905   9.4457797951e+01   2.9608696802e+01    0.2108252    0.1711496  11.87 0.0001217548    1.413    0.292
        72  -9.6618     79.5682     90.5273   1.1784727567e+02   4.7460156074e+01    0.1314987    0.1160295 -73.54 8.239159e-05    1.018    0.017
        73 -10.7811    151.2416     89.2373   9.9784798060e+01   3.4173614421e+01    0.2413628    0.1094227 -48.88 0.0008965752    2.464    0.594
        74 -11.2281     41.6754     87.9347   1.2802260568e+02   5.2828668592e+01    0.2298447     0.176834  -0.87  0.001249058    1.995    0.499
        75 -11.4588     86.2350     86.5423   1.1510970346e+02   4.7275915969e+01    0.3407452    0.2277299 -76.12  0.001716575    1.767    0.434
        76 -10.7710    140.5194     83.0127   1.0047403778e+02   3.7653377344e+01    0.3416142     0.131004 -45.98  0.001207501    2.678    0.627
        77 -11.5017    103.8678     82.6811   1.0940243853e+02   4.5071821693e+01    0.4387044    0.1864608 -55.11  0.001690384    2.536    0.606
        78 -10.9103     46.1309     80.8388   1.2540297703e+02   5.3901927076e+01     0.330169    0.1435418 -46.30  0.001361053    2.508    0.601
        79 -10.8504     24.4033     81.1818   1.3199213618e+02   5.5925687087e+01    0.1756785   0.09254726 -81.84 0.0009517063    1.774    0.436
        80 -11.3151     82.1902     73.2021   1.1289112874e+02   5.0721514925e+01    0.3519969    0.2064547 -79.31  0.001415722    3.002    0.667
        81 -11.1311    223.6452     71.0980   8.1680812008e+01   2.0009525357e+01    0.2528822    0.2393358  69.84 0.0004403387    1.178    0.151
        82 -10.2455    115.6857     72.3555   1.0345050557e+02   4.4867745074e+01    0.1484643    0.1108812 -77.82 0.0007044953    1.740    0.425
        83 -10.9294     62.4784     69.9879   1.1798387215e+02   5.4274989148e+01    0.2079854    0.1119982 -56.40 0.0008910039    1.608    0.378
        84 -10.8300     51.4255     69.6976   1.2138161277e+02   5.5723144459e+01    0.2479928    0.1094477 -63.46  0.001132611    2.076    0.518
        85 -10.1141    195.3390     68.6887   8.5455013217e+01   2.7134618926e+01    0.1531384    0.1143207 -65.13  0.000704545    1.691    0.409
        86 -10.6303    219.0929     66.6211   8.1127305478e+01   2.1671665804e+01    0.2961764    0.2148986 -13.54  0.001470499    1.394    0.282
        87 -13.5038     27.4850     59.6030   1.2704472521e+02   6.0362605997e+01    0.6859881    0.3847926  39.99  0.003998778    2.104    0.525
        88 -11.9592      7.7402     55.5151   1.3317039850e+02   6.2712882638e+01    0.5190434    0.1334812 -73.99  0.001950185    3.808    0.737
        89 -11.4031     39.7186     52.3856   1.2100768810e+02   6.0741003506e+01    0.2979029    0.1453063 -42.39 0.0007797453    2.084    0.520
        90 -12.2702     20.4096     50.9567   1.2767414390e+02   6.2809389888e+01    0.4527952    0.1529673 -63.86  0.002097375    2.272    0.560
        91 -10.5047    149.4911     52.5013   8.9162096024e+01   4.0882005583e+01     0.148788    0.1447209 -33.24   0.00030893    1.028    0.027
        92 -11.9880    232.5968     60.8271   7.7663605328e+01   1.9215656739e+01    0.5797347    0.2739253  70.77  0.002247822    2.800    0.643
        93 -10.1386    215.8999     47.5522   7.6189853600e+01   2.4894232050e+01    0.2043545    0.1434767  60.84 0.0003135283    1.479    0.324
        94 -11.2068     82.3720     44.9494   1.0411152400e+02   5.6366714702e+01    0.3378566    0.2164104 -34.56  0.001015019    1.523    0.343
        95 -10.0115    157.0384     44.8010   8.5027662492e+01   4.0212662734e+01    0.2013226    0.1195074  59.22 0.0006147088    1.731    0.422
        96 -11.0988      6.3155     43.0297   1.3130752751e+02   6.5471173980e+01    0.3671255    0.2417458  51.24   0.00243267    1.900    0.474
        97 -11.4677     69.6955     41.3922   1.0699904624e+02   5.9110982080e+01    0.3408389    0.2334968 -74.42  0.001676799    2.198    0.545
        98 -11.1874     43.1590     39.1354   1.1582394777e+02   6.3120296535e+01    0.2216364    0.2017759  57.32 0.0006984723    1.341    0.255
        99 -10.6139    119.6279     33.7611   8.9334135639e+01   5.0853492382e+01     0.266395    0.1783545 -40.69  0.001041138    1.466    0.318
       100 -11.3955    103.7189     30.1524   9.2083231269e+01   5.4883857458e+01    0.5256305    0.3593321  74.96    0.0021566    2.146    0.534
       101  -9.8028    152.4738     30.4794   8.0901339566e+01   4.3390315239e+01    0.1479184    0.1442065 -18.93 0.0001045287    1.028    0.027
       102 -12.2255    220.1346    247.8246   1.1599145336e+02   3.1726910565e-01    0.2552767    0.2133764  48.43  0.002245159    1.491    0.329
       103 -10.4616    239.8831     20.9592   6.5861466252e+01   2.1986787274e+01    0.2097442    0.1916633 -34.09 0.0005577527    1.015    0.015
       104 -11.9362     24.7278    241.4425   1.4425247521e+02   2.6319165592e+01    0.3187714   0.08572592  64.60  0.001749614    3.351    0.702
       105 -10.1531     88.3476     17.6644   9.1206585701e+01   5.9919534460e+01    0.1373697    0.1043982 -62.51  0.000678283    1.777    0.437
       106 -11.2496      8.5106    240.4819   1.4649754051e+02   2.7986353143e+01    0.1646956    0.0629309  41.39  0.001047172    2.112    0.527
       107 -11.4959     29.7115    233.2216   1.4320712885e+02   2.6990115005e+01    0.3634274    0.1091575  60.33  0.001974656    2.555    0.609
       108 -10.8402     12.8395    227.3402   1.4545624612e+02   2.9478478985e+01    0.1495498    0.0829118  73.38  0.000556183    1.304    0.233
