#   1 NUMBER                 Running object number                                     
#   2 MAG_AUTO               Kron-like elliptical aperture magnitude                    [mag]
#   3 X_IMAGE                Object position along x                                    [pixel]
#   4 Y_IMAGE                Object position along y                                    [pixel]
#   5 X_WORLD                Barycenter position along world x axis                     [deg]
#   6 Y_WORLD                Barycenter position along world y axis                     [deg]
#   7 A_WORLD                Profile RMS along major axis (world units)                 [deg]
#   8 B_WORLD                Profile RMS along minor axis (world units)                 [deg]
#   9 THETA_WORLD            Position angle (CCW/world-x)                               [deg]
#  10 FWHM_WORLD             FWHM assuming a gaussian core                              [deg]
#  11 ELONGATION             A_IMAGE/B_IMAGE                                           
#  12 ELLIPTICITY            1 - B_IMAGE/A_IMAGE                                       
         1 -14.5534     68.5069    144.4597   1.0023491890e+02   3.7377720387e+01     5.184213      2.77334  70.73   0.00513715    3.526    0.716
         2 -14.4286    205.6560     39.7619   4.0845544492e+01   2.9296003506e+01     1.984975      1.45658  34.15  0.007581329    1.907    0.476
         3 -14.2718    219.1864     26.9875   3.6437679695e+01   2.7879823859e+01     1.231952    0.9005826  40.23  0.007184264    1.913    0.477
         4 -12.6211    247.5151      4.0788   2.9500818904e+01   2.4579192504e+01    0.5249015    0.4141802  60.07  0.003359744    1.621    0.383
         5 -12.5373    241.8708      3.7726   2.9792462633e+01   2.5732235466e+01     0.430961    0.2788681 -75.51  0.002775896    1.290    0.225
         6 -10.4064     51.0394      3.7228   6.1259721642e+01   6.7807630264e+01    0.2212476    0.1736471  56.63 0.0009685158    1.691    0.409
         7  -9.8934     46.9684      2.0000   6.1999915318e+01   6.8658523245e+01      0.20846    0.1434797  51.31 0.0008197522    1.714    0.417
         8 -10.9417    108.2470    203.7121   9.9580809169e+01   1.7055607584e+01    0.3606064    0.2279947  26.15  0.001409936    1.758    0.431
         9 -10.7343    140.1306    249.5658   9.8996586703e+01   3.2023847108e+00    0.2338083    0.1614299 -27.37  0.001332956    1.876    0.467
        10 -13.8921      4.3136    184.4964   1.2170242628e+02   3.4372103615e+01     1.453408     0.531389 -82.72 0.0006933012    2.416    0.586
        11 -15.6161     82.3630    220.4447   1.0766049743e+02   1.7356654123e+01     7.525847     1.519899  38.24   0.01176906    3.839    0.740
        12 -15.2501     46.6299    190.9161   1.1254309369e+02   2.8682041105e+01     3.110794     1.675279 -81.37   0.01514213    1.855    0.461
        13 -10.3911    207.4909    193.0200   7.5830628485e+01   2.2930373256e+00     0.206767    0.1252289 -37.18  0.000616256    1.580    0.367
        14  -9.6925    149.3654    187.5625   8.7219886772e+01   1.3501917300e+01    0.2657418     0.213941  60.89 0.0007917149    1.457    0.313
        15  -9.1958     82.5128    182.4215   1.0266731190e+02   2.5938389082e+01    0.2158575    0.1349846 -64.02 0.0001415863    1.576    0.366
        16  -9.5936     79.5596    181.7608   1.0331409106e+02   2.6531837714e+01     0.414222    0.2409223 -82.43  0.001751804    2.138    0.532
        17  -9.7979     99.3955    180.8871   9.8170348028e+01   2.3681288629e+01    0.2551902    0.2087343  28.74 0.0005789911    1.298    0.230
        18  -9.9185    189.2197    177.3539   7.6397716043e+01   8.3172368034e+00    0.4281617    0.2179654 -52.76  0.001707524    2.464    0.594
        19 -12.1906     63.4029    174.9124   1.0645529630e+02   3.0445933941e+01     0.481973    0.3126994 -40.20  0.002331457    1.903    0.475
        20 -12.0074     68.2279    170.0882   1.0451167948e+02   3.0984642960e+01      0.33631    0.2809803 -35.09 0.0006535481    1.413    0.292
        21 -10.5519    239.0134    175.2411   6.6509165680e+01   2.6990383220e-01    0.1625816    0.1085899  34.83 0.0008899635    1.632    0.387
        22  -9.1820    148.4296    175.2109   8.5052658124e+01   1.6320995979e+01    0.3128576    0.1919918 -72.02   0.00117551    2.801    0.643
        23  -9.7734    146.3111    171.6439   8.4840498571e+01   1.7499324680e+01    0.2574537    0.1842755 -55.96  0.001090308    1.506    0.336
        24 -12.7724     85.1586    154.3252   9.7311346410e+01   3.2432649205e+01     1.490446    0.8134007 -54.14  0.002050907    1.735    0.424
        25 -12.5999     77.7618    160.6730   1.0046755279e+02   3.1969782181e+01    0.7336485    0.5312812  55.69 0.0004873465    1.458    0.314
        26 -13.5675     65.0849    156.6494   1.0328569211e+02   3.4766039388e+01    0.5764241    0.4272689 -48.31  0.001333088    1.375    0.273
        27 -15.4040      3.8707    247.8238   1.2528505406e+02   2.1050806214e+01     1.937005    0.8680345 -65.06   0.01142638    2.417    0.586
        28  -9.5236    235.3196    154.6947   6.2921670651e+01   4.3428970730e+00    0.1278776    0.1043936 -64.00 0.0002726677    1.633    0.388
        29  -9.1855    152.3661    152.1037   7.9224283716e+01   2.0649383382e+01    0.2248886    0.1423024 -58.31 0.0007710415    1.838    0.456
        30 -11.5080     25.9899    148.9971   1.1303225610e+02   4.1087006814e+01    0.4232467    0.2023465  59.27  0.001829308    2.586    0.613
        31 -10.9248    133.6717    144.1970   8.2075993394e+01   2.6185029080e+01      1.09191    0.2887716 -54.22  0.002555424    5.490    0.818
        32  -8.7483    112.4290    150.5076   8.9071531490e+01   2.8745670742e+01    0.1523785     0.147213 -75.11  0.000123419    1.035    0.033
        33 -10.1028    174.6940    148.9382   7.3373219059e+01   1.6824339588e+01    0.2782952    0.2696122  28.69 0.0008424082    1.080    0.074
        34 -10.6265    230.4904    167.4783   6.6411917308e+01   2.9427948528e+00    0.2580342    0.1134585 -47.31  0.001042424    2.533    0.605
        35 -11.1270     32.5907    144.1405   1.1056052079e+02   4.1686576097e+01    0.4506961    0.2683906  69.73  0.002157172    2.004    0.501
        36 -10.7330    100.1521    139.7693   9.0166404281e+01   3.3563879237e+01    0.6202711    0.3763286 -22.19   0.00226876    2.781    0.640
        37 -12.4185     87.0641    139.4736   9.3864468058e+01   3.5843022706e+01    0.3223844    0.2666994 -44.17 0.0004059292    1.200    0.167
        38  -9.8615    197.7865    139.2326   6.6338143808e+01   1.4127769310e+01    0.3069653    0.2105363 -61.46  0.001382967    1.878    0.468
        39 -10.5297     76.2586    136.9632   9.6527561720e+01   3.8152838283e+01    0.2369323     0.213799  42.19  0.001293835    1.175    0.149
        40 -14.2513     56.9725    238.8928   1.1480838921e+02   1.6949133078e+01    0.8653377    0.6392583  80.90 0.0005644474    1.257    0.205
        41 -10.5210    106.0167    131.0108   8.6517921980e+01   3.4645575825e+01    0.3615048    0.3393041 -64.57  0.001552651    1.069    0.065
        42 -10.3869    109.6754    130.6305   8.5389025877e+01   3.4056204799e+01    0.3465154     0.266868 -11.00  0.001351764    1.674    0.403
        43 -10.7003    135.2389    128.3432   7.7894720870e+01   2.9513235238e+01    0.5314623    0.2178576 -46.22  0.001822033    2.384    0.581
        44 -16.0725     26.0357    249.1738   1.2142796390e+02   1.8541830206e+01     7.748599     2.080275  26.75   0.02287623    8.512    0.883
        45 -10.6755     97.3476    126.0057   8.7857312995e+01   3.7425873325e+01    0.3156662    0.2469011 -27.14  0.000885378    1.433    0.302
        46  -9.6109    116.1970    124.5749   8.2085917403e+01   3.4241418063e+01     0.217967    0.1511115  24.92 0.0006677199    1.700    0.412
        47 -10.8188     43.5082    122.4153   1.0382449039e+02   4.6048481367e+01    0.2706143    0.1732584 -54.38 0.0005902225    1.362    0.266
        48  -8.8730    163.5541    121.4874   6.9279795047e+01   2.4943291259e+01    0.1552437    0.1487898 -49.84 8.854218e-05    1.043    0.041
        49  -9.3649    135.0000    119.9703   7.5840007716e+01   3.1452193147e+01     0.263746   0.08844313 -45.49 0.0007984714    2.915    0.657
        50 -11.6385     22.5785    119.1773   1.0994817370e+02   4.8821111466e+01    0.4111041    0.2571184 -54.96  0.002218249    1.356    0.263
        51  -9.9027    106.9085    119.0403   8.3347384297e+01   3.7339334899e+01    0.2201019     0.213414 -38.95 0.0003053316    1.007    0.006
        52 -12.5676    246.0957    110.2373   5.1748810129e+01   1.0034621148e+01    0.6400856    0.4327563  -8.89  0.003154644    2.195    0.544
        53  -9.9784    205.4575    110.1934   5.8068365220e+01   1.8065959471e+01    0.2992502    0.2089673  41.36 0.0009232775    1.612    0.380
        54 -10.5933     28.1655    107.8007   1.0619391226e+02   5.1162419902e+01    0.4412473    0.1648979  13.66  0.001628467    3.924    0.745
        55 -14.9285     17.3059    217.3035   1.2115538338e+02   2.5896746055e+01     1.760799    0.9790035  63.49   0.01038584    1.553    0.356
        56  -8.8699     45.3068    101.6633   9.9012336568e+01   5.0967415821e+01    0.1370662    0.1060525  77.89 0.0007041447    1.675    0.403
        57  -9.6791    120.6183     98.1951   7.3798642606e+01   3.9278025747e+01    0.2204313    0.1436481 -33.79 0.0006356258    1.616    0.381
        58  -9.2926    135.0000    112.0179   7.3752921303e+01   3.3210703628e+01    0.2670743   0.08829241 -44.38  0.000805136    2.961    0.662
        59  -9.9142     31.4689     95.7525   1.0264891045e+02   5.3782846604e+01    0.3458554     0.138558  39.79  0.001412782    3.018    0.669
        60 -10.2746     53.2487     90.9494   9.3576759888e+01   5.2559070653e+01    0.2075076    0.1702405 -44.56 0.0005539106    1.082    0.076
        61  -9.9510     18.1679     90.1997   1.0637524190e+02   5.6176346739e+01    0.1643779    0.1448837  86.48 0.0004484632    1.314    0.239
        62  -9.4820     73.0413     83.8259   8.4486647629e+01   5.1336002653e+01    0.2059004    0.1921632  73.32 0.0006455044    1.315    0.240
        63  -9.5339    160.0648     82.7190   5.9673339579e+01   3.3392490102e+01    0.2121652    0.1984836  54.69 0.0005493598    1.079    0.073
        64  -9.5984     90.2056     65.3383   7.2695406821e+01   5.2027982500e+01    0.3472593    0.2436729  79.69  0.001434665    2.825    0.646
        65  -9.5831     48.6606     62.8570   8.7101797278e+01   5.9223193696e+01    0.1814352    0.1516359 -37.61  0.000405904    1.128    0.113
        66 -10.6261     13.5229     59.9942   1.0125950792e+02   6.3255247226e+01    0.2453518    0.1814162 -49.13 0.0004325955    1.133    0.117
        67 -11.9209    196.7136     45.5760   4.3391578341e+01   3.0575396881e+01    0.4451162    0.4294125 -34.98 0.0009120046    1.198    0.165
        68 -15.4441      5.9810    142.0250   1.1772807739e+02   4.4390165105e+01     5.362431     1.901873 -84.76   0.02075097    3.036    0.671
        69 -12.3048    185.5077    213.2804   8.4018805032e+01   2.3368373053e+00    0.5362232     0.274211  31.31  0.002491101    1.874    0.466
        70 -10.4798    137.6453     35.9421   5.0212992165e+01   4.6017514735e+01    0.3695461    0.2358627 -71.28  0.001656667    2.266    0.559
        71 -10.4619    187.8966     31.1383   4.0855155813e+01   3.4501407010e+01    0.2101414    0.1641586 -74.42 0.0007073258    1.224    0.183
        72  -9.6210    189.5247     15.0584   3.6598914062e+01   3.5938973346e+01    0.1967736      0.15619  82.78 0.0007364044    1.113    0.101
        73  -9.9750    136.6957     42.9234   5.2647480754e+01   4.5335785886e+01    0.2447893    0.1950733  70.40 0.0003519024    1.276    0.216
        74 -15.5236      9.5280    207.5107   1.2210646832e+02   2.8751868846e+01      2.75689     1.225359 -54.66   0.01381001    2.690    0.628
        75 -13.5261     36.1391    201.3425   1.1596438816e+02   2.7458472253e+01    0.6734484    0.4802596 -54.48  0.001334404    1.596    0.373
        76 -11.3892    193.5228    195.6771   7.9136233202e+01   4.1419520232e+00    0.9353529    0.4922558 -62.61  0.002857388    5.588    0.821
