#   1 NUMBER                 Running object number                                     
#   2 MAG_AUTO               Kron-like elliptical aperture magnitude                    [mag]
#   3 X_IMAGE                Object position along x                                    [pixel]
#   4 Y_IMAGE                Object position along y                                    [pixel]
#   5 X_WORLD                Barycenter position along world x axis                     [deg]
#   6 Y_WORLD                Barycenter position along world y axis                     [deg]
#   7 A_WORLD                Profile RMS along major axis (world units)                 [deg]
#   8 B_WORLD                Profile RMS along minor axis (world units)                 [deg]
#   9 THETA_WORLD            Position angle (CCW/world-x)                               [deg]
#  10 FWHM_WORLD             FWHM assuming a gaussian core                              [deg]
#  11 ELONGATION             A_IMAGE/B_IMAGE                                           
#  12 ELLIPTICITY            1 - B_IMAGE/A_IMAGE                                       
         1  -9.4490     75.2090     18.0635   8.0440647361e+01   6.2455875851e+01     0.297342    0.2270009 -29.06 0.0004887769    1.303    0.232
         2  -8.7201     80.6226     12.4693   7.6035322060e+01   6.2147630033e+01    0.2551567    0.2093874 -45.68 0.0009500165    1.558    0.358
         3  -7.4211    142.0169     11.7794   6.0673711567e+01   4.8272792584e+01    0.1877742    0.1081915  63.67 0.0004554523    1.623    0.384
         4 -11.1247    234.0525    249.5049   1.0077791730e+02  -7.1652494201e+00    0.3367071    0.1824509  30.27 0.0005132472    1.406    0.289
         5 -10.3475    242.8505    248.6712   9.9229750316e+01  -8.3019988081e+00    0.4490717    0.2869544  52.54   0.00271397    2.592    0.614
         6  -8.0271    150.5161    249.9737   1.1508374222e+02   5.2411603167e+00    0.2327829    0.1262922  50.04  0.001380849    1.591    0.371
         7  -8.3600    131.3003    250.0835   1.1844974980e+02   8.1133001906e+00     0.200093    0.1553847  26.25 0.0004195061    1.460    0.315
         8 -10.0605    246.2828    242.3537   9.7724083206e+01  -8.1563541326e+00    0.2856942    0.1744333 -13.89  0.001916004    1.675    0.403
         9  -9.0272    249.0953    246.1042   9.7843555294e+01  -8.9056632250e+00    0.2654023     0.144904  16.10  0.001654922    1.690    0.408
        10  -9.2713    250.4674    239.1927   9.6562266744e+01  -8.4207135892e+00    0.3170235     0.132784 -28.90  0.001549827    2.578    0.612
        11 -10.5737    246.8452    234.0474   9.6338738152e+01  -7.3977511518e+00    0.4390513    0.2536785  12.98  0.002706174    1.654    0.395
        12  -8.2410     90.5577    245.0825   1.2506013709e+02   1.4697108758e+01    0.2091307    0.1285233  31.42 0.0007982651    1.911    0.477
        13  -8.8297    179.4871    243.0442   1.0914486223e+02   1.6914777270e+00    0.1869023    0.1325346  26.96 0.0006566239    1.253    0.202
        14  -9.2059    175.7287    242.4037   1.0972265571e+02   2.3582683854e+00    0.3124074    0.2256543 -43.70  0.002121649    1.786    0.440
        15  -9.9425    144.4734    238.4394   1.1481451587e+02   7.7876329579e+00    0.8121364    0.3241917  49.85  0.003894944    2.295    0.564
        16  -9.8329     89.2734    239.1880   1.2478079338e+02   1.5816929767e+01    0.3202604    0.2715506 -25.86  0.002296421    1.997    0.499
        17  -7.0481    139.3125    247.6418   1.1678591314e+02   7.2595292385e+00    0.1154759   0.07500943  63.80 0.0007043231    1.742    0.426
        18  -7.0932    109.5928    240.4909   1.2130357963e+02   1.2739979273e+01    0.1146298   0.08751403  56.27 0.0002133129    1.052    0.050
        19  -8.4357    220.7370    238.6035   1.0137930591e+02  -4.0914799361e+00     0.254226    0.1085342  36.33  0.001120205    1.856    0.461
        20  -7.5336    217.1851    236.3980   1.0165264000e+02  -3.3098130663e+00    0.1716177    0.1514797  15.80 0.0006142595    1.240    0.193
        21  -9.2139     79.9755    238.4924   1.2635239407e+02   1.7184572393e+01    0.2124669    0.1648208  28.47  0.001375082    1.697    0.411
        22  -8.8408     89.8548    230.6667   1.2391684201e+02   1.7148473700e+01    0.3168663    0.1124036  48.85   0.00154443    2.260    0.558
        23  -9.8204     81.8554    230.2591   1.2532632103e+02   1.8313975177e+01    0.2974759    0.2059936  58.28  0.002051045    1.136    0.120
        24  -8.5220     58.6777    234.6572   1.2975750021e+02   2.0543102912e+01    0.1509899    0.1203988 -27.23  0.001015865    2.514    0.602
        25  -8.4486      9.5000    236.0071   1.3792634407e+02   2.5649611770e+01    0.1431629   0.07614632 -87.81  0.001038012    1.605    0.377
        26  -8.6077    158.8542    234.2161   1.1168261872e+02   6.1316347365e+00    0.2809492    0.2078297  20.64  0.001808095    1.486    0.327
        27  -8.8301     52.2484    234.1036   1.3082248752e+02   2.1411032158e+01    0.2466107    0.1705387  -8.14  0.001106499    6.001    0.833
        28  -8.3512    231.7903    233.9319   9.8804901991e+01  -5.2145676588e+00    0.1707556    0.1216445  14.13 0.0003141857    1.172    0.147
        29  -7.2389    222.4671    234.4767   1.0046144199e+02  -3.8878383292e+00    0.1180543   0.08848242  21.47 0.0001452844    1.030    0.029
        30  -9.2970    174.7318    233.2511   1.0867410229e+02   3.7291122524e+00    0.2339505    0.1654229  42.56 0.0004122507    1.176    0.150
        31  -9.0280    115.2603    230.5653   1.1925689756e+02   1.3484377113e+01    0.4242126    0.2398961  35.57  0.001851844    1.702    0.412
        32  -9.2115    138.9335    228.2197   1.1459471286e+02   1.0195506100e+01    0.5441175    0.2179526  41.42  0.002418355    2.021    0.505
        33  -8.3391    159.8437    215.9366   1.0900612316e+02   8.6889009932e+00    0.3441832    0.2099857  32.50  0.001471784    1.539    0.350
        34  -8.8445    152.2415    229.4166   1.1227553311e+02   7.8882882419e+00    0.2889337     0.200397  59.43  0.001018509    1.545    0.353
        35 -10.9167    148.8803    226.0641   1.1246545909e+02   8.9351859111e+00      1.08684    0.6204937  32.14  0.005961977    1.717    0.418
        36  -9.3536    153.9478    219.6221   1.1064765980e+02   9.0989952373e+00    0.4046886    0.3481542 -86.20  0.002572495    1.465    0.317
        37  -9.2976    106.0633    230.5245   1.2094472109e+02   1.4856364029e+01    0.4522318    0.1695424  55.52  0.001766816    2.923    0.658
        38 -10.3682    105.1195    225.2291   1.2057091577e+02   1.5880148386e+01    0.4331297    0.2874828  60.10  0.002739069    1.342    0.255
        39  -9.5222    109.6385    222.8790   1.1947028145e+02   1.5605378816e+01    0.4247742    0.1421311  39.91  0.001874022    2.549    0.608
        40  -9.1016      4.5165    230.4891   1.3849005291e+02   2.7053228079e+01    0.1943913   0.07678244 -83.36  0.001218272    2.193    0.544
        41  -8.3199    163.4798    249.8140   1.1280300399e+02   3.2882291276e+00    0.2356973    0.1301149  39.78  0.001431257    1.384    0.277
        42  -7.9245    187.9424    233.9087   1.0639544010e+02   1.5352192511e+00    0.1794565    0.1686435 -39.09  0.001338212    1.401    0.286
        43  -9.2985     70.7701    225.5992   1.2693298152e+02   2.0589116432e+01    0.2217947    0.1445131 -82.56  0.001096653    1.555    0.357
        44  -7.4863    218.1793    221.9122   9.9228578435e+01  -1.7517738063e+00    0.1586655     0.113157  14.90 0.0002422245    1.269    0.212
        45  -7.8661    161.8923    221.8025   1.0945113561e+02   7.4536602103e+00    0.1866513    0.1453626  23.11 0.0005396115    1.312    0.238
        46  -8.7940     85.4832    220.0645   1.2372922246e+02   1.9593109229e+01    0.2054228    0.1528225  33.95 0.0006782077    1.521    0.342
        47  -7.7565     51.3314    220.3105   1.3002886846e+02   2.3946961336e+01   0.09177902   0.08650979 -41.58 0.0007042523    1.671    0.402
        48 -10.5035    124.3201    212.1742   1.1537931527e+02   1.5162790078e+01    0.5816416     0.365384  64.68  0.003192582    1.785    0.440
        49  -7.7257     73.3219    220.6847   1.2605025930e+02   2.1127561525e+01    0.1220508   0.06844049  65.15 0.0002983829    1.660    0.398
        50  -9.0254     62.7875    216.0065   1.2760482455e+02   2.3332784169e+01    0.1980829     0.101269  72.18  0.001081698    2.062    0.515
        51  -7.5605    250.5327    215.5347   9.2685040206e+01  -5.9493131587e+00    0.1172711   0.09116215  12.99 8.789088e-05    1.044    0.042
        52 -12.3698    116.4094    201.8145   1.1562160261e+02   1.8278420391e+01     1.160573     0.888685   8.90  0.001548027    1.990    0.497
        53 -11.3710    125.1125    205.0118   1.1428926508e+02   1.6292667958e+01    0.6814723    0.4868632   6.20            0    2.408    0.585
        54  -7.5089    135.9697    211.0028   1.1294071228e+02   1.3470052214e+01    0.1860886    0.1456022  15.53  0.001111393    1.628    0.386
        55 -11.3930     56.5564    200.9666   1.2751738742e+02   2.6949999512e+01    0.5597365    0.5173271 -66.88  0.004214594    1.421    0.296
        56 -10.9201     68.2505    202.9913   1.2541183165e+02   2.5081856933e+01    0.4378315    0.3313017  87.61  0.002974174    1.207    0.171
        57 -10.7699     63.0038    206.3188   1.2673689715e+02   2.5117583281e+01    0.6543525    0.3078699  72.80  0.003188915    2.590    0.614
        58  -7.1762    240.6693    207.3497   9.2906701288e+01  -3.5142771092e+00    0.1037568   0.09884287  77.25 0.0007048317    1.769    0.435
        59  -8.3568    151.7349    204.1650   1.0885460862e+02   1.1964693448e+01    0.4747619    0.2234723 -57.59   0.00211744    2.921    0.658
        60  -9.0159     98.3406    203.0480   1.1942608550e+02   2.0851680405e+01    0.2407666    0.1943166  73.64 0.0009259693    1.145    0.127
        61  -8.7248    136.9825    203.5016   1.1170006037e+02   1.4591333049e+01    0.2685038    0.1401632  50.85  0.001316716    1.789    0.441
        62  -9.6805     71.4897    206.4899   1.2510974355e+02   2.3987884609e+01    0.2348022    0.1704173  69.98 0.0008204706    1.177    0.151
        63 -10.2100    101.3437    196.6623   1.1804394995e+02   2.1609597855e+01    0.4217234    0.2188997 -82.05  0.001847946    2.997    0.666
        64  -9.8121     81.8935    196.0805   1.2196981663e+02   2.4580452481e+01    0.3591875     0.239289  24.57  0.001350562    2.061    0.515
        65  -6.8574    223.4697    194.5222   9.3590018655e+01   9.1315554938e-01    0.1289261    0.1060245  15.22 0.0002838676    1.011    0.011
        66 -10.7981    110.3090    192.6924   1.1566832602e+02   2.0969647764e+01    0.4009746    0.3213011  58.19  0.002487948    1.101    0.091
        67  -9.1807     92.2836    204.5396   1.2080968385e+02   2.1466349770e+01    0.2894762    0.2182291  16.91  0.001707865    1.981    0.495
        68  -7.3055     91.3072    193.6656   1.1975346751e+02   2.3700195244e+01    0.1319413   0.08341257  69.81 0.0007041001    1.671    0.401
        69  -8.0939     76.4702    191.2472   1.2255445389e+02   2.6291419626e+01    0.2764543    0.1591901  72.20  0.001454727    1.909    0.476
        70  -9.4744     98.4998    195.5077   1.1848767067e+02   2.2265600199e+01    0.2123722    0.1775962  59.47  0.001313428    1.031    0.030
        71  -9.0736    129.9739    188.7281   1.1096989169e+02   1.8462431277e+01    0.2288912    0.1723507 -81.50  0.001276098    1.611    0.379
        72 -10.3277    113.0071    184.9897   1.1402449745e+02   2.2032360270e+01    0.3033344    0.2248936 -70.69  0.001743898    1.457    0.314
        73  -9.2607     61.9037    183.4613   1.2476840447e+02   2.9796446117e+01    0.2840083    0.1559772 -74.76  0.001362984    1.756    0.431
        74  -8.1937     82.0217    178.9875   1.1993465288e+02   2.8018050743e+01     0.187053    0.1680433  77.01 0.0004722126    1.079    0.073
        75  -9.3261    124.0053    178.5695   1.1067399229e+02   2.1448171510e+01    0.3332596    0.1994205 -66.83  0.001410086    2.026    0.506
        76  -9.6279     89.7765    172.9482   1.1742434169e+02   2.8147302187e+01    0.3383304    0.1528036 -51.22  0.001511164    2.443    0.591
        77 -11.3957     71.0503    196.1051   1.2417821859e+02   2.6056615288e+01     1.039869    0.4258775  56.63  0.004791637    2.498    0.600
        78  -8.6436    240.3649    172.8058   8.6476558539e+01   9.8499459536e-01    0.2306895    0.1675235  35.12 0.0006563885    1.325    0.245
        79  -8.8142    240.9595    167.5186   8.5309815346e+01   1.6133059313e+00    0.2398864    0.1719928 -39.64  0.001081449    1.584    0.369
        80  -7.4874     78.4678    167.9632   1.1930546536e+02   3.0855919983e+01    0.1873669    0.1017518  87.06 0.0008097222    2.574    0.611
        81  -7.7289    241.2895    163.3083   8.4391788145e+01   2.1454296763e+00    0.1345643   0.09120121   6.48 0.0001996787    1.577    0.366
        82  -9.2304    208.8001    160.6810   8.9667981932e+01   8.5943417427e+00    0.2506933    0.2245594   7.89 0.0003614803    1.017    0.017
        83  -8.0631     94.8473    151.3629   1.1295597414e+02   3.2032555233e+01    0.1788634    0.1590256  50.73 0.0003294239    1.134    0.118
        84  -8.3629    228.2691    143.1405   8.2322017093e+01   7.5636287180e+00    0.2177534    0.1749876  22.74 0.0002382586    1.211    0.174
        85  -7.5355    247.6849    121.6725   7.4256096703e+01   7.0250256146e+00    0.1419312   0.09950989   6.96 0.0007044274    1.673    0.402
        86  -7.3639      1.2172    118.0164   1.3238102002e+02   4.9919247186e+01    0.1540985   0.07267182 -75.97 0.0005046575    1.623    0.384
        87  -8.0877    246.3033    117.3332   7.3470921196e+01   7.9434426123e+00    0.1420214    0.1007031   5.98  0.000703676    1.659    0.397
        88  -8.2953    170.0124     95.9528   8.2001006572e+01   2.8589876736e+01    0.2213761    0.2193993 -19.39 -0.001877172    1.023    0.023
        89  -8.8382    226.3212     88.2130   6.9512024490e+01   1.6654636848e+01    0.2489466    0.2394016  -7.63 0.0003557106    1.046    0.044
        90  -7.4125    184.5324     77.9856   7.3980096850e+01   2.8260979896e+01     0.226436    0.1497163 -31.51   0.00044825    1.512    0.339
        91  -7.5536    113.2100     77.0080   9.0561479204e+01   4.5069039390e+01    0.1986524    0.1813001 -33.19  0.001070023    1.056    0.053
        92  -7.9971      2.6488     75.3249   1.2681476937e+02   5.9356509328e+01    0.1147867   0.07708644  72.48 0.0007048203    1.757    0.431
        93  -8.1287    126.4418     55.1209   7.9752128058e+01   4.6242994949e+01    0.2860122    0.1929602  33.31 0.0006667664    1.602    0.376
        94  -7.9933     94.8823     52.4695   8.7869902210e+01   5.3373754626e+01    0.2381578     0.188584 -51.25 0.0008217473    1.412    0.292
        95  -7.3546    137.5253     51.9852   7.5916042942e+01   4.4156676580e+01    0.2146891     0.132179  -2.21 0.0008097872    2.536    0.606
        96  -8.3551    221.8468     39.6081   5.7464080954e+01   2.4694295711e+01    0.3178233    0.2092711 -17.41  0.001537911    1.734    0.423
        97  -7.4018     92.2040     36.6096   8.2702749931e+01   5.6559515276e+01    0.1895918    0.1227419  33.89 0.0003348898    1.572    0.364
        98  -7.5358     77.3085     29.6547   8.4808549634e+01   6.0418223178e+01    0.1263758     0.106765 -63.58 0.0007044112    1.700    0.412
        99  -7.7700    168.4653     22.5163   5.9866946457e+01   4.0345430975e+01    0.1428012    0.1350506  60.35 -3.52705e-05    1.015    0.015
       100  -9.0773     84.8566     21.4691   7.8724389235e+01   6.0190158840e+01    0.2447535    0.2093171  -8.78 0.0003924793    1.080    0.074
       101  -7.1810     30.3046     22.2469   1.0098049364e+02   6.8241231879e+01    0.1171511   0.07606433 -17.41 0.0002418008    1.498    0.333
       102  -7.2751     50.4142     21.4759   9.1597039985e+01   6.5945252727e+01    0.1253099    0.1034681 -16.58 0.0003006565    1.037    0.036
       103  -7.8358    206.4902    249.0011   1.0528986167e+02  -3.1294491856e+00    0.1269951    0.1010816 -72.95 0.0008104512    2.578    0.612
       104  -9.7154      4.0496    247.9778   1.3920249956e+02   2.4194145155e+01    0.2622139    0.1485528  57.80  0.002108055    1.227    0.185
