#   1 NUMBER                 Running object number                                     
#   2 MAG_AUTO               Kron-like elliptical aperture magnitude                    [mag]
#   3 X_IMAGE                Object position along x                                    [pixel]
#   4 Y_IMAGE                Object position along y                                    [pixel]
#   5 X_WORLD                Barycenter position along world x axis                     [deg]
#   6 Y_WORLD                Barycenter position along world y axis                     [deg]
#   7 A_WORLD                Profile RMS along major axis (world units)                 [deg]
#   8 B_WORLD                Profile RMS along minor axis (world units)                 [deg]
#   9 THETA_WORLD            Position angle (CCW/world-x)                               [deg]
#  10 FWHM_WORLD             FWHM assuming a gaussian core                              [deg]
#  11 ELONGATION             A_IMAGE/B_IMAGE                                           
#  12 ELLIPTICITY            1 - B_IMAGE/A_IMAGE                                       
         1 -10.9261     60.8267     48.0785   5.2841566139e+01   6.1141962479e+01     1.060196    0.4295769 -36.54  0.003926016    2.746    0.636
         2 -12.1535    160.0750     29.6841   1.7805534848e+01   4.0881644196e+01    0.4759409    0.4097162   0.68 0.0003445699    1.333    0.250
         3 -12.1614    164.3043     27.6557   1.6493210098e+01   4.0010034974e+01    0.5852852    0.3319513  34.97 0.0004662439    2.286    0.562
         4 -12.4462    104.6857     13.6028   2.2493708065e+01   5.7157470095e+01    0.6033987    0.5622423 -45.45  0.003180806    1.193    0.162
         5 -12.5286    105.4716     20.4468   2.5301110218e+01   5.6185606447e+01    0.3683512     0.334127 -47.95 3.923578e-05    1.225    0.184
         6 -12.3592    114.4216     25.0070   2.5001290814e+01   5.3391711206e+01    0.8342856    0.3411215  55.89   0.00206656    2.191    0.544
         7 -10.6904    188.9154     28.6104   1.3483510084e+01   3.3523453133e+01    0.5314518    0.3247361   1.65  0.002276365    2.497    0.600
         8 -11.1221      6.2476     10.7829   6.6974810583e+01   7.4898829775e+01     0.483874    0.4478344  -8.99  0.003601456    1.253    0.202
         9 -10.3864     12.8513      8.7887   6.1148468243e+01   7.4732989896e+01    0.3986069    0.2219402 -59.24  0.001304562    2.258    0.557
        10 -11.8425     26.3928     28.4929   6.1919757969e+01   6.9687238488e+01    0.5410265    0.3405631 -43.34   0.00291376    1.370    0.270
        11 -12.0791     20.0676     22.1659   6.2933319286e+01   7.1561160013e+01    0.7163432    0.3823294 -33.51  0.001797579    1.736    0.424
        12  -9.9015     25.9714      3.7444   4.9129454167e+01   7.4106423890e+01    0.1741471    0.1419525 -10.26 0.0002001629    1.019    0.018
        13 -10.5816     22.2208      3.1116   5.1207361570e+01   7.4681930944e+01    0.2513102    0.1838795 -29.11 0.0006867453    1.210    0.174
        14 -11.9384     16.1801     13.8970   6.1505870290e+01   7.3495123886e+01     0.788083    0.3125426 -31.86  0.003389075    2.802    0.643
        15 -12.0096     22.4449     11.3590   5.5981963965e+01   7.3300879984e+01    0.5065518    0.3197872 -12.75  0.002237862    1.671    0.402
        16  -9.9626    120.7910     11.6337   1.8123295740e+01   5.3256828213e+01     1.192211    0.1873261  64.22  0.003076788    5.065    0.803
        17 -11.1867    122.2813      5.9512   1.5532561083e+01   5.3404781994e+01    0.5367725    0.2569916 -31.46  0.001325247    2.160    0.537
        18 -10.9067    135.4406     21.2513   1.9068113943e+01   4.8394287259e+01     0.567934    0.4327169 -27.42  0.002551681    1.388    0.280
        19 -11.2150    127.0103     16.6176   1.8897361152e+01   5.1120360836e+01    0.4909974    0.3299918  12.16  0.002002208    1.867    0.464
        20 -10.0309     47.3699     18.6395   4.5660448813e+01   6.8648737966e+01    0.3607783    0.1653021 -32.16  0.001099642    2.172    0.540
        21 -12.2862     47.5978     12.6997   4.2275295586e+01   6.9516377075e+01    0.6839082     0.357688  43.16  0.003375698    1.951    0.488
        22 -11.6598     35.5364     18.0305   5.1643752002e+01   7.0519789993e+01    0.6011667    0.2451846 -35.75  0.002300099    2.371    0.578
        23 -12.8289    164.1370     18.7079   1.3614376564e+01   4.1064176418e+01    0.5573998    0.2985194  42.54  0.002372712    2.140    0.533
        24 -11.2261    134.9234     14.9159   1.6785714903e+01   4.9216059778e+01    0.7223854    0.2815165  58.56  0.002651583    2.199    0.545
        25 -10.2313     75.2800     19.1260   3.3930439692e+01   6.3323144725e+01    0.4607557    0.2535776  24.90  0.001887612    2.327    0.570
        26 -11.5341     67.5527     18.2767   3.6433060084e+01   6.5031758703e+01    0.5149719    0.4623415 -83.64  0.002772696    1.550    0.355
        27 -11.8519    228.6888     15.9401   6.2812552789e+00   2.5393851254e+01    0.3910729    0.3035093  66.95 0.0003839415    1.389    0.280
        28 -11.1247    225.6936     13.6877   5.9552414123e+00   2.6304779723e+01    0.2638527    0.2368017 -43.69 0.0007843794    1.128    0.113
        29 -11.4509     85.8658     13.9645   2.7824471109e+01   6.1630441731e+01    0.6230144    0.5144241  26.82   0.00233446    1.137    0.121
        30  -9.9152     88.1346      7.6265   2.4035850665e+01   6.1793075709e+01    0.7016897    0.3441353  62.48  0.002572058    2.040    0.510
        31 -10.2750    148.1915     16.1129   1.5043288210e+01   4.5569240126e+01    0.4771973    0.1943091  46.99  0.001781709    2.551    0.608
        32  -9.8722    219.2377     12.6115   6.1796463893e+00   2.7896716197e+01    0.2461243    0.2004049  68.93  0.001432272    1.298    0.230
        33 -11.1200    192.2744      8.3317   7.3122872620e+00   3.4847629040e+01    0.6415597    0.3598338   3.10  0.002735931    2.858    0.650
        34 -11.3101    206.6359      3.0276   4.6765381656e+00   3.1820333627e+01    0.4951965    0.2844315  85.26  0.002201781    1.683    0.406
        35 -11.5983    212.1765      8.8026   5.7569808755e+00   2.9938468716e+01     0.629032    0.3810858  -2.09  0.003019896    2.412    0.585
        36 -10.7598    218.5234      3.8473   4.0326174633e+00   2.8932293543e+01    0.3158936    0.2395719  75.09  0.000890477    1.324    0.245
        37 -11.9954    246.0601      5.6551   2.7299453820e+00   2.2676920502e+01    0.6393083    0.3818391 -71.57  0.003706382    1.594    0.373
        38  -9.9987    245.7716      1.3858   1.7916834648e+00   2.3153699592e+01     0.230773    0.1651813  68.91 0.0005260669    1.543    0.352
        39 -10.7440    232.4147      7.2754   3.9372397990e+00   2.5451150506e+01    0.2914087    0.1853371 -64.74 0.0009789193    1.435    0.303
        40 -11.8976    233.4278      2.6679   2.7874878731e+00   2.5678513561e+01    0.5105551    0.2443013 -62.25  0.002533782    1.999    0.500
        41 -10.7403    169.4710      9.3588   9.9569733217e+00   4.0608499686e+01    0.4607688    0.1827056  57.82  0.001845797    2.297    0.565
        42 -10.5055    145.5319      9.3842   1.3062464038e+01   4.6944454256e+01    0.2589526    0.2155807  40.11 0.0002590997    1.253    0.202
        43  -9.9856    163.2965      6.3469   9.7094988189e+00   4.2513536513e+01    0.5341876    0.2366655  25.48  0.001667341    4.754    0.790
        44 -10.2005      1.0000      7.1002   6.9176229274e+01   7.5944308045e+01    0.3021735   0.09762131 -56.60  0.001376637    2.601    0.616
        45 -10.8663      2.4453      2.0316   6.5400345400e+01   7.6790028972e+01    0.3478307    0.1990855 -11.26  0.002046003    1.793    0.442
        46 -10.5608    184.8663      6.3114   7.4249121977e+00   3.6914490076e+01    0.4684798    0.2294097 -49.20  0.001280329    1.993    0.498
        47  -9.6525     78.0387      7.4980   2.7023206710e+01   6.4126235994e+01    0.2366439    0.1646393  60.87 0.0007531638    1.502    0.334
        48 -10.9299     74.3266      3.4020   2.6046475865e+01   6.5375825287e+01     0.730657    0.3261311  49.36  0.003274624    1.947    0.486
        49 -10.1902     62.0171      6.9019   3.2474680062e+01   6.7602063595e+01    0.2764396    0.1734579  42.83  0.001301016    1.468    0.319
        50 -10.7044    176.8305      5.8673   8.0837940077e+00   3.9020165896e+01    0.3509121    0.2019659 -87.59 0.0006890748    1.793    0.442
        51 -11.1240    106.0311      2.8500   1.7390228389e+01   5.7856680144e+01    0.5425148    0.3438732 -66.20  0.002506779    2.157    0.536
        52 -11.4580    113.5777      2.8070   1.5847579421e+01   5.5935233688e+01    0.4295553     0.295984  59.36  0.002234708    1.286    0.222
        53 -10.5060    141.4794      3.4879   1.1523049146e+01   4.8551917015e+01    0.3266541    0.2510624  86.29  0.001317865    1.264    0.209
        54 -11.5703    133.9812      2.7650   1.2347952595e+01   5.0601582135e+01    0.4837292    0.3077213  71.47  0.001759461    1.438    0.304
        55 -10.3019     41.1628      4.0828   4.0417599387e+01   7.1791419958e+01    0.3551415    0.2123262  -1.22  0.001409619    2.037    0.509
        56  -9.8399    157.3574      3.6857   9.5360121891e+00   4.4320272541e+01    0.2545503    0.1788624 -86.44  0.001049544    1.412    0.292
        57 -10.3587    153.0950      1.4247   9.2858004430e+00   4.5642453447e+01    0.3711438    0.1790683  81.20  0.001235699    2.072    0.517
        58 -11.5373    223.9086      2.6981   3.3893351963e+00   2.7804885641e+01     0.507604    0.2572518 -87.38  0.000305307    2.026    0.506
        59 -10.3136     13.0015      1.9365   5.7048997189e+01   7.5903577020e+01    0.2162054    0.1527687   8.23 0.0004770472    1.365    0.267
        60  -9.2802     33.5340      1.5459   4.3032188735e+01   7.3346176309e+01      0.12515    0.1026791  -0.10 0.0001429656    1.002    0.002
        61  -9.2374    128.6664      1.2854   1.2598602932e+01   5.2127296085e+01    0.1975041     0.135443 -87.16 0.0006611794    1.576    0.365
        62 -11.6296     23.6272    136.7020   8.5922944279e+01   4.4390586288e+01    0.4981567    0.3149603  55.35 0.0006157384    1.517    0.341
        63 -10.1495     50.4253    250.2029   8.8059348579e+01   1.8314472819e+01    0.1405359   0.08388541  76.01 0.0009503929    1.673    0.402
        64 -11.1319     30.0892    132.8767   8.3634953798e+01   4.4725021022e+01    0.4125501    0.3269015 -15.13  0.001217523    1.699    0.411
        65 -10.2380     73.1960    133.2869   7.0823445766e+01   3.9417490328e+01    0.3813377    0.2358622 -30.64  0.001626045    2.439    0.590
        66  -9.5726     62.8543    131.4189   7.3594756844e+01   4.1329435254e+01    0.2876388    0.1588254 -49.51  0.000915089    1.908    0.476
        67  -9.5291     93.1285    129.8559   6.4333229571e+01   3.7055909735e+01    0.2361781    0.1997237  73.77  0.001241205    1.253    0.202
        68 -10.9133     10.1732    127.5051   8.9012230927e+01   4.7661184387e+01    0.5384802    0.2565181 -61.07  0.001960325    1.908    0.476
        69 -10.2279     13.0163    122.5012   8.7710423119e+01   4.8664144538e+01    0.1929365     0.153566 -59.28 0.0006941264    1.271    0.213
        70  -9.9053     26.8232    126.4175   8.3890197423e+01   4.6597023682e+01    0.3975365   0.08254258 -63.49   0.00122594    3.487    0.713
        71 -10.0351     22.8931    127.0598   8.5158212252e+01   4.6783010506e+01    0.1878484    0.1589037  88.85 0.0003503043    1.015    0.014
        72  -9.8988      2.1336    125.9445   9.1255746774e+01   4.8562256863e+01    0.2373589    0.1619909  74.68  0.001114011    1.294    0.227
        73  -9.9963     81.8979    124.3665   6.6551374061e+01   4.0223989783e+01     0.502514    0.2798986  30.57  0.002161204    1.957    0.489
        74  -8.8417     53.3331    125.6726   7.5582780890e+01   4.3964999837e+01    0.1479688   0.09651084  67.28  0.000705161    1.716    0.417
        75  -9.7134     47.4608    134.5952   7.8683379609e+01   4.2483585062e+01    0.2752904    0.1218289 -68.01  0.001089464    2.100    0.524
        76 -11.8662    104.2682    122.2820   5.9497636910e+01   3.6824288776e+01    0.3728526    0.3131196  55.14 0.0005899642    1.203    0.169
        77 -10.1021     49.6134    123.1006   7.6341943335e+01   4.5047954195e+01    0.2532222    0.1879588  -5.47  0.001307089    1.870    0.465
        78  -9.5124     56.2760    122.3853   7.4123300922e+01   4.4404223261e+01    0.1929718    0.1210111  44.01 0.0008155477    1.603    0.376
        79 -10.0727     48.5693    112.2885   7.4895216787e+01   4.7845256232e+01    0.4567709    0.3051566 -41.76  0.002306717    1.660    0.397
        80 -10.1868     44.8623    119.8569   7.7348574423e+01   4.6397099228e+01    0.3020313    0.2082196  65.63 0.0008773458    1.549    0.354
        81 -10.0949     43.6807    116.3356   7.7181468000e+01   4.7400229507e+01    0.3039512    0.1868249  55.41 0.0009285428    1.756    0.431
        82 -10.2525     37.2616    116.1589   7.9253231522e+01   4.8125728536e+01    0.3151449     0.172159 -32.81  0.001362159    2.660    0.624
        83 -10.2561      7.4275    115.2107   8.8770818966e+01   5.0808035069e+01    0.3718787     0.165105 -64.81  0.001274903    1.886    0.470
        84 -12.3408      2.5872    111.9270   9.0015958108e+01   5.1892135365e+01    0.4389354    0.2636782 -85.75 0.0008057581    1.408    0.290
        85 -11.4898      5.1986    105.3355   8.8559766269e+01   5.3338362917e+01    0.4141955    0.3467937  29.67   0.00276983    1.391    0.281
        86  -9.6463     58.0861    115.3862   7.2309910118e+01   4.5895090300e+01    0.2966091    0.1805565 -86.43  0.001109245    2.017    0.504
        87  -9.8829     79.0479    114.7354   6.5436715149e+01   4.2998963163e+01    0.2806723    0.2098818 -51.04 0.0009787418    1.325    0.245
        88 -11.1797     42.8792     93.8042   7.3432096877e+01   5.3071540283e+01     1.373842    0.4049267 -50.13  0.004798311    3.110    0.678
        89 -11.9809      9.7754     97.0123   8.6076425770e+01   5.5096610421e+01    0.5479717    0.4667558   2.39  0.003607134    1.435    0.303
        90 -10.8014     35.3145     92.5613   7.6008887341e+01   5.4169987691e+01     0.607379    0.2909094 -49.69  0.002742583    1.952    0.488
        91 -11.1989     27.5802     86.0817   7.7757294139e+01   5.6480280413e+01    0.9931704     0.780777  58.85  0.005842438    1.411    0.291
        92 -11.8095     43.1463     84.9070   7.1431548041e+01   5.5221769302e+01    0.8110957    0.3788147  16.78  0.002965013    2.927    0.658
        93 -11.9372     20.9321     92.9339   8.1452320336e+01   5.5333909724e+01     0.966967    0.4988879  66.06  0.002889819    2.538    0.606
        94 -11.9238     25.2070    107.0298   8.1980915856e+01   5.1508382709e+01     1.200269    0.7575215 -30.62  0.006180486    2.023    0.506
        95 -12.6719     17.7070    100.5590   8.3710020432e+01   5.3694879399e+01    0.3268739    0.2737342 -83.36 0.0004459519    1.054    0.051
        96 -11.5671     21.7704    114.5931   8.4101974219e+01   4.9926070442e+01    0.4886908    0.2622848   4.43  0.002282421    2.740    0.635
        97 -11.6211     28.7552    112.5127   8.1538813160e+01   4.9843256056e+01    0.4304699    0.2842416 -45.28  0.002321359    1.624    0.384
        98  -9.0484     67.6858    114.7527   6.9071339276e+01   4.4727503541e+01    0.2253021    0.1013484  44.64 0.0008831123    2.304    0.566
        99  -9.6732    107.4866    112.4924   5.6261519020e+01   3.8451535137e+01    0.2560332     0.241059  39.89 0.0009497302    1.061    0.057
       100  -9.8010    101.6681    109.6683   5.7282038729e+01   4.0220377858e+01    0.2513599    0.2034485  16.10  0.001223708    1.459    0.315
       101 -11.2627     79.8563    108.3226   6.3756050649e+01   4.4411977553e+01    0.5485513    0.3245495  32.04  0.001563532    1.811    0.448
       102 -11.1317     16.4496    109.4769   8.5248554507e+01   5.1592642736e+01    0.3187888    0.2233245  57.43 0.0005215058    1.464    0.317
       103  -9.4251    120.2675    108.9180   5.1726936060e+01   3.6663567878e+01    0.2948323    0.2081551  12.07   0.00123036    2.047    0.511
       104 -10.3106    182.1781    104.6905   3.5970590923e+01   2.3675031788e+01    0.3344748    0.2725895  17.19  0.001239504    1.364    0.267
       105  -9.4811    142.9868    105.9465   4.4981774313e+01   3.2345671356e+01    0.2508441    0.1964061 -87.18  0.001131956    1.737    0.424
       106 -10.8356     87.8793    104.5173   6.0274065072e+01   4.3953879901e+01    0.4771894    0.2440237  50.12  0.001026556    2.200    0.546
       107  -8.9325     45.5081    105.5792   7.4744327902e+01   4.9863401462e+01    0.1357219    0.1248172 -69.92 7.133051e-05    1.030    0.029
       108 -11.5859     67.9563     96.3422   6.4940308163e+01   4.9170858997e+01    0.6840663    0.4635296 -22.72  0.002406773    2.030    0.507
       109 -10.5795     49.4754     91.4377   7.0480452644e+01   5.2885482139e+01     0.418745    0.3311024  71.24  0.002270924    1.443    0.307
       110  -9.7608     50.7099    101.6625   7.2181510168e+01   5.0219887787e+01    0.3081362    0.1846233 -52.77  0.001120437    1.559    0.358
       111  -9.9915     52.8188     97.7657   7.0630520585e+01   5.0918560052e+01    0.4827918    0.1837213 -55.78  0.001152608    2.306    0.566
       112  -8.9741    120.4426    101.4846   4.9704844974e+01   3.8243089515e+01    0.1536993    0.1500894   2.19 6.751824e-05    1.043    0.041
       113  -8.9388    158.5604     99.6039   3.9588384227e+01   3.0025757503e+01    0.1504155    0.1476165  80.60 -2.456928e-05    1.070    0.066
       114 -11.2404     89.8186     88.4901   5.5389987821e+01   4.7317481744e+01    0.7928879    0.3668458 -42.49  0.002988912    2.238    0.553
       115 -10.5500     79.6560     83.6570   5.7467634499e+01   5.0259036815e+01    0.4844621    0.3900813 -54.64  0.001975251    1.224    0.183
       116 -11.2822     74.3783     79.1130   5.8027141359e+01   5.2203085519e+01    0.6714987    0.5784834  54.96   0.00361564    1.272    0.214
       117  -9.7498     77.6683     96.7139   6.1686410368e+01   4.7547119460e+01    0.2249262    0.2044998  -2.05 0.0005262679    1.225    0.184
       118 -11.1968     80.6052     92.9464   5.9712559992e+01   4.7941654616e+01     0.840008     0.682438  52.41  0.004336822    1.308    0.235
       119 -12.4068    125.2391     94.5255   4.6437974613e+01   3.8676168604e+01    0.5555841    0.3719335  62.69  0.002357269    1.807    0.447
       120 -11.4046     99.0188     91.1859   5.3187064141e+01   4.4937898883e+01    0.4704225    0.2721673  48.62  0.001963118    1.812    0.448
       121 -11.7218      7.0525     88.7691   8.6060237009e+01   5.7267647405e+01    0.5308689    0.3824065  14.45  0.002412827    1.671    0.401
       122  -9.7718     66.4536     88.7595   6.3584930070e+01   5.1215951144e+01     0.342826     0.241121 -12.15   0.00127604    2.000    0.500
       123  -9.6176    103.8577     87.6143   5.0640137418e+01   4.4749143994e+01    0.2199356     0.196907 -25.92  0.001130392    1.164    0.141
       124 -10.3111    143.2767     84.5055   3.8849433907e+01   3.6507555188e+01    0.2684812    0.2610394 -35.84 0.0004380512    1.035    0.034
       125  -9.1712    133.6658     84.9389   4.1382057691e+01   3.8698889337e+01    0.2717201    0.1729428  88.35 0.0008986972    3.315    0.698
       126 -10.0614    120.3219     85.1962   4.5055928464e+01   4.1711284354e+01    0.3968733    0.1985921  34.62  0.001408541    2.468    0.595
       127 -10.4686    113.3954     83.3102   4.6469530685e+01   4.3638738381e+01    0.3504582    0.2728154  67.25  0.001637815    1.515    0.340
       128 -10.1466     66.8532     81.6493   6.1530521324e+01   5.2833456429e+01    0.3738388    0.3050513  11.48  0.001972305    1.400    0.286
       129  -9.5077     46.7134     75.6869   6.7772417937e+01   5.7023551748e+01    0.2845575    0.2349182   1.11   0.00160427    1.376    0.273
       130 -12.0435     53.1522     74.1881   6.4757911623e+01   5.6556293426e+01    0.6453396    0.3308256 -60.60 0.0009184831    1.941    0.485
       131 -11.0413     58.0606     77.8626   6.3831309126e+01   5.5020877480e+01    0.5559695    0.3526574 -80.50   0.00197091    2.286    0.563
       132  -9.5269      1.2536     78.9508   8.7058009325e+01   5.9936998519e+01    0.3858417   0.09836578 -73.79  0.001453872    3.084    0.676
       133 -10.9645      1.9825     71.6660   8.5776528871e+01   6.1653392016e+01    0.3843106    0.1694097 -66.58  0.001649813    1.760    0.432
       134  -9.4147    103.4957     79.9831   4.8432962579e+01   4.6465327079e+01    0.2316693    0.1502446 -44.34 0.0003720479    1.535    0.349
       135  -8.8129     88.5922     73.4983   5.1243836732e+01   5.0867306330e+01    0.2058965    0.1916614 -33.62 0.0001886401    1.050    0.048
       136 -10.3676     88.4584     77.6460   5.2608783862e+01   4.9994080873e+01    0.5417275     0.314184  52.65  0.002232062    2.001    0.500
       137 -10.0058     94.1920     76.5802   5.0347012640e+01   4.9101595123e+01    0.4776498    0.2064916  44.83  0.001621019    2.357    0.576
       138 -10.4072     92.8498     72.5494   4.9491294525e+01   5.0228074713e+01    0.5496203    0.3574026 -84.23  0.001944859    3.309    0.698
       139 -11.7635     13.7030     74.3477   8.1265306638e+01   6.0377588687e+01     0.477879    0.3576314 -88.44  0.002011612    1.338    0.253
       140  -9.8983     14.8715     67.4506   7.9478092962e+01   6.1958975566e+01    0.4558952    0.2634631  -2.50  0.002350091    2.201    0.546
       141  -9.6944    233.3042     77.6725   2.0927574076e+01   1.6710138716e+01    0.1392822   0.09389511 -56.52 0.0003200921    1.648    0.393
       142  -8.9902    158.5927     76.4864   3.2963199967e+01   3.4244494799e+01    0.1513111    0.1487249 -22.16 0.0001098484    1.021    0.020
       143  -9.2019    112.4625     75.4637   4.4273747357e+01   4.5455261037e+01    0.1518885    0.1508781  87.63 9.832094e-05    1.042    0.040
       144  -9.6891    103.2464     74.7083   4.6829498571e+01   4.7622186864e+01    0.3075824    0.2416333  72.79  0.001444256    1.604    0.377
       145 -10.5318     25.1894     73.9284   7.6329318014e+01   5.9640442054e+01    0.7527097    0.3553118 -10.23  0.002836766    3.894    0.743
       146 -11.8990     40.8316     70.1745   6.8771301759e+01   5.9014356035e+01    0.4986721    0.4070229 -48.83  0.001615162    1.099    0.090
       147 -10.4245     32.9813     74.0366   7.3059712517e+01   5.8914879563e+01    0.2749196     0.219559 -81.78 0.0008258738    1.314    0.239
       148 -10.4917     35.6951     71.6862   7.1346692773e+01   5.9206860989e+01    0.2832932     0.256908  26.81  0.001234659    1.226    0.185
       149 -10.5286    186.8622     72.1486   2.6309474498e+01   2.8019433528e+01    0.4327892     0.295035 -35.84  0.002059532    1.409    0.290
       150  -9.7703    153.3367     72.8809   3.3004568974e+01   3.6175000494e+01     0.377042    0.1862807  39.70  0.001364365    2.382    0.580
       151  -9.1684     19.4590     72.0131   7.8381514828e+01   6.0548340653e+01    0.1840388   0.07606214 -46.96 0.0005154316    2.188    0.543
       152 -11.3621    123.2857     68.8817   3.9049448641e+01   4.4242798472e+01    0.5240072     0.303818  46.91  0.001762879    1.699    0.411
       153 -10.1659     78.4201     67.6887   5.2944826093e+01   5.4027390428e+01      0.38971    0.3393775  79.22  0.002063478    1.411    0.291
       154  -9.9112    218.9931     66.7741   2.0068114562e+01   2.1313315728e+01    0.3887009    0.1694938  70.23  0.001484408    3.046    0.672
       155 -12.8993      6.4011     61.2795   8.2127787653e+01   6.3914348608e+01    0.7258936    0.5033078 -34.06  0.002207344    1.449    0.310
       156  -9.2426     80.9770     73.7363   5.3989807555e+01   5.2249423934e+01    0.2030676    0.1895788  21.95 0.0006196317    1.095    0.087
       157 -10.4494     88.1178     56.0464   4.5328880437e+01   5.4529034369e+01    0.5643856    0.2281794 -37.88  0.001495247    2.551    0.608
       158  -9.7533     91.7430     57.5521   4.4641212657e+01   5.3488536143e+01    0.2963102    0.1936732  51.30 0.0007348584    1.622    0.384
       159 -10.0453     96.3482     65.0725   4.5799942156e+01   5.1045143906e+01     0.334054    0.2456833  25.05  0.001564405    1.545    0.353
       160 -10.8665     91.7963     62.5291   4.6424731388e+01   5.2501000799e+01    0.4125592    0.3061405  59.78 0.0009710832    1.581    0.367
       161  -9.2913     52.1444     65.6666   6.2680982018e+01   5.8658200864e+01    0.1872586    0.1298824  15.90 0.0007405655    1.678    0.404
       162  -9.1946    201.5046     64.5003   2.1887813767e+01   2.5663038005e+01    0.1435591    0.1337125 -50.13 -0.0002377823    1.023    0.023
       163 -11.0911    157.4526     63.5797   2.9248290074e+01   3.6712485982e+01    0.4776727    0.2490522  43.22 0.0008349385    2.081    0.519
       164 -10.1220     58.7532     63.2486   5.9153965676e+01   5.8259118474e+01    0.3465897    0.3122676  80.16  0.001239408    1.340    0.254
       165 -10.1514     64.9109     61.4401   5.6031778271e+01   5.7695601586e+01    0.3523114    0.3364696 -89.51  0.001162776    1.205    0.170
       166 -10.4911     51.0569     56.6640   6.0242512530e+01   6.0813736403e+01    0.7897672    0.2376387 -56.10  0.002543965    3.664    0.727
       167 -11.1188     52.1027     48.2138   5.6740933374e+01   6.2463090162e+01    0.9034888    0.3330545  27.13   0.00311759    3.671    0.728
       168 -11.1578     40.3773     56.9015   6.5132565275e+01   6.2122989914e+01    0.6425596    0.3914886 -19.44 0.0007760676    2.137    0.532
       169  -9.0344    113.3154    249.3336   7.6165915089e+01   1.0522235398e+01    0.1072264   0.08083903  10.64 0.0007046848    1.688    0.408
       170  -9.8969     55.8012     50.5242   5.5960080860e+01   6.1434313471e+01    0.2279594    0.2080896  13.18 0.0004476561    1.119    0.106
       171 -11.2828     43.0687     62.2396   6.5559669097e+01   6.0596817776e+01    0.3306796    0.2413198 -51.24 0.0006956904    1.232    0.188
       172 -11.4450     46.0632     59.0525   6.3242960124e+01   6.0948067378e+01    0.6298375    0.3392805  54.15  0.002580476    2.927    0.658
       173 -11.4850     44.0505     43.9682   5.8886067322e+01   6.4460558406e+01    0.4704878     0.326355 -57.02 0.0003464998    1.533    0.348
       174 -11.9251     40.0232     43.9991   6.0862830301e+01   6.4969102044e+01    0.5734171    0.4702663  15.66 0.0003529273    1.277    0.217
       175 -10.7276    235.1945     61.4529   1.6779944761e+01   1.8517090310e+01    0.3133272    0.2264571  50.19   0.00175942    1.571    0.363
       176  -9.9017     84.4667     61.3297   4.8549405799e+01   5.4214088801e+01    0.2929559     0.228413  71.56  0.001409817    1.721    0.419
       177  -9.9986    124.9706     56.6652   3.4420476637e+01   4.6030402333e+01    0.3307256    0.2602315  -2.79  0.001434542    1.527    0.345
       178 -11.7668    117.7529     55.7636   3.6022568863e+01   4.7939786159e+01     1.631527    0.8331388 -59.31  0.005198563    3.618    0.724
       179 -10.8220    110.1444     39.5830   3.2006306629e+01   5.2425735548e+01     1.032787    0.6632798  14.92   0.00370007    2.237    0.553
       180 -11.4867    118.0518     44.7678   3.1885672396e+01   4.9689243471e+01    0.6462617    0.5181441 -76.78  0.002275245    1.568    0.362
       181 -12.0378    120.2711     41.0090   2.9888861624e+01   4.9715749396e+01    0.5608656    0.5128577  69.06 0.0007546364    1.128    0.113
       182 -11.8575    119.5101     37.4812   2.8726066318e+01   5.0426315700e+01    0.4600739     0.378837 -44.86  0.001725852    1.294    0.227
       183  -9.6038    113.8964     60.9632   3.8956165883e+01   4.7924736327e+01    0.2923445    0.2109789 -44.17  0.001360748    1.425    0.298
       184 -12.6380     74.3710     51.6556   4.8711769234e+01   5.8068660887e+01    0.9223999    0.4379655 -52.69  0.002469655    2.549    0.608
       185 -11.2645     32.3018     52.5492   6.7578556269e+01   6.3983187446e+01     1.101629    0.3886082  14.14  0.003410212    5.437    0.816
       186  -9.7352     29.3893     59.1819   7.0904043957e+01   6.2758899288e+01    0.3467774    0.2174661 -75.81  0.001740883    1.839    0.456
       187  -9.9659     25.9348     60.0000   7.2734844025e+01   6.2881016126e+01    0.3086319     0.177175  25.26  0.001591769    1.930    0.482
       188 -11.0098     25.0652     55.9823   7.2076584039e+01   6.3885417770e+01    0.4930072    0.3126327 -23.66  0.001784269    1.771    0.435
       189  -8.7865    135.3117     59.3429   3.2768359335e+01   4.3009907247e+01     0.161179     0.119721  17.68 0.0007046107    1.702    0.412
       190 -11.3626     83.1689     47.2032   4.3662243190e+01   5.7200598813e+01    0.4491567    0.3266321   5.27  0.002129564    1.731    0.422
       191 -10.5753    104.6473     57.6474   4.0510235781e+01   5.0661067134e+01    0.4983248    0.2614176  64.61  0.001733628    2.963    0.663
       192  -9.4826    219.9643     56.2511   1.7258266906e+01   2.2537684793e+01    0.1782723    0.1684702 -52.51 0.0001994083    1.044    0.042
       193  -9.4453     66.7745     54.4159   5.2771920544e+01   5.8865337777e+01     0.349691    0.1767361 -57.83  0.001354508    2.598    0.615
       194  -9.4766    201.3125     53.2118   1.8837774380e+01   2.7304783407e+01    0.2117376    0.1727715  -5.14 0.0007136397    1.429    0.300
       195 -10.2733    145.7637     48.8335   2.6857855798e+01   4.2028906430e+01    0.5312606    0.2753589 -15.50  0.001882252    2.847    0.649
       196 -10.2163    240.2664     50.7207   1.3662901706e+01   1.8830695739e+01    0.2292558    0.2002481  16.66  0.000902108    1.400    0.286
       197 -10.2336     12.6271     47.9119   7.6131769178e+01   6.6663289497e+01     0.575905     0.094833 -46.66  0.001865029    4.266    0.766
       198  -9.6615    173.8783     48.7777   2.1640634232e+01   3.4763708250e+01    0.3891456    0.1854382  71.74  0.001450055    2.475    0.596
       199 -10.2283     26.2208     48.6575   6.9376508154e+01   6.5441887957e+01    0.2688468     0.173991 -42.90  0.001480945    1.350    0.259
       200  -9.6144      1.9056     49.1780   8.1941867252e+01   6.6943116026e+01    0.2981018    0.1586055 -81.80  0.001249652    1.948    0.487
       201 -10.1560      9.3439     29.9939   7.2660750613e+01   7.0814876331e+01    0.5758247    0.2926815  -7.85  0.002880372    2.420    0.587
       202  -9.9421      4.9400     43.0013   7.8958451449e+01   6.8209703223e+01    0.4410795    0.1528512 -46.49  0.001478093    2.275    0.560
       203 -11.2147      4.3680     36.1030   7.7483256865e+01   6.9775307386e+01    0.3847361    0.2940539 -23.94  0.001819307    1.286    0.222
       204 -10.2351     20.2468     46.3495   7.1737093649e+01   6.6468770268e+01    0.4722804     0.268388 -32.29  0.002447198    1.778    0.438
       205 -10.4994     26.0125     42.7303   6.7563424826e+01   6.6764736593e+01    0.3099439    0.2522921 -65.76  0.001059405    1.316    0.240
       206 -10.2058    135.9812     46.0000   2.7989471699e+01   4.4978071332e+01    0.3336817    0.1973103  58.58 0.0007247443    1.644    0.392
       207  -9.7909    139.4476     43.7505   2.6437099427e+01   4.4418596227e+01    0.2977626     0.214173  35.76 0.0007111121    1.515    0.340
       208 -10.0103    201.0098     45.3893   1.6726772396e+01   2.8427677949e+01    0.2996281    0.1346283  66.57 0.0009515025    2.300    0.565
       209 -10.1068     23.2598     37.3599   6.7174309040e+01   6.8171813151e+01    0.4108444    0.2080813  40.23  0.001981579    2.475    0.596
       210  -9.4893    161.1234     43.8281   2.2251576578e+01   3.8759107739e+01    0.3764358    0.1997121  85.36  0.001323204    2.927    0.658
       211 -10.4388    155.6967     42.6938   2.2855922976e+01   4.0334454208e+01    0.3375263    0.2927476   4.54  0.001328634    1.312    0.238
       212 -10.0926    234.7981     41.8045   1.2053891038e+01   2.1098613987e+01    0.1923498    0.1327396 -55.89 0.0008140247    1.369    0.270
       213  -9.4657     91.7572     41.9190   3.8531678920e+01   5.6309587431e+01    0.2439884    0.1721357 -64.79  0.001086367    2.072    0.517
       214  -9.5758     57.2500     41.7511   5.1856829748e+01   6.2967489474e+01    0.2439452    0.1629128  38.22  0.001243879    1.567    0.362
       215  -9.1023    149.2982     41.2967   2.3588648589e+01   4.2203504794e+01    0.1520368    0.1125531  29.43 0.0001767117    1.571    0.363
       216 -10.7550    157.6264     54.9541   2.6482291116e+01   3.8035045822e+01    0.5397711     0.433599 -73.21  0.002655955    1.415    0.293
       217 -10.7227     79.8069     39.1903   4.1567357249e+01   5.9303274413e+01    0.4646304    0.3322743  76.41  0.002091854    2.298    0.565
       218 -11.4260     78.9202     33.7974   3.9533967301e+01   6.0383441212e+01    0.6395562    0.3540087  33.35  0.002783045    1.981    0.495
       219 -11.1341     61.3853     35.9017   4.7516913988e+01   6.3366848107e+01    0.5346204    0.3411077 -12.01  0.001999007    2.059    0.514
       220  -9.9329     67.0165     32.4827   4.3581826037e+01   6.2945669176e+01    0.3528148    0.2119475  21.18  0.001470262    2.114    0.527
       221  -9.1375     13.1754     37.7797   7.2950845688e+01   6.8885536768e+01    0.1883332    0.1183768  67.59 0.0008804931    2.686    0.628
       222  -9.6390    231.4414     37.2336   1.1257653746e+01   2.2383113279e+01    0.1891167    0.1034421 -40.99  0.000629106    1.570    0.363
       223  -8.7441    206.4781     37.4473   1.3897512242e+01   2.8115627982e+01    0.1382174    0.1251113 -61.15 0.0002097934    1.015    0.015
       224 -10.9123    176.3028     34.9449   1.7035142477e+01   3.5985070417e+01    0.6479799    0.2761354 -40.51  0.001753858    2.241    0.554
       225  -9.9361    170.4871     31.4381   1.6788302659e+01   3.7932048052e+01     0.408873    0.2296235 -37.93  0.001825875    1.736    0.424
       226 -10.4738    153.1225     36.1721   2.1141826808e+01   4.1894131262e+01    0.2567502    0.2219284 -53.76  0.001360427    1.187    0.158
       227  -9.6569    132.3849     36.9055   2.5502909317e+01   4.7222474236e+01    0.3291744     0.196512  88.27  0.001245457    2.591    0.614
       228  -9.6545    138.9626     34.6710   2.3307070906e+01   4.5813982600e+01    0.4227881    0.1303808 -42.27   0.00130851    3.502    0.714
       229  -9.1187    198.3971     35.2117   1.4225340723e+01   3.0359732262e+01    0.2066226    0.1153581 -40.53 0.0009492465    1.658    0.397
       230  -9.7392    213.7776    248.2239   5.7674951882e+01  -3.1218838093e+00    0.1569295   0.09884478  11.99  0.001065477    1.350    0.259
       231  -9.9904    174.4757    246.9714   6.4430884209e+01   2.3094211156e+00    0.2410326    0.1284837  24.95  0.001402683    1.646    0.393
       232 -11.9227    126.3018    241.5768   7.2883706435e+01   9.8648495324e+00     0.368892    0.2727937  53.73   0.00182043    1.350    0.259
       233 -10.8493     72.0082    238.4944   8.3216538377e+01   1.7673272359e+01    0.4810785    0.1754046  39.44   0.00247513    2.002    0.501
       234 -11.6831    106.6437     32.1694   2.9965582246e+01   5.4365287008e+01    0.7163862       0.4117  17.21  0.002683965    2.824    0.646
       235 -11.2924    147.1169    237.9917   6.8445119130e+01   7.3968410070e+00    0.4144719    0.2403062  42.00  0.002481334    1.419    0.295
       236 -10.1263     59.8882     23.5506   4.2329571284e+01   6.5717362486e+01    0.3964976    0.1706635 -34.18  0.001192428    2.297    0.565
       237 -10.5371     43.0065     28.0629   5.2622880761e+01   6.7704482589e+01    0.1940793    0.1668021 -14.72            0    1.017    0.017
       238 -11.1474     56.8970     30.8520   4.7209379006e+01   6.5032136042e+01    0.4261497    0.3089103 -19.05 0.0007610377    1.397    0.284
       239 -11.5953     48.6803     30.6394   5.0982033537e+01   6.6395752706e+01    0.7574664    0.2957487  33.16  0.003039646    2.782    0.640
       240 -10.2091    240.2627     32.3497   9.2980402890e+00   2.1045007766e+01    0.3499969    0.1506191  59.79  0.001627043    2.490    0.598
       241 -11.0195    167.2634    237.7863   6.4582265437e+01   4.5051175616e+00    0.2057147    0.1701806  15.32 0.0008002029    1.142    0.125
       242 -11.0246     32.4608     30.8757   5.9524396169e+01   6.8543958646e+01    0.3462949    0.2110435 -54.44 0.0004092602    1.695    0.410
       243  -9.2687     15.4784    233.9477   9.3730876109e+01   2.4740948017e+01    0.1436027   0.08826022 -89.56   0.00102213    1.567    0.362
       244  -8.9271    205.6782    233.7001   5.7004795097e+01  -4.3102995774e-01    0.1184514   0.07146187  11.02   0.00041363    1.626    0.385
       245 -10.5914    197.1850    231.8467   5.8246362874e+01   9.7485880895e-01    0.1921195    0.1340324  10.39  0.001271261    1.286    0.222
       246  -9.6782    246.9827    231.2583   4.9715648020e+01  -5.5597739786e+00     0.136856   0.07405303  29.42 0.0006613784    1.530    0.346
       247 -10.9658     67.5414    240.9933   8.4263700812e+01   1.7809139527e+01    0.2550209    0.2083779  12.17   0.00115463    1.701    0.412
       248  -8.9958    181.2983    228.3186   6.0652969432e+01   3.7111767247e+00     0.120075   0.07872204   9.42  0.000565785    1.616    0.381
       249  -9.2750     75.5124    224.4771   8.1397027312e+01   1.9651298808e+01    0.1202432    0.0929312  51.54 8.414496e-05    1.014    0.014
       250  -9.7124    233.8184    223.2211   5.0589856435e+01  -3.0435321498e+00    0.1619943    0.1033252   7.55 0.0005677727    1.340    0.254
       251  -9.1094    134.6420     31.3057   2.2959962906e+01   4.7385514627e+01    0.1560971       0.1118 -70.34 0.0004650328    1.725    0.420
       252  -9.9367    197.6544     29.1968   1.2630456331e+01   3.1265212255e+01    0.2902931    0.2296503  66.03  0.001529353    1.274    0.215
       253 -12.0401    125.8598     28.4449   2.3742162511e+01   5.0035153384e+01    0.6008794    0.4286458  63.73  0.002939348    1.357    0.263
       254  -9.4929     70.7543     34.0108   4.2760913976e+01   6.1977923093e+01     0.245525     0.202727  54.26  0.001014834    1.401    0.286
       255  -9.6594     49.6699    222.6572   8.6536019793e+01   2.3160008362e+01    0.1005064   0.08840868 -21.98 0.0007051056    1.749    0.428
       256  -9.4964    144.3225    215.1605   6.6055298143e+01   1.1254443598e+01    0.2224919     0.109316 -40.20  0.001089232    2.560    0.609
       257 -10.0325    147.9017     28.1982   1.9327224935e+01   4.4282694226e+01    0.3677977    0.3029485  79.04  0.001091488    1.206    0.171
       258 -11.4707    144.9490     24.3960   1.8503474085e+01   4.5517552880e+01    0.8659196    0.4579387  65.85  0.003700909    1.787    0.440
       259  -8.9540     44.6872    215.3134   8.7069973014e+01   2.5101788591e+01    0.1247245   0.06530681  59.17 0.0007031999    1.635    0.389
       260  -9.5397    164.5141    211.9534   6.1503688170e+01   8.5800526945e+00     0.192711     0.141452  32.85 0.0004814083    1.123    0.109
       261  -9.1175     65.6730     27.8226   4.1952022139e+01   6.3966041226e+01    0.1923424    0.1201871 -41.78 0.0007912029    1.678    0.404
       262  -9.7634    230.4915     27.0426   8.8467042693e+00   2.3778576219e+01    0.1957351    0.1666146 -83.48 0.0008604395    1.162    0.140
       263 -10.5128    183.3565     25.6314   1.3285177796e+01   3.5285812224e+01    0.3037099    0.2890356 -26.42  0.001650568    1.140    0.123
       264  -9.1724    187.4808     23.0033   1.2020672709e+01   3.4530056476e+01     0.213167    0.1779704  15.74 0.0006867101    1.470    0.320
       265  -9.3061     96.8958     26.1399   3.0159204392e+01   5.7531380671e+01    0.2647225     0.167402 -36.08  0.001248267    1.650    0.394
       266 -10.0943    154.9114     24.2940   1.6818485284e+01   4.2886453161e+01    0.4691755    0.2292659  88.98  0.001641336    3.049    0.672
       267  -9.2047    155.2458     20.9491   1.5633269642e+01   4.3175051314e+01    0.1953238    0.1439982  -4.48 0.0004594129    1.632    0.387
       268 -10.2205     90.8111     23.1353   3.0643031065e+01   5.9351106701e+01     0.304364    0.2632771  18.17  0.001429586    1.121    0.108
       269  -9.8130    153.4199    207.9923   6.3162908266e+01   1.0960892624e+01     0.254492    0.1815497  79.42  0.001289695    2.608    0.617
       270  -9.3665     61.2699    206.7415   8.2903206805e+01   2.4782810238e+01    0.1464954    0.1347425  33.42 0.0008869525    1.300    0.230
       271  -9.8776     38.6819     22.2872   5.2096599473e+01   6.9348542189e+01     0.235501    0.1913343 -18.35 0.0006308175    1.079    0.074
       272 -10.7269      6.1523    198.9587   9.4194190063e+01   3.2150012736e+01    0.3156253    0.1260296 -61.45  0.001633796    2.914    0.657
       273  -9.7322    223.5044     22.0589   8.2066765522e+00   2.5909157705e+01    0.2387102    0.1619755 -77.05 0.0006222815    1.488    0.328
       274 -10.8156    178.8212     20.8661   1.2408150228e+01   3.6988653109e+01    0.5144584    0.2389548  45.42   0.00204864    2.524    0.604
       275  -9.3063      5.3972     22.1845   7.2388636662e+01   7.2690913638e+01    0.1522159    0.1046015 -69.07 0.0003855063    1.573    0.364
       276  -9.8433     78.4929    203.9270   7.8853919886e+01   2.3085286503e+01    0.2395225    0.1370776  50.01 0.0006117058    1.492    0.330
       277  -9.8499    233.9498    196.8374   4.6161861456e+01   5.0223332290e-04    0.2061401    0.1499126 -17.14 0.0009145804    1.266    0.210
       278  -8.9503     83.6021    195.8135   7.6838913514e+01   2.3976075168e+01    0.1648892    0.1157467 -89.58 0.0009340959    1.609    0.378
       279  -9.8294     80.9020     19.4791   3.2128673509e+01   6.2063284024e+01     0.284742    0.1764313  57.44  0.001018765    1.701    0.412
       280  -9.2925     79.4907    190.4712   7.7188815511e+01   2.5635987311e+01    0.1305424    0.1094786  56.23 0.0001463968    1.017    0.017
       281 -11.2408    245.9483     19.3680   5.8430151886e+00   2.1287615438e+01    0.2426603     0.171199 -25.92  0.001102348    1.420    0.296
       282 -10.3644    236.0232     19.9966   6.7053531970e+00   2.3339368562e+01    0.2732721    0.1755589 -23.81 0.0003412862    1.600    0.375
       283 -11.8028    238.4971     16.5123   5.7027720813e+00   2.3175036661e+01    0.3703052    0.2211703  89.21  0.002034007    1.753    0.430
       284 -11.8604      5.0704    185.7737   9.3871032964e+01   3.4923643685e+01     0.484525     0.339198  79.27  0.003041874    1.161    0.139
       285  -9.8309    250.3858    176.8233   3.9867094528e+01   8.8150362006e-02     0.174722   0.09470057 -18.10   0.00095259    1.740    0.425
       286  -9.1562    216.5254     20.4830   8.4083061334e+00   2.7696386500e+01    0.1313116    0.1173657 -61.79 4.274249e-05    1.024    0.023
       287  -8.8962      1.4798     20.5339   7.4400475089e+01   7.3247042830e+01    0.1230302   0.09156933 -40.02 0.0003004119    1.071    0.066
       288  -9.4764     28.3806    175.7808   8.7958555584e+01   3.4947499064e+01    0.1615945   0.09986662 -69.93 0.0004888304    1.594    0.373
       289 -10.0081     51.5059    172.8119   8.2051567600e+01   3.3074223843e+01    0.4781263    0.1967369  87.13  0.001703821    3.995    0.750
       290  -9.1426    205.8775     17.3740   8.5487888148e+00   3.0569202696e+01     0.190634    0.1113604  61.04 0.0009404329    1.735    0.423
       291  -9.0149    183.3072     32.3020   1.5275590612e+01   3.4509675893e+01    0.1426682    0.1067399  33.73 0.0002477006    1.600    0.375
       292  -9.5277     39.4915    173.5260   8.5087822403e+01   3.4288402045e+01    0.1258458    0.1042854  68.93 0.0002782836    1.005    0.005
       293  -9.7461    120.2806     16.2044   2.0085926486e+01   5.2916171815e+01    0.2858148     0.204157  24.17  0.001233819    1.577    0.366
       294  -9.7616    186.9746     15.0435   9.7566635840e+00   3.5515200693e+01    0.2064148    0.1949549 -86.86 0.0006163984    1.065    0.061
       295  -9.1516     35.6726    169.3220   8.5670555591e+01   3.5633028434e+01    0.1366673   0.07590965  62.12 0.0003530443    1.689    0.408
       296 -10.4545     14.0629    159.2250   9.0321213993e+01   3.9947770957e+01    0.2620259    0.1917673 -85.61 0.0006817368    1.197    0.165
       297 -11.7559      9.2370    167.0396   9.1986141906e+01   3.8597184169e+01    0.3894173    0.2527551  40.35  0.001714064    1.466    0.318
       298 -11.3102     11.1447    162.4842   9.1255625457e+01   3.9454453866e+01    0.3250256    0.1864601  84.66  0.001622523    1.518    0.341
       299  -8.9793    187.6631    167.6823   4.9177133857e+01   1.1660544049e+01    0.1436259   0.09841582   7.36 0.0007048767    1.702    0.412
       300 -10.4555     18.8333    164.8019   8.9505712867e+01   3.8280133655e+01     0.260627    0.2027665  26.92  0.001709424    1.486    0.327
       301  -9.9446    205.0142    163.2035   4.4941554521e+01   9.2646590322e+00    0.2257203    0.1783526 -17.44 0.0006383513    1.203    0.169
       302 -10.8563     28.1109    161.4897   8.6922020044e+01   3.8167513300e+01    0.3549735    0.2481987 -62.52  0.001866858    1.493    0.330
       303  -9.5283     38.0211    160.3131   8.4260495733e+01   3.7429331801e+01     0.180048    0.1511161  53.78 0.0008259685    1.130    0.115
       304 -12.6415     22.7583    149.4076   8.7318303254e+01   4.1457454003e+01    0.6145695    0.3867358 -47.57  0.001460051    1.917    0.478
       305  -9.3558     65.9602     10.5071   3.2930342970e+01   6.6370330329e+01    0.2016829    0.1238938  48.31 0.0006225445    1.562    0.360
       306 -10.7236     16.5225    147.8577   8.8868057513e+01   4.2356151300e+01    0.2736804    0.1883796 -81.62  0.000373477    1.268    0.212
       307 -10.7819      9.4149    155.6296   9.1265646948e+01   4.1138225291e+01    0.2284323    0.1828714 -80.71  0.001156825    1.182    0.154
       308 -10.0057    104.4418    154.6672   6.5894800233e+01   2.9448665973e+01    0.2657993    0.2607486   3.56  0.001577301    1.125    0.111
       309 -10.3322      3.9240    153.7352   9.2545463015e+01   4.1981273963e+01    0.2324674    0.1276869  49.08  0.001350496    1.627    0.385
       310 -10.1266     63.3243    150.9465   7.6379720055e+01   3.6590991145e+01    0.5355923    0.3113948   1.06  0.001992127    3.898    0.743
       311 -10.1952     30.5434    151.8992   8.5445839743e+01   4.0145609983e+01    0.2511889    0.1910777 -29.99  0.001471813    1.819    0.450
       312 -11.0676     47.3942    146.6850   8.0257546061e+01   3.9580799153e+01    0.5181463    0.3861015 -27.60  0.002822976    1.868    0.465
       313 -11.1161      2.9716    147.6546   9.2438953462e+01   4.3434580534e+01    0.6533372     0.147324  34.96  0.002762954    3.353    0.702
       314 -11.2224      5.7637    142.4683   9.1375665668e+01   4.4436266295e+01    0.5135409    0.2312875  68.06 0.0005969718    2.157    0.536
       315 -10.8904      2.1602    140.8563   9.2244136573e+01   4.5057717558e+01    0.4283323    0.1470788 -77.72  0.001941616    2.410    0.585
       316  -9.9995    104.4330    147.6083   6.4627726623e+01   3.1020798948e+01    0.2626138    0.2189522  53.49 0.0005272239    1.156    0.135
       317  -9.1722     74.3760    145.8454   7.2559181973e+01   3.6252805097e+01    0.1916345    0.1219334 -53.14 0.0005220281    1.634    0.388
       318 -11.0983     33.2624    144.3569   8.3957314229e+01   4.1657066226e+01    0.3902011     0.256523  49.04  0.001737593    1.443    0.307
       319 -11.3664     12.4385    136.0007   8.9057685006e+01   4.5469397390e+01    0.5482351    0.3508135 -58.14  0.002757047    1.579    0.367
       320  -9.4606    217.3283    138.9671   3.7629441178e+01   1.0755231054e+01    0.1915702     0.159793 -19.32  0.000438565    1.097    0.088
       321 -10.3505     80.0907    138.3498   6.9697092731e+01   3.7169261113e+01    0.3405379     0.240108  52.59  0.001555309    1.410    0.291
       322 -10.4225     40.3265    138.0558   8.1229666034e+01   4.2438678203e+01    0.2988834    0.2004526  86.30 0.0007125019    1.465    0.317
       323  -9.8574     39.3241    133.4477   8.0956364671e+01   4.3662740615e+01    0.2133632    0.1328853  22.75 0.0006028041    1.864    0.463
       324 -10.0606     31.9541    137.8535   8.3637617532e+01   4.3343422628e+01    0.3367728    0.2067158  40.59 0.0008329765    1.600    0.375
