#   1 NUMBER                 Running object number                                     
#   2 MAG_AUTO               Kron-like elliptical aperture magnitude                    [mag]
#   3 X_IMAGE                Object position along x                                    [pixel]
#   4 Y_IMAGE                Object position along y                                    [pixel]
#   5 X_WORLD                Barycenter position along world x axis                     [deg]
#   6 Y_WORLD                Barycenter position along world y axis                     [deg]
#   7 A_WORLD                Profile RMS along major axis (world units)                 [deg]
#   8 B_WORLD                Profile RMS along minor axis (world units)                 [deg]
#   9 THETA_WORLD            Position angle (CCW/world-x)                               [deg]
#  10 FWHM_WORLD             FWHM assuming a gaussian core                              [deg]
#  11 ELONGATION             A_IMAGE/B_IMAGE                                           
#  12 ELLIPTICITY            1 - B_IMAGE/A_IMAGE                                       
         1 -15.1034      6.5203     71.7966   1.0526518373e+02   6.1252540763e+01     1.158038    0.6874593 -54.64  0.004749463    1.338    0.252
         2 -13.6851    187.9148     24.9473   3.6711772590e+01   3.5316527502e+01     1.322685    0.4663236 -57.37  0.004559243    4.191    0.761
         3 -13.5070    187.2834     11.9915   3.3654819810e+01   3.6854661530e+01    0.8940717    0.4608415 -41.04  0.004769383    1.914    0.477
         4 -13.4944    119.8171     26.3796   4.8036482852e+01   5.1278015422e+01     1.085714    0.5664688  32.89  0.004749652    2.377    0.579
         5 -14.0406    122.1777     37.1198   5.1100698416e+01   4.9457697484e+01    0.9491377    0.4599416  38.25  0.002710579    2.329    0.571
         6 -13.4771    132.2536     32.9616   4.7576570008e+01   4.7597908530e+01    0.6429559    0.5315746 -25.68  0.002477032    1.355    0.262
         7 -15.0830    146.9640     29.5855   4.3785076844e+01   4.4479328437e+01      1.38437     0.874247  59.01  0.005642811    1.400    0.286
         8 -13.6025      2.9066     10.4703   8.7470187996e+01   7.3162843819e+01    0.7872053    0.3299709 -46.91  0.004272189    2.327    0.570
         9 -13.3580      7.9857      2.6031   8.0353530462e+01   7.3842973801e+01    0.4581719    0.3212103  30.56  0.002301882    1.761    0.432
        10 -15.9925     12.3277     21.7817   8.6889110545e+01   7.0629454842e+01     1.830281     0.864916 -19.36  0.009271968    2.283    0.562
        11 -14.9286     22.8853     13.5109   7.7192061146e+01   7.0793449684e+01     1.025172     0.478794  37.82  0.005393184    2.446    0.591
        12 -14.5962    166.1800     28.4722   4.0435776931e+01   4.0008492401e+01    0.9717672    0.8014489  71.70  0.003956667    1.086    0.079
        13 -13.6183    216.1709     12.0826   3.1023549223e+01   3.0469040705e+01    0.8026779    0.3266309 -58.15   0.00216546    2.444    0.591
        14 -15.3523     99.1837     11.5716   4.7479505035e+01   5.7454132295e+01     1.440321    0.7310166  57.94  0.004353748    1.685    0.407
        15 -12.3764     70.1151     16.2715   5.7745669873e+01   6.3051586506e+01     0.335753    0.2901562  70.31  0.001443896    1.588    0.370
        16 -12.1441     59.6093     16.6769   6.1728233659e+01   6.4949440246e+01    0.2714809    0.2291973 -60.59  0.001676488    1.950    0.487
        17 -12.0284     46.5450     12.9435   6.5328251631e+01   6.7580987095e+01    0.2435841    0.2206085  23.39  0.001716383    1.346    0.257
        18 -14.0472     41.8361      4.4982   6.3238833481e+01   6.9250478870e+01    0.6704474    0.4604947  13.19  0.003615869    1.243    0.196
        19 -12.0810    153.0609      8.7343   3.6833175476e+01   4.5156642904e+01    0.1966092    0.1874091 -60.31 0.0008225511    1.190    0.160
        20 -10.5639    145.3219      8.2890   3.7781258909e+01   4.7030716443e+01    0.1302169   0.08344924  44.84 0.0002477556    1.604    0.377
        21 -12.2838    224.2589      5.0485   2.8960354162e+01   2.9511749455e+01    0.2092714    0.1637746  71.61 0.0004949253    1.352    0.260
        22 -12.4903    120.1872      3.8033   4.0393837040e+01   5.3319663751e+01    0.3459091    0.1802534  74.91  0.001689137    1.929    0.482
        23 -11.6860     61.3253      1.5921   5.4162243000e+01   6.6122313862e+01    0.3072389    0.1232897  52.64  0.001460796    2.218    0.549
        24 -11.7733     81.5710      1.4431   4.7937172016e+01   6.2096203114e+01    0.3920622    0.0998263  58.13  0.001472982    3.226    0.690
        25 -13.0426     85.2846     14.6372   5.2314935935e+01   6.0168102821e+01    0.3882356    0.3274562 -13.73  0.001853344    1.301    0.231
        26 -11.5260    103.1566    150.3913   8.8513086835e+01   3.0541515620e+01     0.341565    0.2281275 -30.27  0.001451828    1.827    0.453
        27 -13.0270     51.2777    248.6354   1.1449403685e+02   1.5314217400e+01    0.5105379    0.4099615  18.21   0.00337003    1.588    0.370
        28 -12.9038      2.8725    248.6157   1.2375233978e+02   2.0480879444e+01    0.4990227    0.2691696  87.49  0.003183306    1.620    0.383
        29 -13.8282      9.5118    245.9765   1.2241824950e+02   2.0366732284e+01    0.7186508    0.3546459  62.73  0.003610037    1.675    0.403
        30 -12.1692    245.3613    149.5274   5.6694342346e+01   4.0888566983e+00    0.2584109    0.1904752 -38.88  0.001518323    1.168    0.144
        31 -11.3716    109.5090    153.5468   8.7377663844e+01   2.8642573940e+01    0.2878159    0.1532338 -65.88  0.001038872    2.449    0.592
        32 -12.3294      7.2867    145.9323   1.1594319722e+02   4.3336499477e+01    0.4390456    0.2971282 -54.68  0.002551089    1.380    0.275
        33 -12.3206     44.8953    134.5719   1.0314713771e+02   4.2960850322e+01     0.305378    0.1860725 -86.54  0.001358881    1.996    0.499
        34 -12.0936    133.5110    126.4900   7.4560186415e+01   3.0431862247e+01    0.5321402     0.241985 -33.78  0.001712836    2.933    0.659
        35 -13.1789     85.2145    114.3296   8.5781654774e+01   4.2497528783e+01     1.033833    0.6765085  -8.60  0.003409851    2.316    0.568
        36 -13.5729    108.4456    123.3647   8.0826640053e+01   3.6165675800e+01    0.7900034    0.7478918   7.57  0.004095209    1.071    0.066
        37 -14.9716    106.6491    108.0404   7.7403218074e+01   4.0074467911e+01     2.216355     1.379377 -39.79  0.009512709    1.621    0.383
        38 -12.0094      3.9737    119.8821   1.1404752107e+02   4.9994759029e+01    0.4659701    0.1840241  13.14  0.002060802    3.139    0.681
        39 -11.7978     34.4926     86.8824   9.7219741603e+01   5.5757736893e+01    0.3385305    0.2186429 -30.28 0.0008906848    1.522    0.343
        40 -14.3254     18.1239    110.9170   1.0808456171e+02   5.1325402598e+01     1.031054    0.6048859 -44.22  0.004638798    1.557    0.358
        41 -14.7532     11.1637    103.1140   1.0926981629e+02   5.3688312339e+01     1.573581    0.7251312 -53.63  0.007656873    1.711    0.416
        42 -13.6917      2.2188     97.1661   1.1154958830e+02   5.5598370596e+01    0.8887132    0.2616083 -70.25    0.0034693    2.843    0.648
        43 -14.7357     22.5521     95.5600   1.0374067717e+02   5.4737561933e+01     1.563003    0.8469433  16.90   0.00777634    2.095    0.523
        44 -13.2681     95.7421    110.9909   8.1559117071e+01   4.1452167575e+01    0.9776442    0.6103943 -66.44  0.003944141    2.137    0.532
        45 -11.6570    176.5188    109.9937   6.0178660790e+01   2.4613696306e+01    0.3039234    0.2171654  32.08  0.001406022    1.638    0.390
        46 -13.4777     29.6236     89.6249   9.9770732152e+01   5.5565909426e+01     1.030052    0.5207057  54.71  0.003996822    3.624    0.724
        47 -12.4193    249.2807    106.9961   4.7423553009e+01   1.0558515017e+01    0.1949809    0.1497238 -42.52  0.001186206    1.084    0.078
        48 -12.0614    120.9467    112.4156   7.4389736331e+01   3.6213326226e+01    0.3610553    0.2190779  61.73  0.001360671    2.361    0.576
        49 -11.9622    136.8773    103.2947   6.7609697775e+01   3.4784069731e+01    0.4023457    0.2820508  51.88  0.001355288    1.481    0.325
        50 -10.3224     58.7348    125.3417   9.6974537652e+01   4.3677641790e+01     0.144306    0.1111601  80.10 0.0004494552    1.599    0.375
        51 -12.4983    128.1863    102.1017   6.9583399700e+01   3.6931391449e+01     0.359341    0.2276623  49.74  0.001391788    1.633    0.388
        52 -12.2560     42.8268     91.2437   9.5037175121e+01   5.3892040994e+01    0.4821601    0.2923206 -75.07 0.0009401785    2.250    0.556
        53 -11.7975     47.4492    100.1064   9.5422680987e+01   5.1279904184e+01    0.4036946    0.2848272  52.59  0.002021065    1.806    0.446
        54 -12.1455     52.7354     98.0888   9.2994914332e+01   5.1131650719e+01    0.3798044    0.2257027 -13.50  0.001600923    2.362    0.577
        55 -12.5401     49.1509     94.1785   9.3361064120e+01   5.2486781895e+01     0.469941    0.3569584  63.77  0.001711651    1.817    0.450
        56 -11.4796    163.8329     98.3775   5.9884172056e+01   2.9708034639e+01    0.2476157    0.2003423 -51.48 0.0004717774    1.246    0.198
        57 -11.9470     61.2734     97.7816   8.9799413401e+01   5.0090792420e+01    0.3876951     0.282479  85.51  0.001781059    2.144    0.534
        58 -12.5466    136.0658     95.1240   6.5554697875e+01   3.6637844080e+01    0.4003954     0.259641  47.09  0.001518865    1.535    0.349
        59 -13.1112     28.8915    122.3937   1.0630421283e+02   4.7618025463e+01    0.4137983    0.2902608 -62.13  0.002253192    1.225    0.184
        60 -12.3090    188.1545     84.5727   5.1569796169e+01   2.6696883196e+01    0.4277782    0.1915795  41.96  0.001579056    2.879    0.653
        61 -13.8496    163.6953     71.6130   5.2698688838e+01   3.4546505545e+01     1.311841    0.9003412  57.81  0.006404668    1.430    0.301
        62 -13.3779    161.6208     80.2895   5.5494067527e+01   3.3553184769e+01    0.8176833    0.5107696  26.09  0.003273283    2.462    0.594
        63 -14.4784    169.7872     76.8845   5.2944568470e+01   3.2232424046e+01    0.9652063    0.6616082  46.37  0.003482003    1.515    0.340
        64 -13.6483     66.0655     49.0687   7.2597119414e+01   5.9290907637e+01     1.288523    0.6507953 -27.47   0.00566346    2.240    0.553
        65 -13.5523     87.2188     65.4460   7.0774385405e+01   5.2637782265e+01     1.007633    0.5893016  11.16  0.003824987    2.897    0.655
        66 -13.4375     91.5852     58.0937   6.6804775209e+01   5.3075634629e+01    0.5237544     0.454446 -22.44  0.002685295    1.161    0.139
        67 -13.6587     52.1728     69.6178   8.5282551976e+01   5.7534829136e+01    0.7628899    0.6848425 -32.88  0.004627533    1.127    0.113
        68 -12.7945     70.8425     75.4426   7.9873112268e+01   5.3590157610e+01      0.51954    0.3437424  12.56  0.001889962    1.774    0.436
        69 -13.0500     54.3210     82.0381   8.8145150719e+01   5.4605005098e+01    0.5624843     0.375573 -41.62  0.002499485    1.362    0.266
        70 -14.0827     60.9678     75.7467   8.3703979373e+01   5.5040833001e+01     1.229539    0.5527548 -51.43  0.005035792    2.258    0.557
        71 -12.2706     47.0893     81.8149   9.0919262399e+01   5.5557777291e+01    0.3858928     0.262698 -49.60  0.001681816    1.349    0.259
        72 -12.0104     42.1362     77.8350   9.1805787072e+01   5.7008427099e+01    0.5093212    0.2315131 -58.39   0.00214924    2.278    0.561
        73 -12.8354    135.3660     80.1093   6.1410930976e+01   3.9688001225e+01    0.6614695    0.3889209  49.71  0.002325521    1.662    0.398
        74 -11.8723    114.2499     80.0182   6.7042198229e+01   4.4406422997e+01    0.3921218    0.2764598 -56.08  0.001515044    1.690    0.408
        75 -12.2271     77.1255     73.3680   7.6919384564e+01   5.2960362975e+01    0.6132739    0.3115114 -26.53  0.002314854    2.700    0.630
        76 -13.3515     28.2119    245.6431   1.1885248709e+02   1.8529565974e+01     0.416652    0.2591662  43.76  0.002655936    1.376    0.273
        77 -14.2082      4.6364     63.5691   1.0425032832e+02   6.3151993288e+01     0.646374    0.4789625  -4.46  0.004180255    1.410    0.291
        78 -12.6711    210.8901     77.9603   4.6357272814e+01   2.2793625238e+01    0.3671328    0.2444929 -73.94  0.001815776    1.809    0.447
        79 -11.9713     27.2907     75.6544   9.7363384375e+01   5.8958150014e+01    0.4083685    0.2309475 -74.55  0.001843162    2.501    0.600
        80 -13.2821    133.1454     66.8317   5.7976680715e+01   4.2531996432e+01    0.8745762    0.6782979   8.43  0.003493505    1.627    0.385
        81 -13.5642    199.8918     69.8236   4.6042218013e+01   2.6486267196e+01     0.643324    0.3154413  56.48  0.002427908    2.070    0.517
        82 -12.6500     40.0752     68.3733   8.9926586774e+01   5.9270290553e+01     0.644677    0.2184089  29.84  0.002539793    2.996    0.666
        83 -12.4058     31.3687     63.2879   9.2171539306e+01   6.1240542759e+01    0.5644211    0.2708214 -59.58    0.0025439    2.321    0.569
        84 -13.6975    177.6409     57.0244   4.6282481789e+01   3.3537192265e+01    0.9334041    0.5347189 -49.75  0.003652277    1.788    0.441
        85 -14.6733    119.9891     54.6705   5.7416821737e+01   4.7511204873e+01    0.8433354    0.6391798  35.65  0.003299789    1.309    0.236
        86 -13.0852     78.3797     60.1649   7.2032070946e+01   5.5231135529e+01    0.6804819    0.5088013 -38.82  0.003634798    1.374    0.272
        87 -12.9949     82.3266     54.6495   6.8690629636e+01   5.5454566865e+01    0.4462509    0.3986007   4.51  0.002626106    1.027    0.026
        88 -12.2455     24.7272     59.4855   9.4019513447e+01   6.2638548066e+01    0.4481349    0.2113644 -47.36  0.001716086    1.759    0.431
        89 -10.9077     38.5685     59.8254   8.7908123237e+01   6.1186300179e+01    0.1793739    0.1228977 -58.86  0.000950312    1.737    0.424
        90 -11.5888     17.8054     55.3403   9.6000141556e+01   6.4050418284e+01    0.3112627    0.1658432 -58.84  0.001604568    1.879    0.468
        91 -12.8047     99.8713     44.1301   5.9308554782e+01   5.3529558046e+01    0.5930434    0.3664883  37.95  0.001699932    1.535    0.349
        92 -14.0671    103.1234     50.7245   6.0687666332e+01   5.1858979262e+01    0.5971773    0.5595012   2.49  0.001064538    1.076    0.070
        93 -12.8272     97.9950     50.4972   6.2128364836e+01   5.2985242092e+01    0.4126907    0.3238574 -83.18  0.001502733    1.990    0.498
        94 -11.1650     36.6786     53.6753   8.6706302056e+01   6.2600824253e+01    0.1396127   0.08563328 -19.14 0.0005418648    1.681    0.405
        95 -12.0811     17.4704     40.6732   9.1433959594e+01   6.6926420751e+01    0.2151594    0.1792529 -23.24 0.0002482641    1.106    0.095
        96 -12.1707      6.9113     50.4972   9.9834581570e+01   6.5763102627e+01    0.6316562    0.2362315 -27.87  0.002730609    2.859    0.650
        97 -13.0657      3.8597     43.2092   9.9245328319e+01   6.7384628672e+01    0.4935418    0.3050325 -20.67  0.003033546    1.434    0.303
        98 -12.6415     11.7259     43.6923   9.5377310475e+01   6.6797245907e+01    0.4522527     0.238506 -11.66  0.002039945    2.007    0.502
        99 -12.4218    135.7280     50.1800   5.2249289852e+01   4.4511897668e+01    0.4952039    0.2745415  32.93  0.001854248    2.376    0.579
       100 -10.5774     23.4848     50.4248   9.1767899907e+01   6.4559373248e+01    0.1290301    0.1005903 -23.14 0.0001433686    1.049    0.047
       101 -13.3860    158.8287     43.6952   4.5812107715e+01   3.9881802979e+01      0.67485    0.3524803  50.92  0.003071435    1.844    0.458
       102 -14.0229    212.2911     41.3660   3.7782734487e+01   2.7832650040e+01     1.929883    0.6101208  74.81   0.00636937    4.595    0.782
       103 -14.0140     97.0603    239.4131   1.0394854552e+02   1.1097565675e+01    0.6383168    0.3742003  47.46  0.003160705    1.535    0.349
       104 -12.5352     24.3985    217.6645   1.1778755702e+02   2.4792277457e+01    0.4526619    0.3433104  72.45  0.002961798    1.102    0.093
       105 -13.0657     14.1456    221.9770   1.2021484685e+02   2.4861915251e+01    0.4855452    0.3092159  59.07  0.001657694    1.323    0.244
       106 -12.6457    109.9637     42.3652   5.5888185051e+01   5.1561912400e+01    0.4956171    0.1821424  52.53  0.001855411    2.456    0.593
       107 -13.1920    113.7108     38.1811   5.3483277845e+01   5.1272042070e+01    0.3880421    0.3589607 -20.78  0.001378371    1.177    0.150
       108 -13.8011     26.1668    226.7021   1.1804163116e+02   2.2651831689e+01    0.7343758    0.3428863 -58.38  0.003773042    2.357    0.576
       109 -13.2665     20.7616    224.7822   1.1903122748e+02   2.3613992769e+01    0.5101699    0.3500114 -38.57  0.002890731    2.218    0.549
       110 -13.8715     65.5700    223.2874   1.0920766355e+02   1.8778040812e+01     1.055971    0.6702132  51.33  0.005787626    1.421    0.296
       111 -13.4152    138.4666     22.0399   4.2989654365e+01   4.7339840562e+01    0.8521179    0.2540192  61.49  0.002481147    2.766    0.639
       112 -10.6732     55.4845     41.0018   7.3742171393e+01   6.2314161907e+01    0.1780397    0.1204162 -32.16 0.0003517038    1.441    0.306
       113 -12.7004     75.6097     37.1852   6.4474920998e+01   5.9417588257e+01    0.4111477    0.2328047  44.43  0.001294704    1.661    0.398
       114 -11.6350     70.4748     36.4862   6.6046503654e+01   6.0467387986e+01    0.2421601      0.19299  34.82 0.0006842065    1.186    0.157
       115 -12.2422    241.3710     36.1821   3.3833439646e+01   2.2472465630e+01    0.2878521      0.17595  70.04  0.001335272    1.670    0.401
       116 -12.2639    104.9672     35.4143   5.4767558302e+01   5.3590749510e+01    0.4143848    0.2248124 -10.94   0.00165647    2.746    0.636
       117 -14.1468     64.1081    214.5853   1.0863625729e+02   2.0890286861e+01    0.7166317    0.4012349  42.11  0.003632866    1.607    0.378
       118 -12.4432     94.3988    218.3404   1.0199956533e+02   1.5846705444e+01    0.2777016    0.1547054  37.76  0.001156644    1.613    0.380
       119 -14.0893     16.5057     30.8938   8.8309521710e+01   6.8751613872e+01    0.7278408    0.4184242  27.43  0.001941783    1.860    0.462
       120 -11.6615    249.5094    216.5126   6.8790078439e+01  -7.2039913683e+00     0.122623   0.09429175 -10.86 0.0001518981    1.017    0.016
       121 -12.2855     72.4981    207.3882   1.0584130395e+02   2.1408928737e+01    0.3980796    0.3218107  85.40  0.002299159    1.238    0.192
       122 -12.0089     41.1389    206.6651   1.1317521118e+02   2.5480531992e+01    0.2291918    0.1596888  84.95  0.001143737    1.358    0.263
       123 -13.3544    216.0328     28.4617   3.4540140015e+01   2.8641972188e+01    0.3980184    0.1371699 -43.49   0.00177908    2.492    0.599
       124 -12.4890     57.3128    202.9097   1.0898198706e+02   2.4431690058e+01    0.4555131     0.237612  86.73  0.001946519    2.495    0.599
       125 -12.0163     63.5490     25.1517   6.3946540626e+01   6.3235678039e+01    0.4456291    0.2203385  23.85  0.001958724    2.485    0.598
       126 -12.0194     30.5526     25.9019   7.8888950955e+01   6.8098074210e+01    0.2458958    0.1456711  10.11  0.001371522    1.679    0.404
       127 -10.6829     50.5335     44.0207   7.7024799788e+01   6.2560451304e+01    0.1780958     0.119092 -35.31  0.000115955    1.440    0.306
       128 -12.5666     46.6357     20.5985   6.8866547334e+01   6.6631237127e+01    0.3487692    0.2036005  26.63  0.001646842    1.548    0.354
       129 -13.1990     55.3416     27.2053   6.8084342356e+01   6.4372217950e+01    0.5630196    0.2987166  43.20  0.002174711    1.886    0.470
       130 -13.1198     44.5632     32.4530   7.5001289023e+01   6.5266625100e+01    0.5824142    0.4857886  15.61  0.003617128    1.159    0.137
       131 -12.2926    248.5779    197.3721   6.5472662048e+01  -4.2098559575e+00    0.4292525    0.2147833 -45.77  0.002110722    2.259    0.557
       132 -12.7916     16.0611    196.4570   1.1808743802e+02   3.0396320851e+01    0.4762373    0.3233338 -68.72  0.002487539    1.385    0.278
       133 -13.3992     29.7920    169.5298   1.1228304383e+02   3.5610559002e+01     1.142297    0.9656176  52.07   0.00703949    1.212    0.175
       134 -13.4697     22.1812    181.2463   1.1538677635e+02   3.3447621399e+01    0.8620418    0.4034413 -51.28  0.004009864    2.310    0.567
       135 -15.1730      8.3673    183.5885   1.1891396306e+02   3.4077017279e+01     1.294625     1.005286  86.62  0.008399473    1.066    0.062
       136 -15.1103     15.9490    175.6478   1.1643505850e+02   3.5356250398e+01     2.077583    0.8608552  57.12  0.008952625    2.674    0.626
       137 -12.8738    124.2424    166.7778   8.6087928228e+01   2.2789987953e+01    0.6523824    0.4307553 -66.32  0.002808686    1.839    0.456
       138 -10.7716    200.6787    192.3182   7.3414583442e+01   3.7374951406e+00    0.1264717    0.1140643  88.14 0.0005640418    1.665    0.400
       139 -11.7003     49.0178    182.0544   1.0867713808e+02   3.0449128212e+01    0.3401419    0.1784384 -60.31  0.001591439    1.786    0.440
       140 -12.0664     76.7147    156.8779   9.7375666898e+01   3.3159440779e+01    0.3747737    0.2522693  24.61  0.001243012    1.647    0.393
       141 -13.1299     73.2335    153.0673   9.7716192306e+01   3.4633778062e+01    0.6328739    0.4755903  14.97  0.001828048    1.564    0.361
