#   1 NUMBER                 Running object number                                     
#   2 MAG_AUTO               Kron-like elliptical aperture magnitude                    [mag]
#   3 X_IMAGE                Object position along x                                    [pixel]
#   4 Y_IMAGE                Object position along y                                    [pixel]
#   5 X_WORLD                Barycenter position along world x axis                     [deg]
#   6 Y_WORLD                Barycenter position along world y axis                     [deg]
#   7 A_WORLD                Profile RMS along major axis (world units)                 [deg]
#   8 B_WORLD                Profile RMS along minor axis (world units)                 [deg]
#   9 THETA_WORLD            Position angle (CCW/world-x)                               [deg]
#  10 FWHM_WORLD             FWHM assuming a gaussian core                              [deg]
#  11 ELONGATION             A_IMAGE/B_IMAGE                                           
#  12 ELLIPTICITY            1 - B_IMAGE/A_IMAGE                                       
         1 -13.4291    206.8524     33.8193   5.6077923180e+01   3.0427720049e+01     1.314872     1.117031  66.79  0.006405923    1.167    0.143
         2 -13.6035    223.3803     17.2981   5.0532718942e+01   2.8747227700e+01    0.9371221    0.7904573  59.09  0.003414148    1.374    0.272
         3 -13.0215      4.1766     13.1047   1.0328459326e+02   6.8789505156e+01     1.474754    0.3248188 -42.58  0.007096272    3.312    0.698
         4 -10.6530    121.1145    248.5623   1.1831022646e+02   6.1372624359e+00    0.2405911    0.1684787 -41.27  0.001346198    1.974    0.493
         5  -9.7674    190.8008    250.3896   1.0506462906e+02  -6.0103385846e+00     0.188754    0.1053161  31.51 0.0009496713    1.717    0.418
         6  -9.4857     62.7725    250.3795   1.2920806685e+02   1.4685846222e+01    0.1528927     0.103105  41.26 0.0009506469    1.622    0.384
         7 -13.0768     58.2532    212.8284   1.2639585865e+02   2.3027659065e+01     1.461475    0.5058316  59.81  0.001940168    4.187    0.761
         8 -15.3044     14.1189    158.3347   1.2963800511e+02   4.0027973602e+01     12.06429     2.733884 -75.74   0.03340917    6.564    0.848
         9 -10.5051    163.3238    249.0033   1.1018982259e+02  -1.1143807063e+00    0.2514029    0.1691633  60.00  0.001363942    1.626    0.385
        10 -12.9888     20.7807    222.7563   1.3423501417e+02   2.5383876509e+01     0.337474     0.273346  89.57 0.0007560858    1.186    0.157
        11 -11.5816     95.0134    231.5974   1.2130382702e+02   1.3690672361e+01     0.343196    0.2190652 -79.17  0.000527927    1.631    0.387
        12 -12.6331    111.6225    230.4254   1.1786783546e+02   1.1242727741e+01    0.9004692    0.2141245  45.68  0.003016989    3.633    0.725
        13 -13.9594     26.5147    216.4941   1.3272493889e+02   2.6068213893e+01     0.811218    0.5728482  75.94  0.002402296    1.142    0.125
        14 -12.2723     85.4338    225.2157   1.2243171102e+02   1.6497188715e+01     1.246801    0.1932952  49.89  0.002827215    8.762    0.886
        15  -9.1886     81.3285    218.6591   1.2247315942e+02   1.8510521005e+01    0.1413716   0.08569147  72.98 0.0007051491    1.739    0.425
        16  -8.8485    225.3898    200.1144   8.9509138220e+01  -3.4744269339e+00    0.1835612    0.1245832 -52.24 0.0005867629    1.712    0.416
        17 -10.7971     44.6299    196.2381   1.2733329689e+02   2.8406456297e+01    0.4308545    0.1852341  64.23  0.001811558    3.000    0.667
        18  -8.1051    181.6772    192.2984   9.6860146323e+01   6.2172771858e+00     0.145412    0.1149124  79.33 0.0005453836    1.625    0.385
        19 -11.5612     51.1049    191.6309   1.2548045754e+02   2.8660460115e+01    0.2709855    0.2241533 -59.39 0.0005287572    1.336    0.251
        20 -14.4254      8.6703    244.7037   1.3770699109e+02   2.2297112486e+01     2.467626     1.662126  51.19   0.01841431    1.493    0.330
        21 -11.8175     58.4054    183.8781   1.2296841406e+02   2.9515582549e+01    0.2616378    0.2320012 -68.09 0.0004490432    1.202    0.168
        22 -10.6712     70.1667    172.0350   1.1867386921e+02   3.0712763975e+01    0.2466956      0.21059 -68.39 0.0003333366    1.104    0.094
        23 -13.0703     55.9889    169.4863   1.2158546544e+02   3.3166711643e+01    0.5266842    0.2700617 -46.27  0.001626963    2.261    0.558
        24 -11.8613     78.5268    163.6424   1.1537939814e+02   3.1512667952e+01    0.6479396    0.5689228 -59.73  0.003836771    1.137    0.121
        25 -13.9031      9.8735    207.7842   1.3501299028e+02   2.9602655516e+01     1.284208    0.9094916 -74.16  0.002522307    1.266    0.210
        26 -10.1690     92.8515    149.0538   1.0923276574e+02   3.2790751163e+01    0.3180708    0.2863019 -81.32 0.0008780285    1.063    0.060
        27 -11.9151     81.0855    147.6333   1.1196008172e+02   3.4938638318e+01    0.3146615    0.2336761 -51.45 0.0003957016    1.280    0.219
        28 -12.0535     67.7780    143.6738   1.1465002119e+02   3.7736487718e+01     0.630391    0.4335938  70.79  0.002379899    1.789    0.441
        29  -9.0975     96.3609    145.0807   1.0756223102e+02   3.3162073061e+01    0.2045583     0.170132 -62.51 0.0004588783    1.123    0.110
        30  -9.7672    106.4886    134.2950   1.0269235474e+02   3.3968971908e+01    0.5023566     0.264606 -43.70  0.001785548    1.940    0.485
        31 -10.0155     93.2038    132.0829   1.0572107387e+02   3.6723595067e+01    0.2322263    0.2114599 -29.15 0.0003730181    1.186    0.157
        32  -9.1206    104.8175    122.2950   1.0044543554e+02   3.7014008013e+01    0.1856553    0.1782949  11.96  0.000338358    1.117    0.105
        33  -9.1205    167.7109    112.8050   8.2481375064e+01   2.6186518221e+01    0.2908176    0.2018194  81.36    0.0012056    2.034    0.508
        34 -10.8292    171.2341    247.7305   1.0845880551e+02  -2.2574506275e+00    0.2527146    0.2043347  14.83  0.001520502    1.407    0.289
        35 -11.1176    243.0776     93.6522   6.4123658208e+01   1.2937408973e+01    0.2617894    0.1735006 -53.71  0.001258195    1.386    0.278
        36 -12.8325     37.8142    206.3262   1.2971111924e+02   2.6976890277e+01    0.8223527    0.6356863  28.37  0.005100818    1.797    0.443
        37  -9.5911    161.4864     79.9362   7.5465408485e+01   3.3972901832e+01     0.219355    0.1453346 -40.98 0.0007381558    1.554    0.356
        38 -11.2071    249.3098    247.5846   9.3647084520e+01  -1.4708920737e+01    0.4554899    0.2007446 -35.81  0.002325598    2.305    0.566
        39 -11.0364    139.2333    247.8927   1.1472838525e+02   3.2132995077e+00    0.3515565    0.2062636 -71.22  0.001739045    2.299    0.565
