#   1 NUMBER                 Running object number                                     
#   2 MAG_AUTO               Kron-like elliptical aperture magnitude                    [mag]
#   3 X_IMAGE                Object position along x                                    [pixel]
#   4 Y_IMAGE                Object position along y                                    [pixel]
#   5 X_WORLD                Barycenter position along world x axis                     [deg]
#   6 Y_WORLD                Barycenter position along world y axis                     [deg]
#   7 A_WORLD                Profile RMS along major axis (world units)                 [deg]
#   8 B_WORLD                Profile RMS along minor axis (world units)                 [deg]
#   9 THETA_WORLD            Position angle (CCW/world-x)                               [deg]
#  10 FWHM_WORLD             FWHM assuming a gaussian core                              [deg]
#  11 ELONGATION             A_IMAGE/B_IMAGE                                           
#  12 ELLIPTICITY            1 - B_IMAGE/A_IMAGE                                       
         1 -11.7836    172.1719     31.1309   7.8059930169e+01   3.8335526010e+01     1.314293    0.9515288  15.47   0.00476957    1.553    0.356
         2 -10.4805    175.6809     23.6805   7.5004023924e+01   3.8290335955e+01     0.571645    0.4606034   6.17  0.001444229    1.301    0.231
         3  -7.2492    186.3103      1.3763   6.6352934646e+01   3.7699427976e+01    0.1496625   0.09531431  31.74 0.0007029455    1.786    0.440
         4 -10.0549    178.2650    238.8482   1.2409890276e+02   6.2627963079e+00    0.3947871    0.1975618  41.26  0.001215823    1.793    0.442
         5 -13.4138     29.0217    224.4987   1.4983249775e+02   2.5682610583e+01     1.431939     0.983681  16.40  0.004827242    1.954    0.488
         6 -11.8270     23.2282    234.0460   1.5120710156e+02   2.4685883374e+01    0.4004402     0.237714  32.70 0.0002858838    1.557    0.358
         7 -13.2323     61.6060    223.0886   1.4381947725e+02   2.2727403027e+01    0.9392949    0.5384164  51.96    0.0010275    1.413    0.292
         8 -15.6617     52.9486    246.5869   1.4669237575e+02   2.0041313466e+01     3.864323     2.960866  23.74   0.01805585    1.529    0.346
         9  -9.9213    104.3920    239.6288   1.3723512820e+02   1.5426619576e+01    0.2742291    0.1893885  69.53  0.001083492    1.769    0.435
        10  -9.6452    158.9863    235.6603   1.2707650678e+02   9.1200022220e+00    0.2159513    0.1656482 -10.63 0.0008641613    1.506    0.336
        11  -9.0838    169.0352    234.0918   1.2512000879e+02   8.0010666474e+00     0.169401    0.1290158  26.00 0.0007761023    1.043    0.041
        12  -9.1555    125.7907    229.5916   1.3240929747e+02   1.4186821072e+01    0.3395953    0.2459496  -7.04  0.002314607    1.918    0.479
        13  -9.4772    137.0306    230.0091   1.3038985728e+02   1.2687003760e+01    0.3753706    0.1149533  40.17  0.001649191    2.532    0.605
        14  -8.8532    177.3630    220.0227   1.2183181660e+02   8.5790318044e+00    0.2126167    0.1279575  16.71 0.0007983567    1.619    0.382
        15  -8.9594    100.0701    215.6383   1.3588867897e+02   1.9491515286e+01    0.2816876    0.1507427  54.10  0.001050193    1.910    0.476
        16 -14.5252     29.9462    248.2743   1.5059277385e+02   2.1962347100e+01     2.354507    0.6262094  53.74   0.01333333    2.740    0.635
        17  -8.3987    167.5743    211.5487   1.2245799144e+02   1.1013574297e+01    0.2341118    0.1650136  62.12   0.00128807    2.412    0.585
        18  -9.9178    180.2397    235.1714   1.2330365339e+02   6.4193137770e+00    0.4271328    0.1360894  31.75  0.002039846    2.622    0.619
        19  -9.6439     93.9547    208.2833   1.3638412243e+02   2.1432177918e+01    0.3760772     0.194937  56.73  0.001293879    2.117    0.528
        20  -9.7842     23.3182    206.7232   1.5012502473e+02   2.9168496251e+01    0.3799193    0.2426266  81.16  0.001472887    1.413    0.292
        21 -11.5768     12.1063    206.5651   1.5221934884e+02   3.0131455236e+01    0.4843385    0.3093323  29.71  0.001783676    1.616    0.381
        22  -7.4742    130.4420    207.4182   1.2903789479e+02   1.6789791897e+01    0.1158561   0.09429293  32.24 0.0001211083    1.016    0.015
        23  -9.8785    123.9940    206.0148   1.3014465126e+02   1.7886778690e+01    0.1646378    0.1353477  35.25  0.001160088    1.003    0.003
        24  -9.6028    198.6281    200.5736   1.1514533959e+02   7.9774870448e+00    0.3738678    0.2102886  32.07   0.00221421    1.468    0.319
        25 -10.1477    190.6570    190.1616   1.1490178818e+02   1.0478931529e+01    0.3780882     0.244995 -47.61  0.001651439    2.220    0.550
        26  -7.6344     27.0533    193.2619   1.4876320972e+02   3.1256673411e+01    0.1478851    0.1111398  50.10 0.0005160765    1.131    0.116
        27  -8.2781    209.7816    189.5734   1.1134596479e+02   7.6986997744e+00    0.1645118    0.1012494  40.68 0.0009577075    1.682    0.406
        28  -9.1147     44.7853    187.2204   1.4473963926e+02   3.0727373396e+01    0.1782604    0.1573464  51.70 0.0002184051    1.145    0.126
        29  -8.1152    219.8616    186.3592   1.0903564561e+02   6.6041385587e+00    0.1759613   0.08933791  27.35   0.00094414    1.738    0.425
        30  -8.4413    201.5298    183.5807   1.1178327794e+02   9.6914406657e+00    0.2323385    0.2067642  30.92  0.001120194    1.392    0.282
        31  -9.0392     60.2196    182.8532   1.4107984293e+02   2.9946727963e+01    0.2434216    0.1658797  40.59  0.001082922    1.302    0.232
        32  -9.4699     95.2425    179.6232   1.3300657951e+02   2.6299062170e+01    0.2814771    0.2102496 -37.29  0.001065905    1.665    0.399
        33  -9.5594     97.4820    174.5558   1.3187242813e+02   2.6951105709e+01     0.312006    0.2071839 -42.99  0.001272153    1.791    0.442
        34  -9.0988     24.8969    178.1686   1.4840273860e+02   3.4313542406e+01    0.1768928     0.120132  60.92  0.001228183    1.218    0.179
        35  -7.4736    190.9782    175.0065   1.1221462627e+02   1.2493710128e+01      0.15325    0.1206486  19.95 0.0003205219    1.067    0.063
        36  -7.8494      1.7270    178.2315   1.5326450727e+02   3.6105507836e+01    0.1275328    0.1048337 -78.62  0.000462756    1.325    0.245
        37  -8.2551    113.5016    170.4438   1.2768160180e+02   2.5457232272e+01    0.2134677    0.1898872  31.14 9.880372e-05    1.057    0.054
        38  -7.7426     47.3495    171.2871   1.4296509457e+02   3.3585882307e+01    0.2065554   0.09152839  32.55  0.001072074    2.104    0.525
        39  -8.9278     35.6752    170.6987   1.4556236560e+02   3.4838983027e+01     0.289114    0.1946862  22.08   0.00127573    1.730    0.422
        40  -8.9971    226.6978    170.0728   1.0488833791e+02   7.5378159256e+00    0.2005737    0.1576346  32.39 0.0009292483    1.391    0.281
        41  -8.1668     25.1866    166.8325   1.4767001846e+02   3.6555488013e+01    0.1410639    0.1263974 -61.30 0.0007934618    1.346    0.257
        42  -8.8489    102.2672    165.4163   1.2953744260e+02   2.8041952211e+01    0.2126924    0.2101461  40.22 0.0003365369    1.084    0.078
        43  -8.1370     36.2630    163.3845   1.4488885751e+02   3.6282691546e+01      0.20991     0.110416  22.72  0.001142268    2.204    0.546
        44 -10.0255     91.2067    160.7934   1.3150497053e+02   3.0503482618e+01    0.2672366    0.2340307  23.03 0.0003765381    1.214    0.176
        45 -10.1013     21.7764    158.9597   1.4795992626e+02   3.8466357573e+01    0.6751413    0.3173771  11.48  0.003271496    3.376    0.704
        46  -7.7103     65.3437    158.9671   1.3752922566e+02   3.4162259728e+01    0.1625745    0.1471546  84.05 0.0005618398    1.060    0.056
        47  -8.5768    105.2396    159.4789   1.2796399271e+02   2.8777061762e+01    0.2934526    0.2399111  -5.13   0.00156139    1.509    0.337
        48  -7.7232      9.3274    154.6615   1.5061638321e+02   4.0312958111e+01    0.1234782   0.06238658  61.23 0.0007051706    1.730    0.422
        49  -8.4138    106.2032    155.4024   1.2710165694e+02   2.9444957493e+01    0.4587399    0.1964739  49.65  0.001866419    2.671    0.626
        50  -9.3479     53.0496    148.4102   1.3941439997e+02   3.7801320692e+01    0.3235492    0.2058142  22.37  0.001808843    1.822    0.451
        51 -11.1398     68.4071    144.3103   1.3496419788e+02   3.6941740657e+01    0.6815323    0.4440861  70.41  0.003286733    1.746    0.427
        52  -8.2931    133.7784    144.7163   1.1862099268e+02   2.7120980717e+01    0.2959853    0.1590401 -54.25  0.001318567    2.178    0.541
        53  -9.4486     84.5541    144.9392   1.3087451514e+02   3.4719120068e+01    0.2986253    0.2352957 -40.78  0.001739702    1.428    0.300
        54  -8.9601    114.2694    142.4898   1.2292878258e+02   3.0804343071e+01     0.615509    0.1046798 -45.89  0.001511795    6.892    0.855
        55  -7.1207     20.4404    145.5299   1.4739103593e+02   4.1446012059e+01    0.1150461   0.09659081  83.85 0.0001542719    1.040    0.039
        56  -8.8526      2.6746    139.0994   1.5142695532e+02   4.4089227717e+01    0.2385342   0.08420919  88.53  0.001101292    2.590    0.614
        57  -8.9207    134.9232    137.2260   1.1685675433e+02   2.8366328994e+01    0.2361877     0.198439 -33.27 0.0002740612    1.219    0.180
        58  -7.9447     79.9396    135.7287   1.3066474897e+02   3.7356916553e+01    0.1819204    0.1627199  49.37 0.0004772512    1.099    0.090
        59  -9.9988     66.2026    134.3201   1.3417351704e+02   3.9434637603e+01    0.4023733    0.2061954  34.56  0.001395689    1.937    0.484
        60  -9.0036     59.1064    133.3254   1.3597736537e+02   4.0497374726e+01    0.2507437    0.1796645 -83.41 0.0007312165    1.387    0.279
        61  -7.6853    119.1349    132.3438   1.1975450466e+02   3.2078891347e+01    0.2390307    0.1823088 -37.82 0.0007168072    1.367    0.268
        62  -9.0737     66.2150    130.2192   1.3357055117e+02   4.0364207871e+01    0.2132645    0.1687775  77.39 0.0009070499    1.304    0.233
        63  -9.0331     64.2174    125.8277   1.3346891719e+02   4.1615072473e+01    0.2904232    0.1539927 -69.98  0.001344841    1.892    0.471
        64  -8.0432    160.6845    127.6891   1.0880744363e+02   2.5399374958e+01    0.2804259    0.1757355 -60.15 0.0008761545    2.565    0.610
        65  -8.4584    199.1230    125.5542   1.0042460385e+02   1.8364941624e+01    0.2250448     0.175942 -19.67 0.0001314617    1.177    0.151
        66  -8.2676     72.5375    128.9538   1.3161358994e+02   3.9857278317e+01    0.1942008   0.09492347 -42.16 0.0004502797    2.534    0.605
        67  -8.0681     39.9451    125.0000   1.4028687866e+02   4.4420884183e+01    0.1920294   0.07106092  25.82 0.0008046777    2.958    0.662
        68  -8.2853    132.0112    121.9816   1.1427447988e+02   3.1904515553e+01    0.2171508     0.208162  -3.97 0.0004837425    1.019    0.018
        69 -10.3980    245.0426    116.5877   9.0672098554e+01   1.1197597110e+01    0.2659922    0.2191007  14.53 0.0004984448    1.169    0.145
        70  -7.1555    235.4625    116.4706   9.2087092564e+01   1.2899821086e+01    0.1367604    0.1089341  -3.52 0.0008083687    1.043    0.041
        71  -8.2367    196.6911    107.3591   9.6450146464e+01   2.1633530625e+01    0.2290261    0.2137024 -33.22 0.0006535792    1.242    0.195
        72  -8.3369     68.0206    104.2367   1.2855600317e+02   4.6204926671e+01    0.1904436    0.1846213 -76.63  0.001167757    1.048    0.046
        73  -9.3882    247.7099     97.7957   8.5903947281e+01   1.3055466626e+01    0.3762318    0.2171879 -35.49  0.001617033    1.636    0.389
        74  -7.5581    214.8249     76.1852   8.5137563056e+01   2.2365320510e+01    0.1943246    0.1517385   6.49 0.0004216947    1.295    0.228
        75  -8.8949    197.0455     55.0573   8.1837042167e+01   2.9205500390e+01    0.2139652    0.1927223  -6.72  0.001189893    1.041    0.039
        76 -10.4147    162.2238     51.8136   8.6857055328e+01   3.8075930369e+01    0.5665877     0.358063  -2.80  0.002348883    1.987    0.497
        77 -10.8962    159.6320     46.2320   8.5461835827e+01   3.9524933115e+01    0.5889863    0.5480769 -31.99  0.001923601    1.092    0.084
        78  -8.4213    250.6626     40.3511   7.1327391364e+01   1.9161016945e+01    0.2311223   0.09743952 -27.73  0.001048452    1.901    0.474
        79  -7.7747      3.8270    245.1895   1.5470701019e+02   2.4610469971e+01    0.1380547   0.09699865 -60.85   0.00106194    2.056    0.514
        80 -10.5884    169.0974    240.1364   1.2583191948e+02   7.2915765641e+00    0.4301284    0.2658004  25.53  0.001641044    1.265    0.209
        81  -7.5523    192.3975     28.7365   7.4401362675e+01   3.3539745026e+01    0.1900605    0.1320104  -6.83 0.0003778829    1.513    0.339
        82  -7.8540    164.2212     22.2122   7.6187250947e+01   4.1392410100e+01    0.3543558     0.178445   3.10 0.0009810394    2.945    0.660
        83 -10.3974    145.8391     21.8736   7.9162830586e+01   4.6186524608e+01    0.2616167    0.2352513  -5.79 0.0002752245    1.082    0.076
        84  -7.9098    235.9593     23.0000   6.8153228564e+01   2.4004218725e+01    0.1940767   0.07537624  70.58 0.0008003321    2.928    0.658
