#   1 NUMBER                 Running object number                                     
#   2 MAG_AUTO               Kron-like elliptical aperture magnitude                    [mag]
#   3 X_IMAGE                Object position along x                                    [pixel]
#   4 Y_IMAGE                Object position along y                                    [pixel]
#   5 X_WORLD                Barycenter position along world x axis                     [deg]
#   6 Y_WORLD                Barycenter position along world y axis                     [deg]
#   7 A_WORLD                Profile RMS along major axis (world units)                 [deg]
#   8 B_WORLD                Profile RMS along minor axis (world units)                 [deg]
#   9 THETA_WORLD            Position angle (CCW/world-x)                               [deg]
#  10 FWHM_WORLD             FWHM assuming a gaussian core                              [deg]
#  11 ELONGATION             A_IMAGE/B_IMAGE                                           
#  12 ELLIPTICITY            1 - B_IMAGE/A_IMAGE                                       
         1 -14.3708     68.7650    144.1733   1.0073209708e+02   3.7621971189e+01     4.473678     2.188823  65.82  0.007725415    4.070    0.754
         2 -13.3638    198.8366     41.3647   4.2910226005e+01   3.0539975152e+01     1.242693     1.064276 -44.99  0.004087627    1.182    0.154
         3 -13.6525    208.7543     31.6881   3.9376782525e+01   2.9479728518e+01     1.202442    0.8693032 -16.57  0.001551993    1.844    0.458
         4 -12.8883    233.6790      5.8299   3.1441794843e+01   2.6954796041e+01    0.8225884    0.5965733 -89.87  0.004905598    1.209    0.173
         5  -9.4141     60.5209      7.5248   6.0377930215e+01   6.5949932063e+01    0.1221489    0.1014004  20.66 -7.069833e-05    1.037    0.036
         6 -11.9358    107.5744    203.7393   1.0037509854e+02   1.7441496004e+01     0.736615    0.3247727 -56.89  0.002986195    2.385    0.581
         7 -10.0369    140.1027    250.1729   9.9727072109e+01   3.4254682652e+00    0.2997068    0.1361217  43.03  0.001245899    1.873    0.466
         8 -13.2275     56.1040    185.8544   1.1016903114e+02   2.9080729552e+01     1.442809     1.087422  87.85  0.008295653    1.235    0.191
         9 -13.9803     43.6255    197.1062   1.1428663539e+02   2.7990974351e+01     3.353305     1.233349  62.44  0.008174083    3.956    0.747
        10  -9.5494     59.0147    220.2870   1.1314539561e+02   2.0971600513e+01    0.3148111    0.2577388 -23.07  0.001911726    1.903    0.475
        11  99.0000     32.3282    205.3152   1.1750363737e+02   2.7424026214e+01    0.1926215    0.1376163 -86.31 0.0006826274    1.222    0.181
        12  -9.1119     30.9983    202.4703   1.1755654824e+02   2.8201772332e+01    0.2160465    0.1718285  45.17 0.0007479186    1.304    0.233
        13 -10.8795    193.4558    195.5440   8.0047126671e+01   4.1916360401e+00     1.006323      0.54685 -64.47  0.003095429    5.664    0.823
        14  -9.5766    121.6361    199.6864   9.6515614576e+01   1.5976898597e+01    0.2503556    0.1314035 -44.54   0.00107905    2.169    0.539
        15  -9.0481    120.9787    195.8786   9.6058792536e+01   1.6907960934e+01    0.2237631    0.1642947  74.39 0.0008159323    1.681    0.405
        16 -10.4154    203.5209    199.5462   7.8800256529e+01   1.7977443878e+00    0.3533612      0.12459  39.53  0.001368387    2.776    0.640
        17 -11.1714    112.2244    196.3346   9.8181517790e+01   1.8289133709e+01    0.7222491    0.4338038  -9.55  0.002214619    5.341    0.813
        18  -8.4719     82.4200    194.7695   1.0500209435e+02   2.3360438569e+01    0.1844924    0.1227292 -54.08 0.0009378017    1.595    0.373
        19 -10.2311    157.4956    219.0349   9.1670152325e+01   6.0608692171e+00    0.1967144    0.1341869 -47.69  0.001047173    1.636    0.389
        20 -10.5420    184.1408    212.7437   8.5072205763e+01   2.7436013664e+00    0.3388668    0.1660984 -38.77  0.001549559    2.156    0.536
        21  -9.4605    148.9899    187.8262   8.8173999810e+01   1.3647555817e+01    0.2493631    0.1668768  64.10   0.00110182    2.043    0.510
        22  -8.8896     72.0996    188.2533   1.0660929126e+02   2.6365907054e+01    0.1904094    0.1595388  68.11 0.0004495063    1.099    0.090
        23  -8.2905     77.3853    186.1016   1.0503652095e+02   2.6112516712e+01    0.1906341    0.1235241 -83.11 0.0007398264    1.683    0.406
        24  -9.4359     89.9141    212.3188   1.0554188227e+02   1.8352213005e+01    0.2368008    0.1704874  87.70 0.0005749802    1.519    0.342
        25  -8.5369     80.3761    183.7412   1.0397170792e+02   2.6228394440e+01    0.1811503    0.1253723 -58.67 0.0004866616    1.445    0.308
        26  -8.9845     69.6754    183.9214   1.0662846589e+02   2.7727473476e+01    0.1914803    0.1569341 -87.49 0.0003508449    1.143    0.125
        27  -9.8388     99.4006    180.7115   9.8797060162e+01   2.3962758728e+01    0.2508053    0.2427917  21.90 0.0005657225    1.153    0.132
        28  -8.5909     90.3676    181.2124   1.0112128943e+02   2.5297139588e+01    0.2034544    0.1358255 -61.64 0.0002920919    1.489    0.328
        29  -8.6371     93.1562    179.1452   1.0010212965e+02   2.5342924812e+01    0.1981574    0.1589199  80.45 0.0003959447    1.308    0.235
        30 -17.2333     15.2559    243.1403   1.2331943743e+02   2.1400252790e+01     6.082133     2.160486  27.57   0.01977324    3.920    0.745
        31 -10.3097     42.6516    179.8308   1.1273150297e+02   3.2142249127e+01    0.2392948    0.2071293 -84.43 0.0007322768    1.075    0.070
        32 -10.0194     45.5093    176.4848   1.1165571706e+02   3.2612981472e+01    0.2391502    0.2221346 -64.33  0.000797767    1.218    0.179
        33  -9.6943    187.9633    176.3304   7.7392938824e+01   8.7265430253e+00    0.3346836    0.2972043 -56.77  0.001319459    1.309    0.236
        34  -9.3101    146.4118    171.2754   8.5589435814e+01   1.7662246924e+01    0.2527717    0.1906894 -71.88   0.00095316    1.665    0.399
        35 -12.8907     82.1070    159.4538   9.9713306348e+01   3.1844361565e+01     2.007026     0.861899  57.03  0.006480386    3.679    0.728
        36 -12.9938     70.8529    154.2399   1.0188972191e+02   3.4808274306e+01    0.6009611    0.4972025 -45.81  0.001185741    1.286    0.222
        37 -10.7717    124.5103    247.5113   1.0252291651e+02   6.2448366048e+00    0.3340879    0.1491138 -50.33  0.001612534    2.651    0.623
        38 -11.4033     73.9056    167.9115   1.0326690705e+02   3.0989126141e+01    0.3602871    0.3044071 -55.03 0.0007592876    1.219    0.180
        39  -8.9484    148.4866    175.0423   8.5851023342e+01   1.6450659391e+01    0.2730956     0.147232 -53.72 0.0007321119    2.020    0.505
        40  -9.8628    240.4806    169.4920   6.6120089432e+01   7.7903043332e-01    0.1321263     0.113014 -21.58 -0.0001376082    1.046    0.044
        41  -8.9851    185.4757    169.0031   7.6396077578e+01   1.0612618007e+01     0.220583    0.1394603 -41.53 0.0007060708    1.555    0.357
        42  -9.0795    110.8743    168.0484   9.3708367238e+01   2.4986518007e+01    0.2336092     0.196237  80.51 0.0004556901    1.296    0.229
        43  -9.9255     34.0201    166.2154   1.1335814580e+02   3.6373293922e+01    0.4898408    0.2690611  53.24  0.002457551    1.857    0.461
        44  -8.6725    135.5690    164.7085   8.6872129733e+01   2.1199673574e+01    0.2745477    0.1337494  40.28  0.001060998    2.027    0.507
        45  -9.3356     35.9406    158.0359   1.1189958093e+02   3.8176686147e+01    0.2497728    0.1598898  60.14 0.0005781724    1.624    0.384
        46  -9.7449     32.0475    156.5016   1.1274194452e+02   3.8953974671e+01    0.2052713    0.1744062  19.80 0.0006611149    1.459    0.315
        47 -11.5155     89.5957    152.3764   9.6402958976e+01   3.2404265053e+01    0.7288716    0.4917205 -27.32  0.002104083    2.087    0.521
        48 -10.2747    134.2743    146.8447   8.3387487913e+01   2.5535819861e+01    0.9716711    0.2513127 -52.02  0.002548539    4.370    0.771
        49  -9.6669    133.0000    139.9941   8.2154410615e+01   2.7369428270e+01    0.4200214    0.1944189 -49.67  0.001538306    2.154    0.536
        50 -11.2006     55.5057    147.0972   1.0500191149e+02   3.8655540058e+01    0.7456184     0.643468 -79.26  0.004328783    1.052    0.049
        51  -9.4384    174.7708    148.9981   7.4325809031e+01   1.6768931785e+01    0.2679078    0.1993594  60.91 0.0006346157    1.612    0.380
        52  -8.9398    111.0325    149.2626   8.9968108985e+01   2.9441192807e+01    0.3286634    0.1739351  60.84   0.00112907    2.926    0.658
        53 -10.3562     38.5255    146.1777   1.0964504632e+02   4.0846862889e+01    0.3347333    0.2273737  57.00 0.0006926194    1.569    0.363
        54 -10.1886    103.1260    138.3690   8.9797309198e+01   3.3516021998e+01    0.5756934    0.3417124 -25.24   0.00208246    2.841    0.648
        55 -11.7251     90.4133    138.1117   9.3337988969e+01   3.5791813989e+01    0.2949213    0.2659416 -40.04 0.0004959452    1.149    0.130
        56  -9.9392    105.8684    130.7762   8.7315527833e+01   3.4847946553e+01    0.3670195    0.3151893 -66.63  0.001189937    1.188    0.158
        57 -11.0094     43.7394    129.7925   1.0560820287e+02   4.4382784583e+01    0.3710985    0.2564336  55.92  0.001241612    1.633    0.388
        58 -10.0335    135.8590    128.0221   7.8560577507e+01   2.9512521240e+01    0.6032994    0.1062274 -49.90   0.00118931    7.277    0.863
        59  -9.7563    112.0429    129.3972   8.5262325453e+01   3.4008806822e+01    0.3423885    0.2620772  19.69  0.001114817    1.570    0.363
        60 -16.3039      6.5854    204.4538   1.2280740615e+02   3.0181514815e+01     15.70752     1.089487 -75.85   0.01903202    9.897    0.899
        61 -10.3237     99.1209    125.2521   8.7955157120e+01   3.7414616520e+01    0.3110476    0.2636655 -14.42 0.0009300769    1.382    0.276
        62  -9.0617     92.1101    124.8116   8.9909955641e+01   3.8761693118e+01    0.2275273    0.1985342  78.95 0.0005776136    1.275    0.216
        63 -10.5739    118.5461    123.2019   8.1957783588e+01   3.4185112247e+01    0.5457646    0.3591475   3.67  0.001993292    2.806    0.644
        64  -9.2035    108.0882    118.3865   8.3686231439e+01   3.7368594831e+01    0.2361282    0.2037087 -35.44 0.0003443488    1.176    0.150
        65  -9.9044    231.3455    113.8160   5.5665196738e+01   1.1924253874e+01    0.2710614    0.2309449 -36.26 0.0007387222    1.057    0.054
        66 -11.8900     49.4623    107.8133   9.9576492443e+01   4.9163307053e+01    0.7534342    0.4590312  58.87  0.003159824    2.274    0.560
        67 -12.4609     43.3983    109.2890   1.0191655147e+02   4.9493158422e+01    0.8739317     0.394991 -44.86   0.00370802    2.141    0.533
        68 -11.4721     69.7867    172.4880   1.0501581279e+02   3.0459214020e+01    0.4741765    0.3084673 -35.49  0.001460417    2.111    0.526
        69 -10.7349    116.4456    109.2312   7.8928389611e+01   3.7806102939e+01    0.4685565    0.4192053 -66.03   0.00240241    1.181    0.153
        70  -8.4329    134.6576    106.9805   7.3414440746e+01   3.4423261987e+01    0.2641638    0.1236278 -61.75 0.0007050594    4.400    0.773
        71  -8.2699    140.2993    106.6832   7.1900454220e+01   3.3237115245e+01    0.1576746     0.124908 -82.38 0.0002965385    1.614    0.380
        72  -9.2691    205.5040    110.1888   5.9047483300e+01   1.7886821305e+01    0.2496256    0.2069386  54.09 0.0005591246    1.302    0.232
        73 -11.3865     31.4122     98.6521   1.0385653240e+02   5.3263771391e+01     0.426508    0.3386052 -13.45  0.002526264    1.431    0.301
        74  -8.9297    128.0625     95.3184   7.1879393647e+01   3.8339563433e+01    0.2229488    0.1947041  52.50  0.001123439    1.173    0.147
        75  -9.4286     52.0097     89.8193   9.4435847904e+01   5.3110032902e+01     0.228874    0.1561386  59.82     0.001098    2.082    0.520
        76  -9.4755    156.0160     88.1677   6.3043270523e+01   3.3335273854e+01    0.3808618    0.2559787 -77.39  0.001162167    2.272    0.560
        77  -8.4083    116.4896     85.5128   7.2142753432e+01   4.2866490545e+01    0.1500691    0.1480456 -66.44 0.0004976305    1.062    0.059
        78  -9.2173    158.1597     82.8638   6.1077305790e+01   3.3812562795e+01    0.2333774    0.2055878 -74.46 0.0005581842    1.210    0.174
        79  -8.0978     70.6446     82.2392   8.5659223618e+01   5.2177736139e+01    0.1342916    0.1110611  66.01 0.0002504108    1.582    0.368
        80  -8.1907    184.3577     77.3115   5.4449698843e+01   2.8539993112e+01    0.1494321    0.1154901  21.85 0.0007043125    1.739    0.425
        81  -8.8596     56.0046     66.4987   8.6159043319e+01   5.7633970387e+01    0.1944091      0.13101  33.07 0.0009874845    1.576    0.366
        82 -13.0007    188.1111     49.5212   4.6467331577e+01   3.1970580307e+01     1.060927    0.8698682  35.80 0.0007916546    1.488    0.328
        83 -11.2260    126.1270    242.6825   1.0160087127e+02   6.8426483314e+00    0.2904359    0.1860542  44.71  0.001644713    1.337    0.252
        84 -10.5856    139.8248    244.8987   9.9100368102e+01   4.3482974322e+00      0.23912    0.1673481  46.40  0.001200526    1.293    0.227
        85  -8.8104     68.9482     52.6614   7.6430914901e+01   5.8262344155e+01    0.1888154    0.1635495  28.88 0.0006556063    1.182    0.154
        86 -11.4996     21.6903     33.7198   8.9470401120e+01   6.7811608611e+01    0.3204836    0.2275259  31.67  0.001456695    1.678    0.404
        87  -9.2225    198.0967     23.6443   3.8576552160e+01   3.2919077840e+01    0.2287609    0.1923645 -26.12 0.0008062397    1.409    0.290
        88  -8.9015    189.4952     14.9845   3.7340000275e+01   3.5905884165e+01    0.1779895    0.1243672 -33.79 0.0006011298    1.536    0.349
        89 -11.4635    111.6643    204.5275   9.9551012159e+01   1.6605874970e+01    0.4326137    0.3368929 -78.00 0.0008709824    1.430    0.301
