#   1 NUMBER                 Running object number                                     
#   2 MAG_AUTO               Kron-like elliptical aperture magnitude                    [mag]
#   3 X_IMAGE                Object position along x                                    [pixel]
#   4 Y_IMAGE                Object position along y                                    [pixel]
#   5 X_WORLD                Barycenter position along world x axis                     [deg]
#   6 Y_WORLD                Barycenter position along world y axis                     [deg]
#   7 A_WORLD                Profile RMS along major axis (world units)                 [deg]
#   8 B_WORLD                Profile RMS along minor axis (world units)                 [deg]
#   9 THETA_WORLD            Position angle (CCW/world-x)                               [deg]
#  10 FWHM_WORLD             FWHM assuming a gaussian core                              [deg]
#  11 ELONGATION             A_IMAGE/B_IMAGE                                           
#  12 ELLIPTICITY            1 - B_IMAGE/A_IMAGE                                       
         1 -14.4418    164.7884     50.8034   7.5277850121e+01   3.7098110119e+01     1.916442     1.409273   9.63  0.006451127    1.850    0.459
         2 -14.3051    178.2410     34.6054   6.8037485827e+01   3.5793424138e+01     1.062687    0.9126226 -34.56  0.003669203    1.178    0.151
         3 -13.5451    182.2634     28.1391   6.5532153048e+01   3.5540392084e+01    0.6033157    0.5412183 -48.61    0.0013069    1.085    0.078
         4 -13.0749    189.8056     14.3634   6.0602271760e+01   3.5132630563e+01    0.4462308    0.3038257 -41.06  0.001336359    1.362    0.266
         5 -13.9205    197.6146      4.1310   5.7028212339e+01   3.4178545862e+01    0.9249303    0.5783523  76.81  0.004674709    1.534    0.348
         6 -10.0443    220.5197    229.0289   1.0487572468e+02  -1.3190573098e+00    0.2220018    0.1006637 -39.87  0.001206485    2.947    0.661
         7 -18.6733     56.6211    242.1488   1.3914265112e+02   1.8267120224e+01     6.750339     5.509537  28.69   0.05047014    1.319    0.242
         8 -12.1972    151.9071    183.7045   1.1129665526e+02   1.5193416339e+01    0.3144473    0.2473624  60.42  0.001725716    1.649    0.394
         9 -13.4529     12.4843    205.9944   1.4700760293e+02   2.9453001995e+01    0.5402057    0.2202787  27.61   0.00283964    2.197    0.545
        10 -12.2893    206.9330    180.1283   9.9230403377e+01   6.7439157351e+00    0.7123312     0.335611  24.27  0.002758043    2.323    0.570
        11 -12.7951    136.3344    179.4598   1.1423412593e+02   1.8606524410e+01    0.3636717    0.2620451  30.10 0.0009916003    1.224    0.183
        12 -12.1560    139.3952    200.5666   1.1676515795e+02   1.4268227810e+01    0.2672161    0.2176526  60.45  0.001292294    1.511    0.338
        13 -11.1605    209.3952    198.7191   1.0205052664e+02   3.8250320327e+00    0.1952553    0.1833015  47.42  0.001019568    1.718    0.418
        14 -12.1899    196.1185    171.4802   9.9681187843e+01   9.7638960363e+00    0.5900711    0.3503163 -42.54  0.002366604    1.936    0.484
        15 -10.7566    193.9863    165.2109   9.8888750252e+01   1.1101630957e+01    0.2765459     0.259207 -16.96  0.001175459    1.259    0.205
        16 -12.7640    193.6407    193.0335   1.0406687007e+02   6.9446993238e+00    0.6898955    0.4566393 -46.37  0.003271113    2.039    0.509
        17 -19.1423     38.5353    102.8835   1.3160729935e+02   5.1769260279e+01     18.43275     1.152554 -70.45   0.02774835   15.383    0.935
        18 -10.3840    223.8386    164.0912   9.3149045101e+01   6.3671760551e+00    0.1791787     0.159827 -18.40 0.0005454914    1.293    0.227
        19 -10.8139    120.4324    163.8844   1.1560083956e+02   2.4485945471e+01    0.2887727    0.1938827  55.75 0.0006672245    1.647    0.393
        20 -11.0680    104.0196    162.9719   1.1982942525e+02   2.7479914872e+01    0.2253442    0.1968422  53.86 0.0005009632    1.095    0.087
        21 -11.1277    154.9589    197.1706   1.1278766364e+02   1.2382831631e+01    0.2055696    0.1618812  42.81  0.001219394    1.297    0.229
        22 -10.9210     14.7050    160.1044   1.4472204514e+02   3.9265565829e+01     0.334559    0.2089938  21.59 0.0009403407    1.734    0.423
        23 -10.6845    237.5038    159.5011   8.9982604813e+01   4.8956712375e+00    0.1255183    0.1000607  -5.01 -7.48852e-05    1.010    0.010
        24 -11.0261    120.3165    156.3768   1.1430443678e+02   2.6117010815e+01     0.312767    0.2261684  44.18 0.0007175423    1.279    0.218
        25  -9.9279     18.6144    219.0255   1.4608148581e+02   2.6366061528e+01    0.1134019   0.09540731 -72.08 0.0007095521    1.525    0.344
        26 -12.7580    134.0628    145.9039   1.0864439616e+02   2.5809147916e+01     1.240046    0.3550868 -55.42  0.003104571    5.858    0.829
        27 -10.8679     10.1488    153.2445   1.4567160446e+02   4.1234003880e+01    0.3278228     0.211265   2.42  0.001803486    2.082    0.520
        28 -11.9886      5.3302    146.0841   1.4674157564e+02   4.3279733473e+01    0.5945172    0.3006478  -0.42  0.001825581    2.934    0.659
        29 -13.7459      4.7914    130.2393   1.4621625588e+02   4.7200375133e+01     2.154843    0.7973846 -80.21  0.009377795    2.336    0.572
        30 -10.8034    174.5944    149.1660   9.9641235312e+01   1.7318387587e+01    0.2705858    0.1940362  37.68 0.0006942356    1.323    0.244
        31 -12.3100    145.3762    146.1585   1.0581355093e+02   2.3559388566e+01    0.4669647    0.3316739  55.62 0.0002849847    1.610    0.379
        32 -12.0842     89.0143    147.1622   1.2153017087e+02   3.3595324018e+01     0.456552    0.2362999  31.63 0.0004031963    1.878    0.468
        33 -13.0564    112.0266    139.8530   1.1344939321e+02   3.1333167422e+01    0.8391407    0.5866982   3.84  0.003564484    2.103    0.524
        34 -12.6519    101.2673    139.4577   1.1651327689e+02   3.3372918299e+01    0.2973634    0.2785452  13.76 0.0005798005    1.145    0.126
        35 -10.1256    180.1563    192.4579   1.0666757453e+02   9.1284163748e+00    0.1848805    0.1759408  30.41 0.0006433139    1.364    0.267
        36 -11.9071    105.9995    130.8021   1.1336578051e+02   3.4575533332e+01    0.4087266    0.3454668 -57.72  0.001267548    1.247    0.198
        37 -11.3406    106.0362    126.0102   1.1232840522e+02   3.5711887006e+01    0.3456713    0.2692009 -15.62 0.0007147309    1.673    0.402
        38 -12.1835    118.1317    129.8290   1.0958558262e+02   3.2478766367e+01    0.4069385    0.3704084  -1.14  0.001066227    1.205    0.170
        39 -11.3063    135.8789    128.8786   1.0445358733e+02   2.9102015519e+01    0.3250441    0.2173759 -47.06  0.001266609    1.577    0.366
        40 -12.1410    135.1894    122.4137   1.0310983083e+02   3.0648227315e+01    0.6531739    0.2306888 -49.59  0.002054512    3.131    0.681
        41 -11.8540      2.5367    112.7801   1.4609817204e+02   5.1722059375e+01    0.3371273     0.298503  76.90 0.0008454366    1.065    0.061
        42 -11.8529    125.7376    127.6483   1.0693680803e+02   3.1453352013e+01    0.5602034    0.3218468  67.97  0.001814487    3.427    0.708
        43 -11.0605    160.4988    127.4540   9.7958191133e+01   2.4230121497e+01    0.3271878    0.2568945 -68.25  0.001525264    1.706    0.414
        44 -10.8547     85.3270    126.6483   1.1899463168e+02   3.9244408825e+01    0.2520864     0.171276  64.79  0.001104102    1.721    0.419
        45 -10.6794    112.4324    119.0054   1.0879078856e+02   3.6129092536e+01    0.3015427    0.2259111  40.02 8.982461e-05    1.281    0.219
        46 -11.2494    168.4272    113.1946   9.2640589384e+01   2.5265583743e+01    0.3952761    0.3089949 -82.38  0.001100384    1.857    0.462
        47 -11.0470    134.5788    105.8245   9.9040256099e+01   3.4383059218e+01    0.5046447    0.1567759 -45.95  0.001474309    3.352    0.702
        48 -10.8239    205.2226    110.5172   8.4735475162e+01   1.7853029375e+01    0.3399242    0.2407562  24.59  0.001076374    1.606    0.377
        49  -9.9964    130.4801    109.4971   1.0114887835e+02   3.4495720713e+01    0.1601277    0.1529791  20.14 0.0005554588    1.051    0.049
        50 -11.1341     84.3446    107.4383   1.1522530411e+02   4.4263744442e+01    0.3678284    0.2601595  53.81  0.001361578    1.490    0.329
        51 -11.0545    167.7027    190.3803   1.0892724120e+02   1.1449578268e+01    0.2967026    0.2134652  -8.21   0.00116567    1.540    0.351
        52 -11.7154     67.0183    104.3222   1.2083689790e+02   4.7866858116e+01    0.3580736    0.2716826   1.51  0.001681584    1.680    0.405
        53 -10.3487     67.6370     98.9373   1.1941139475e+02   4.9175859084e+01    0.2888553    0.2212892   5.05  0.001191461    1.616    0.381
        54 -10.5433     84.7841     76.9751   1.0671575951e+02   5.1708428289e+01    0.2622262    0.2202458  40.13 0.0004132719    1.187    0.157
        55 -10.2541    102.1897     72.8135   9.8968361646e+01   4.8998456642e+01    0.2460427    0.2239002  76.89 0.0009246362    1.201    0.167
        56  -9.2567    168.2801    248.3013   1.1706230658e+02   3.0983901348e+00    0.1116727   0.07094547   9.48 0.0002111521    1.546    0.353
        57 -10.7742    163.9193    204.8870   1.1204770067e+02   9.7439109255e+00     0.213349    0.1872128  19.94 0.0003762031    1.140    0.123
        58 -10.8243    169.1019    236.8589   1.1547656878e+02   4.4407623936e+00    0.1760126     0.144661  12.08  0.000372972    1.163    0.140
        59 -10.1504     13.5253     59.9319   1.3607617730e+02   6.4925610703e+01    0.1829234    0.1717652 -54.15 0.0004216318    1.083    0.076
        60  -9.6781    114.1996     22.3448   7.5119304960e+01   5.4852789023e+01     0.214555    0.1379575  74.77 0.0004092948    1.658    0.397
        61 -11.4467    159.1969    205.9472   1.1320868514e+02   1.0303312315e+01    0.2890845    0.2131307  52.65  0.001670797    1.701    0.412
