#   1 NUMBER                 Running object number                                     
#   2 MAG_AUTO               Kron-like elliptical aperture magnitude                    [mag]
#   3 X_IMAGE                Object position along x                                    [pixel]
#   4 Y_IMAGE                Object position along y                                    [pixel]
#   5 X_WORLD                Barycenter position along world x axis                     [deg]
#   6 Y_WORLD                Barycenter position along world y axis                     [deg]
#   7 A_WORLD                Profile RMS along major axis (world units)                 [deg]
#   8 B_WORLD                Profile RMS along minor axis (world units)                 [deg]
#   9 THETA_WORLD            Position angle (CCW/world-x)                               [deg]
#  10 FWHM_WORLD             FWHM assuming a gaussian core                              [deg]
#  11 ELONGATION             A_IMAGE/B_IMAGE                                           
#  12 ELLIPTICITY            1 - B_IMAGE/A_IMAGE                                       
         1 -14.7717      7.7639    148.1979   1.4277737545e+02   4.2175770110e+01     5.150431     1.489474 -88.98   0.02284274    3.567    0.720
         2 -13.1719    192.4729     29.0366   6.9471730534e+01   3.3188788328e+01     1.455711     1.301122  14.96  0.006319471    1.085    0.078
         3 -13.3377    207.3243      9.6825   6.1344541880e+01   3.1254665136e+01       1.6492     1.042281  28.99  0.007628669    1.765    0.433
         4 -11.8911      2.8184      8.5251   1.2490163360e+02   7.2318458237e+01     1.068952    0.1604439 -59.69  0.003970556    3.751    0.733
         5 -10.1620    198.5086    246.9571   1.1690943531e+02   2.8367386222e+00    0.2127202    0.1037929 -35.02  0.001374764    2.776    0.640
         6 -10.7082    138.9853    249.9904   1.2677521276e+02   1.0783809420e+01     0.189905    0.1841531  -1.90  0.001751656    1.427    0.299
         7 -10.0812    127.1407    250.1209   1.2867961681e+02   1.2338878843e+01    0.1535213    0.1112846  35.02 0.0008783683    1.256    0.204
         8 -10.7462     99.1200    248.8642   1.3302292435e+02   1.6049262144e+01    0.3015972    0.2163287  14.32   0.00219902    2.346    0.574
         9  -9.2557     29.0364    249.9397   1.4366400404e+02   2.3486143897e+01    0.1801967   0.09860727  55.04  0.001544386    1.218    0.179
        10 -10.4380     34.7236    244.8021   1.4264291781e+02   2.3651671234e+01    0.3037437    0.2126292 -54.91  0.002607512    2.316    0.568
        11  -9.4769      2.2535    249.5789   1.4739924643e+02   2.5885007019e+01    0.1599528    0.1141307  39.05  0.001566626    1.603    0.376
        12  -9.8583    128.3376    244.6665   1.2800573577e+02   1.2838745959e+01    0.1661822   0.06207272  52.82  0.000847409    2.758    0.637
        13  -9.0039      5.9122    240.8906   1.4667397709e+02   2.6780176156e+01    0.1152246   0.08926972  63.65 0.0004531605    1.250    0.200
        14  -9.0467    183.2884    238.6765   1.1836702574e+02   5.8324528510e+00   0.09802408   0.07229198  53.77 0.0004645021    1.606    0.377
        15  -9.8502    232.9605    235.4677   1.0995247310e+02  -1.0070784788e+00    0.1664982    0.1401215 -86.69  0.001046386    3.595    0.722
        16 -13.6403      9.6325    206.4426   1.4504534149e+02   3.1652261546e+01     7.192839          nan  38.76   0.02965926    5.644    0.823
        17 -10.8837    248.5784    247.8621   1.0927145472e+02  -4.1264343346e+00    0.2951595    0.1735676  23.50  0.002207251    1.155    0.134
        18  -9.4021      1.4862    215.0043   1.4660735512e+02   3.0959651521e+01    0.1272164   0.06833079  87.53 0.0005302773    1.558    0.358
        19  -8.6059    152.4735    212.9754   1.2050281342e+02   1.3457062162e+01    0.1300463    0.1153151 -45.04 0.0003960286    1.454    0.312
        20 -11.9421     18.9954    199.1237   1.4320218385e+02   3.2057605523e+01    0.4260188    0.1217951  50.28  0.002221712    2.468    0.595
        21  -9.5882      9.4914    195.4911   1.4465904958e+02   3.3460507200e+01     0.205467   0.04624351  41.46 0.0008178812    2.863    0.651
        22 -11.1933     64.0059    198.4563   1.3521024700e+02   2.7673029618e+01     0.254817    0.2033415 -42.34  0.001304055    1.880    0.468
        23  -9.4493    192.0050    193.0377   1.1049093965e+02   9.7321811678e+00    0.3380767    0.2246193 -66.12  0.001600208    3.785    0.736
        24  -9.7140    150.5133    229.4981   1.2278828616e+02   1.1628480727e+01    0.1103404   0.08203568  40.41 -3.273046e-05    1.005    0.005
        25 -11.4752     69.7197    190.5412   1.3350272736e+02   2.8356774104e+01    0.2091279    0.2018415  86.97  0.000689939    1.320    0.243
        26 -10.4523     79.3806    177.8081   1.3041036476e+02   2.9426510635e+01    0.1914831    0.1711507  67.98 0.0004216045    1.097    0.088
        27 -12.9368     66.3600    175.8172   1.3284103438e+02   3.1367890121e+01    0.3866216    0.2390795 -45.85  0.001674041    2.255    0.557
        28  -8.3162    101.3408    177.7268   1.2593969028e+02   2.6509748306e+01    0.1216675   0.07790381  62.24 0.0005080624    1.612    0.380
        29 -11.5287     86.8824    168.1412   1.2779444715e+02   3.0226483960e+01    0.5520688    0.4855893  46.06  0.003943772    1.153    0.133
        30 -12.2776     38.1260    232.9625   1.4162562669e+02   2.5002669224e+01    0.2189354    0.1902035  76.49 0.0007674763    1.357    0.263
        31  -9.6361     98.8121    152.3260   1.2310976511e+02   3.1569377588e+01    0.2434421    0.2125388 -68.62  0.000758967    1.186    0.157
        32 -11.7815     87.6147    151.5958   1.2553839308e+02   3.3293791526e+01     0.241222    0.2261581 -32.43 0.0005248988    1.307    0.235
        33 -12.4507     66.4435    143.2141   1.2931536099e+02   3.7685261425e+01    0.9586439    0.5029932  70.12  0.003080965    2.505    0.601
        34  -8.8173    186.1218    149.2657   1.0367173235e+02   1.6862940644e+01    0.2341526     0.183483 -68.89  0.001135369    2.101    0.524
        35  -8.8437    101.9349    148.0507   1.2175946567e+02   3.1939568140e+01    0.1862051    0.1522483 -16.89 0.0005406871    1.663    0.398
        36  -8.3694    181.9649    145.0493   1.0363947695e+02   1.8314470025e+01     0.164648    0.1434226  22.32 0.0003746893    1.006    0.005
        37 -14.1450     43.8720    224.6494   1.4032004518e+02   2.5662839340e+01     3.393531     1.107572  36.12   0.01228556    2.689    0.628
        38  -8.3136    191.9761    143.9957   1.0141169271e+02   1.6519821009e+01    0.1649563    0.1428245  15.90  0.000399178    1.024    0.024
        39  -9.2798    110.0991    137.2206   1.1806789373e+02   3.2809884354e+01    0.2878626    0.1761245 -36.27  0.001399575    2.080    0.519
        40 -10.2071     97.3796    134.5940   1.2067369948e+02   3.5310207515e+01    0.2705432    0.2227509  36.80 0.0008382946    1.242    0.195
        41  -9.6109     93.4175    133.1711   1.2140207240e+02   3.6187425159e+01    0.2080345    0.1609274  74.99  0.000727532    1.413    0.292
        42  -9.8531     83.4372    134.3783   1.2403432390e+02   3.7345512849e+01    0.2430943    0.1838436  67.15 0.0005454996    1.366    0.268
        43 -10.2506    173.4301    222.5599   1.1802784676e+02   9.0804452090e+00    0.2973943    0.1719327  45.35  0.001878421    1.448    0.310
        44  -8.9754    107.0765    123.9866   1.1636463395e+02   3.5973448444e+01    0.1835776    0.1803646  35.75  0.000303137    1.057    0.054
        45 -10.3616     53.6989    119.9008   1.2941351722e+02   4.4045768452e+01    0.3049708    0.1383905 -74.01  0.001440698    2.225    0.551
        46 -10.3575     32.6512    119.9978   1.3482247971e+02   4.6042418933e+01     0.268345   0.09232787 -71.76  0.001234971    2.475    0.596
        47  -8.6037     69.1306    234.4739   1.3682062994e+02   2.1524119212e+01    0.1460677   0.07384083  41.57  0.001018501    1.554    0.356
        48 -10.1856    167.8359    112.9087   9.9344921432e+01   2.6516101584e+01    0.3116002    0.2777186 -87.87 0.0007945106    1.488    0.328
        49  -9.3052    203.1839    111.7842   9.1759700967e+01   1.9051470005e+01    0.2112361    0.1584827  10.76 0.0005342169    1.336    0.252
        50  -8.9591     72.8385     86.0518   1.1789138962e+02   4.9262510015e+01    0.1951884    0.1673049  83.24 0.0005502705    1.316    0.240
        51  -9.8503    229.8461    230.5208   1.0974337787e+02  -1.3456519713e-01    0.1735852    0.1408978 -37.27  0.001315066    2.018    0.504
        52 -10.7717     27.4191     60.1292   1.2746999808e+02   5.9787777727e+01     0.434316    0.1829331  39.94  0.001528342    2.898    0.655
        53  -9.0660     82.0062    249.0331   1.3570675071e+02   1.8064940570e+01    0.1608869   0.08041248  59.11  0.001133279    1.720    0.419
        54  -9.9461    109.8193    250.5904   1.3146617610e+02   1.4505650223e+01    0.2571408   0.06413788  42.17  0.001292489    2.709    0.631
