#   1 NUMBER                 Running object number                                     
#   2 MAG_AUTO               Kron-like elliptical aperture magnitude                    [mag]
#   3 X_IMAGE                Object position along x                                    [pixel]
#   4 Y_IMAGE                Object position along y                                    [pixel]
#   5 X_WORLD                Barycenter position along world x axis                     [deg]
#   6 Y_WORLD                Barycenter position along world y axis                     [deg]
#   7 A_WORLD                Profile RMS along major axis (world units)                 [deg]
#   8 B_WORLD                Profile RMS along minor axis (world units)                 [deg]
#   9 THETA_WORLD            Position angle (CCW/world-x)                               [deg]
#  10 FWHM_WORLD             FWHM assuming a gaussian core                              [deg]
#  11 ELONGATION             A_IMAGE/B_IMAGE                                           
#  12 ELLIPTICITY            1 - B_IMAGE/A_IMAGE                                       
         1 -12.8391    186.0369     41.6318   5.2566873241e+01   3.3295057080e+01     1.366085     1.036833  21.43  0.004335468    1.692    0.409
         2 -12.6806    209.8015     12.1451   4.1388874203e+01   3.0845024505e+01    0.9542661    0.8807788  73.38  0.004451667    1.152    0.132
         3 -11.1139    207.0980      7.7148   4.0510892711e+01   3.1983131997e+01    0.6734184    0.2990724  42.04  0.002597079    3.350    0.701
         4 -10.5891    240.9981      2.4750   3.6409734651e+01   2.4474375662e+01    0.2903014    0.1846384  86.84  0.001323961    1.451    0.311
         5  -9.4316     58.6100    229.3955   1.2103237018e+02   2.0224968480e+01    0.1754875    0.1149646 -87.83 0.0006663053    1.430    0.301
         6 -12.3076    247.5525    245.2154   8.8113780947e+01  -1.1065681565e+01    0.8362625     0.605768 -19.78   0.00601845    1.450    0.310
         7  -8.1521     44.3739    210.6658   1.2223383246e+02   2.5627632696e+01    0.2193455    0.1295914  65.33 0.0006498278    1.422    0.297
         8 -10.3962     56.1825    212.9974   1.2014911376e+02   2.3705857017e+01    0.2023551    0.1448687  61.36  0.000460518    1.134    0.118
         9  -9.6538     39.6907    212.8524   1.2328830891e+02   2.5739830872e+01    0.2143684    0.1168465  53.18  0.001139102    1.513    0.339
        10  -9.2070    246.6693    211.3058   8.2490698869e+01  -7.0024462085e+00    0.1029371     0.099581  51.94 0.0003459458    1.659    0.397
        11  -8.6605    163.5839    210.1903   9.7989112515e+01   7.1987868371e+00    0.2676313    0.0894096  43.66  0.001013181    2.610    0.617
        12 -11.8563     48.5415    206.6802   1.2110440297e+02   2.5933534510e+01    0.4515097    0.1888483  59.91  0.001812954    2.299    0.565
        13  -9.9699     67.7772    206.8121   1.1728554401e+02   2.3429602739e+01    0.1848156    0.1479606  75.98 0.0003217843    1.042    0.041
        14  -9.5082     39.9454    207.6752   1.2285290322e+02   2.6750854077e+01    0.1590681   0.08876209  46.77 0.0003548707    1.583    0.368
        15  -9.7385     96.1244    202.5508   1.1094876123e+02   2.0160523938e+01    0.4539819    0.3454876 -27.72  0.002488347    2.126    0.530
        16  -9.8252     60.2349    203.1639   1.1845838103e+02   2.5183128387e+01    0.1884785    0.1701117  62.99  0.001062263    1.249    0.199
        17 -19.4922     27.4938    146.1786   1.1994704749e+02   4.1626633210e+01     19.40643     3.561096 -72.36   0.05821288    5.064    0.803
        18  -8.2387    223.2103    198.0212   8.4213971486e+01  -1.4220391040e+00    0.1642578   0.09983093 -31.62 0.0007697014    1.680    0.405
        19  -9.4882    193.3980    195.6313   8.9476814892e+01   4.2354902010e+00    0.5993712    0.2961269 -59.85  0.001876839    5.558    0.820
        20  -9.4218    146.1710    197.3681   9.9531761056e+01   1.2647017082e+01    0.2093032    0.1129428  50.07 0.0009471966    1.777    0.437
        21  -8.0887     82.4356    195.2348   1.1297083135e+02   2.3760088849e+01    0.1729327    0.1139744 -85.21 0.0009367716    1.563    0.360
        22 -10.3401     64.4731    193.9912   1.1666181704e+02   2.6552910976e+01    0.3231449    0.2105274 -48.27  0.001217246    2.026    0.506
        23  -7.8725     78.2850    193.2409   1.1362718639e+02   2.4790418231e+01    0.1065127    0.1021523 -10.50 0.0002151199    1.456    0.313
        24 -10.6321    149.9631    188.4977   9.7224669419e+01   1.3644797192e+01    0.4350509    0.2980115 -74.37  0.001952422    2.079    0.519
        25  -8.7161     64.9841    223.4454   1.1936126311e+02   2.0517411990e+01    0.1760894    0.1212673  78.37 0.0003332854    1.278    0.218
        26 -10.4492     96.2421    189.9027   1.0928234251e+02   2.2776322519e+01    0.3830416    0.3107438  37.01  0.001346217    1.332    0.249
        27  -7.9043    186.6295    186.2984   8.9087465413e+01   7.0794740958e+00    0.1380333    0.1102604  72.35 0.0003825285    1.738    0.425
        28 -10.4647    130.9994    180.4808   1.0003676327e+02   1.8790142307e+01    0.2144494    0.1904117 -60.28 0.0006399834    1.198    0.166
        29 -10.6153     99.4707    180.8635   1.0727845835e+02   2.4207734728e+01    0.2794502    0.2493586 -61.86 0.0006443189    1.222    0.182
        30  -9.7448    150.3457    178.5341   9.5356065089e+01   1.5535044685e+01    0.3510502    0.2464398 -71.43 0.0009999289    1.895    0.472
        31 -10.8139    144.0499    178.4297   9.6739472270e+01   1.6764076526e+01    0.4889685    0.3103819 -75.65  0.002071495    2.453    0.592
        32  -9.0570    188.1712    176.6544   8.6884945730e+01   8.4885269325e+00    0.3023835    0.2395981  23.98  0.001616849    1.241    0.194
        33  -9.1353     56.2021    223.9700   1.2104923407e+02   2.1558794520e+01    0.1097672   0.07820911  88.78            0    1.259    0.206
        34 -11.7644    120.4105    174.1255   1.0137376833e+02   2.2073328119e+01    0.6125158    0.3334069  45.61   0.00274618    1.724    0.420
        35  -8.2208      1.2031    163.3732   1.2747904398e+02   3.9933670352e+01    0.1107211   0.06470934 -65.64  0.000580718    1.573    0.364
        36 -10.0802     93.5062    156.7807   1.0488749548e+02   3.0637158117e+01    0.2859609    0.2399611 -53.10 0.0004842171    1.256    0.204
        37 -11.1856     98.6260    150.6783   1.0251869886e+02   3.1213869335e+01    0.5616269    0.4603436 -34.56  0.002093881    1.473    0.321
        38  -8.6593    187.6686    152.3163   8.1833205945e+01   1.3107670790e+01    0.1480679    0.1215421 -88.77 0.0006427294    1.685    0.407
        39 -10.0506    134.0581    146.7233   9.2831600121e+01   2.5523101013e+01     1.058919    0.2820481 -54.96    0.0026048    5.413    0.815
        40 -10.5547    109.0693    137.4097   9.7199025035e+01   3.2488505263e+01    0.5548472    0.2927527 -40.48  0.002189138    2.230    0.552
        41 -10.8785     97.9114    136.6239   9.9996068662e+01   3.4658816637e+01    0.3513852    0.2814152 -63.44 0.0004659508    1.198    0.165
        42 -10.0930    106.0030    130.8410   9.6603410618e+01   3.4595676785e+01    0.3592146    0.3339995 -66.20  0.001099341    1.033    0.032
        43  -9.4573    115.8885    128.4740   9.3423993435e+01   3.3290887224e+01     0.296822     0.220098 -42.31 0.0008594255    1.389    0.280
        44  -9.6119    103.9200    124.1001   9.5664920431e+01   3.6566254134e+01    0.3024572    0.2597558  -0.44 0.0007759842    1.451    0.311
        45  -8.2595    120.4975    123.4804   9.1022475938e+01   3.3538494280e+01    0.1524494    0.1492032 -44.25 5.087526e-05    1.048    0.046
        46  -8.0574    151.3047    118.3081   8.1865615164e+01   2.8090818916e+01     0.158764    0.1267273   2.33 0.0002934022    1.607    0.378
        47  -8.5017    110.7866    117.9618   9.2320247973e+01   3.6720262437e+01    0.2061235    0.1952075 -61.23 0.0003444871    1.017    0.017
        48  -8.7746    231.2042    113.9223   6.4506291870e+01   1.0729280839e+01    0.2360842    0.2110454  46.74 0.0006923162    1.214    0.176
        49  -8.8257    167.8089    112.5304   7.6486191683e+01   2.5490414274e+01    0.3038327    0.2085078 -75.47  0.001181845    2.266    0.559
        50  -9.5918    134.7605    111.4743   8.4226511621e+01   3.3258180084e+01    0.4566325      0.13132 -44.93  0.001303663    3.431    0.709
        51  -8.7103    205.6803    110.5425   6.8157964712e+01   1.6993873251e+01    0.2710404    0.1469639  47.44 0.0007180076    1.908    0.476
        52  -9.9622    120.3185    110.6742   8.7859874982e+01   3.6498955780e+01     0.329471    0.2570543 -89.82  0.001131758    1.662    0.398
        53  -9.9535     72.3100    102.7773   9.9973230136e+01   4.6822950331e+01    0.2281782    0.2149184  20.87 0.0009443224    1.188    0.158
        54 -11.1921     75.1289    249.4120   1.1965062248e+02   1.4469623825e+01    0.2673776    0.1401878 -63.62  0.001002756    2.198    0.545
        55 -11.6765    171.2178     56.0452   5.9453817886e+01   3.5018634377e+01    0.6059328    0.5046525 -48.03  0.001446014    1.219    0.180
        56 -10.6912     61.9650    244.8791   1.2159962692e+02   1.6992885869e+01    0.1943541    0.1452295 -81.46  0.001421073    1.399    0.285
        57 -11.6082    190.9283     35.3567   5.0015239103e+01   3.2871681235e+01     0.531168    0.4880259 -41.58  0.001331738    1.127    0.112
        58 -10.1190     44.7487    213.6528   1.2239329915e+02   2.4985732674e+01    0.1889411    0.1228407  71.89 0.0009033435    1.258    0.205
        59  -9.1502     71.4598    242.8675   1.1977945635e+02   1.6092369373e+01    0.1413516    0.1004388 -83.75 0.0003392791    1.427    0.299
        60  -8.1441     85.7259    239.7626   1.1694479178e+02   1.4661216324e+01   0.09692328    0.0846898  36.46 0.0002185956    1.434    0.303
