#   1 NUMBER                 Running object number                                     
#   2 MAG_AUTO               Kron-like elliptical aperture magnitude                    [mag]
#   3 X_IMAGE                Object position along x                                    [pixel]
#   4 Y_IMAGE                Object position along y                                    [pixel]
#   5 X_WORLD                Barycenter position along world x axis                     [deg]
#   6 Y_WORLD                Barycenter position along world y axis                     [deg]
#   7 A_WORLD                Profile RMS along major axis (world units)                 [deg]
#   8 B_WORLD                Profile RMS along minor axis (world units)                 [deg]
#   9 THETA_WORLD            Position angle (CCW/world-x)                               [deg]
#  10 FWHM_WORLD             FWHM assuming a gaussian core                              [deg]
#  11 ELONGATION             A_IMAGE/B_IMAGE                                           
#  12 ELLIPTICITY            1 - B_IMAGE/A_IMAGE                                       
         1 -14.5857     68.4757    144.6483   9.5766738117e+01   3.7443263452e+01     5.049976     2.810378  77.54  0.002711472    3.550    0.718
         2 -13.9036    201.3115     46.7600   3.9583127084e+01   2.9598881656e+01     1.144064     0.909059  57.33  0.002306938    1.392    0.282
         3 -14.1795    210.2536     40.6417   3.7173023317e+01   2.8474030759e+01     1.631977     1.255139  -7.17  0.008833766    2.067    0.516
         4 -13.9576    226.1693     26.6224   3.2664059206e+01   2.6906104352e+01     1.215762     1.039744  45.59  0.005383076    1.660    0.398
         5 -12.8856    247.8333      5.3188   2.7049968600e+01   2.5093443299e+01    0.5960765    0.3390208 -53.28  0.003983393    1.384    0.278
         6 -10.4305    111.0964    203.6264   9.4223027321e+01   1.6280941469e+01    0.2246357    0.1956633 -88.13 0.0006384394    1.261    0.207
         7 -11.0636    140.0059    249.2488   9.4245944818e+01   2.5998213216e+00     0.284716     0.191071 -63.67  0.001563605    1.992    0.498
         8 -11.7734    116.2755    248.8100   9.9261241679e+01   6.1526988526e+00    0.4170356     0.353887 -14.15  0.002619924    1.416    0.294
         9 -11.7598    115.6212    241.9509   9.8549754153e+01   7.5476629473e+00    0.3984347    0.2623972 -72.97  0.001286012    1.986    0.496
        10 -15.6793      5.9142    183.6850   1.1795389644e+02   3.4324951889e+01     11.21573     1.291355 -75.03   0.02897373    6.784    0.853
        11 -12.7036     82.6917    215.0379   1.0266837099e+02   1.8033052699e+01     0.890052    0.6181609  86.51 0.0005660168    1.662    0.398
        12 -16.8976     19.8661    243.0460   1.1888446512e+02   1.9698920345e+01     8.015238     2.912444  22.13   0.03125689    4.596    0.782
        13  -9.7102     99.4724    180.7978   9.3461992240e+01   2.3534031461e+01    0.2572123    0.2033995  34.00 0.0006735256    1.269    0.212
        14 -11.6025    243.4209    176.0477   6.1072954540e+01  -3.6494296745e-02    0.4121582    0.2001899  22.78  0.001749902    3.254    0.693
        15 -10.5373    186.8566    175.1217   7.1390504250e+01   9.2582385682e+00    0.3262981    0.2905866 -51.23  0.001205913    1.229    0.186
        16 -12.1920     60.1028    173.5169   1.0289122222e+02   3.1176642327e+01    0.4940589    0.3171912 -31.43  0.002227432    2.142    0.533
        17 -12.0697     65.2220    168.5875   1.0075687456e+02   3.1748089682e+01    0.3564701    0.2731928 -42.40 0.0007574293    1.425    0.298
        18 -10.4508     86.4703    172.7894   9.5583494408e+01   2.7584325239e+01    0.4269309    0.2884292   5.48  0.001836373    2.174    0.540
        19 -13.5885     62.2882    155.2434   9.9471529641e+01   3.5566706229e+01    0.5352702    0.3710659 -37.12  0.001845199    1.652    0.395
        20 -12.5808     82.7708    153.2961   9.3151434566e+01   3.3093435684e+01      1.04171      0.55834 -48.51  0.001891735    1.844    0.458
        21 -12.5356     75.3076    159.2684   9.6387070318e+01   3.2701698891e+01    0.6501092     0.594536  45.59 0.0007207833    1.122    0.109
        22 -13.1749     31.4498    199.1983   1.1316495962e+02   2.8209331714e+01     0.483081    0.3829292 -34.93  0.001339674    1.670    0.401
        23 -11.4875     32.5902    156.5633   1.0826532377e+02   3.8691445996e+01    0.3972476    0.2942524  71.59  0.001098183    1.397    0.284
        24 -10.6587    133.8005    144.8042   7.7202067355e+01   2.6005486700e+01     1.162595    0.2712109 -54.65  0.002267888    7.875    0.873
        25  -9.9079    174.7713    148.7042   6.8348853212e+01   1.6959945662e+01    0.3098177    0.2026613 -54.12 0.0009663126    1.633    0.388
        26 -11.0343     47.8209    169.4426   1.0568918103e+02   3.3738653895e+01    0.3750445    0.3144574 -71.13  0.001056422    1.101    0.092
        27 -10.5458     29.5165    143.1779   1.0737884039e+02   4.2419378871e+01    0.4314064    0.2998338 -29.97  0.002245903    1.723    0.419
        28 -10.8325     98.4881    139.1200   8.5661754734e+01   3.4050285284e+01    0.6166043    0.3873788 -19.22  0.002302855    2.610    0.617
        29 -12.4642     85.2787    138.5599   8.9465277539e+01   3.6433631381e+01    0.3184262    0.2827559 -42.03 0.0003742597    1.119    0.106
        30  -9.8272    122.4952    199.1408   9.0725400657e+01   1.5419776409e+01    0.2730145    0.2180285  69.33  0.001348343    1.478    0.323
        31 -10.9448    107.1200    130.3432   8.1145536057e+01   3.4626274950e+01    0.5217068    0.3488932  27.18  0.002261268    1.691    0.408
        32 -10.2773    135.6916    129.6949   7.3165827779e+01   2.9111257892e+01    0.4512016    0.1386856 -45.29  0.001338871    3.200    0.688
        33 -11.4506    231.5017    169.9969   6.1889187913e+01   2.7780432273e+00    0.2740256    0.1810157 -58.73  0.001372227    2.084    0.520
        34  -9.1609     82.4475    129.2103   8.8304406064e+01   3.9239954347e+01     0.203535    0.1455816 -69.27 0.0004899287    1.540    0.351
        35  -9.6531     96.8198    124.9728   8.2911780339e+01   3.7821875584e+01    0.2294421    0.1971105 -27.13 0.0003310022    1.229    0.186
        36  -9.2696    115.7797    124.0112   7.7138881953e+01   3.4460728720e+01    0.2593089    0.1775026 -21.38  0.001061388    1.973    0.493
        37 -10.3744    161.2900    118.2801   6.4183370579e+01   2.6167262883e+01    0.5287614    0.2976139 -65.74  0.001803389    2.942    0.660
        38  -9.8175    135.0000    119.9604   7.0932248298e+01   3.1446262828e+01    0.2589017   0.08792036 -45.95 0.0005976741    2.897    0.655
        39  -9.8753    106.0462    118.6808   7.8611155384e+01   3.7607571999e+01    0.2066109    0.1934666  26.06 0.0002695749    1.092    0.084
        40  -9.2127    156.3154    111.6046   6.3632774351e+01   2.8634673027e+01    0.2217747    0.1739821 -82.40  0.001029939    1.608    0.378
        41  -8.9966     77.1667    112.2094   8.6011261580e+01   4.4262607653e+01    0.1965649    0.1746949  80.30 0.0004702793    1.315    0.240
        42 -10.2325    205.3177    110.2898   5.3688588556e+01   1.8416472814e+01    0.2971803    0.2438795  42.50  0.001125984    1.386    0.279
        43  -9.3579    110.6995    167.1880   8.8021750168e+01   2.4956139805e+01    0.2373599      0.18887 -82.34 0.0008750976    1.469    0.319
        44 -12.5198    247.5022    106.2491   4.6623855036e+01   1.1149034728e+01    0.4458165    0.3546731 -77.82   0.00278194    1.418    0.295
        45 -11.3496     53.0914     91.7699   8.9251292042e+01   5.2577474063e+01    0.4705143    0.2040222 -54.87  0.001460762    2.181    0.542
        46  -9.5599     32.4648    109.4629   1.0085060448e+02   5.0666814889e+01    0.1376622    0.1214615 -53.84 6.620906e-05    1.015    0.015
        47 -11.0285    249.6741     85.5290   4.2208074744e+01   1.4087812683e+01    0.2355783   0.09671771 -40.75   0.00109308    2.019    0.505
        48  -9.7541    161.2639     83.5924   5.5259874750e+01   3.2939233432e+01    0.2048022    0.1355698  45.43 0.0009100908    1.586    0.370
        49  -8.9523    184.5202     77.4492   4.9382078807e+01   2.8694506547e+01    0.1392332    0.1311369 -74.13 0.0001303691    1.040    0.038
        50  -9.7235     36.6011     63.4339   8.7761986035e+01   6.0682078415e+01    0.2073034    0.1701476  37.28 0.0006194575    1.454    0.312
        51 -11.7163     13.1800     59.8505   9.7194226974e+01   6.3572460760e+01    0.2795363     0.266375  80.38 0.0005391231    1.411    0.291
        52 -15.2390     41.0956    190.1710   1.0992559031e+02   2.9330891603e+01     2.868043     1.618763  72.53   0.01311932    1.991    0.498
        53 -11.3502    193.0202    194.8918   7.3998234124e+01   4.3769031607e+00    0.9427756    0.4828853 -63.54  0.002681576    6.296    0.841
        54 -12.5788    219.0749     32.9832   3.4621049062e+01   2.7587850400e+01    0.4259104    0.3918112  55.69  0.001092125    1.427    0.299
        55 -15.2086      9.5861    207.6759   1.1880373206e+02   2.8382151756e+01     1.380239     1.169369 -66.34  0.005928787    1.322    0.243
        56 -10.1812     39.8210     58.0546   8.4631938687e+01   6.1364209163e+01    0.2021329     0.172486  13.94 0.0004825088    1.184    0.155
        57 -10.4934     19.5488     55.5146   9.2978343868e+01   6.3952847077e+01    0.4042689     0.161429  37.34  0.001754279    3.200    0.687
        58 -11.0797      3.8699     49.6642   9.8784613369e+01   6.6242974157e+01    0.4044132    0.1562683  27.51  0.001953277    2.856    0.650
        59  -9.6008    131.7154     38.7657   4.8439354583e+01   4.6820911432e+01    0.2384362     0.163542 -88.17 0.0008503865    1.877    0.467
        60 -10.1268    187.9766     31.2619   3.7546407760e+01   3.4588264681e+01    0.1832999    0.1507107  85.56 0.0005618868    1.077    0.071
        61 -10.6235    198.0392     23.9423   3.4725253166e+01   3.3205509696e+01    0.2525493    0.1826672 -25.88  0.001062081    1.732    0.423
        62  -9.3567    189.4911     15.0312   3.3552234754e+01   3.6095432461e+01    0.1687592      0.11557 -38.57 0.0005327324    1.544    0.352
