#   1 NUMBER                 Running object number                                     
#   2 MAG_AUTO               Kron-like elliptical aperture magnitude                    [mag]
#   3 X_IMAGE                Object position along x                                    [pixel]
#   4 Y_IMAGE                Object position along y                                    [pixel]
#   5 X_WORLD                Barycenter position along world x axis                     [deg]
#   6 Y_WORLD                Barycenter position along world y axis                     [deg]
#   7 A_WORLD                Profile RMS along major axis (world units)                 [deg]
#   8 B_WORLD                Profile RMS along minor axis (world units)                 [deg]
#   9 THETA_WORLD            Position angle (CCW/world-x)                               [deg]
#  10 FWHM_WORLD             FWHM assuming a gaussian core                              [deg]
#  11 ELONGATION             A_IMAGE/B_IMAGE                                           
#  12 ELLIPTICITY            1 - B_IMAGE/A_IMAGE                                       
         1 -14.0752     68.4742    144.6378   9.3883290302e+01   3.7378245976e+01     4.440992     2.459803  80.81  0.005705846    4.043    0.753
         2 -13.4605    207.9356     43.4322   3.5451759688e+01   2.8760778830e+01     1.626552      1.26323  32.40  0.008180719    1.980    0.495
         3 -13.3102    222.2337     31.4176   3.1509174919e+01   2.7339922590e+01     1.010088    0.8055789  43.91  0.006648832    1.823    0.451
         4 -11.5600    247.9178     10.5630   2.5691487458e+01   2.4831717282e+01    0.4771791     0.283105 -84.01  0.003257765    1.441    0.306
         5 -11.7363    247.0074      3.4956   2.4515156966e+01   2.5759592728e+01    0.4861716    0.3692439  87.54  0.003815923    1.281    0.219
         6 -10.0363      2.0000     12.0369   8.4181457739e+01   7.3253075615e+01    0.2838142   0.05526846 -46.84  0.001043916    4.867    0.795
         7 -16.3947     15.3793    241.6148   1.1870962010e+02   1.9513198547e+01     7.514979     5.404111  24.72   0.04834609    1.643    0.391
         8 -10.5998    102.5756    250.1721   1.0066025712e+02   7.0237204984e+00    0.4163811    0.1572715  33.17  0.001601457    2.272    0.560
         9 -11.1177    101.4633    243.9779   1.0017440018e+02   8.4133430737e+00    0.4456273    0.2230421 -65.20  0.002046178    2.438    0.590
        10 -15.1313      6.3630    186.4611   1.1708220158e+02   3.3067882464e+01     9.155535     1.425788 -74.21   0.02695769    4.930    0.797
        11 -12.9443     33.4990    196.2244   1.1118867374e+02   2.8139448380e+01    0.8261243    0.6207277 -17.10   0.00309233    1.857    0.462
        12 -14.1592     43.4405    186.8756   1.0762731873e+02   2.9413427966e+01     2.653791     1.699677  64.61  0.009774462    1.663    0.398
        13  -9.4154    116.4154    187.1753   8.8034240422e+01   1.8823013382e+01    0.2126376    0.1486125 -70.58 0.0006889389    1.730    0.422
        14  -7.9900    224.2639    206.7036   6.7381221036e+01  -2.5667358568e+00    0.1112756    0.1002301 -47.86 0.0002116356    1.509    0.337
        15  -9.1478     99.2631    180.8580   9.1507690814e+01   2.3223488495e+01    0.2526488    0.2468775 -82.01 0.0006430303    1.032    0.031
        16 -11.3673     60.6991    172.0195   1.0089846193e+02   3.1180664031e+01    0.4834774    0.3219372 -26.92  0.002145811    1.991    0.498
        17 -11.2819     65.7250    167.2617   9.8708956819e+01   3.1767460958e+01    0.3943439    0.2900052 -31.71  0.001237254    1.587    0.370
        18 -12.0073     83.3587    152.0669   9.0725679648e+01   3.3198202283e+01     1.121414    0.6472723 -50.07  0.001823475    1.656    0.396
        19 -12.3116     75.5631    157.9206   9.4192912805e+01   3.2844594495e+01     1.185879    0.6401067  58.14 0.0008383204    2.611    0.617
        20 -12.8656     62.8663    154.0264   9.7353371450e+01   3.5658278908e+01     0.561221    0.4142784 -34.60   0.00128368    1.487    0.328
        21 -10.9174    120.4849    212.3590   9.1260572633e+01   1.2297002055e+01    0.3263308    0.2424829  55.40  0.001060864    1.516    0.341
        22 -10.8898    239.8605    169.0696   5.7453937044e+01   1.8045174098e+00    0.2057804    0.1862958   3.67 0.0005639869    1.221    0.181
        23  -8.5171    110.8016    167.7701   8.5879242700e+01   2.4574628043e+01     0.211514    0.1839114  77.27 0.0004367355    1.326    0.246
        24  -8.5588    186.6050    165.2487   6.6642527595e+01   1.1213873282e+01     0.213225    0.1285329 -34.06 0.0009412637    1.616    0.381
        25 -11.2540     32.7236    156.6395   1.0689713646e+02   3.8435478739e+01    0.5313167     0.370862  70.65  0.001578124    1.577    0.366
        26  -8.7209    126.7058    151.7906   7.8125502982e+01   2.5626540138e+01    0.3071606    0.1898894  48.27  0.001250633    1.770    0.435
        27  -8.8682    174.8695    149.1221   6.5647227956e+01   1.6816278716e+01    0.2304524    0.2063595 -65.37 0.0005915487    1.252    0.201
        28 -10.1443    133.7230    144.9267   7.4674539993e+01   2.5918418186e+01     1.043593    0.2530717 -53.45  0.002325719    5.728    0.825
        29 -10.2155     55.1074    147.4587   9.8622996961e+01   3.8404349926e+01    0.4398844    0.2192117 -74.38  0.001661943    2.348    0.574
        30  -9.0477     47.7089    146.0318   1.0071530150e+02   3.9667810397e+01    0.2125507    0.1845799 -60.75 0.0007615579    1.050    0.048
        31 -10.0352     29.6918    142.9250   1.0592952764e+02   4.2349018169e+01    0.3852444    0.2752184 -13.29  0.001640259    1.731    0.422
        32 -10.1297     98.5368    138.7211   8.3264471211e+01   3.4108882295e+01    0.5864766    0.3744272 -16.28  0.002192969    2.430    0.588
        33 -11.5864     85.6145    137.7154   8.7032396257e+01   3.6571925981e+01    0.3227791    0.2852051 -36.79 0.0004215908    1.113    0.101
        34 -10.2725    107.3230    130.1456   7.8593845998e+01   3.4640916757e+01     0.567771    0.3651429  19.58  0.002279716    1.964    0.491
        35  -8.9495     82.0818    128.8003   8.6150802725e+01   3.9434677759e+01    0.2346959    0.2106174  62.85 0.0006083191    1.253    0.202
        36  -9.6225     84.1360    173.1574   9.4386375621e+01   2.7571731922e+01    0.3033421    0.2246412 -51.27 0.0009920328    1.330    0.248
        37  -8.9980     96.9015    124.5954   8.0416418499e+01   3.7938869837e+01    0.2545732    0.2083251 -29.29  0.000571747    1.263    0.208
        38  -9.6243    135.6519    130.0206   7.0587413542e+01   2.9034311340e+01    0.3831044    0.1475376 -47.33  0.001250886    2.545    0.607
        39  -9.2701    243.6551    121.3250   4.7380248288e+01   9.5988020109e+00    0.1320636   0.09044662 -65.75 8.358889e-07    1.741    0.425
        40  -9.1216    162.0434    119.3604   6.1466253907e+01   2.5812453049e+01    0.3569347    0.2111381 -58.60  0.001418542    2.050    0.512
        41  -8.6700    159.3618    115.7001   6.1157785044e+01   2.7158184151e+01    0.2187474    0.1505339 -58.61  0.000565664    1.622    0.383
        42  -8.7443    135.0000    119.9891   6.8227709451e+01   3.1459235819e+01    0.2621011   0.08890031 -45.69 0.0006459465    2.890    0.654
        43  -9.0214    106.1646    118.2307   7.5945903087e+01   3.7742800698e+01    0.2237241    0.2041896  -8.78   0.00040481    1.127    0.113
        44  -9.9306    231.2563    113.8624   4.7599766921e+01   1.3030375845e+01     0.281417    0.2276947 -50.83  0.000801556    1.073    0.068
        45  -8.6269    134.7727    112.7401   6.6397534590e+01   3.3116828709e+01    0.2532507    0.1235124 -54.17 0.0005737714    2.402    0.584
        46 -10.5947    245.3748    112.2424   4.5328822162e+01   1.0859493700e+01    0.2607163    0.1666915  66.81  0.001429759    2.066    0.516
        47  -8.1178     76.7112    112.2800   8.3939587164e+01   4.4433258094e+01    0.1453319    0.1217214  74.10 0.0002233796    1.523    0.343
        48  -9.3460    205.4477    110.1610   5.0798530478e+01   1.8575819652e+01    0.2788782    0.2075159  42.63 0.0009837245    1.558    0.358
        49 -10.5421    230.3426    170.6847   5.9375917805e+01   2.9203138693e+00     0.290883    0.1797101 -11.25  0.001378671    2.150    0.535
        50 -10.8637    249.0374     97.6625   4.1977124155e+01   1.2648761584e+01    0.5079385     0.105207 -47.91  0.001575393    4.578    0.782
        51  -9.1930     53.3259     97.3138   8.8551919944e+01   5.1453409674e+01    0.1554223    0.1024653 -24.00 0.0007042521    1.666    0.400
        52 -10.6058    243.3166     93.6490   4.1865658450e+01   1.4292753696e+01    0.2093435    0.1319753 -66.61  0.001131399    1.753    0.429
        53 -10.2514     47.4118    168.9655   1.0427043777e+02   3.3613535698e+01    0.4016227    0.2694704 -73.50  0.001966623    1.414    0.293
        54  -9.8813     53.1345     91.0755   8.6964088083e+01   5.2938568516e+01    0.2346909    0.1793707 -26.40 0.0005653924    1.259    0.206
        55  -8.6539    161.3307     84.2989   5.2590396241e+01   3.2852306991e+01    0.1456148    0.1165067  17.61 0.0005845083    1.644    0.392
        56  -8.3118     37.9857     63.7714   8.5165126418e+01   6.0723728913e+01    0.1656443    0.1051059  20.94 0.0004854908    1.575    0.365
        57 -10.6971     13.3080     59.9424   9.5516011673e+01   6.3817938468e+01    0.2579725    0.2266058 -45.52 0.0004558433    1.223    0.182
        58 -11.3687    199.4396     49.3301   3.7756116028e+01   2.9784208785e+01     0.484827    0.3818515  72.49  0.001337012    1.240    0.194
        59 -10.7567    119.7992    245.1037   9.6159568655e+01   5.5552367998e+00    0.2890831    0.1626231 -47.27 0.0009822479    1.992    0.498
        60  -9.7034     41.7481     59.2690   8.1980798613e+01   6.1156121247e+01    0.2685371    0.2084326  36.38  0.001327379    1.500    0.333
        61  -9.0985    123.8076    201.8479   8.8707238862e+01   1.4136470569e+01    0.2252577    0.1987678 -21.46 0.0009860556    1.183    0.154
        62  -8.7650    198.0565     23.8919   3.2195314880e+01   3.3297321939e+01    0.1733245    0.1418913  41.35 0.0006501849    1.671    0.402
        63  -8.6817    189.5112     15.0135   3.1057760283e+01   3.6135329823e+01     0.163183    0.1144674 -37.87 0.0005718949    1.546    0.353
        64 -10.6114    193.7770    196.3779   7.1440988808e+01   3.7554372116e+00    0.7013398    0.3706734 -63.58  0.002110305    5.514    0.819
        65 -14.5619      9.0168    207.7219   1.1796771866e+02   2.7707357828e+01     1.459903     1.271967 -64.24  0.007282293    1.291    0.225
