#   1 NUMBER                 Running object number                                     
#   2 MAG_AUTO               Kron-like elliptical aperture magnitude                    [mag]
#   3 X_IMAGE                Object position along x                                    [pixel]
#   4 Y_IMAGE                Object position along y                                    [pixel]
#   5 X_WORLD                Barycenter position along world x axis                     [deg]
#   6 Y_WORLD                Barycenter position along world y axis                     [deg]
#   7 A_WORLD                Profile RMS along major axis (world units)                 [deg]
#   8 B_WORLD                Profile RMS along minor axis (world units)                 [deg]
#   9 THETA_WORLD            Position angle (CCW/world-x)                               [deg]
#  10 FWHM_WORLD             FWHM assuming a gaussian core                              [deg]
#  11 ELONGATION             A_IMAGE/B_IMAGE                                           
#  12 ELLIPTICITY            1 - B_IMAGE/A_IMAGE                                       
         1 -12.9976    182.6514     35.3540   6.5151318735e+01   3.5481051553e+01     1.022038    0.9020864  22.61    0.0044619    1.520    0.342
         2 -12.2317    204.4772      4.1406   5.5576959651e+01   3.3995807834e+01    0.8378251    0.4119507  72.81  0.004381137    1.681    0.405
         3  -9.3114     60.4186      3.2021   8.0959371429e+01   6.4906702006e+01     0.143911   0.09974481 -28.92 0.0009561146    1.709    0.415
         4 -10.1337    178.4991    221.7832   1.0851686184e+02   7.0090516429e-01    0.3342787      0.22768 -37.10  0.001713649    1.563    0.360
         5 -10.6479    139.5518    249.5154   1.2110865102e+02   2.2015804352e+00    0.4442408    0.2368644  46.35  0.002170497    1.671    0.402
         6 -10.8041    140.5117    244.9435   1.2026385848e+02   2.8910581616e+00    0.2711085    0.2108677 -50.81 0.0009732315    1.463    0.316
         7 -19.5389     31.9169    150.1700   1.3226138591e+02   4.1100338337e+01     21.11841     3.252886 -67.35    0.0527216    6.273    0.841
         8  -9.6051    156.1027    200.4737   1.0956364518e+02   9.1114603222e+00    0.3888713    0.2720094  78.03  0.001688876    2.163    0.538
         9 -10.7152    103.8179    199.4629   1.2158327599e+02   1.8912378883e+01    0.3679765    0.2735297  12.96  0.001749278    1.925    0.481
        10 -10.7813    113.1809    195.5955   1.1872095984e+02   1.8187499601e+01    0.5713668    0.3638397  -3.01  0.001917032    4.059    0.754
        11  -9.0752     99.9558    192.2872   1.2135767645e+02   2.1276721788e+01    0.2049491    0.1797364  51.13   0.00036321    1.126    0.112
        12  -9.5022    111.8081    217.3253   1.2247123923e+02   1.3462364659e+01     0.256916    0.1812683 -31.09  0.001224256    2.040    0.510
        13  -9.7668    192.5368    193.9172   1.0033822570e+02   3.5948134349e+00    0.5338923    0.2580712 -60.34  0.001768935    3.741    0.733
        14  -9.5815     99.4866    180.7496   1.1953459409e+02   2.4155518293e+01    0.2596444    0.1999817  43.50 0.0006475649    1.306    0.234
        15  -9.3357      8.7328    217.7995   1.4443133060e+02   2.7460320633e+01    0.1588277     0.120569 -84.56 0.0006837369    1.150    0.131
        16  -9.3389      9.7802    214.1043   1.4396471727e+02   2.8169649870e+01     0.251347    0.1909161   7.25  0.001589213    2.239    0.553
        17  -9.2069    164.6618    217.6623   1.1075784675e+02   3.9645415467e+00    0.1467607    0.1095645  -1.94 -0.0008990505    1.756    0.431
        18 -10.0042    195.0559    168.5265   9.4589654952e+01   8.2995648119e+00     0.321178    0.2665198  31.34  0.001663762    1.271    0.213
        19  -8.3642    162.4924    168.5140   1.0172366099e+02   1.4922888034e+01    0.1561487    0.1476533  88.52 0.0008082775    1.107    0.097
        20  -8.3053     98.5097    213.0449   1.2485811635e+02   1.6659579774e+01    0.1989477    0.1351458 -64.83  0.000409736    1.495    0.331
        21 -10.2585     95.4488    160.8421   1.1693195195e+02   2.9775042816e+01    0.3186896    0.2585464 -46.58 0.0005778527    1.267    0.210
        22  -9.0059    110.4622    211.5009   1.2190325607e+02   1.4994697000e+01    0.1437399    0.1301982  68.40 0.0008094595    1.009    0.009
        23 -11.1623    100.3616    153.8508   1.1422803670e+02   3.0655152201e+01    0.6342771    0.4330117 -30.13  0.002475628    1.920    0.479
        24  -9.2124    189.3102    154.8768   9.2817771767e+01   1.2341903211e+01      0.25669    0.1946782 -62.37  0.001211935    1.466    0.318
        25  -8.6925    164.3248    152.6500   9.7815717343e+01   1.8115422299e+01    0.1642398    0.1248346 -88.19 0.0007048752    1.754    0.430
        26 -10.0024    133.5598    143.2879   1.0314489429e+02   2.6797786817e+01    0.7019093     0.194291 -53.99   0.00177057    4.509    0.778
        27  -8.9658      8.4237    145.4296   1.3784246519e+02   4.4280641974e+01    0.1971605    0.1783274 -57.96 0.0006725302    1.206    0.171
        28 -10.6534    110.2294    139.2770   1.0839384290e+02   3.2411877933e+01    0.5457526    0.2963209 -35.31  0.002025628    2.367    0.578
        29  -8.7030    128.8465    140.3996   1.0368877414e+02   2.8453180525e+01    0.2247073    0.1521709  31.06 0.0009509816    1.694    0.410
        30 -10.8053     99.2090    139.1807   1.1141616390e+02   3.4469967892e+01    0.2999673    0.2904229  -3.61 0.0003823536    1.122    0.109
        31  -9.9847    106.1256    130.6545   1.0752596201e+02   3.5256021157e+01    0.4448735    0.3110281 -60.64  0.001866241    1.481    0.325
        32  -9.5151    104.8284    125.9129   1.0675615896e+02   3.6621794288e+01    0.2803901    0.2486266  -4.21 0.0005318951    1.289    0.224
        33  -9.3678    116.3423    130.1283   1.0457950408e+02   3.3405421540e+01    0.2613006    0.2185527  23.52 0.0006240254    1.346    0.257
        34  -8.7484    160.3147    127.6347   9.2858004478e+01   2.4568320226e+01    0.1666421    0.1239214 -82.64 0.0007039412    1.767    0.434
        35  -9.0237    111.4664    118.9815   1.0317267869e+02   3.6953773259e+01    0.2469402    0.1996434  41.11 0.0005919319    1.268    0.211
        36  -8.7593    168.1787    113.0135   8.7466842707e+01   2.5894730161e+01    0.2720941    0.1781137 -70.23  0.001092518    2.072    0.517
        37 -10.0717    106.6981    209.6896   1.2249266256e+02   1.6050379403e+01     0.212106    0.1852186 -75.63 0.0006178875    1.146    0.127
        38  -8.3362    205.4982    110.4251   7.9489567755e+01   1.7936718696e+01    0.1476042    0.1354738 -68.83 0.0001966419    1.016    0.016
        39 -10.3238    106.6944    206.6840   1.2203535886e+02   1.6739424317e+01    0.3114666    0.2221994  22.72  0.001443631    1.781    0.438
        40 -10.5666    173.4352     72.3529   7.5988361472e+01   3.2280497244e+01    0.4756361    0.3059701 -84.88 0.0009276464    2.140    0.533
        41 -12.3024    168.4811     50.2378   7.1116913857e+01   3.6861879048e+01    0.9478059    0.6388562  36.07  0.001324376    1.887    0.470
        42 -10.0039     81.6793    203.6889   1.2740790320e+02   2.1524829418e+01    0.3992514    0.2590293  68.41  0.001941435    1.653    0.395
        43 -10.1641     88.6448    203.4523   1.2575559317e+02   2.0485414237e+01     0.437613    0.2291013  57.03  0.001859557    2.085    0.520
        44 -11.7474    187.1357     29.2536   6.3081564120e+01   3.5180520268e+01    0.4516227    0.4125649 -75.58  0.001329719    1.148    0.129
        45 -10.0819     95.5153    201.3358   1.2383456294e+02   1.9867583477e+01    0.3553761    0.2366575  86.42   0.00165341    1.798    0.444
        46  -9.2718    169.0013    235.9617   1.1291446955e+02  -2.9056969683e-01    0.1971609     0.181674  26.08 0.0003420286    1.032    0.031
