#   1 NUMBER                 Running object number                                     
#   2 MAG_AUTO               Kron-like elliptical aperture magnitude                    [mag]
#   3 X_IMAGE                Object position along x                                    [pixel]
#   4 Y_IMAGE                Object position along y                                    [pixel]
#   5 X_WORLD                Barycenter position along world x axis                     [deg]
#   6 Y_WORLD                Barycenter position along world y axis                     [deg]
#   7 A_WORLD                Profile RMS along major axis (world units)                 [deg]
#   8 B_WORLD                Profile RMS along minor axis (world units)                 [deg]
#   9 THETA_WORLD            Position angle (CCW/world-x)                               [deg]
#  10 FWHM_WORLD             FWHM assuming a gaussian core                              [deg]
#  11 ELONGATION             A_IMAGE/B_IMAGE                                           
#  12 ELLIPTICITY            1 - B_IMAGE/A_IMAGE                                       
         1 -12.4753    154.1860     50.7296   8.6460577594e+01   3.9970096699e+01        1.242      1.06204 -23.10  0.004351578    1.175    0.149
         2 -12.3009    164.8799     19.8718   7.4280900697e+01   4.1200693715e+01     1.049212    0.9534745  66.52  0.006036983    1.066    0.062
         3  -9.3941    120.1695      9.1535   7.8584780838e+01   5.3331708613e+01    0.3425257    0.2808447 -20.07  0.001188367    1.265    0.210
         4  -9.2048    149.1347    248.1749   1.3002439711e+02   6.1829126091e+00    0.1864554    0.1587974 -70.74 0.0008323081    1.504    0.335
         5  -9.7787    248.3753    247.4568   1.1360209246e+02  -8.8940711180e+00     0.399983    0.1197778 -27.39  0.001868123    3.984    0.749
         6 -18.6658     82.0331    227.5554   1.3938003607e+02   1.9281887233e+01     4.681528     3.697633  64.82   0.01404736    1.035    0.034
         7  -8.8541    188.1114    178.1371   1.1226396257e+02   9.8832396592e+00    0.2973339     0.211105  62.47  0.001521289    1.783    0.439
         8 -10.9194    166.1509    181.4028   1.1716787124e+02   1.3526677376e+01    0.7436883    0.3263048  52.95  0.001853272    2.543    0.607
         9  -8.2232      1.6771    183.1304   1.5024214820e+02   3.6486446701e+01     0.137384   0.09877352 -86.36 0.0004168448    1.151    0.131
        10  -9.7104    221.6687    177.7556   1.0597356076e+02   3.5976721261e+00    0.2973574     0.234834 -50.79 0.0005871772    1.693    0.409
        11  -9.5578    196.9827    176.9720   1.1034790499e+02   8.3674152207e+00    0.3575624    0.2829147  42.64  0.001287856    1.199    0.166
        12 -10.7714    193.4701    166.7810   1.0899136189e+02   1.0687794084e+01     1.004104    0.3694108 -45.05   0.00156848    3.164    0.684
        13  -8.5780    188.5886    159.6342   1.0846676288e+02   1.2860199995e+01    0.3746139    0.2271132 -14.83  0.001575965    2.445    0.591
        14  -9.8305    204.1965    175.6811   1.0874208432e+02   7.1877486544e+00    0.3469107    0.3016878 -15.45  0.001262796    1.169    0.144
        15  -7.8152      6.0881    228.5404   1.5184680689e+02   2.7847068944e+01    0.1275285   0.07623432  49.42 0.0005476878    1.482    0.325
        16  -9.2333    200.4827    168.1390   1.0792820029e+02   9.0862418784e+00    0.3007259    0.2737096 -75.63  0.001212113    1.443    0.307
        17  -9.3226    203.8959    163.2059   1.0626770353e+02   9.2000462654e+00    0.4837178    0.2339668 -35.58  0.002104793    2.147    0.534
        18  -8.4258    159.9246    163.1281   1.1499679137e+02   1.7988867454e+01    0.2170025    0.1847724  70.76 0.0006923227    1.317    0.241
        19  -8.7019    159.0665    157.8828   1.1412961073e+02   1.9136353091e+01    0.2140103    0.1854016  80.89 0.0005310564    1.340    0.254
        20  -8.1507    163.6293    156.5481   1.1289746337e+02   1.8470552201e+01    0.2315157     0.136686 -43.26 0.0009570709    1.782    0.439
        21  -7.7423    192.2633    227.6244   1.1988284657e+02   1.9523141272e+00     0.107273   0.09082911  73.92 0.0006983419    1.668    0.400
        22  -8.4228    207.9742    224.7882   1.1672943824e+02  -2.8047818004e-01    0.1880841    0.1608991 -11.37 0.0007991926    1.286    0.222
        23  -8.7468     27.1612    145.8839   1.4209210280e+02   4.1896694508e+01     0.448134      0.21165  89.14  0.002220876    2.309    0.567
        24  -8.1737    231.3543    216.3192   1.1136927390e+02  -3.0734983760e+00    0.2156798    0.1069216 -25.84  0.001137026    2.246    0.555
        25  -8.9717    163.1552    244.6837   1.2723583165e+02   4.4516386217e+00    0.1873836    0.1781183  24.30 0.0004715378    1.242    0.195
        26  -9.0030    160.1963    145.8192   1.1135774040e+02   2.1196126514e+01    0.4685451    0.1853287  43.24  0.001107254    2.474    0.596
        27 -10.3073     14.3858    198.8948   1.4894648129e+02   3.2352105148e+01    0.4202552    0.2066861 -79.22  0.002055101    1.691    0.408
        28  -8.1669    102.2957    139.4170   1.2330043782e+02   3.3546081344e+01    0.1864752    0.1255679  53.96 0.0006983926    1.540    0.351
        29  -8.1538     26.4166    137.8554   1.4137017852e+02   4.3709816865e+01    0.1868689    0.1532986  -7.81 0.0007483751    1.849    0.459
        30 -10.2006     10.0000    210.0095   1.5032108089e+02   3.0718892633e+01    0.2937306    0.1306957  82.23  0.001399528    1.948    0.487
        31  -8.8240     31.2789    135.1078   1.3989253527e+02   4.3858360736e+01    0.1673323    0.1539353 -65.00 0.0003102546    1.257    0.204
        32  -9.4170    135.9959    129.2718   1.1309674855e+02   2.9456144550e+01    0.4899999    0.1827147 -48.57  0.001713111    2.739    0.635
        33  -9.3250    161.3938    129.0592   1.0728200208e+02   2.4177687024e+01    0.3695084    0.2686348 -56.91  0.001748541    1.566    0.362
        34  -8.3243    196.1346    128.8585   1.0005060431e+02   1.6586585303e+01    0.2012075    0.1966155 -49.00            0    1.127    0.113
        35  -9.5860    122.8960    127.8518   1.1589671190e+02   3.2329732959e+01    0.2164899    0.1992603  -9.09 0.0004961413    1.239    0.193
        36  -9.1344     95.1114    126.1377   1.2242844455e+02   3.7652677050e+01    0.3717698    0.1573018  50.37  0.001348693    2.747    0.636
        37  -9.5888    128.7081    124.4142   1.1370591587e+02   3.1924145165e+01    0.2697596    0.2547898 -79.48 0.0003168687    1.075    0.070
        38 -11.1375     11.7276    206.6984   1.4985419303e+02   3.1158068758e+01    0.4689932    0.3273063  59.05  0.002364903    1.246    0.197
        39 -10.2786    242.0336    120.1273   8.9860163720e+01   8.1426475997e+00    0.2717587    0.2486166  22.15 0.0004348613    1.116    0.104
        40 -10.0858    151.4786    242.7635   1.2899006920e+02   6.5510486586e+00    0.3575432    0.2614317 -53.27  0.002479647    1.747    0.428
        41 -10.2611    134.9487    118.1169   1.1069762976e+02   3.1976963209e+01    0.6967555    0.1892871 -46.48   0.00205806    3.686    0.729
        42  -9.4531     86.9019    119.0040   1.2305846621e+02   4.0550056396e+01    0.4128287    0.2084905  48.04  0.001677154    2.174    0.540
        43  -8.7003    107.9538    115.3089   1.1674526461e+02   3.7812410211e+01    0.2474448    0.1952871 -64.01 0.0006761389    1.296    0.228
        44  -9.4971    173.4927    198.5029   1.1870166327e+02   9.3591957045e+00    0.1988363     0.125393 -56.13 0.0006650859    2.103    0.524
        45  -8.7335    220.4420    198.0298   1.1003440849e+02   1.0289552283e+00    0.1778193    0.1195694 -28.07 0.0004745386    1.581    0.367
        46 -10.3788    170.1338    195.0770   1.1876865457e+02   1.0513099923e+01    0.3355118    0.2626723 -15.99  0.001731354    1.573    0.364
        47 -13.6968     59.6739    248.7216   1.4472096180e+02   1.8720244771e+01    0.2641577    0.2143719 -87.72 0.0009962464    1.346    0.257
        48 -11.4747     65.1897    106.0971   1.2623577130e+02   4.6563388878e+01    0.9741685     0.528053 -38.09  0.002885888    2.222    0.550
        49 -10.6289    145.1563    190.9633   1.2297002022e+02   1.5720326211e+01    0.4156381    0.3120556 -61.06  0.001538284    1.532    0.347
        50  -7.7689    188.4135    106.4933   9.5939245268e+01   2.2272780607e+01    0.1515315    0.1441624  -8.42 8.858292e-05    1.023    0.023
        51 -10.6492    119.2730    101.4773   1.1035064900e+02   3.8614423720e+01    0.4695885    0.3446698 -44.12   0.00231678    1.312    0.238
        52  -9.4012    217.0591    189.5330   1.0906486073e+02   2.7790901729e+00    0.2805302    0.2035507  33.47  0.001640884    1.214    0.176
        53  -8.6016    245.0032    101.0186   8.4821566884e+01   1.0366919384e+01    0.2168492    0.1660607 -62.82 0.0007845194    1.653    0.395
        54  -8.8857    188.8464    246.0678   1.2308073599e+02   2.2220221758e-01    0.1949804    0.1756802  79.03 0.0007179201    1.559    0.359
        55 -10.1290    167.2396    244.5779   1.2652944194e+02   3.8195889537e+00    0.4735348    0.3159672   7.91  0.001918779    2.388    0.581
        56  -8.2907     77.6911     94.9009   1.2008865039e+02   4.7294334270e+01     0.216035    0.1839726  21.74 0.0006642335    1.359    0.264
        57  -8.4753     72.5267     90.8675   1.2059869601e+02   4.8929641406e+01    0.2222495    0.1980272  37.66 0.0007727391    1.261    0.207
        58 -10.0691    180.5049    177.2363   1.1356733200e+02   1.1492732727e+01    0.5022629    0.1642334 -41.32  0.001833699    3.334    0.700
        59  -9.2326    194.5529    182.7400   1.1191111992e+02   7.9291954009e+00    0.3963651    0.2824178  74.74  0.000473356    2.389    0.581
        60 -10.2243    157.3344     62.8416   8.9712033876e+01   3.7312636102e+01    0.4531076    0.2370783  59.78  0.001096195    2.058    0.514
        61 -10.7292    151.1974     65.6991   9.1947147111e+01   3.8338356479e+01    0.4042828    0.3690334  30.96  0.002148924    1.094    0.086
        62 -11.3850    144.8054     63.8057   9.2779542423e+01   4.0186091912e+01    0.6410842    0.5591939 -52.56  0.001388234    1.240    0.193
        63  -8.5579    194.9883     58.4533   8.1324439976e+01   2.8525630105e+01    0.2110485    0.1918194 -30.40  0.001095427    1.087    0.080
        64  -9.4992    157.1507    246.8836   1.2852129836e+02   5.1066717023e+00    0.3471054    0.2370273  -5.81  0.001018453    2.718    0.632
        65 -11.0514    158.7446     40.5280   8.2183427097e+01   4.0272615844e+01    0.5041637    0.4729098 -35.58 0.0007190311    1.099    0.090
        66  -9.0694    134.9795     48.4722   8.9915061249e+01   4.4963042898e+01    0.2528898     0.195836 -43.47 0.0005830525    1.368    0.269
        67  -9.6947    249.8370     44.2626   7.0200309881e+01   1.7187508890e+01    0.2288012    0.2149512 -30.29 0.0003982228    1.098    0.089
        68  -7.7523    244.1845     33.8374   6.8221375654e+01   1.9761008625e+01    0.1774874      0.15666  29.51 0.0004833965    1.342    0.255
        69  -7.4814    190.6598     32.2356   7.4259782650e+01   3.3142884004e+01      0.14396    0.1064216 -73.77 0.0003590475    1.548    0.354
        70  -8.3405    158.8214    241.7889   1.2761475438e+02   5.5223564987e+00    0.1633065    0.1487671  12.95 0.0005000988    1.297    0.229
        71 -10.3172    144.1769     24.5695   7.9512319232e+01   4.5920526056e+01    0.2556155    0.2263007   3.95 0.0001053971    1.145    0.126
