#   1 NUMBER                 Running object number                                     
#   2 MAG_AUTO               Kron-like elliptical aperture magnitude                    [mag]
#   3 X_IMAGE                Object position along x                                    [pixel]
#   4 Y_IMAGE                Object position along y                                    [pixel]
#   5 X_WORLD                Barycenter position along world x axis                     [deg]
#   6 Y_WORLD                Barycenter position along world y axis                     [deg]
#   7 A_WORLD                Profile RMS along major axis (world units)                 [deg]
#   8 B_WORLD                Profile RMS along minor axis (world units)                 [deg]
#   9 THETA_WORLD            Position angle (CCW/world-x)                               [deg]
#  10 FWHM_WORLD             FWHM assuming a gaussian core                              [deg]
#  11 ELONGATION             A_IMAGE/B_IMAGE                                           
#  12 ELLIPTICITY            1 - B_IMAGE/A_IMAGE                                       
         1 -14.0704    205.7490     21.9097   5.6292690308e+01   3.0560446772e+01     2.477205     1.289413  25.20   0.00950638    3.063    0.673
         2 -11.6858      2.3165      6.0114   1.1626726429e+02   7.4286922815e+01    0.7391597    0.1712143 -59.15  0.002903954    3.615    0.723
         3 -11.1811    162.0054    249.6345   1.1480511862e+02   5.3660141064e+00    0.2763415   0.08030669  37.92  0.001259338    2.519    0.603
         4 -12.7482    140.5463    248.9142   1.1858791791e+02   8.4831387529e+00    0.5347002    0.3078745  45.65  0.003448472    1.422    0.297
         5 -13.5764    122.1770    246.9132   1.2171518292e+02   1.1293335593e+01     1.046835    0.5037066  31.55  0.005959453    1.868    0.465
         6 -15.7284      8.5719    241.6812   1.4113556759e+02   2.5038018227e+01     9.973923     6.375148  84.11   0.08382028    1.397    0.284
         7 -11.4284     62.2935    249.4846   1.3254808405e+02   1.8441482252e+01     0.356999    0.1385176  56.05  0.001789326    2.235    0.553
         8 -12.1528     69.9957    247.0759   1.3106476936e+02   1.7919968920e+01    0.3407027    0.3012664 -50.18   0.00287007    1.654    0.396
         9 -11.5500    179.3628    247.8842   1.1149729600e+02   3.1050816861e+00     0.327805    0.1250508  30.05   0.00159399    2.366    0.577
        10 -12.6832     55.0639    239.2533   1.3319833001e+02   2.0831500914e+01    0.6692968    0.3001275 -86.40 0.0008436105    2.716    0.632
        11 -11.7737     42.1566    231.7357   1.3505554490e+02   2.3432963183e+01    0.3304334    0.1880664 -68.05  0.001888629    2.001    0.500
        12 -10.8185     46.8004    231.4660   1.3421389308e+02   2.2987735376e+01    0.1880185    0.1396255  58.38 0.0006347369    1.010    0.009
        13 -10.5385     83.0729    230.4968   1.2748343262e+02   1.8924141443e+01    0.1730767   0.08674195  39.24 0.0008398336    1.577    0.366
        14 -11.3603    150.3491    228.5415   1.1442649563e+02   9.8277530761e+00    0.2090143    0.1790354  38.96  0.001512183    1.145    0.127
        15 -10.4923    109.9940    224.8072   1.2180174165e+02   1.6260001655e+01    0.1852436    0.1678498  79.44   0.00139867    1.259    0.206
        16 -11.2475     73.4223    214.1842   1.2799257408e+02   2.2869927547e+01    0.4020896    0.1180668  48.93  0.001759669    2.930    0.659
        17 -11.6708     49.9604    237.2697   1.3398195049e+02   2.1705680489e+01     0.267504    0.1657502 -68.65  0.001949183    1.883    0.469
        18 -10.4420    225.1877    199.6495   9.5973659999e+01   1.9579410663e+00    0.2326816      0.19551 -30.63 0.0007079974    1.583    0.368
        19 -10.0785    195.0072    198.2860   1.0132655336e+02   6.9852850609e+00    0.1902519    0.1445685 -85.17 0.0009056866    3.416    0.707
        20 -11.5271     62.4792    191.4863   1.2826863227e+02   2.8377748160e+01    0.3149682    0.2525051 -43.28  0.001545657    1.665    0.399
        21 -11.6005     68.2053    184.5273   1.2636186225e+02   2.9047517188e+01    0.2514571    0.2144411 -52.93 0.0005322431    1.412    0.292
        22 -10.8839     77.9395    173.0147   1.2288421634e+02   3.0125286511e+01    0.2105699    0.1983008 -70.47  0.000375865    1.185    0.156
        23 -13.1425     65.0636    170.1087   1.2556773184e+02   3.2362397779e+01     0.452257     0.259306 -45.74  0.001872087    2.235    0.553
        24 -11.9027     85.2333    164.6184   1.2007854814e+02   3.0872702407e+01    0.5601069    0.4544253  49.67  0.003439229    1.130    0.115
        25 -13.0426     67.5256    144.1397   1.2173579872e+02   3.7677743460e+01     1.086209     0.607538  81.63    0.0027508    2.541    0.606
        26 -12.4320     57.1770    129.6714   1.2248847991e+02   4.2214444268e+01      1.50727    0.5423486 -80.42  0.003911295    7.028    0.858
        27 -14.7554      9.1125    207.0830   1.3985461050e+02   3.0799382761e+01      2.42773     0.988878 -84.17  0.009296183    2.241    0.554
        28 -10.0216     98.4252    149.1309   1.1444562413e+02   3.2214227306e+01    0.2451809    0.2126431  -2.41 0.0007713018    1.396    0.283
        29 -11.2427     29.1656    145.4446   1.3181518051e+02   4.1452632432e+01     0.246715    0.1181831  66.76  0.001209398    2.295    0.564
        30 -11.8248     86.8439    148.0583   1.1725936262e+02   3.4190349490e+01    0.2591203     0.232596 -44.91 0.0004383248    1.224    0.183
        31  -9.6094    109.8991    135.2058   1.0890312819e+02   3.3342916051e+01    0.2678276    0.1808322 -24.75 0.0009144727    2.043    0.510
        32 -10.5199     97.0225    132.0890   1.1176895861e+02   3.6166413534e+01    0.2600972    0.2175201 -29.03 0.0005545515    1.363    0.267
        33 -15.0810     28.9993    184.9248   1.3485098061e+02   3.3208839330e+01     4.990727     1.492692  69.48  0.001053787    6.956    0.856
        34  -9.3856    106.9631    122.3866   1.0704218132e+02   3.6653631286e+01    0.1983718     0.172258  36.27 0.0003952035    1.142    0.124
        35 -10.4633    167.7604    112.7781   8.9152352139e+01   2.6324619226e+01    0.3371338    0.2907585 -81.78 0.0008936067    1.563    0.360
        36 -12.8396     35.9157    223.5411   1.3573868945e+02   2.5444279148e+01    0.3482797    0.2903061  39.92 0.0007513138    1.350    0.259
        37 -14.8838     43.3817    214.2852   1.3382940886e+02   2.6283458970e+01     1.995694     1.188651  34.69  0.009458493    1.603    0.376
        38  -8.7000    107.4975     41.5652   8.2470342963e+01   5.2943615497e+01    0.1479567    0.1383053  10.63  0.000106121    1.048    0.046
