#   1 NUMBER                 Running object number                                     
#   2 MAG_AUTO               Kron-like elliptical aperture magnitude                    [mag]
#   3 X_IMAGE                Object position along x                                    [pixel]
#   4 Y_IMAGE                Object position along y                                    [pixel]
#   5 X_WORLD                Barycenter position along world x axis                     [deg]
#   6 Y_WORLD                Barycenter position along world y axis                     [deg]
#   7 A_WORLD                Profile RMS along major axis (world units)                 [deg]
#   8 B_WORLD                Profile RMS along minor axis (world units)                 [deg]
#   9 THETA_WORLD            Position angle (CCW/world-x)                               [deg]
#  10 FWHM_WORLD             FWHM assuming a gaussian core                              [deg]
#  11 ELONGATION             A_IMAGE/B_IMAGE                                           
#  12 ELLIPTICITY            1 - B_IMAGE/A_IMAGE                                       
         1 -11.8270    228.4554     24.8894   3.2404472763e+01   2.6658850812e+01     0.696761     0.578933 -82.82  0.004396961    1.124    0.110
         2 -12.5203    212.2026     40.2566   3.7228035110e+01   2.8134193672e+01     1.015209    0.8823286  75.02  0.006036687    1.230    0.187
         3 -10.1784      2.1689      4.9550   8.3129231876e+01   7.4237372326e+01    0.6999025    0.1222247 -42.99   0.00265512    4.814    0.792
         4 -10.5875      2.2002     21.2135   9.0658184148e+01   7.1758612390e+01    0.6367546      0.12294 -51.14  0.002361136    4.512    0.778
         5  -9.9700    249.5016      5.9910   2.7290586356e+01   2.4692764182e+01    0.3699571    0.2652734 -37.53  0.002637655    1.565    0.361
         6  -9.6272    247.5067      2.4757   2.6768120982e+01   2.5448243629e+01    0.2501824     0.198652  80.42    0.0019104    1.376    0.273
         7 -10.0205     48.0058    227.0161   1.1272283561e+02   1.9726883342e+01    0.4710875    0.2196969 -76.19  0.001901089    2.185    0.542
         8 -11.4450     80.9700    217.5170   1.0430505676e+02   1.7496904125e+01    0.9876251    0.6744152  24.68  0.005142539    1.637    0.389
         9 -13.2478    102.3531    228.0143   1.0069516947e+02   1.2082521934e+01     4.571955    0.9707582  32.32   0.01273245    5.097    0.804
        10 -10.9209     20.6385    194.0215   1.1608583558e+02   3.0361755691e+01    0.4206145     0.279897  63.32  0.001594899    1.379    0.275
        11  -8.8630     31.8600    221.9309   1.1579206458e+02   2.2719646495e+01    0.3040694    0.2240025 -64.91  0.001885195    1.447    0.309
        12 -10.3375     58.4919    174.9621   1.0444198745e+02   3.0862443827e+01    0.4922713    0.3101774 -33.06  0.002131403    2.199    0.545
        13 -10.1339     63.8471    169.6573   1.0222240709e+02   3.1515329188e+01     0.351005    0.2715787 -38.56 0.0008585392    1.481    0.325
        14  -7.9589    186.7127    176.3452   7.2612749377e+01   8.7939584243e+00     0.138935    0.1167765 -78.86 0.0003704855    1.651    0.394
        15  -9.5763     45.1382    221.7130   1.1288627155e+02   2.1247081201e+01    0.3547767    0.2022199 -73.49  0.001630508    1.697    0.411
        16  -8.6660     47.4842    168.3215   1.0652597224e+02   3.3922682619e+01    0.3012006    0.1852998  70.74  0.000852211    1.873    0.466
        17 -11.3955     58.6772    132.1839   9.7361690733e+01   4.1939659730e+01     1.082004     0.375304 -66.55  0.003412143    3.322    0.699
        18 -12.1258     68.4661    144.7154   9.6711760654e+01   3.7350878413e+01     1.199973    0.7441022  88.61   0.00486827    2.286    0.563
        19 -10.2529     74.0927    160.5875   9.7900412649e+01   3.2418733787e+01    0.3850014    0.3168444 -38.41 0.0004861391    1.327    0.247
        20 -11.0375     81.4752    154.3416   9.4666736857e+01   3.2922259933e+01    0.9176513    0.5199237 -33.25  0.001703754    2.452    0.592
        21 -11.7528     61.0705    156.3236   1.0092574287e+02   3.5338512030e+01    0.5277574    0.3352111 -41.05  0.001166484    1.766    0.434
        22  -9.3276     28.9004    218.8515   1.1619423644e+02   2.3730916881e+01    0.2783847    0.2112485  27.32  0.001398477    1.553    0.356
        23 -14.4287     18.1320    243.5846   1.2001392237e+02   1.9561192002e+01     3.955702     1.626714  31.08   0.01990697    2.475    0.596
        24 -13.3785      8.9786    207.7203   1.1970804519e+02   2.8240724783e+01     1.609296    0.9803809 -86.02  0.003883266    1.393    0.282
        25  -9.2056     96.6335    141.0670   8.7564745730e+01   3.3826142310e+01     0.370786    0.2825392 -18.66  0.001628257    1.654    0.395
        26 -10.6251     84.5066    139.3077   9.0789538979e+01   3.6312732957e+01    0.3539138    0.2802538 -45.10 0.0005640842    1.241    0.194
        27 -10.3494     70.0583    131.4801   9.3606752879e+01   4.0547355194e+01    0.5415248    0.3409893  71.84  0.002105407    2.441    0.590
        28  -7.8506     67.8138    206.2019   1.0606717640e+02   2.1932768013e+01    0.1706216    0.1547484 -49.49  0.000448973    1.272    0.214
        29  -7.4709     96.6610    125.6642   8.4033066950e+01   3.7673480301e+01    0.1646818    0.1210782 -17.71 0.0007051354    1.753    0.430
        30  -8.2109    105.7373    119.0306   7.9672788811e+01   3.7597774858e+01    0.2146868    0.1944927 -43.17 0.0002174657    1.070    0.065
        31 -10.1483      8.2154    118.3283   1.1149197466e+02   5.0353805695e+01    0.2809473     0.164018 -49.96   0.00148593    1.508    0.337
        32  -9.2461    107.2175    130.6318   8.2097206798e+01   3.4507546764e+01    0.4606562    0.3049242  32.49  0.001904969    1.621    0.383
        33  -7.6394    160.3879    117.6970   6.5033232572e+01   2.6441196130e+01    0.1619549    0.1226891 -88.06 0.0003610404    1.797    0.444
        34  -8.1149    205.7880    110.3943   5.4317451183e+01   1.8191438890e+01     0.186393    0.1359582  40.92 0.0005465825    1.603    0.376
        35  -8.9067     51.9604    105.1330   9.3857095473e+01   4.9632446569e+01    0.2395086    0.1586231  58.15  0.001091099    2.055    0.513
        36  -9.0652     32.3520     61.3793   8.9765600844e+01   6.1736987158e+01    0.3391292    0.2170815  48.84  0.001712315    2.320    0.569
        37 -10.1940     13.3247     60.2267   9.8051004127e+01   6.3642634341e+01    0.2775145    0.1882497 -55.69  0.001016211    1.350    0.259
        38  -8.5561     34.5504     55.9257   8.7003792422e+01   6.2584912081e+01    0.2222514    0.1659978  34.07 0.0006845816    1.545    0.353
        39  -9.2772    116.3316    246.9487   9.9991483657e+01   6.2435905225e+00    0.3954674    0.1762322 -63.04  0.001742141    2.912    0.657
        40 -10.8680    220.1292     32.5054   3.4734305204e+01   2.7446321832e+01    0.4684542    0.3315311  57.09  0.001064255    1.654    0.395
        41 -11.6032    202.8693     45.9398   3.9586488164e+01   2.9409642310e+01    0.4960275    0.3808295 -81.98  0.001822457    1.211    0.174
        42 -10.2140     80.8281    248.4659   1.0770912780e+02   1.0991965166e+01    0.3472331    0.1812265  45.00  0.001809802    1.612    0.380
        43  -9.9739      2.2460     41.0370   9.7821159306e+01   6.8207823995e+01    0.4909145   0.08508638 -58.43   0.00160435    5.064    0.803
        44  -8.2506    130.8916     38.1260   4.8801656603e+01   4.7298699012e+01    0.2052591    0.1717276 -77.52 0.0004428465    1.332    0.249
        45  -9.5938    114.6869    238.4213   9.9277763481e+01   8.1235067165e+00    0.3997042    0.1763106 -60.74  0.001447524    2.708    0.631
        46 -11.5064     29.6274    200.6398   1.1455056890e+02   2.7870032149e+01    0.5071493    0.4146828 -21.31  0.001118168    1.749    0.428
        47  -8.5027    198.1630     24.1708   3.5042901946e+01   3.3227812455e+01    0.1803118    0.1227345 -61.76 0.0006497176    1.337    0.252
        48 -14.5107     37.9956    190.0361   1.1154094615e+02   2.9531709491e+01     11.84563     4.684405  85.20   0.03682588    4.605    0.783
