#   1 NUMBER                 Running object number                                     
#   2 MAG_AUTO               Kron-like elliptical aperture magnitude                    [mag]
#   3 X_IMAGE                Object position along x                                    [pixel]
#   4 Y_IMAGE                Object position along y                                    [pixel]
#   5 X_WORLD                Barycenter position along world x axis                     [deg]
#   6 Y_WORLD                Barycenter position along world y axis                     [deg]
#   7 A_WORLD                Profile RMS along major axis (world units)                 [deg]
#   8 B_WORLD                Profile RMS along minor axis (world units)                 [deg]
#   9 THETA_WORLD            Position angle (CCW/world-x)                               [deg]
#  10 FWHM_WORLD             FWHM assuming a gaussian core                              [deg]
#  11 ELONGATION             A_IMAGE/B_IMAGE                                           
#  12 ELLIPTICITY            1 - B_IMAGE/A_IMAGE                                       
         1 -10.4874    231.9759     16.3896   1.2623974727e+01   2.5027204140e+01    0.7889204    0.4330809 -61.61  0.003850942    1.801    0.445
         2 -10.3388    235.7254     11.5291   1.1147801241e+01   2.4711560408e+01    0.8816863    0.4799736 -68.02  0.004333282    1.855    0.461
         3  -9.5069    120.1256      8.8489   2.6429088067e+01   5.3695664147e+01     0.328641     0.282749 -71.21    0.0011913    1.423    0.297
         4  -8.1744    179.5331      5.4875   1.5489885477e+01   3.9274610407e+01    0.1367602    0.1206633  77.72 -4.160832e-05    1.019    0.019
         5  -7.3554     85.8481      4.1823   3.3081336578e+01   6.1549402226e+01    0.1716481    0.1249371  18.35 0.0003019714    1.283    0.221
         6  -7.5702    210.1698      3.1277   1.1482015328e+01   3.1795446655e+01     0.184362    0.1327778 -63.95 0.0003583763    1.300    0.231
         7  -7.2473     72.3153    240.3089   9.0429855886e+01   1.6530381474e+01     0.122806    0.0871632  65.76 0.0005364661    1.064    0.060
         8  -8.4296    249.2355    250.4070   6.0299179454e+01  -1.2475378097e+01    0.1517686    0.0882298  40.96 0.0009521218    1.678    0.404
         9  -8.3766     62.2170    248.4700   9.2778382587e+01   1.6471225772e+01    0.2390652    0.1286345  84.03   0.00116616    1.853    0.460
        10 -13.0988     52.9664    230.0933   9.3010109071e+01   2.0962684003e+01     2.260138     1.793899  57.36  0.007184045    1.253    0.202
        11  -8.0080    162.3700    225.2238   7.1992359027e+01   4.7245839812e+00    0.1544141    0.1216235 -67.77  0.000323056    1.621    0.383
        12  -7.7227    184.7132    222.6027   6.7348182158e+01   1.2239971890e+00    0.2023009    0.1161249 -44.41 0.0009599727    2.075    0.518
        13  -8.3361    152.8409    222.1790   7.3389181570e+01   6.8904672623e+00    0.1753567    0.1417587  26.14 0.0009256374    1.346    0.257
        14  -7.6052    241.8017    220.5974   5.6669983779e+01  -8.0001593849e+00    0.1619527    0.1026234  44.63 0.0009106417    1.691    0.409
        15  -8.1346    153.6777    216.8773   7.2459444491e+01   7.6391297243e+00    0.3782539    0.1726489  42.81  0.001742946    1.863    0.463
        16 -10.6980    120.2197    213.1905   7.8579170047e+01   1.4136080675e+01    0.4908196    0.3513551  55.18  0.002877516    1.193    0.162
        17  -9.8286    111.5263    215.7093   8.0623760740e+01   1.5112141032e+01    0.4062682    0.2115335  36.52  0.001983464    1.999    0.500
        18 -14.6719     10.1698    207.1632   9.8992528544e+01   3.0205314726e+01     4.759842     1.890369 -76.22   0.02720533    2.083    0.520
        19  -7.6606    166.8081    227.9922   7.1547977918e+01   3.5145766624e+00    0.1946905    0.1262184  57.33  0.001064204    1.632    0.387
        20  -7.7307    237.7225    212.3374   5.5930860962e+01  -6.3026198972e+00    0.1047004    0.1004486 -83.33 0.0002663585    1.614    0.380
        21  -8.8164    107.2677    212.2839   8.1046543293e+01   1.6460892092e+01    0.2751378    0.1178763  56.82  0.001167538    2.466    0.594
        22  -9.1534    134.8669    209.2518   7.5098632181e+01   1.2337125911e+01    0.2467369    0.1753242  30.97  0.001175291    1.566    0.362
        23 -10.0988    123.7316    205.9355   7.6892051218e+01   1.4912006170e+01     0.453536    0.2408369  44.44  0.001467781    1.648    0.393
        24  -7.7659    243.6287    205.1785   5.3614717126e+01  -6.3069686183e+00    0.1676136    0.1050109 -17.66 0.0004801336    1.643    0.391
        25  -8.5353     73.0057    204.7589   8.7016256376e+01   2.3203243866e+01    0.2191823       0.1532 -89.77 0.0006563734    1.316    0.240
        26  -7.2650     68.3841    203.4636   8.7800345959e+01   2.4116655217e+01    0.1224581   0.09888185  77.73 0.0001808476    1.040    0.039
        27  -7.6320     90.4018    202.1749   8.3223194699e+01   2.1147913077e+01    0.1794445    0.1108925 -83.80 0.0009439157    1.748    0.428
        28  -8.9740     30.9154    197.7912   9.4589407898e+01   2.9947949693e+01    0.1763774    0.1267216  89.18  0.000527851    1.119    0.106
        29  -7.2126    128.4881    196.4812   7.4537971692e+01   1.5915924543e+01    0.1379284    0.1188836  61.99 0.0008101356    1.026    0.025
        30  -8.1852     61.0202    193.8002   8.8293791665e+01   2.7129915453e+01    0.3234248    0.1966679 -76.44  0.001858065    1.516    0.340
        31  -8.0533     57.4538    194.5388   8.9092713646e+01   2.7443463141e+01    0.2118122     0.153953  50.00 0.0005616247    1.327    0.247
        32  -7.3015     93.9557    194.9636   8.1597163140e+01   2.2076670844e+01    0.1550378    0.1273381  63.27 0.0002966912    1.059    0.056
        33 -14.9838     10.8846    247.3690   1.0088259733e+02   2.2716239780e+01      2.06543    0.5361891 -68.54  0.004229015    3.646    0.726
        34  -7.9854     26.8013    187.7972   9.4609832782e+01   3.2473540277e+01    0.1830246    0.1313596  74.36 0.0006079143    1.102    0.093
        35  -9.2413     34.6402    192.2222   9.3428555341e+01   3.0692639297e+01    0.5930704    0.2622228 -82.69  0.002626615    2.087    0.521
        36  -7.7373     30.5310    187.4621   9.3847035727e+01   3.2147680159e+01    0.2058983    0.1407923 -82.45  0.001043474    1.219    0.179
        37  -8.1615     70.2255    189.0395   8.5871044261e+01   2.6885131012e+01    0.1822804    0.1601885 -58.29  0.001180972    1.421    0.296
        38  -8.1547     38.7704    177.4902   9.1279275389e+01   3.3386393697e+01    0.2676406    0.1428304  44.72  0.001023471    1.813    0.449
        39 -10.1318     63.9511    177.4686   8.5870490471e+01   3.0273991238e+01    0.7028582    0.4394409  36.36  0.003269421    1.784    0.439
        40  -8.4642     62.9703    189.2576   8.7413509139e+01   2.7836191335e+01    0.3402573    0.1889475  38.34  0.001381365    1.891    0.471
        41  -9.9098     46.8658    177.0455   8.9518872751e+01   3.2543147823e+01    0.9167015    0.4580385  53.75  0.004821068    1.878    0.468
        42 -10.6785     57.6719    183.3150   8.7884019681e+01   2.9820980509e+01    0.5938625     0.330856 -86.66  0.003115075    1.778    0.438
        43 -10.2093     52.4379    182.3125   8.8883519722e+01   3.0706714189e+01    0.6178169    0.3022627  74.68  0.002740521    2.396    0.583
        44  -8.9499     43.9308    185.5262   9.0972995023e+01   3.1046521905e+01    0.3447686    0.1958014  83.14  0.001506475    1.657    0.396
        45  -7.8260    122.6524    186.6634   7.4276902295e+01   1.8946248574e+01    0.1339159    0.1116909  -2.87 0.0007047763    1.779    0.438
        46  -8.3820     38.3691    183.4053   9.1916023575e+01   3.2147726719e+01    0.2404202    0.1395155  61.20 0.0007931108    1.544    0.352
        47  -9.6557    143.9465    179.0954   6.8375946123e+01   1.6525130028e+01    0.2324783     0.212404 -62.55 0.0002815911    1.168    0.144
        48  -9.1051     70.4337    178.9758   8.4634285038e+01   2.9046635194e+01    0.3284841    0.2327797 -55.75   0.00119167    1.568    0.362
        49  -8.3695    149.5324    176.5111   6.6693582060e+01   1.5960367614e+01    0.2664549    0.2316804   9.47 0.0006678297    1.401    0.286
        50  -8.2856     88.3045    175.0904   8.0147277598e+01   2.7247864292e+01    0.3336999    0.1939653  27.03  0.001505923    2.460    0.594
        51  -7.4175     77.4936    174.4672   8.2491780877e+01   2.9030620313e+01    0.1325283    0.1146109  82.95 0.0004381244    1.039    0.038
        52  -7.9420     34.1469    172.6774   9.1797099241e+01   3.4952495854e+01    0.1990481    0.1235148  64.31  0.001186652    1.465    0.318
        53  -8.0516    103.9051    171.8661   7.6121071550e+01   2.5407493994e+01    0.2011144    0.1964041 -52.32 0.0008991755    1.251    0.201
        54 -15.7674      4.5361    241.4861   1.0158981489e+02   2.4383444608e+01      3.10954     1.256601  32.32  0.007127624    3.513    0.715
        55 -10.5365     81.9054    158.6854   7.9202277612e+01   3.1952368570e+01    0.8142098    0.6413631 -87.50  0.002879806    1.185    0.156
        56  -9.9511     74.9540    124.9548   7.5151768608e+01   4.0910251966e+01     1.076455    0.4275113  23.59  0.003061995    6.010    0.834
        57 -12.2743     57.4905    131.0666   8.0951314760e+01   4.1825339180e+01     2.425618     1.176336  83.22  0.007928425    4.569    0.781
        58 -11.1544     71.2925    151.2008   8.0621965632e+01   3.5248305896e+01    0.5650269    0.3946912 -66.10  0.001386315    1.306    0.234
        59 -10.2305     70.5190    145.5009   7.9924118710e+01   3.6691730121e+01    0.3556626    0.2906613  66.83  0.001140577    1.194    0.163
        60  -9.2566     51.8173    163.8555   8.6956196647e+01   3.4895246981e+01    0.6930414    0.2511636  61.75  0.002281736    4.698    0.787
        61  -8.3374     59.5654    169.7445   8.5914390527e+01   3.2582092032e+01    0.2319025    0.1536012  81.20 0.0007669014    1.448    0.309
        62  -6.8075     56.6873    170.3341   8.6629373372e+01   3.2821270194e+01    0.2069815    0.1029709  46.67 0.0006322042    1.922    0.480
        63  -7.9150    149.9576    169.7536   6.5340872855e+01   1.7251876042e+01    0.1963709    0.1179626  43.65 0.0008784591    1.571    0.364
        64  -9.3519     87.3819    168.2887   7.9369419654e+01   2.8914809608e+01    0.3276047    0.2490539 -65.90 0.0002840122    1.277    0.217
        65  -7.2652    142.6760    168.2907   6.6685105332e+01   1.9002204977e+01    0.1486868    0.1102386  75.61 0.0002040567    1.612    0.379
        66  -7.7864     32.7762    168.1068   9.1651018703e+01   3.6109188887e+01    0.1839909     0.124917  78.12 0.0005212817    1.268    0.211
        67  -7.8189      1.4199    166.9473   9.8125254442e+01   3.9255652767e+01    0.1688334   0.08353798 -79.26 0.0005949468    1.547    0.354
        68  -8.2949     48.3096    243.4741   9.4744553006e+01   1.9126737279e+01    0.1642137    0.1178411  73.39  0.000315525    1.063    0.060
        69  -9.0327     76.8974    234.0640   8.9089269438e+01   1.7007286293e+01    0.2239584    0.1521294 -75.66 0.0006597167    1.520    0.342
        70  -8.3096    237.2662    231.2415   5.9246891550e+01  -8.6022940259e+00    0.1481182    0.1254739  36.50  0.000566114    1.356    0.262
        71  -7.8184     52.0313    153.7817   8.5649076645e+01   3.7177870757e+01    0.1698261    0.1475803  88.34  0.001093457    1.073    0.068
        72 -10.0010     59.0019    152.9213   8.3862742026e+01   3.6506202010e+01    0.5604474    0.2749062  66.13  0.001875376    2.692    0.629
        73 -10.1955     54.2475    146.4337   8.4117527798e+01   3.8614258213e+01    0.6454413    0.3114819 -53.23  0.003046467    2.056    0.514
        74  -9.8348     48.0872    145.9185   8.5563424967e+01   3.9470237474e+01    0.4781057    0.2295588  55.77  0.002065843    2.317    0.568
        75  -8.1819    229.9583    152.9827   4.5605087573e+01   3.9957713642e+00    0.2063733    0.1953565  -5.09 0.0004126482    1.058    0.055
        76  -9.0371     88.4022    151.3128   7.6432244764e+01   3.2646957400e+01     0.288848    0.2807958  15.06 0.0005921675    1.282    0.220
        77  -8.8000     91.3496    147.8205   7.5098058633e+01   3.2984777155e+01     0.279963    0.2134055  55.83  0.001007915    1.300    0.231
        78 -10.3730     28.4828    149.9382   9.0748875625e+01   4.0632668143e+01    0.4444319    0.2657302  41.35  0.002623457    1.795    0.443
        79  -8.0308      1.6621    151.8582   9.6968711678e+01   4.2498449114e+01    0.1822967    0.1046008 -71.53 0.0008785449    1.395    0.283
        80  -8.6971     37.0904    150.6731   8.8810938116e+01   3.9590815199e+01    0.1988716    0.1339213  62.01  0.001179346    1.457    0.313
        81  -8.3227    133.7022    147.5681   6.4664850293e+01   2.5272121180e+01    0.4441084    0.1341065 -49.54  0.001380447    3.354    0.702
        82  -8.2013    185.4669    228.6027   6.8131895801e+01   2.0125546555e-01    0.2483145    0.2070043 -62.38  0.001593854    1.614    0.380
        83  -7.9414     96.1748    144.2141   7.3235526976e+01   3.3025802113e+01    0.1923706    0.1555205  86.07 0.0004073137    1.255    0.203
        84  -7.2189    242.3886    141.8097   4.1003669060e+01   3.4068882636e+00    0.1912304    0.1234512 -24.68 0.0005445092    1.550    0.355
        85  -7.4672    102.4758    138.4707   7.0531473050e+01   3.3278128544e+01    0.1469025    0.1341422 -88.93 7.188124e-05    1.026    0.025
        86  -9.6907     90.6802    136.4070   7.3168197758e+01   3.5768367832e+01     0.257191    0.2339328 -71.71 0.0002607311    1.052    0.049
        87  -9.1674    155.6225    133.6916   5.6424340356e+01   2.3667916357e+01    0.3737311    0.3307328 -28.14  0.001014832    1.234    0.190
        88  -8.1271     29.5974    135.2907   8.8776840438e+01   4.3885633845e+01    0.2069759    0.1300504  47.00 0.0007919898    1.706    0.414
        89  -8.7967     47.7464    132.7336   8.3777076838e+01   4.2594250057e+01    0.3130771    0.1508284  47.51  0.001258411    2.235    0.553
        90 -10.0422     12.1005    129.9999   9.2529815554e+01   4.6586668908e+01    0.4132025    0.2430179  71.42  0.002414748    1.755    0.430
        91  -9.5307     12.9927    124.2690   9.1665026938e+01   4.7819393819e+01    0.3282053    0.1659709 -50.01  0.001790977    2.008    0.502
        92  -9.6654     30.2443    129.6314   8.7886736214e+01   4.5133743000e+01    0.4235014    0.1881845  66.17  0.001724411    3.407    0.706
        93  -9.4302     41.1046    129.1816   8.4991104024e+01   4.4155590949e+01    0.2969646    0.2259805  73.57 0.0003305269    1.327    0.247
        94  -9.4583     41.2508    125.5775   8.4415619553e+01   4.4983820471e+01    0.2252501    0.1721982  -2.39  0.001311211    1.930    0.482
        95  -7.4669    112.5178    128.5255   6.5853371991e+01   3.3748661747e+01    0.1478294    0.1425727 -68.44 0.0008091677    1.059    0.056
        96  -8.3805     99.0451    124.4904   6.8523273274e+01   3.7145692367e+01    0.2479815    0.1945224 -41.67 0.0004717648    1.360    0.265
        97 -11.0874     71.1465    137.6730   7.8474617648e+01   3.8447643276e+01    0.8858742    0.5291036  82.52  0.003396786    2.246    0.555
        98  -9.3835    141.1087    228.8795   7.6558119623e+01   7.7967099192e+00    0.2647971    0.1818818  65.62  0.001521792    1.556    0.357
        99  -8.2124      5.7519    120.7374   9.3124937181e+01   4.9131420929e+01    0.1634328    0.1129003  79.74  0.001064732    1.368    0.269
       100  -8.9796     63.3658    118.9857   7.7215668651e+01   4.3927408608e+01    0.3137214    0.2069449  62.79  0.001108318    1.795    0.443
       101 -10.0910     61.7797    114.4037   7.6783501703e+01   4.5212821409e+01    0.2441572    0.2046251 -69.12 0.0002708975    1.055    0.052
       102  -8.2529    134.0009    118.9893   5.8115851488e+01   3.1575700689e+01    0.2315797    0.1914977  -0.61 0.0004850405    1.585    0.369
       103  -9.9626     70.2160    168.7888   8.3382260180e+01   3.1354339785e+01    0.3581825    0.2824706 -36.73  0.002047187    1.792    0.442
       104  -7.2792    108.0135    117.9801   6.4643314308e+01   3.7027757236e+01    0.1729842    0.1655921 -81.85  0.000314282    1.018    0.018
       105  -8.7303     72.9507    116.7585   7.4078957828e+01   4.3134350256e+01    0.3640461    0.1809724 -61.61 0.0008603761    1.883    0.469
       106  -9.9258     74.3431    164.3630   8.1825904723e+01   3.1771833908e+01    0.4031251    0.3068776 -69.97  0.001157512    1.223    0.183
       107  -8.5650      2.9149    112.9095   9.2993355649e+01   5.1070795049e+01    0.2719527    0.1441611  27.59  0.001621946    2.341    0.573
       108  -8.7901    118.4947    110.4827   6.0008816049e+01   3.6692703575e+01    0.3565387    0.2104615  70.51  0.001265079    2.933    0.659
       109  -8.2686     29.7737    109.0861   8.5034984655e+01   4.9933846679e+01    0.2976682    0.1212713  54.15  0.001197027    3.660    0.727
       110  -8.7012     45.0278    106.4987   8.0143303333e+01   4.9040308761e+01    0.1741589    0.1309541  31.09  0.001026733    1.571    0.364
       111  -8.6843    118.9916    102.1267   5.7710954456e+01   3.8445904871e+01    0.3653711    0.1986088  65.21  0.001241219    3.122    0.680
       112  -8.2674    112.6056    101.1679   5.9197359976e+01   3.9942612633e+01    0.2014251      0.13842 -38.11 0.0001167719    1.512    0.338
       113  -7.7410     29.0185     98.7175   8.3523984220e+01   5.2378143220e+01     0.164737    0.1482118 -59.88 0.0004430078    1.122    0.109
       114  -7.6490    139.2006     78.0493   4.5561117460e+01   3.8983485120e+01     0.207304    0.1215727 -38.50 0.0005150552    1.713    0.416
       115  -8.2730    132.0358     75.2657   4.6523768940e+01   4.1170060476e+01    0.2348637    0.2114966 -36.67 0.0003340433    1.107    0.097
       116  -7.9577    205.4584     74.9780   3.1015590297e+01   2.3144254854e+01    0.2103113    0.1929968  69.52  0.000214648    1.099    0.090
       117  -7.0045    100.6190     75.7709   5.5408187884e+01   4.7674881304e+01    0.1441037    0.1105719  10.47  0.000689349    1.618    0.382
       118  -7.4371    218.0233     71.6778   2.8139819207e+01   2.0611300319e+01    0.1944467    0.1822931 -87.33 0.0002391402    1.057    0.054
       119  -7.5739    104.4939     70.4873   5.2615511377e+01   4.7975099729e+01    0.1471033    0.1364113 -10.72 -0.0001140137    1.072    0.067
       120  -7.6658     28.1859     70.3418   7.8028483660e+01   5.8739242051e+01    0.1492881    0.1089572  37.64 0.0004579936    1.679    0.404
       121  -8.8171    102.4001     63.5372   5.0990326831e+01   4.9717406669e+01    0.2796378    0.2209577 -33.43 0.0009774293    1.227    0.185
       122  -8.0684    143.9544     59.7160   3.8721859032e+01   4.1164668482e+01    0.2631163    0.1876678 -52.50 0.0006781449    1.551    0.355
       123 -10.2577    186.9226     55.4618   2.8794394604e+01   3.0996548306e+01    0.4496298    0.2979905  62.45  0.001082952    1.476    0.322
       124 -11.6211    199.0545     46.4577   2.4317916685e+01   2.9241649104e+01     1.001511    0.9305438  21.47  0.005634501    1.264    0.209
       125  -7.2606     99.5508     47.5935   4.6352836247e+01   5.3097401144e+01     0.138664    0.1282381   5.35 7.065078e-05    1.015    0.014
       126 -10.9776    207.7978     38.5927   2.0948679014e+01   2.8132196304e+01     0.624857     0.569288  75.39  0.001336762    1.092    0.084
       127  -8.7881    221.4394     40.0900   1.9578484697e+01   2.4533865021e+01    0.2713465    0.1952106  86.81 0.0007667739    1.403    0.287
       128  -7.9115    150.9724     39.3055   3.0598482561e+01   4.2585310018e+01    0.2048582    0.1766163  57.31  0.000353138    1.099    0.090
       129  -8.7999    141.3223    250.1885   7.9141260253e+01   4.3817782614e+00    0.2135181    0.1362762  38.45 0.0009115814    1.370    0.270
       130  -6.6988     90.2983    246.6573   8.7835775809e+01   1.2869308552e+01    0.1220406   0.06919248  67.59 0.0005397767    1.669    0.401
       131  -8.5924    187.2113     16.8557   1.7737000923e+01   3.6108776288e+01    0.2250135    0.2109953  19.64 0.0004526463    1.262    0.208
       132 -10.2280    107.5359    242.4704   8.4376745453e+01   1.0979663460e+01    0.2283916     0.207175 -78.89 0.0005658713    1.349    0.258
       133  -7.3938     79.5083    244.4496   8.9522677012e+01   1.4799816037e+01    0.1168995    0.0859651  63.38  9.17733e-05    1.007    0.007
       134  -7.6498     71.5488    243.7165   9.0837815316e+01   1.6037366575e+01    0.1694458    0.1002168 -70.29 0.0005038838    1.813    0.448
