#   1 NUMBER                 Running object number                                     
#   2 MAG_AUTO               Kron-like elliptical aperture magnitude                    [mag]
#   3 X_IMAGE                Object position along x                                    [pixel]
#   4 Y_IMAGE                Object position along y                                    [pixel]
#   5 X_WORLD                Barycenter position along world x axis                     [deg]
#   6 Y_WORLD                Barycenter position along world y axis                     [deg]
#   7 A_WORLD                Profile RMS along major axis (world units)                 [deg]
#   8 B_WORLD                Profile RMS along minor axis (world units)                 [deg]
#   9 THETA_WORLD            Position angle (CCW/world-x)                               [deg]
#  10 FWHM_WORLD             FWHM assuming a gaussian core                              [deg]
#  11 ELONGATION             A_IMAGE/B_IMAGE                                           
#  12 ELLIPTICITY            1 - B_IMAGE/A_IMAGE                                       
         1 -14.7153     15.3201     24.1485   4.4924154249e+01   7.4008811019e+01     3.365405      2.16581 -32.87   0.01834077    1.489    0.329
         2 -12.1487     65.2106     17.2880   1.2818148536e+01   6.6172312365e+01    0.7424775    0.4287561  52.59  0.001691359    1.573    0.364
         3 -13.2665     48.5750     39.7514   3.1712750550e+01   6.6060722065e+01     2.059455     1.279974 -17.05  0.008916192    2.326    0.570
         4 -15.0748     69.5929     37.7217   2.1399141498e+01   6.2245579346e+01     3.503561     2.148865  28.51   0.01545925    2.053    0.513
         5 -12.5886     76.1375     13.2172   7.1616391838e+00   6.4094460182e+01    0.4212874    0.2899924  65.44  0.001054578    1.376    0.273
         6 -15.1302     90.8638      6.1780   1.6107459163e-01   6.1183576154e+01     3.814431     1.327389  73.04   0.01410276    2.938    0.660
         7 -12.6908    148.0858     30.8101   1.9785827930e-02   4.4343473014e+01     1.287308    0.7847975 -76.17  0.006197086    1.832    0.454
         8 -12.3293    241.7979     22.9283   3.4985029391e+02   2.5534632436e+01    0.5682691    0.2288702 -53.79  0.001827908    1.967    0.492
         9 -11.5237    150.9221     19.6992   3.5615988589e+02   4.4945754657e+01    0.5124142    0.3789465 -79.30  0.002069292    1.270    0.212
        10 -11.6402    208.0775     17.6698   3.5066519291e+02   3.2449311707e+01    0.4147564    0.2333924 -52.79  0.001242849    1.425    0.298
        11 -12.3330    245.9297     15.0418   3.4803404473e+02   2.5656206524e+01    0.4670232     0.346659 -71.73  0.003554002    1.256    0.204
        12 -11.6445    174.0401     12.7641   3.5187201625e+02   4.0263976060e+01    0.6911545    0.3146022 -68.83  0.001954597    2.341    0.573
        13 -12.0742    183.7819      9.9335   3.5037310655e+02   3.8374204957e+01    0.8808926    0.4578285 -47.94  0.002831994    1.594    0.373
        14 -10.5426    202.2186     11.3402   3.4952119610e+02   3.4305501061e+01    0.2181723     0.170577 -61.73  0.000551185    1.028    0.027
        15  -9.5786    155.4954      9.9175   3.5266274639e+02   4.4855082285e+01    0.1809228    0.1162736 -35.67 0.0005233291    1.499    0.333
        16 -11.9373    148.5905      7.1832   3.5247019344e+02   4.6765923743e+01    0.5484609    0.3305177 -89.68  0.001178007    1.568    0.362
        17 -11.9926    137.7479      4.3316   3.5262049611e+02   4.9657217431e+01    0.4482369    0.3102769 -73.65 0.0007357842    1.348    0.258
        18  -9.6817    199.8743      4.5711   3.4802124287e+02   3.5460607359e+01    0.2628184   0.09922369 -45.61  0.001313821    1.993    0.498
        19 -10.3585    244.5364      3.4930   3.4576810432e+02   2.7058855923e+01     0.163136   0.08587428  67.28   0.00103205    2.325    0.570
        20 -10.8111    215.6261      2.3499   3.4671593002e+02   3.2500598168e+01    0.2131815    0.1502679 -58.67 0.0004415236    1.085    0.078
        21 -10.6447    166.6929      2.2595   3.4949009456e+02   4.2947901282e+01    0.3644508    0.2108271  87.32   0.00200071    1.602    0.376
        22  -9.2391    235.6898      1.3239   3.4565922357e+02   2.8832431275e+01    0.1207209   0.05410969 -54.64 0.0004014088    1.653    0.395
        23 -10.3901    178.1857      8.3185   3.5034134636e+02   3.9773300890e+01    0.2714169    0.1972139 -65.09 0.0007450936    1.162    0.139
        24 -13.1696     78.3531     60.2931   2.7522774469e+01   5.6229727092e+01     2.665921     1.210942  52.55  0.009875758    2.457    0.593
        25 -12.6450     16.9517    100.3558   6.5485821288e+01   5.5022068980e+01     1.994625    0.7048746 -38.28  0.006456938    3.661    0.727
        26 -12.3171     35.7266     99.0276   5.7051396985e+01   5.3659276127e+01     1.366244    0.9699341  45.45  0.006647357    1.494    0.331
        27 -11.9276      2.3912     96.7946   7.1474755161e+01   5.6886629972e+01    0.9747753    0.3885124 -88.08  0.003198531    2.578    0.612
        28 -12.9500      5.8508     87.4951   6.8745326861e+01   5.9244655879e+01     1.372384    0.6922025  89.14  0.005847485    2.118    0.528
        29 -10.1433    171.9135    101.9846   1.6260981417e+01   2.7754703998e+01    0.3610268    0.2141486  63.30  0.001629088    2.174    0.540
        30 -11.6944    113.5260     96.5485   2.8086801191e+01   4.1069254336e+01    0.8952389     0.435214 -50.07  0.003404175    2.064    0.515
        31 -11.4792    117.3671     65.7659   1.7522111136e+01   4.6440884705e+01     0.779324    0.5113024  -8.37  0.003062221    2.669    0.625
        32 -11.6316    128.5976     81.2542   1.9652269004e+01   4.0944037513e+01    0.4909565     0.419369 -16.33  0.002182065    1.361    0.265
        33 -13.7469    119.7769     77.7321   2.0769719175e+01   4.3620881910e+01     1.485722     1.168977 -31.32  0.004247978    1.354    0.261
        34  -9.4013    146.4083     95.9748   1.9774676460e+01   3.4164875915e+01    0.2244405    0.1946478  55.26 0.0004959306    1.226    0.184
        35 -10.7448    204.5217     93.4725   9.0378959936e+00   2.2929199760e+01     0.383656    0.3051704  89.16  0.002294673    1.571    0.364
        36 -10.3590    200.9901     92.5063   9.3044044922e+00   2.3735903686e+01    0.2774771    0.2478883  66.80  0.001038996    1.311    0.237
        37  -9.2880    191.3035     94.0401   1.1084039275e+01   2.5322779232e+01    0.1871862    0.1602153 -41.20 0.0005349251    1.018    0.018
        38 -10.0031    163.4642     92.2970   1.5350255146e+01   3.1239305137e+01    0.2523576    0.1936781  53.54 0.0006905798    1.420    0.296
        39 -10.1180    144.7462     91.0995   1.8802178492e+01   3.5465822188e+01    0.2617201    0.2104023  53.51 0.0006807538    1.316    0.240
        40  -9.4172    157.3586     87.9712   1.5361020128e+01   3.3321582326e+01    0.1966263    0.1711245 -42.80 0.0003717309    1.070    0.066
        41  -9.7619    152.6212     87.8170   1.6252876425e+01   3.4373822877e+01    0.2446569      0.20665  57.80 0.0006925407    1.263    0.208
        42 -12.4380    248.7014     84.2508   1.9663042546e+00   1.6815092122e+01    0.5057601    0.2627571 -41.89   0.00227471    1.438    0.305
        43 -11.5862    245.8790     79.6221   1.2906145909e+00   1.7879865952e+01     0.365309    0.1922416  53.04  0.001639361    2.475    0.596
        44 -10.6883     97.5985     83.8886   2.9059160307e+01   4.7204709650e+01    0.6068213    0.3883427 -35.74  0.002611006    1.704    0.413
        45 -10.4487    174.5334     81.1826   1.0504970558e+01   3.0843576037e+01    0.3381683    0.2276896 -59.96  0.001208693    1.585    0.369
        46  -9.2816    178.1125     78.3651   9.2036164511e+00   3.0556953206e+01    0.1881602    0.1376863  66.73 0.0004502273    1.529    0.346
        47 -10.4428     32.6802     78.5766   5.3832112695e+01   5.9439088613e+01    0.3552851    0.3000325  61.29  0.001234184    1.330    0.248
        48 -12.0079    234.5474     74.7466   1.3578047041e+00   2.0391722445e+01    0.4695273    0.2743825 -57.52  0.002436574    1.730    0.422
        49 -11.3782    249.7982     74.2193   3.5983394042e+02   1.7982114454e+01    0.2746221    0.2085245 -63.17  0.001196768    1.354    0.261
        50 -10.0200    205.8854     75.5062   4.6658465277e+00   2.5433454874e+01    0.2987793    0.1908472 -74.65  0.001544285    2.035    0.509
        51  -9.9752    103.6413     76.0526   2.4699322909e+01   4.7566776741e+01    0.3370375    0.2664984 -66.11 0.0009029037    1.408    0.290
        52 -12.9085     96.5008     70.7481   2.5107850317e+01   5.0220389646e+01    0.5585489    0.3363623  43.00 0.0005495661    1.705    0.414
        53 -12.1481    104.7727     64.6248   2.0513043670e+01   4.9565646760e+01      1.08639    0.6418958 -41.87  0.003380225    1.683    0.406
        54  -9.8981     84.8606     75.7754   3.0681918830e+01   5.1626806202e+01    0.3125501    0.2277071 -51.26   0.00146778    1.378    0.274
        55  -9.1092    196.1373     74.1249   5.5647921261e+00   2.7540424399e+01    0.1880399    0.1354436 -59.05 0.0004614663    1.352    0.260
        56  -8.8818    143.9938     73.4477   1.3904928414e+01   3.8893821935e+01    0.1920227    0.1439289  60.88 0.0001150989    1.393    0.282
        57  -9.7655    218.5694     71.4739   2.2791784368e+00   2.3650691630e+01    0.2080599    0.1241268  64.63 0.0007133972    2.009    0.502
        58  -9.8839     29.2939     70.2960   5.3362758308e+01   6.1936021404e+01     0.229975    0.2019604  21.88 0.0006116589    1.195    0.163
        59 -11.4354    193.5373    248.9931   3.9699420130e+01   4.0675468320e-02    0.3816625    0.1595796  13.88  0.001910559    2.677    0.626
        60 -10.4369    200.6496    235.9062   3.6632990939e+01   1.0335344269e+00    0.1984949    0.1238991   9.31  0.001201038    1.365    0.267
        61  -9.5873    244.8043    181.6050   2.0908505293e+01   3.6743289149e+00    0.1306314    0.1033211  34.71 0.0009544867    1.722    0.419
        62 -10.5373    227.5045    178.9838   2.3008485604e+01   6.0311445129e+00    0.2878906    0.2381461 -48.10   0.00183565    1.652    0.395
        63 -10.3931    126.5151     66.0243   1.5397557471e+01   4.4255874052e+01    0.3155816    0.2775062 -46.11   0.00094152    1.110    0.099
        64 -10.5440    126.1352     62.1942   1.4239116081e+01   4.5015676964e+01     0.400153    0.2986594  79.78 0.0009321915    1.519    0.342
        65 -10.8077    124.8650     57.3661   1.2925598093e+01   4.6136365975e+01    0.5668643    0.3559522 -88.45  0.001515257    2.373    0.579
        66 -11.3722      2.4908    170.1556   7.6643687647e+01   3.7193685697e+01    0.3981805    0.1488495  86.70  0.001589319    2.637    0.621
        67 -12.0724    214.4814     60.6348   2.2576408072e-01   2.5919763318e+01    0.4080221     0.341512  87.69  0.001247452    1.323    0.244
        68 -11.2235     15.6356     59.5547   5.8063046864e+01   6.5936575871e+01    0.4071801    0.2877022 -77.12  0.002093724    1.509    0.337
        69 -13.4530      5.0816    141.7800   7.4252518414e+01   4.4438991882e+01     1.451584    0.6049206  78.64  0.005687763    2.521    0.603
        70  -8.9757    183.4756     57.4841   2.9866963638e+00   3.2629166636e+01    0.1338917     0.117123 -53.27  0.000621869    1.029    0.029
        71  -9.8247    173.9765     56.2027   3.9048791172e+00   3.4884787929e+01    0.2223418    0.1949473 -20.44  0.001207068    1.310    0.237
        72 -11.1660    249.9868     54.9995   3.5591340605e+02   2.0407527128e+01    0.2423135    0.1234542 -36.62  0.000853634    1.482    0.325
        73 -10.2915    169.7147     61.4296   5.9524329615e+00   3.5049673777e+01    0.2626668    0.2298809 -74.37 0.0008475382    1.107    0.097
        74 -11.7260    209.1359     54.3074   3.5928345189e+02   2.7806328131e+01    0.2784613    0.2280443  71.68 0.0007051075    1.396    0.284
        75  -9.4373    189.9472     56.4831   1.9253479285e+00   3.1398953680e+01    0.1867063    0.1282077  71.67  0.001032595    1.592    0.372
        76 -11.2838    133.9204     52.0964   9.2739045231e+00   4.4813511885e+01    0.3633953    0.2746725 -53.39 0.0003130932    1.295    0.228
        77  -9.9006    213.4920     50.2127   3.5789941567e+02   2.7501409804e+01     0.193427    0.1610824 -86.61 0.0004897713    1.273    0.215
        78  -9.3084    126.5399     50.4749   1.0234006126e+01   4.6845605323e+01    0.1424765    0.1372682 -83.38 8.053727e-05    1.039    0.038
        79 -11.3336    249.5782     46.7399   3.5426268404e+02   2.1481595364e+01    0.2867041    0.1817318 -46.73  0.001261875    1.158    0.137
        80 -11.2939    246.9207     42.6815   3.5361289920e+02   2.2407961921e+01     0.263801    0.2163098 -61.64  0.001041299    1.172    0.147
        81 -10.2127    147.4573     46.7394   5.1252479915e+00   4.2369251560e+01     0.327005    0.2681009 -22.94  0.001801286    1.376    0.273
        82 -12.5450    121.3731     44.4052   9.2186705303e+00   4.9026779278e+01    0.4601343     0.382881 -61.47  0.001118174    1.204    0.169
        83 -10.7818    138.8061     44.0703   5.7392626805e+00   4.4829959172e+01    0.5115482     0.339767 -24.01  0.002369929    1.723    0.420
        84 -13.4795     15.6897    147.0600   7.1110631035e+01   4.2276828702e+01     1.492158    0.6058342 -89.98  0.005657988    2.610    0.617
        85 -12.2026    157.3586     42.4236   2.2935412322e+00   4.0628332245e+01    0.5427678    0.3523927  58.02   0.00103721    1.609    0.379
        86 -11.6370    159.4998     36.2878   1.6970756784e-01   4.0935930467e+01    0.4820194    0.3069491  57.61 0.0006635503    1.657    0.396
        87 -10.1979    166.0658     34.9590   3.5895685383e+02   3.9574576161e+01    0.2601615    0.2028574  69.95 0.0008510602    1.314    0.239
        88  -9.4681    102.0920     44.5326   1.3857295136e+01   5.3683326577e+01     0.216016    0.1382225  56.42 0.0008050392    1.512    0.339
        89  -9.6347    203.8412     42.6545   3.5699842615e+02   3.0383989225e+01    0.1747495    0.1530901  49.67 0.0008748014    1.465    0.317
        90 -10.8514    180.0967     40.8878   3.5897688707e+02   3.5642248657e+01    0.2709785    0.2510324 -52.73 0.0006182826    1.135    0.119
        91 -10.8375    235.3970     41.6392   3.5418944800e+02   2.4519431473e+01    0.2178781    0.2021662 -82.95 0.0009210596    1.306    0.234
        92 -11.8475    228.1991     40.4288   3.5445255628e+02   2.5962138055e+01    0.4340336    0.2643908 -83.20  0.001139722    1.828    0.453
        93 -13.0295    213.6730     38.9976   3.5526649254e+02   2.8884773557e+01    0.3362214    0.2750973  74.17  0.000607131    1.399    0.285
        94 -10.5390    248.4304     37.2984   3.5241626447e+02   2.2785417920e+01    0.2906016    0.1238913 -56.46  0.001583859    2.090    0.521
        95 -12.1827    240.1885     34.2024   3.5229137582e+02   2.4552901604e+01     0.434729    0.2798375  62.83 0.0007749936    1.955    0.488
        96 -11.6054    247.9136     31.3600   3.5123935938e+02   2.3550202263e+01    0.3832758    0.2789623 -88.95  0.002023376    1.512    0.338
        97 -10.6139    130.5057     37.1526   4.8928963472e+00   4.7815998787e+01    0.3646548    0.2690412  49.54 0.0005802465    1.444    0.307
        98  -9.6099    135.7827     34.4012   3.0483945191e+00   4.6884721065e+01    0.2776585     0.209951  29.09  0.001266649    1.731    0.422
        99  -9.4444    211.8882     32.6000   3.5391241420e+02   3.0005551022e+01     0.244656    0.1096702 -58.48 0.0009373644    2.136    0.532
       100 -10.6407    217.2664     28.0530   3.5246388397e+02   2.9481556405e+01    0.3253245    0.1745803 -62.77  0.001108642    1.720    0.419
       101 -10.8377    168.4369     27.0166   3.5640622456e+02   3.9990695989e+01    0.3529269     0.213534  73.97  0.001193598    1.638    0.390
       102 -10.0373    107.9313     27.5302   5.7510095190e+00   5.4657099813e+01    0.3979169    0.2201048  78.93  0.001711502    2.099    0.524
       103  -9.4833     43.6680     27.5217   2.8090665722e+01   6.9140315084e+01    0.1301603    0.1221508 -13.34 0.0001848101    1.082    0.076
       104 -10.0818    230.0226     17.5267   3.4934119455e+02   2.8229391863e+01    0.2714534    0.1239915 -57.04  0.001065895    1.806    0.446
       105 -12.6928      7.1061    127.1283   7.2446611158e+01   4.8295158956e+01     1.057913    0.4163674  39.84  0.004273117    2.443    0.591
       106 -11.5108    234.9496     20.5164   3.4971406500e+02   2.7011168185e+01    0.3412166    0.2056927  74.63   0.00189225    1.878    0.467
       107  -9.6759    163.4824     21.9064   3.5545031040e+02   4.1723487757e+01    0.3223912    0.1728185 -17.40  0.001482554    2.416    0.586
       108 -12.5919    165.0600    145.5672   2.7683970282e+01   2.0767149550e+01    0.8891812    0.6541876 -67.71  0.003987377    1.908    0.476
       109 -12.7102    145.4614    147.4559   3.2384967101e+01   2.3775335871e+01    0.6373614    0.4766888  38.56  0.003293909    1.388    0.280
       110 -11.1625     58.9742    144.6519   5.6393060774e+01   3.8436137727e+01    0.5427962    0.3508931  51.78  0.002348721    1.613    0.380
       111  -9.4679    186.9594     18.4132   3.5235423858e+02   3.6800100268e+01    0.1779607       0.1119  80.29 0.0006799558    1.580    0.367
       112  -9.6803    179.4059     18.0784   3.5287997067e+02   3.8501715127e+01     0.236656    0.1463294  50.08  0.001266157    2.032    0.508
       113  -9.4475    138.8345     17.3485   3.5686501843e+02   4.8137503841e+01      0.18941    0.1098905  63.72 0.0006095073    1.639    0.390
       114 -13.5404     64.6199    118.3486   4.9648457668e+01   4.4675626258e+01     2.014261     1.146817 -59.86  0.008452525    1.692    0.409
       115 -11.2533     71.7351     94.5598   4.1239489080e+01   4.9691067568e+01    0.4610067    0.4007698 -61.63 0.0004968625    1.143    0.125
       116  -9.1860    161.7046     13.6576   3.5320182480e+02   4.3018044280e+01    0.2030531    0.1195216  74.60  0.001069768    1.622    0.383
       117  -9.4398    201.0043     67.5225   3.3473691485e+00   2.7557461214e+01    0.2629101    0.1306124  74.21   0.00119078    2.688    0.628
       118 -14.0236     79.3453    103.6592   4.0906771627e+01   4.6083873779e+01     2.260007     1.663204  20.51   0.01009719    1.581    0.368
       119 -11.8612     68.7580    104.6072   4.4985410726e+01   4.7638470250e+01    0.8289701    0.6100535  69.76  0.003748741    1.684    0.406
       120 -10.9944    124.7592    128.8282   3.3346692296e+01   3.1588666865e+01    0.5233775    0.3042433  37.26  0.001965179    1.796    0.443
       121 -10.1773    248.5214    129.5208   1.0932370538e+01   1.0517300979e+01    0.1181446   0.08851422 -32.15 5.226055e-05    1.019    0.019
       122 -11.9061     19.9317    124.0590   6.7361116697e+01   4.8234517191e+01    0.4415011    0.3381501 -47.07  0.002322547    1.349    0.259
       123 -12.8553     13.3444    118.8248   6.9301526055e+01   5.0174795300e+01    0.8209011    0.2754382 -74.22   0.00295552    2.619    0.618
       124 -11.3091     20.4886    116.7819   6.6261904537e+01   5.0205507483e+01    0.7392604    0.2740143  37.41  0.002784235    2.608    0.617
       125  -9.7373    168.0539    119.3657   2.1204433914e+01   2.5276319534e+01    0.2399771    0.1867212 -28.83 0.0009674382    1.256    0.204
       126 -11.1499     24.7626    111.5877   6.3836188766e+01   5.1285692652e+01    0.3359629    0.1973647  41.41  0.001522598    1.752    0.429
       127 -11.6959    247.8011    106.8866   6.5992638508e+00   1.3822989070e+01    0.4480596    0.2814135 -75.80  0.002368229    3.057    0.673
