#   1 NUMBER                 Running object number                                     
#   2 MAG_AUTO               Kron-like elliptical aperture magnitude                    [mag]
#   3 X_IMAGE                Object position along x                                    [pixel]
#   4 Y_IMAGE                Object position along y                                    [pixel]
#   5 X_WORLD                Barycenter position along world x axis                     [deg]
#   6 Y_WORLD                Barycenter position along world y axis                     [deg]
#   7 A_WORLD                Profile RMS along major axis (world units)                 [deg]
#   8 B_WORLD                Profile RMS along minor axis (world units)                 [deg]
#   9 THETA_WORLD            Position angle (CCW/world-x)                               [deg]
#  10 FWHM_WORLD             FWHM assuming a gaussian core                              [deg]
#  11 ELONGATION             A_IMAGE/B_IMAGE                                           
#  12 ELLIPTICITY            1 - B_IMAGE/A_IMAGE                                       
         1 -12.9848    232.8548    121.0310   7.6328259914e+01   1.0481225045e+01     2.624822     1.526139 -17.66    0.0121852    1.860    0.462
         2 -11.4545     62.3477     27.2438   8.8196874371e+01   6.3710539122e+01     1.604967    0.6855465  50.70  0.006500017    3.427    0.708
         3 -11.5766      2.4226      9.8928   1.0917873760e+02   7.3263813166e+01    0.9213471    0.2142945 -45.83  0.001227548    2.831    0.647
         4 -12.3197     10.4782     18.0040   1.0793676110e+02   7.1196947946e+01    0.5814864    0.5310842  29.82  0.002553178    1.446    0.308
         5 -11.4212     30.7878     38.5484   1.0559183353e+02   6.5437573001e+01    0.7379408    0.4078027 -48.19  0.001871408    1.438    0.304
         6 -11.5738     19.9017     27.8578   1.0684922800e+02   6.8555351905e+01    0.8044399    0.3674725 -38.93  0.001229905    2.004    0.501
         7 -10.6906     21.0770     22.4505   1.0430560435e+02   6.9525441674e+01    0.4518901    0.2802268 -51.27  0.001635863    1.283    0.221
         8 -11.4116     41.7366     21.5132   9.4234659916e+01   6.7570532475e+01     0.844584    0.5612119  12.17   0.00488004    1.852    0.460
         9 -10.8759     39.2884     15.9518   9.2788377382e+01   6.8848664577e+01    0.3035948    0.2379443  13.04 0.0004933398    1.394    0.283
        10 -11.1158     42.1079     10.1678   8.8612292365e+01   6.9454895269e+01    0.7043082    0.3590988 -25.56  0.002756139    2.064    0.516
        11 -11.8309     51.2358      8.9012   8.3889361177e+01   6.8370746507e+01    0.9108939     0.524813 -48.42  0.004693747    2.107    0.525
        12 -11.7022     32.5546     29.6775   1.0170822074e+02   6.7053040877e+01     1.482068     0.728233  -3.36  0.005029973    6.124    0.837
        13 -11.1729    247.9763     35.9118   5.2664399758e+01   1.8604647293e+01    0.6046318    0.3790507  28.26  0.002811352    2.184    0.542
        14 -11.3091     16.7984     51.8371   1.1500892166e+02   6.3740442824e+01     1.551623    0.3147262 -62.83  0.005829124    3.355    0.702
        15 -11.1777    245.9786     22.9659   4.9463916334e+01   2.0558127962e+01    0.3872496    0.2409692 -59.26  0.001923798    1.658    0.397
        16 -11.0785     31.2418     14.9495   9.6139129552e+01   6.9947000873e+01    0.6477816    0.2560903 -49.45  0.002713767    2.241    0.554
        17 -10.7586     58.2289     16.3097   8.4758402048e+01   6.6167609122e+01    0.3888652    0.3259232 -80.60  0.001419436    1.938    0.484
        18 -10.2634     59.0656     11.4952   8.2004956250e+01   6.6774492366e+01    0.2593373    0.2497502  20.81 0.0009849403    1.288    0.224
        19  -9.8958     86.6164     13.7442   7.3369827570e+01   6.1466602468e+01    0.2428163    0.1619904 -34.19  0.001245591    1.453    0.312
        20 -10.3129     19.6049     10.4877   9.9980966529e+01   7.1890089065e+01    0.3468176    0.2995869  23.11  0.002577799    1.449    0.310
        21 -10.3757     26.0761      7.4730   9.5097101866e+01   7.1790052839e+01    0.3347586    0.2486611  -4.92  0.000398546    1.390    0.281
        22 -10.6949     22.0222      3.5552   9.5217230362e+01   7.2861179568e+01    0.4447642    0.2665301 -21.22  0.002416994    1.676    0.403
        23 -10.7107     16.4074      3.4562   9.8286023591e+01   7.3408652478e+01    0.3087512    0.2644166 -28.14  0.001144953    1.166    0.142
        24 -10.5842     82.7663      7.7359   7.1618339822e+01   6.3007315159e+01    0.3759991    0.2649952  31.11  0.002071454    1.411    0.291
        25 -10.7816     68.9291      7.8531   7.6352886710e+01   6.5613677662e+01    0.4542767    0.2582418  30.43  0.002274107    1.940    0.485
        26 -11.3244     75.7661      3.8531   7.1876241989e+01   6.4849007696e+01    0.5851907    0.3752884  35.49  0.001426317    1.549    0.355
        27  -8.6639     57.5145      6.5289   8.0009151283e+01   6.7738735019e+01    0.2227139    0.1408273  -8.72  0.000758935    1.717    0.417
        28  -9.4790     59.4298      2.3349   7.6940875437e+01   6.7985043965e+01    0.3006194    0.1783156 -18.58  0.001146229    1.587    0.370
        29  -8.2003    198.0000      5.9732   4.9300297426e+01   3.4449377076e+01    0.2276067    0.0802405 -21.29 0.0007930628    2.878    0.653
        30  -8.6271    148.2069      5.8062   5.5775747969e+01   4.7748038538e+01    0.2006965    0.1539081  37.23 0.0003711408    1.308    0.235
        31  -8.5234    222.5539      3.5235   4.6245683037e+01   2.8324172671e+01    0.1372801    0.1258242 -59.39 0.0001192931    1.005    0.005
        32  -9.0420     35.1844      2.1976   8.7600749034e+01   7.1587003680e+01    0.1801909    0.1306172 -17.70 0.0007454506    1.186    0.157
        33  -9.8022     68.9034    240.0271   1.2446135085e+02   1.9982458647e+01    0.1932356    0.1433558  41.26 0.0005140726    1.510    0.338
        34  -8.8443    249.9069    250.0469   9.7034166835e+01  -6.7917435403e+00     0.162563    0.0868266  20.28 0.0008155404    1.642    0.391
        35 -10.3993    225.0690    247.6343   1.0037949930e+02  -3.1705409865e+00     0.261807    0.2151024  60.02  0.001808881    1.886    0.470
        36  -9.0212    232.0135    250.7764   9.9753060390e+01  -4.4173070803e+00    0.3207119   0.08600844  42.95  0.001228026    2.861    0.651
        37  -9.1651    233.6382    247.7706   9.9114999510e+01  -4.3856710893e+00    0.1727555    0.1424179 -29.05 0.0005441412    1.714    0.417
        38  -9.9282    233.8915    243.9643   9.8565588897e+01  -4.0909120932e+00    0.3237137     0.129864  39.28  0.001302504    1.845    0.458
        39  -9.1809    218.4387    250.1865   1.0170895217e+02  -2.4607332454e+00    0.2221947   0.09864375  30.85 0.0009854329    1.934    0.483
        40 -10.6436    166.3367    248.4996   1.0959152593e+02   5.3128766541e+00    0.1918838    0.1566842  43.60 0.0002593587    1.124    0.110
        41 -11.1735    139.8502    246.8154   1.1363921575e+02   9.3991181322e+00    0.3498467    0.2233127  27.44 0.0008492522    1.921    0.479
        42  -9.0873     87.4053    250.0134   1.2222497336e+02   1.6199784315e+01    0.1555384     0.108868  48.37 0.0005172769    1.216    0.178
        43  -8.0252     79.2923    250.6816   1.2352840950e+02   1.7138070739e+01     0.103859   0.05414715  63.51 0.0005285188    1.603    0.376
        44  -8.7695     72.8329    250.5988   1.2451758035e+02   1.7952617069e+01     0.140067    0.0710793  46.19 0.0004870043    1.474    0.322
        45 -10.2799     61.4391    248.4960   1.2613746420e+02   1.9631490770e+01    0.1986055    0.1590905  76.24 0.0006239584    1.279    0.218
        46 -10.5708     46.0664    249.9427   1.2853590296e+02   2.1188447512e+01    0.2900078    0.1225692  46.97  0.001860517    1.679    0.404
        47  -9.1997      1.5773    248.9390   1.3493229799e+02   2.5853614230e+01    0.1920236   0.08107124 -82.35  0.001433326    2.182    0.542
        48 -10.0262     51.5588    240.4069   1.2720757157e+02   2.1988978039e+01     0.171165    0.1428574  74.28 0.0004361012    1.335    0.251
        49  -9.3405    246.9870    238.8489   9.5906343980e+01  -5.4803871968e+00    0.1781009    0.1222983   8.29 0.0007835118    1.309    0.236
        50  -8.4492     35.5566    240.2538   1.2966068092e+02   2.3790003381e+01    0.1091352   0.07768884 -81.39 0.0004265725    1.543    0.352
        51 -10.3775     25.9485    239.0863   1.3106388687e+02   2.4977682216e+01    0.1994516    0.1859496 -55.83 0.0007030019    1.984    0.496
        52 -11.0259     34.9985    230.8792   1.2930270630e+02   2.5314034622e+01    0.3724778     0.275236  33.19  0.002945485    1.891    0.471
        53  -9.8531    238.8296    215.9048   9.3723173820e+01  -2.1973188292e+00     0.302341    0.1736688 -16.54  0.001120549    1.945    0.486
        54 -10.5709    245.0569    167.1382   8.4206643755e+01   2.1191449162e+00    0.7760847    0.3409177  33.64  0.003616072    2.267    0.559
        55 -10.4762    230.4144    233.2175   9.7600884463e+01  -2.6161635405e+00    0.4004143    0.2362391  55.58 0.0004200485    2.539    0.606
        56 -11.2260    234.1602    225.0768   9.5842417498e+01  -2.3927259073e+00    0.8417233    0.5033677  42.33  0.001780155    1.476    0.322
        57 -10.3253    233.9230    209.4417   9.3468999841e+01  -7.8742497271e-01    0.3620788    0.2044396  39.55   0.00102106    1.471    0.320
        58 -10.8973    235.1498    238.4605   9.7619026819e+01  -3.7815345192e+00    0.9172405    0.2410825  35.53  0.004052406    3.286    0.696
        59 -10.8454    241.5522    175.5831   8.6375478114e+01   1.7226804682e+00    0.5673451     0.295272 -19.40  0.002453239    2.092    0.522
        60 -11.6429    247.4953    204.4633   9.0541334154e+01  -2.3765467784e+00    0.8297071    0.3882292  -7.28  0.003826063    3.394    0.705
        61 -11.1963    237.0384    197.7869   9.1056695594e+01  -3.9215231535e-02      1.02127    0.4446745 -13.91  0.004230536    3.978    0.749
        62 -11.6018    249.5919    183.7648   8.6620274758e+01  -5.3768898005e-01    0.4396062    0.3152342   2.85  0.002735082    1.270    0.213
        63 -10.6272    239.2295    205.7608   9.2038936182e+01  -1.2319291118e+00     0.426344    0.2001488 -28.34  0.001536369    2.336    0.572
        64 -10.9243    242.9944    198.1516   9.0179606800e+01  -1.0267530202e+00    0.4366066    0.2670803   7.15  0.001687829    1.747    0.427
        65 -10.9755    245.9586    191.5621   8.8578095457e+01  -7.9664221171e-01    0.4452231    0.3459121   9.52  0.001840219    1.087    0.080
        66 -10.5082    248.5287    212.7789   9.1738785171e+01  -3.3489725345e+00    0.2901902    0.1855308  15.34 0.0004992871    1.385    0.278
        67 -10.6931    247.7104    175.8614   8.5454746715e+01   6.5277977043e-01    0.4693129    0.2380148 -16.99   0.00238931    2.187    0.543
        68 -10.1592    250.6178    171.8400   8.4240830227e+01   6.2455128628e-01    0.2814689    0.1102828 -27.49 0.0009823055    2.572    0.611
        69 -10.8738    244.8404    230.7132   9.5050179414e+01  -4.4714658955e+00    0.4258509    0.2312145  18.93  0.002336185    1.769    0.435
        70 -11.6504    245.2263    225.0433   9.4147395171e+01  -4.0142961239e+00    0.5176655    0.4623626 -51.19  0.004010077    1.990    0.497
        71 -11.2051    246.8299    218.0219   9.2826303621e+01  -3.5959805634e+00    0.2632194    0.1892723 -22.43  0.000789633    1.564    0.361
        72  -9.2690    134.9112    238.6957   1.1363265591e+02   1.1172410899e+01     0.151133    0.1339201  43.65 0.0003650711    1.246    0.197
        73  -9.2815     61.8661    239.0197   1.2551224304e+02   2.0989536367e+01    0.1706157    0.1117672  52.13 0.0006238226    1.192    0.161
        74  -9.7336      9.6968    238.7709   1.3346782261e+02   2.6630373728e+01    0.1614478     0.110771  71.33 0.0005667036    1.119    0.106
        75  -9.7929    148.6372    238.0107   1.1130613271e+02   9.2199916766e+00    0.2080168    0.1256118  44.02 0.0003786822    1.246    0.197
        76 -10.3607    184.0909    236.5175   1.0535045781e+02   4.0098636573e+00    0.2304386     0.164984  26.74 0.0004759302    1.310    0.236
        77  -9.0717     41.1366    236.3058   1.2861206341e+02   2.3792769860e+01    0.1710048   0.08993036  71.70  0.001231336    1.527    0.345
        78 -10.5393    159.1036    234.9826   1.0924604509e+02   8.0184295322e+00    0.2777059    0.1733194  43.42 0.0007695523    1.211    0.174
        79  -9.9198     91.1633    235.7918   1.2056672934e+02   1.7758521123e+01    0.1882261    0.1663067  30.87 0.0005186942    1.614    0.381
        80 -10.9112     87.2073    233.4464   1.2103290965e+02   1.8636773080e+01    0.4242042    0.1961146  55.07  0.001600471    1.695    0.410
        81 -10.0007     77.2754    235.2572   1.2279351554e+02   1.9653942407e+01    0.2658103    0.1522891  59.35  0.001033413    1.326    0.246
        82 -10.1199    140.2814    234.5610   1.1231746329e+02   1.0925939203e+01    0.3059502    0.1513058  46.89  0.001127487    1.531    0.347
        83  -9.9931    145.5282    230.4576   1.1099403201e+02   1.0681752863e+01    0.2242848    0.2058128  17.67 0.0007672608    1.369    0.270
        84  -9.2190    143.9107    225.8889   1.1075308720e+02   1.1552416519e+01    0.1733389    0.1338706  46.85 0.0003319275    1.030    0.030
        85 -10.4586    128.8695    233.8999   1.1414975820e+02   1.2714224124e+01    0.3044501    0.2049401  60.19  0.002136888    1.328    0.247
        86 -10.1768    124.0629    230.5806   1.1462229692e+02   1.3889493604e+01    0.2905551    0.1787993  34.22 0.0007613707    1.706    0.414
        87  -8.9394      3.7017    235.0984   1.3423169551e+02   2.7758310104e+01    0.1266057   0.08424152  73.27 0.0004752004    1.111    0.100
        88 -10.9219    204.6910    231.5170   1.0139085555e+02   1.4079237180e+00    0.3215373    0.1971306  38.84 0.0006208775    1.243    0.195
        89  -9.9725    177.7284    232.0892   1.0583319948e+02   5.5033245101e+00    0.2192123     0.168794  14.62  0.000591844    1.490    0.329
        90  -8.2953    152.9924    232.9329   1.1002429523e+02   9.2141280102e+00     0.129699   0.09978474  46.05 0.0003660121    1.014    0.014
        91  -8.2630    108.5207    232.9722   1.1745723788e+02   1.5787715615e+01     0.111199   0.09313159 -20.77 0.0004279001    2.122    0.529
        92  -9.3897    164.9952    232.2317   1.0795000396e+02   7.4573934816e+00    0.2587177    0.1149339  39.25   0.00101514    1.817    0.450
        93 -10.5242     55.2625    230.3366   1.2603969080e+02   2.3121608446e+01    0.2905696    0.2107408 -79.86  0.001525901    1.494    0.331
        94  -9.6249      9.7507    231.5929   1.3321834994e+02   2.7745678526e+01    0.1591071    0.1234602  83.15  0.000567966    1.355    0.262
        95 -10.3632    216.7813    230.2287   9.9296571117e+01  -2.9624210402e-01    0.2378791    0.1620329  24.90 0.0004643829    1.227    0.185
        96 -10.3987    228.2883    217.6214   9.5636146986e+01  -7.6178338622e-01    0.2628594    0.2044464   5.97  0.000561927    1.225    0.184
        97  -9.1987    210.8479    210.8176   9.7406612390e+01   2.7338606685e+00    0.1919111    0.1485303 -12.28 0.0006915563    1.435    0.303
        98  -9.6303    210.9830    215.8793   9.8149561134e+01   2.1371028213e+00    0.2225579    0.1690837  12.45 0.0003798419    1.291    0.225
        99 -10.5473    222.3835    225.1313   9.7686174087e+01  -6.2681223487e-01    0.3856897     0.179192  37.40  0.001409032    1.674    0.403
       100 -11.2973    216.4338    220.2636   9.7918422149e+01   7.9758685767e-01    0.4470824     0.332812 -28.69   0.00137181    1.617    0.381
       101 -11.1358    223.7901    213.3802   9.5699577324e+01   3.8342771512e-01    0.4565915     0.303179  -0.87  0.001979223    1.694    0.410
       102 -11.6948    216.8848    205.8407   9.5637787745e+01   2.3251837325e+00    0.4528053    0.3319258  -6.67  0.001823705    1.483    0.326
       103 -11.3792    224.7412    203.8192   9.4031498566e+01   1.2784128144e+00    0.4191755    0.3682059 -49.98   0.00117628    1.693    0.409
       104  -9.3780    187.2267    231.3503   1.0418603024e+02   4.1172647400e+00    0.2210396    0.1344388  35.97 0.0006945139    1.304    0.233
       105  -9.1390    191.0226    230.4812   1.0345487572e+02   3.6280419012e+00    0.2513781    0.1062849  37.80  0.001045112    1.905    0.475
       106  -9.7633    100.5942    230.2225   1.1853952027e+02   1.7305971245e+01    0.1865594    0.1753114  53.48 0.0006372474    1.403    0.287
       107 -10.4590    103.8586    227.8301   1.1777606258e+02   1.7209543731e+01    0.3061469    0.1730196  44.49  0.001138105    1.426    0.299
       108  -9.4472    134.4270    230.2681   1.1284248994e+02   1.2390570438e+01     0.210486    0.1177066  45.38 0.0007042424    1.369    0.269
       109  -9.3994     44.9741    229.2841   1.2763596407e+02   2.4473010747e+01    0.1603995    0.1225004  88.79 0.0005636067    1.325    0.245
       110  -8.4410    158.4918    229.0552   1.0865553029e+02   8.8690475190e+00     0.127109    0.1131609 -41.81 0.0003802454    1.468    0.319
       111 -10.0990    113.6445    227.9206   1.1612408187e+02   1.5797890340e+01    0.2747542     0.183824  36.28  0.001148339    1.541    0.351
       112 -10.1140    115.1689    222.3600   1.1531568857e+02   1.6408158057e+01    0.3797464    0.2090755 -78.64  0.001865761    2.596    0.615
       113  -8.9233     92.8901    227.8208   1.1962969853e+02   1.8731834539e+01    0.1493961    0.1240833  50.84 0.0005051309    1.262    0.208
       114  -9.8029     78.7525    226.8277   1.2192764191e+02   2.0769036193e+01    0.2963443    0.1493604 -83.81  0.001149722    2.331    0.571
       115 -10.3669     18.8982    226.6579   1.3163276340e+02   2.7651379058e+01     0.341243     0.193137  72.39  0.001558459    1.276    0.216
       116  -9.8554     16.0561    221.4778   1.3186726990e+02   2.8775752889e+01    0.1922556    0.1546039  66.30   0.00091352    1.316    0.240
       117  -8.1491    152.7428    227.6279   1.0945500446e+02   9.9493043048e+00    0.1022262   0.08063797  14.59  0.000502635    1.648    0.393
       118  -8.4840    138.9741    226.7335   1.1168903723e+02   1.2193448396e+01    0.1563042    0.1160741  47.99  0.000365717    1.041    0.040
       119  -9.7528     68.0865    227.0253   1.2372163873e+02   2.2094907554e+01    0.2008991    0.1265692  42.69 0.0005147363    1.491    0.330
       120  -8.8411      1.5971    227.1310   1.3429964216e+02   2.9208780498e+01    0.1280407   0.08335268  77.17  0.001103262    1.145    0.126
       121  -8.7483    184.7456    225.9472   1.0388630289e+02   5.1379560946e+00    0.1458536    0.1244269  32.55  0.000409282    1.115    0.103
       122  -9.3776    159.2909    217.5266   1.0709963238e+02   1.0278897772e+01    0.2310296    0.1928971 -75.40  0.000770448    1.558    0.358
       123 -10.2003    169.9297    223.0267   1.0598388648e+02   7.8479413918e+00    0.2979084    0.2230696 -63.20  0.001962891    1.887    0.470
       124 -10.4215    163.9932    224.9381   1.0722896336e+02   8.5419089490e+00    0.3463981    0.2244308  46.24  0.001405241    1.218    0.179
       125  -9.9119    165.9737    220.2937   1.0630505574e+02   8.8348111339e+00    0.2506492    0.1669538  30.30 0.0007091519    1.481    0.325
       126  -9.1055    199.8050    224.7251   1.0124699460e+02   2.9094854905e+00    0.1667529    0.1335462  12.49 0.0004538017    1.274    0.215
       127  -8.9892    120.8101    224.8443   1.1459518316e+02   1.5203116524e+01    0.1552168     0.128455  46.33 0.0004965588    1.188    0.158
       128  -8.9811      7.8744    224.9005   1.3327106273e+02   2.8993761573e+01    0.1317644   0.09948929  71.46 0.0004357563    1.223    0.182
       129  -8.8948    129.5998    223.8437   1.1297864421e+02   1.4032068323e+01    0.1778146    0.1245018  42.10 0.0004821485    1.233    0.189
       130 -10.0436    207.1307    222.5312   9.9747442431e+01   2.0053897352e+00    0.1982883    0.1590408  24.94 0.0004103398    1.082    0.075
       131  -9.1855    191.0948    223.0100   1.0244031384e+02   4.4819350583e+00     0.167441    0.1343092  32.14 0.0005036908    1.055    0.052
       132  -8.1333    155.4646    223.4212   1.0849140324e+02   1.0087187207e+01    0.1148681   0.08865511  44.68 0.0001321747    1.018    0.018
       133  -9.0924    135.7995    223.0302   1.1182124756e+02   1.3203823227e+01    0.1717601    0.1270593  61.17 0.0005291974    1.244    0.196
       134  -9.4264     82.7129    222.8324   1.2094381522e+02   2.0883486529e+01    0.1709508    0.1226316  45.17  0.000564033    1.326    0.246
       135  -9.4412     50.1672    222.4499   1.2639355123e+02   2.4988834384e+01    0.1583885    0.1393206  77.97 0.0005500632    1.393    0.282
       136  -8.5806     97.8545    221.9013   1.1826526779e+02   1.8966398781e+01    0.1474916    0.1268477  53.07 0.0003487708    1.250    0.200
       137  -8.9756     74.2481    222.1638   1.2233239683e+02   2.2096013623e+01    0.1462637    0.1198642  64.94 0.0004286424    1.175    0.149
       138  -9.9728     40.1563    220.7265   1.2794498977e+02   2.6403590201e+01    0.1906532    0.1668622  70.03 0.0006362731    1.406    0.289
       139  -9.5879     28.6434    222.0297   1.2988521695e+02   2.7420010525e+01     0.166809     0.117585  54.01 0.0005322007    1.262    0.208
       140  -8.9647    180.8718    220.8359   1.0385006680e+02   6.3765210266e+00    0.1678134    0.1273294  29.54 0.0004204059    1.194    0.163
       141  -9.1905    174.8776    220.6573   1.0483783993e+02   7.3603295319e+00    0.1648963    0.1454695  15.86 0.0002672337    1.249    0.200
       142  -9.6656    148.5241    219.9711   1.0926721220e+02   1.1655701104e+01    0.2024568    0.1803939  39.84  0.000575576    1.176    0.150
       143  -9.2387     68.4322    221.0493   1.2323688844e+02   2.3015989300e+01    0.1759777    0.1350235  39.66 0.0009985305    1.529    0.346
       144  -9.5038     59.4113    219.7773   1.2467505901e+02   2.4336757323e+01    0.2178268    0.1467832  82.60  0.001097163    1.301    0.231
       145  -8.4500    140.5339    219.9614   1.1065191327e+02   1.2911296226e+01    0.1357841    0.1135898 -63.77 0.0003218405    1.479    0.324
       146  -8.9972    186.2335    218.8886   1.0268305833e+02   5.7554709898e+00    0.1593828    0.1322667  41.77 0.0004155969    1.112    0.101
       147  -9.2764    109.3424    218.8584   1.1597912332e+02   1.7800065340e+01    0.1898715    0.1182926  52.80 0.0004052444    1.256    0.204
       148  -8.2920    154.3854    218.2887   1.0804555800e+02   1.0959750139e+01    0.1154097   0.08011651  23.46 0.0004267079    1.751    0.429
       149 -10.8371    137.1439    213.7468   1.1051484070e+02   1.4353513025e+01    0.3128616    0.2647198 -31.31  0.002230247    1.641    0.390
       150  -8.0917    128.7050    218.6960   1.1257139199e+02   1.4926406961e+01    0.1024656   0.08375691  22.68 0.0002530997    1.579    0.367
       151 -10.1038    119.7950    216.4543   1.1389299752e+02   1.6621503163e+01    0.2077265    0.1960976 -86.24   0.00085634    1.304    0.233
       152  -9.2490    198.5071    211.5698   9.9571545609e+01   4.6542892202e+00    0.2344474    0.1517662  30.85 0.0007478241    1.342    0.255
       153  -9.4918    201.4956    209.4843   9.8757538349e+01   4.4162221548e+00    0.2686134    0.1859788  44.05  0.000759816    1.264    0.209
       154  -9.8389    193.7029    215.5341   1.0095670514e+02   4.9571559559e+00    0.2157318    0.1660168  26.40  0.000404969    1.162    0.139
       155  -9.1037    174.2716    227.1308   1.0577948541e+02   6.6443208676e+00    0.1612169    0.1272629  29.32 0.0004899796    1.195    0.163
       156  -8.6501    179.9343    215.2544   1.0324610161e+02   7.2328813443e+00    0.1608044    0.1212234  37.93 0.0003266183    1.063    0.059
       157 -10.7511    118.9377    212.2236   1.1358565755e+02   1.7410656372e+01    0.3041623    0.1573512  37.37  0.001112123    1.886    0.470
       158  -8.7608     83.1589    215.2134   1.2023258418e+02   2.2062062626e+01    0.1517756    0.1255811  54.91 0.0005663622    1.223    0.182
       159  -9.4310     31.3747    214.2290   1.2904681460e+02   2.8441708861e+01    0.1610947    0.1455997 -86.45 0.0006163152    1.550    0.355
       160  -8.7680    186.6335    213.9319   1.0191982530e+02   6.3063814576e+00    0.1479143    0.1332762  30.62 0.0005276031    1.145    0.126
       161  -9.7454    171.3634    213.6923   1.0450391137e+02   8.8382239020e+00    0.2107638     0.169648  41.11 0.0004727956    1.008    0.008
       162  -9.2234    165.7306    213.7960   1.0549479879e+02   9.7451648975e+00    0.2287905    0.1499984  26.90 0.0005247165    1.670    0.401
       163  -9.2117    143.4930    214.1062   1.0943457888e+02   1.3293747075e+01     0.203223    0.1357477  35.04 0.0004426099    1.451    0.311
       164 -10.2390    132.2698    213.4841   1.1134937667e+02   1.5158634721e+01    0.2088751    0.1589774  37.88 0.0005949278    1.285    0.222
       165 -10.2980     63.7743    213.3140   1.2346842860e+02   2.4885215139e+01    0.2489797    0.1558082  54.19  0.000562412    1.236    0.191
       166  -9.7616      7.9313    216.1377   1.3294549210e+02   3.0432729007e+01     0.187613    0.1657543 -80.04  0.001091892    1.651    0.394
       167  -9.1707     51.8748    212.5350   1.2547350322e+02   2.6452394860e+01    0.1541927    0.1219136  86.72 0.0004294184    1.245    0.197
       168  -9.6296     41.3085    212.3606   1.2727087737e+02   2.7687313088e+01    0.1581691     0.129964  66.64 0.0006005738    1.255    0.203
       169  -8.7471    154.6803    212.0722   1.0720310136e+02   1.1786702017e+01     0.146609    0.1372635  43.49 0.0004761377    1.173    0.148
       170  -8.9033     96.9677    212.3325   1.1752676775e+02   2.0627997456e+01    0.1570006    0.1157564  52.18 0.0004675098    1.125    0.111
       171 -10.0392    202.4001    215.4831   9.9500977029e+01   3.5572739417e+00    0.3008868    0.2568644  -5.76  0.001936127    1.303    0.233
       172  -8.9316     25.2564    210.5119   1.2987712201e+02   2.9711069145e+01    0.1628442    0.1070806 -69.08 0.0008715337    1.765    0.433
       173  -9.5246     18.3342    210.6160   1.3103264496e+02   3.0382324841e+01    0.1677005    0.1357119  83.64 0.0007610163    1.320    0.242
       174  -8.6287    106.7913    210.1555   1.1554663267e+02   1.9562017163e+01    0.1371058    0.1246372  45.83 0.0003721831    1.313    0.238
       175  -9.2877     56.5846    209.8337   1.2447010388e+02   2.6358084383e+01    0.1634734    0.1247831  51.15  0.000530333    1.286    0.223
       176  -8.3600    187.0024    209.0449   1.0115090298e+02   6.8664814911e+00    0.1407993    0.1118249  36.82 0.0003332067    1.012    0.012
       177  -9.5483    161.1344    208.4762   1.0558454490e+02   1.1240406537e+01    0.2228269    0.1663114  31.89 0.0007571924    1.296    0.228
       178  -8.2075    149.2886    209.6976   1.0785204050e+02   1.3007345854e+01     0.114338   0.08107673  66.56 0.0002370495    1.564    0.361
       179  -8.6268     93.6289    208.6275   1.1776880728e+02   2.1716077125e+01    0.1399911    0.1308051  21.03  0.000658098    1.566    0.361
       180  -8.3243     78.5160    208.9017   1.2051248141e+02   2.3742846497e+01    0.1428692   0.09945472 -76.45 0.0009955498    1.495    0.331
       181  -8.7392    193.0961    207.6596   9.9903116987e+01   6.0299643500e+00    0.1660293    0.1221794  36.26 0.0004608608    1.098    0.089
       182  -9.1150    177.0356    208.0110   1.0272456544e+02   8.6616738675e+00    0.1746116    0.1436572  36.73 0.0003297997    1.037    0.035
       183  -9.9489    147.3651    206.3408   1.0776107960e+02   1.3819560360e+01    0.4873955    0.2649892  23.37  0.002141214    3.420    0.708
       184 -10.9136    132.5200    206.8839   1.1051648101e+02   1.6134735869e+01    0.3784527     0.219404  39.21  0.001342712    1.563    0.360
       185 -10.6308    139.3988    203.4844   1.0883676399e+02   1.5557392988e+01    0.3305798    0.2522446   4.09  0.001335468    2.116    0.527
       186  -9.1818     72.8906    207.7695   1.2142357481e+02   2.4676463120e+01    0.1567055    0.1289075  57.31  0.000562392    1.213    0.175
       187  -8.8281    170.8728    205.8186   1.0349196402e+02   9.9918412665e+00    0.2503734    0.1213204  50.04 0.0009171634    1.868    0.465
       188  -9.2789    120.0876    206.6557   1.1275206183e+02   1.8121654174e+01    0.1648331    0.1263773  48.37 0.0005923861    1.120    0.107
       189 -10.4222    114.5668    206.3349   1.1372339806e+02   1.9020524712e+01    0.3381239    0.1716492  55.65  0.001777482    1.775    0.437
       190 -10.2167    109.9938    201.4362   1.1401645774e+02   2.0528359202e+01     0.316523    0.2383999  85.91  0.001601917    1.378    0.274
       191 -10.3345     16.4584    206.0865   1.3113853495e+02   3.1348409420e+01    0.3276527    0.1546677  33.34  0.002082402    2.474    0.596
       192  -9.2708    206.8603    206.0238   9.7327757432e+01   3.9485802305e+00    0.2053025    0.1410418  29.36 0.0003979389    1.243    0.195
       193  -9.5116     47.2025    206.0281   1.2585287991e+02   2.8122227321e+01    0.1727509    0.1329223  50.39 0.0005120674    1.330    0.248
       194  -8.4375     32.2030    206.5416   1.2848987447e+02   2.9682262235e+01    0.1179561   0.09092682  40.78 0.0005792893    1.577    0.366
       195  -8.2321    183.5346    205.4482   1.0121967251e+02   7.9151366082e+00    0.1206773   0.09729394  35.87 0.0001176431    1.025    0.024
       196  -8.0677    126.2852    205.3352   1.1146532549e+02   1.7366683530e+01    0.1055082   0.09051349  12.50  0.000369931    1.624    0.384
       197  -9.1688     86.5012    204.8673   1.1870398636e+02   2.3351732427e+01    0.1883862    0.1416117  38.04 0.0006568916    1.494    0.331
       198  -8.2837    156.7176    204.6910   1.0585641246e+02   1.2519786353e+01    0.1119543   0.08717567  18.02 0.0003325406    1.565    0.361
       199 -10.2947     56.2342    201.7622   1.2394246274e+02   2.7816838592e+01    0.1931474     0.164188 -86.30 0.0004621504    1.328    0.247
       200  -8.6260    179.2706    202.0811   1.0146484352e+02   9.0893322417e+00    0.1557264    0.1371931  35.62  0.000335261    1.076    0.071
       201  -8.3477    173.4519    202.4281   1.0254516394e+02   1.0029239213e+01    0.1213111   0.09898417  40.00 0.0001101697    1.011    0.011
       202 -10.1559      6.7769    203.9283   1.3266148625e+02   3.2627412315e+01    0.1832628    0.1790948 -75.24  0.001296999    1.758    0.431
       203  -8.9232     20.9902    202.0259   1.3017520169e+02   3.1622442768e+01    0.1320066    0.1137872 -71.55 0.0005339433    1.617    0.382
       204  -9.4273    198.2797    201.0054   9.7994530866e+01   6.0032698875e+00    0.1953148     0.143986  35.74 0.0004290132    1.112    0.100
       205  -8.6271    186.9450    200.8831   9.9936903404e+01   7.9450448700e+00    0.1744727    0.1356536  27.36  0.000328306    1.186    0.157
       206 -10.0270    164.2946    200.0717   1.0384108664e+02   1.1921250267e+01     0.470587    0.1960283  36.71  0.002039373    2.366    0.577
       207  -7.9319     34.2973    201.2805   1.2782131855e+02   3.0391842126e+01   0.08533525   0.07709776 -78.37 0.0001938592    1.539    0.350
       208  -9.7163     27.0545    200.6670   1.2905451371e+02   3.1256909088e+01    0.2869694    0.1423836  45.14  0.001913557    1.713    0.416
       209  -9.9161    144.9292    200.2093   1.0739121291e+02   1.5157813579e+01    0.2889729    0.1471736  44.28 0.0009150376    1.628    0.386
       210  -8.6360    131.6457    200.1121   1.0983316413e+02   1.7350319690e+01    0.1522645    0.1378376  55.90 0.0005354165    1.125    0.111
       211  -8.5421     98.6934    200.4404   1.1601101567e+02   2.2381479058e+01    0.1511444    0.1000435  38.59 0.0008066329    1.539    0.350
       212 -10.3696     69.7822    199.6463   1.2130007820e+02   2.6505085536e+01    0.2580547    0.1934867 -38.88  0.001333016    2.356    0.576
       213  -9.7549    230.2445    198.1828   9.2210924879e+01   1.0155285398e+00    0.2305968    0.1576302  19.20 0.0005586619    1.325    0.245
       214  -9.7959    209.9818    198.0806   9.5536297358e+01   4.3903473393e+00    0.2466584    0.2169549 -64.68   0.00119984    1.698    0.411
       215  -9.5613    209.6259    192.3042   9.4639211151e+01   5.1690582575e+00    0.2747052    0.1874658   0.79  0.001083431    1.758    0.431
       216  -8.2971     80.5430    198.9479   1.1924359597e+02   2.5203884864e+01    0.1480209      0.10221 -76.61 0.0003885368    1.474    0.321
       217  -8.8531     41.9092    199.0986   1.2633193735e+02   2.9954868032e+01     0.134554    0.1233662 -69.03  0.000463733    1.591    0.372
       218  -9.5476    103.5512    197.7315   1.1480682003e+02   2.2131732689e+01    0.2478075    0.1585459  62.92 0.0004939532    1.421    0.296
       219  -9.0866     49.4767    198.0059   1.2488957949e+02   2.9291797753e+01    0.1636009    0.1414442  46.52 0.0005806376    1.458    0.314
       220  -9.5157    215.5804    195.9914   9.4252196647e+01   3.7006007108e+00      0.23814    0.1884431  -3.70 0.0008822142    1.303    0.233
       221  -8.6704    170.0150    195.7936   1.0217397543e+02   1.1565008256e+01    0.1711055    0.1362936  41.95 0.0003810106    1.050    0.047
       222 -10.0505    157.7979    194.3373   1.0419230095e+02   1.3890032740e+01    0.2845936    0.2701767 -35.07  0.002020314    1.262    0.207
       223  -8.9746    149.0882    196.4746   1.0611022067e+02   1.5043542681e+01    0.1847705    0.1030443  43.36 0.0004270291    1.510    0.338
       224  -8.0888    125.0122    196.2367   1.1058215000e+02   1.9055397727e+01    0.1504511   0.08634873  45.01 0.0003152327    1.472    0.321
       225  -9.5596     89.1594    195.5380   1.1728959833e+02   2.4614971268e+01    0.1781135    0.1761863 -86.60 0.0005936176    1.434    0.303
       226  -9.7464    202.5766    194.7667   9.6254330461e+01   6.0681234609e+00    0.3617658    0.2127062  21.76  0.001385511    1.994    0.498
       227  -9.5223    205.5047    189.4855   9.4869146271e+01   6.2434523028e+00    0.2231207    0.2013993  31.69 0.0007080336    1.141    0.123
       228  -9.7799    207.3376    186.7154   9.4079271946e+01   6.2832706458e+00    0.5003404    0.1776145  48.05  0.002100949    2.684    0.627
       229  -9.2345    184.4588    194.4381   9.9370801258e+01   9.2506810421e+00    0.2066773    0.1648816  34.86 0.0003541885    1.067    0.062
       230  -9.2209    140.5251    195.0520   1.0750895411e+02   1.6707495402e+01    0.1576584    0.1216738 -57.90 0.0005392156    1.518    0.341
       231  -8.4828     61.0037    195.7558   1.2259678604e+02   2.8317882073e+01    0.1376511   0.07922362  45.68 0.0003483045    1.527    0.345
       232 -11.5779    233.7415    185.9367   8.9525562887e+01   1.8343778501e+00    0.5089045    0.2977294  33.63  0.001855452    1.475    0.322
       233  -8.8621    113.1691    193.8024   1.1252708342e+02   2.1343699950e+01    0.1480798    0.1352847  37.31 0.0003992355    1.318    0.241
       234  -9.6857     81.6782    193.6246   1.1851559194e+02   2.6004113273e+01    0.2237447    0.1167722  46.16 0.0007749171    1.626    0.385
       235  -9.7419    231.4787    191.7334   9.0911175248e+01   1.5428893828e+00    0.3278675    0.1851105   9.86  0.001668683    2.323    0.570
       236  -8.0060    133.2935    193.3109   1.0863567813e+02   1.8193158881e+01    0.1116925    0.0938269  14.24 0.0003380988    1.590    0.371
       237  -8.9247     74.5257    193.4994   1.1986090304e+02   2.6994039342e+01    0.1150706   0.09088437  68.53 0.0002515494    1.025    0.024
       238  -8.2041    194.4258    192.4417   9.7288950572e+01   7.7860987114e+00    0.1232259    0.1025612  31.40 0.0001088671    1.016    0.016
       239  -9.6996    151.7013    191.4282   1.0490054965e+02   1.5391611627e+01    0.2295402    0.2183485  15.15 0.0009665063    1.221    0.181
       240  -8.3821     36.4970    192.5338   1.2687901761e+02   3.1746709104e+01    0.1082454   0.08006072  72.77 0.0002443846    1.026    0.025
       241  -8.6336    104.5666    191.4941   1.1390123171e+02   2.3072316432e+01    0.1184635   0.09988241  62.42 3.894828e-05    1.057    0.054
       242  -8.1243     26.6671    191.7455   1.2861726589e+02   3.2917738204e+01   0.08486977   0.07839014 -76.30 0.0002997924    1.563    0.360
       243  -9.4381    224.8242    190.0690   9.1710105714e+01   2.8505165665e+00    0.2015344    0.1463486  30.61 0.0004520285    1.147    0.128
       244  -9.1669    162.0652    190.0830   1.0276504271e+02   1.3803400532e+01    0.1889844     0.161963  46.40 0.0005009791    1.021    0.021
       245 -10.1631    158.6162    186.2432   1.0282013842e+02   1.5008134588e+01    0.3663148    0.2349937  38.80  0.001645284    1.410    0.291
       246  -9.1201     96.8664    188.7754   1.1507735338e+02   2.4715777179e+01    0.3046921    0.1599684 -62.28  0.001040903    2.048    0.512
       247  -8.1074     42.7024    190.3400   1.2558403249e+02   3.1473783784e+01    0.1178648   0.06115375  68.34 0.0004869097    1.662    0.398
       248  -9.7571    199.2461    188.7138   9.5825639143e+01   7.4417616937e+00    0.2264661     0.194151  22.80 0.0004367609    1.063    0.059
       249  -8.7128    172.6628    188.9655   1.0063423845e+02   1.2108190288e+01    0.1604559    0.1503149  27.67 0.0003561681    1.116    0.104
       250  -8.0908     84.7071    189.2731   1.1749170864e+02   2.6378236124e+01    0.1190266   0.07311345  67.24  0.000220341    1.518    0.341
       251 -10.4015     72.7182    188.1894   1.1970220564e+02   2.8213903751e+01    0.2943125    0.1664502  59.77  0.001759046    1.528    0.345
       252  -9.4946    215.1625    186.5756   9.2717255167e+01   4.9340666448e+00     0.241835    0.1868561  -2.20 0.0009833578    1.339    0.253
       253  -8.9251    176.1940    195.3633   1.0099313335e+02   1.0556914367e+01      0.16977    0.1266064  43.86 0.0003836555    1.133    0.118
       254  -8.5510    179.2143    187.8671   9.9260999323e+01   1.1108407295e+01    0.1618232     0.131334  20.35 0.0003750656    1.274    0.215
       255  -9.2126     77.7647    188.5985   1.1876644457e+02   2.7461093691e+01    0.1609299   0.08756784  52.59 0.0002745111    1.541    0.351
       256  -8.9383    116.5992    187.5250   1.1108169729e+02   2.1899302420e+01    0.3322897    0.1521114  33.72  0.001479452    2.706    0.630
       257  -8.4480    193.8330    186.1539   9.6347677663e+01   8.7487304796e+00    0.1681243    0.1288147  21.83 0.0003407234    1.283    0.221
       258  -9.6961    127.9995    185.2722   1.0855774485e+02   2.0434125355e+01    0.3273347    0.1534255  39.96  0.001192745    1.997    0.499
       259  -8.5278     64.4898    189.5378   1.2140827827e+02   2.9027969396e+01    0.1140385    0.0895691  70.66  4.14393e-06    1.031    0.030
       260  -8.7577     34.9340    184.4885   1.2662957550e+02   3.3421414349e+01    0.1477879   0.09423405  43.71 0.0007387648    1.543    0.352
       261 -10.3930    211.1735    179.7918   9.2198137002e+01   6.5122552308e+00    0.3305226    0.2644264 -17.17   0.00125041    1.321    0.243
       262 -10.1760    202.9482    180.0084   9.3670099755e+01   7.9601817244e+00      0.40589    0.3147371 -75.65  0.002016343    2.216    0.549
       263  -9.8042    198.0354    174.3190   9.3521265039e+01   9.6515373049e+00    0.2468351    0.2136587 -34.95 0.0004846811    1.313    0.238
       264  -9.9148    205.2109    175.0619   9.2380671004e+01   8.2287735660e+00    0.2474095    0.1990113   9.03  0.000715096    1.254    0.203
       265  -9.9308    210.3451    173.7935   9.1247994505e+01   7.4645556215e+00    0.3274564    0.2434621  46.27 0.0009801836    1.312    0.238
       266  -9.2119    141.0580    182.6671   1.0563929207e+02   1.8664840780e+01    0.2759104    0.1906186  -4.49  0.001031953    3.028    0.670
       267  -8.7310    166.9814    184.2996   1.0094224344e+02   1.3827091752e+01    0.1779508    0.1424049  39.51 0.0004048859    1.097    0.089
       268  -8.9408     67.1392    182.6889   1.2026165279e+02   2.9982247169e+01    0.1578626    0.1258571  61.54 0.0005880569    1.120    0.107
       269  -8.6014    224.0542    181.7205   9.0360672508e+01   3.9948822166e+00    0.1679011    0.1333238  28.18 0.0003620047    1.067    0.063
       270  -8.2424    218.4146    181.5499   9.1276900158e+01   5.0015844066e+00    0.1241403    0.1039005  21.66 0.0001245431    1.011    0.010
       271  -8.8868    184.1599    180.8388   9.7187420187e+01   1.1249481891e+01    0.1809261     0.155237  45.23 0.0003805224    1.103    0.093
       272  -9.0848    155.9327    181.2492   1.0254835527e+02   1.6285879874e+01    0.2634338    0.1718766  44.36  0.001473854    1.331    0.249
       273  -8.2789    197.5554    180.5301   9.4716415032e+01   8.8624407505e+00    0.1270448    0.1088334  29.61 5.360322e-05    1.005    0.005
       274  -9.7296    175.2563    179.6848   9.8635917494e+01   1.3044095039e+01    0.2305888    0.1904347  27.43 0.0004390285    1.182    0.154
       275  -9.3832    160.3984    179.7471   1.0145268934e+02   1.5729132613e+01    0.1578244    0.1233055 -31.41 0.0005052466    1.552    0.355
       276  -8.8999     55.7787    179.8560   1.2223960868e+02   3.1947653694e+01     0.158288    0.1370262  85.51 0.0005514153    1.219    0.179
       277  -8.4881    105.8251    179.6129   1.1219415147e+02   2.5036084636e+01    0.1852848   0.09496956  52.70 0.0009427185    1.754    0.430
       278  -8.4884    231.0533    177.9938   8.8522737651e+01   3.2374966562e+00    0.1459065    0.1216029  14.97 0.0003924437    1.025    0.025
       279 -10.0019    146.6446    174.7517   1.0332062031e+02   1.9034245840e+01    0.2434425     0.208932  40.75 0.0005617948    1.119    0.106
       280  -9.9597    143.6019    177.4756   1.0435102950e+02   1.9106501127e+01    0.4050001    0.1983585  56.89  0.001817738    2.282    0.562
       281  -7.8542     42.6793    178.6517   1.2471274363e+02   3.3701824418e+01    0.1002937   0.08177911 -52.93 0.0007048937    1.738    0.425
       282  -9.1887    190.9919    176.9064   9.5257390685e+01   1.0576122546e+01    0.1960976    0.1645511  27.27 0.0004765039    1.086    0.080
       283  -8.2052    134.5239    177.5301   1.0615537233e+02   2.0682226358e+01    0.1280299    0.1107683  56.89 0.0002863537    1.001    0.001
       284  -8.2491     69.3446    177.2886   1.1928785967e+02   3.0736835273e+01    0.1007105   0.09397348 -27.79 0.0004938897    1.652    0.395
       285  -8.4416     64.7287    177.3311   1.2022124559e+02   3.1325989031e+01    0.1215358   0.07202466  72.18 0.0002370426    1.589    0.371
       286  -8.3861    169.5141    176.4265   9.9164798975e+01   1.4602275958e+01    0.1299877    0.1123375  38.99 9.277518e-05    1.034    0.033
       287  -8.9725    235.8407    178.9032   8.7910314313e+01   2.3048149046e+00    0.1894262    0.1362592  15.35 0.0004647528    1.276    0.217
       288  -8.9200    219.3699    174.9956   8.9918475896e+01   5.6732059561e+00    0.1667546    0.1434351  -2.34 0.0003847838    1.140    0.123
       289  -8.0593    215.2543    175.3691   9.0690302713e+01   6.3636963356e+00    0.1280249   0.08825707   8.05 0.0002519564    1.636    0.389
       290 -10.0061    161.5670    173.9975   1.0027695877e+02   1.6453925027e+01    0.2841235    0.1821916  26.75  0.001205611    1.885    0.469
       291  -9.7588    152.9022    174.0704   1.0197783224e+02   1.8023208587e+01    0.4112763     0.225864  33.57  0.001958007    2.014    0.503
       292  -8.7656    182.8733    173.9244   9.6220273843e+01   1.2521117175e+01    0.1910224    0.1590059  21.37 0.0003694976    1.204    0.169
       293  -8.4683    129.3697    172.7917   1.0647400551e+02   2.2419112600e+01    0.1578052    0.1204397 -46.06 0.0003140172    1.541    0.351
       294  -8.7074    233.2405    172.2764   8.7094670845e+01   3.5559932267e+00    0.1453209    0.1368428  18.90 0.0003192237    1.254    0.202
       295  -8.3582     24.7623    172.1421   1.2774867512e+02   3.6845575349e+01    0.1304383    0.1108919 -84.62 0.0004425098    1.319    0.242
       296  -9.4846    225.9048    170.6618   8.8002022654e+01   5.0604754323e+00    0.2133714    0.1676962  14.87 0.0004114457    1.157    0.135
       297  -9.0941    192.9782    171.0688   9.3843093365e+01   1.1063389388e+01    0.1948031    0.1703547  29.84 0.0003811107    1.010    0.009
       298  -8.7503     76.5451    171.2332   1.1716331125e+02   3.0959374039e+01    0.1533589     0.105092 -59.87 0.0004800611    1.594    0.373
       299  -9.4440    200.8146    170.1066   9.2247225858e+01   9.7382286547e+00    0.2457864    0.1478989  24.34 0.0007849265    1.921    0.479
       300  -8.4476    188.0022    170.5326   9.4658938451e+01   1.2076530729e+01    0.1952409    0.1157532  43.39 0.0003824198    1.500    0.333
       301  -8.2376    102.6790    170.7282   1.1166478650e+02   2.7210330627e+01    0.1107481    0.1001711   7.96 0.0002597167    1.569    0.363
       302  -8.2709     44.5587    170.5051   1.2367018878e+02   3.5096427548e+01    0.1137992   0.08952712  79.94 0.0001994457    1.048    0.046
       303  -9.5178    158.6014    168.6350   9.9939757285e+01   1.7897411259e+01    0.1843791    0.1490222  13.04  0.000606693    1.522    0.343
       304  -9.9089    143.7598    168.8975   1.0294429110e+02   2.0575897944e+01    0.2502377     0.155839 -26.29  0.001146151    2.704    0.630
       305  -9.6748    231.8835    157.3997   8.4404278721e+01   5.6893169025e+00    0.3015328    0.1989166 -19.71 0.0005013149    1.531    0.347
       306  -9.8896    233.2286    151.3547   8.2944816283e+01   6.2342815029e+00    0.3549474    0.2365277 -40.66  0.001323836    1.719    0.418
       307 -10.1422    239.8148    151.1348   8.1829455406e+01   5.0382300281e+00    0.5278825     0.260358  41.18  0.002556829    1.913    0.477
       308  -9.6425    240.1363    162.3044   8.4042104162e+01   3.5692557640e+00    0.3044726    0.2095718  15.09 0.0005101425    1.429    0.300
       309  -9.9430    237.5462    156.9022   8.3377427499e+01   4.7149472478e+00    0.3854977    0.2492806 -19.40  0.000965625    1.540    0.351
       310 -10.0503    237.4481    166.8237   8.5362726890e+01   3.4872162568e+00    0.3181556     0.212411 -32.61 0.0009375118    1.596    0.374
       311 -10.0399    234.2886    162.0398   8.4937915093e+01   4.6514456154e+00    0.3381827    0.2419594 -31.54  0.000938704    1.476    0.322
       312  -9.9128    210.8895    166.2246   8.9725110725e+01   8.4042637424e+00    0.5734632    0.4290476 -83.61  0.002070631    2.619    0.618
       313  -9.5948    205.4606    166.5691   9.0749759484e+01   9.3732264124e+00    0.2362242    0.1932339  20.83  0.000212289    1.139    0.122
       314 -10.8218    205.8481    158.5565   8.9118698007e+01   1.0454857618e+01    0.5042112    0.3316685 -13.06  0.001749754    1.853    0.460
       315  -9.6898    206.0531    152.2892   8.7815387831e+01   1.1338694305e+01     0.236564    0.1795311  -8.17 0.0003893224    1.442    0.307
       316  -8.7743    197.5358    168.2281   9.2486925323e+01   1.0625158403e+01    0.1703343    0.1227672 -16.48 0.0004641729    1.602    0.376
       317  -8.6758    134.9015    167.8033   1.0456581878e+02   2.2359829156e+01    0.1883339    0.1701903  24.59 0.0005008478    1.286    0.222
       318  -8.4838    140.5688    166.7112   1.0322965396e+02   2.1543462728e+01    0.1632817    0.1253406 -69.84 0.0009258626    1.494    0.331
       319  -8.5555     84.6978    166.9970   1.1495195412e+02   3.0653617629e+01    0.1729157    0.1395576  82.18 0.0004471005    1.089    0.082
       320  -9.8038    218.8640    165.1830   8.8141062905e+01   7.0637413815e+00     0.218782    0.1763089  25.96 0.0003617156    1.094    0.086
       321  -8.7008    179.1527    166.1906   9.5521078330e+01   1.4423662402e+01    0.1944566     0.164422  22.12 0.0004204728    1.195    0.163
       322  -8.8664    169.9509    166.4799   9.7339958023e+01   1.6125804773e+01     0.198122    0.1190054  45.27 0.0003312027    1.494    0.331
       323  -8.8572    150.3094    166.4767   1.0121826289e+02   1.9806137869e+01      0.17827    0.1157958  54.09 0.0004912801    1.473    0.321
       324  -7.9914    127.6963    165.7169   1.0571809604e+02   2.4013388999e+01    0.1197048    0.1029886  10.46 0.0002836657    1.556    0.357
       325  -8.2553    229.6537    163.7517   8.6040159527e+01   5.2724466687e+00    0.1315835   0.08549389  20.69 0.0005235731    1.579    0.367
       326  -9.1706    192.0061    162.4873   9.2410613620e+01   1.2537042335e+01    0.1858999    0.1712312  12.71 0.0003958092    1.071    0.066
       327  -8.8337    184.9422    163.2819   9.3882098667e+01   1.3774011765e+01    0.1886107    0.1536011  36.72 0.0004191503    1.109    0.099
       328  -9.6121    159.3708    162.9907   9.8791210631e+01   1.8718017762e+01    0.1755923    0.1705853  33.92 0.0004746129    1.087    0.080
       329  -8.0780    120.2852    163.3264   1.0689298165e+02   2.5747228731e+01    0.1192824    0.1045611  -7.19 0.0006096472    1.606    0.377
       330  -8.9653    111.3329    162.9254   1.0872924237e+02   2.7331214054e+01    0.2206847    0.1588448  56.80 0.0005960762    1.263    0.208
       331  -8.3810     80.5466    163.4695   1.1539713277e+02   3.1956489059e+01    0.1240341    0.1036087  76.36 7.261684e-05    1.009    0.009
       332  -8.6043    199.9551    162.5076   9.0957138946e+01   1.1007051359e+01    0.1954537      0.11862  42.49 0.0003986738    1.493    0.330
       333  -8.2112    172.5332    162.4277   9.6096309928e+01   1.6299767766e+01    0.1338536    0.1196464  38.60 6.870981e-05    1.018    0.017
       334  -8.4967    246.8056    161.1784   8.2759039808e+01   2.5293873239e+00    0.1687884    0.1223238  14.95 0.0003192044    1.270    0.212
       335  -9.4575    213.1928    160.1689   8.8138808847e+01   8.8178966784e+00    0.2143682    0.1835051  19.69 0.0003864719    1.044    0.042
       336  -8.9706    221.3385    159.8631   8.6670004982e+01   7.3231064019e+00    0.2076496    0.1690104  45.50 0.0005086554    1.275    0.216
       337  -9.8464    153.2929    159.6970   9.9421420300e+01   2.0445682317e+01     0.216225    0.1946493  31.22 0.0004681051    1.148    0.129
       338 -10.7333    156.5178    157.2814   9.8323667494e+01   2.0259937228e+01     0.434815    0.2854666  63.07  0.002155315    1.768    0.434
       339  -7.9495    139.2560    160.6534   1.0247714902e+02   2.2887709038e+01    0.1309528    0.0993898  84.89 0.0002116532    1.592    0.372
       340 -10.1382     53.3506    158.2958   1.2067283693e+02   3.6567169562e+01    0.4045652    0.2221857  26.74  0.002124996    2.601    0.615
       341  -9.6198    250.4026    156.6465   8.1288392321e+01   2.4452654760e+00    0.2808717    0.1437939 -25.88  0.001409177    1.892    0.471
       342  -8.4872    168.2948    157.3129   9.5965719180e+01   1.7977074364e+01    0.1332301    0.1038582  11.14 0.0002448953    1.597    0.374
       343  -8.1066    150.3377    157.2856   9.9588274167e+01   2.1437907396e+01    0.1325883    0.1046543  15.04 0.0003192907    1.631    0.387
       344  -8.7993    140.5491    156.5185   1.0148405712e+02   2.3416615276e+01    0.1348988    0.1216692  63.61  4.80744e-05    1.037    0.036
       345  -8.4145     98.8923    155.8973   1.1037187769e+02   3.0746927282e+01    0.1803492    0.1339287  72.72  0.000437803    1.312    0.238
       346  -8.5535    246.4346    155.4682   8.1668294337e+01   3.2914973024e+00    0.1287883    0.1063333   8.36 0.0001183553    1.029    0.029
       347  -8.7686    197.1457    154.5086   8.9889559644e+01   1.2757761892e+01    0.1900063    0.1724583 -10.30  0.000503435    1.127    0.113
       348  -9.0617    226.5609    154.2776   8.4655736430e+01   7.0977849854e+00    0.2209646    0.1468251  30.75 0.0007355763    1.427    0.299
       349  -9.4264    228.0748    150.4810   8.3617791153e+01   7.3252204524e+00    0.1883893    0.1549492  28.40  0.000577752    1.112    0.101
       350  -9.5051    221.5093    150.5542   8.4743885719e+01   8.5738214066e+00    0.2327959    0.1763796 -23.49 0.0005048693    1.322    0.243
       351  -8.7454    216.2147    154.1150   8.6392035480e+01   9.0941958412e+00    0.1865848    0.1815079 -56.99 0.0003798392    1.296    0.229
       352 -10.3473    212.5584    149.4730   8.6073637779e+01   1.0473178686e+01    0.4503197    0.4007075 -71.42  0.002676305    1.522    0.343
       353  -8.7884    215.4818    146.5760   8.4951448927e+01   1.0317980161e+01    0.2213693    0.1849309  27.56 0.0005670574    1.101    0.092
       354 -10.1428    167.0645    152.6987   9.5321762903e+01   1.9011020423e+01    0.3210459    0.2097676 -30.27  0.001587127    1.844    0.458
       355  -9.0937    157.4249    150.7724   9.6905449683e+01   2.1247498599e+01    0.1775909     0.132772 -31.41 0.0004607772    1.566    0.361
       356  -9.5967    144.6874    149.4207   9.9309106275e+01   2.3965486022e+01    0.5031044    0.2146203 -53.31  0.001809329    2.687    0.628
       357  -8.4194    107.8294    151.1904   1.0766101510e+02   3.0253378501e+01    0.1624313    0.1568219  22.78 0.0003932816    1.290    0.225
       358 -10.2730    243.8015    145.6396   8.0044399877e+01   5.0076753760e+00    0.4190236    0.2545399 -35.77  0.001169784    1.710    0.415
       359 -11.7207    246.5388     93.3418   6.7592782069e+01   1.1477351051e+01    0.8166215    0.5891594  51.31  0.004373648    1.496    0.331
       360  -9.9354    249.6209    147.9072   7.9612138912e+01   3.6555172945e+00    0.3880503    0.2108925 -17.47  0.001313528    1.909    0.476
       361  -8.2851    181.6994    249.3022   1.0726141081e+02   2.9589731241e+00   0.09906545    0.0697103  57.59 0.0002105525    1.587    0.370
       362  -9.9664    249.0929    122.7004   7.4189135870e+01   6.9965492805e+00    0.2710414    0.2237613   0.08 0.0007340943    1.105    0.095
       363  -8.5677    202.5299    149.8773   8.7955541843e+01   1.2398714859e+01    0.1947148    0.1322562 -32.18  0.001013772    1.539    0.350
       364 -10.2398     19.7513    149.7788   1.2718339058e+02   4.1847863044e+01     0.285908    0.1207351 -88.75    0.0014945    2.136    0.532
       365  -9.0668     15.9716    150.0000   1.2801279546e+02   4.2135129109e+01    0.1573946    0.0594863  31.17 0.0008093565    2.991    0.666
       366 -10.1036      5.3139    148.0164   1.3015126046e+02   4.3421889466e+01    0.3152058    0.1306546  78.01  0.001698239    2.182    0.542
       367  -8.0255    122.2828    148.3177   1.0396500480e+02   2.8335567824e+01    0.1252106     0.108635  -9.32 0.0002827236    1.583    0.368
       368  -9.3477    161.9498    147.4827   9.5329010446e+01   2.0944352838e+01    0.2651719    0.1281782  49.56 0.0004895208    1.984    0.496
       369  -9.4142    159.8000    144.1923   9.5110128891e+01   2.1967765332e+01    0.2420494    0.1726262 -31.33  0.000382435    1.631    0.387
       370  -8.8240    150.3573    147.1607   9.7676014320e+01   2.3291554949e+01    0.1849294    0.1287279 -58.71 0.0005677286    1.624    0.384
       371 -11.0513     37.0597    143.8165   1.2281533923e+02   4.1439866003e+01     0.413864    0.2276585 -69.37   0.00241402    1.581    0.367
       372 -11.0074     26.2116    144.1108   1.2529779301e+02   4.2447483013e+01    0.3996581    0.1936824  66.98  0.002190439    1.998    0.500
       373  -8.9362    223.6312    144.4451   8.3093729670e+01   9.0183586937e+00    0.2023032    0.1450512  -1.48 0.0003525506    1.518    0.341
       374  -9.1090    119.1239    144.4915   1.0398832072e+02   2.9668728296e+01    0.3605072    0.2669255   0.01  0.001716747    2.445    0.591
       375 -10.1917     12.8032    144.4458   1.2829812145e+02   4.3561164507e+01    0.2888651    0.1556325 -35.73  0.001405594    4.148    0.759
       376  -8.7547    208.6658    142.9717   8.5388706194e+01   1.2213790993e+01     0.187668    0.1679163  -7.19 0.0004628187    1.093    0.085
       377  -8.7905    113.2711    142.2964   1.0492225448e+02   3.1148529611e+01    0.2838345    0.1806592  76.33  0.001318107    2.087    0.521
       378  -9.2335    131.3164    139.0124   1.0022249245e+02   2.8533784222e+01    0.2130092    0.1798183  51.68 0.0004451882    1.131    0.116
       379  -9.6495    135.7988    139.0152   9.9223721710e+01   2.7678685084e+01    0.2452631    0.2033929  86.73 0.0004816451    1.324    0.245
       380  -9.6198    235.0742    143.7420   8.1039929955e+01   6.8997387883e+00    0.2546717    0.1929847  25.89 0.0005754381    1.239    0.193
       381  -9.7515    238.6658    139.1285   7.9465821111e+01   6.8297251880e+00    0.2544771    0.2018751 -19.82 0.0004770724    1.194    0.163
       382 -10.5063    249.5324    140.1561   7.7983238482e+01   4.6468012985e+00    0.4940675    0.3056503  -8.93   0.00155058    1.716    0.417
       383  -8.2784    155.6666    140.7111   9.5263598650e+01   2.3438117584e+01    0.1396278    0.1099475  13.46 0.0004508787    1.628    0.386
       384  -9.1839     28.6211    139.8516   1.2436405308e+02   4.3129591308e+01    0.1730674      0.12055  55.17 0.0005348092    1.372    0.271
       385  -8.9260    109.6793    138.5900   1.0508522029e+02   3.2541370343e+01    0.2203797    0.1605063 -46.01 0.0005517931    1.530    0.346
       386  -8.8875    243.7442    137.9153   7.8397342135e+01   6.0210907023e+00    0.1997887    0.1547159   3.21 0.0004689419    1.223    0.183
       387 -10.0138    248.5628    133.6298   7.6713785649e+01   5.6665652475e+00     0.344538    0.2700525   1.13 0.0009767415    1.184    0.156
       388 -10.0947    166.2583    137.2948   9.2334922677e+01   2.1902502839e+01    0.2886536    0.2290369 -57.89 0.0008199417    1.418    0.295
       389 -11.8258    239.5626    112.7842   7.3333738976e+01   1.0256812971e+01    0.9337279    0.4610876 -19.57  0.003909654    2.250    0.556
       390  -8.9907    204.1234    134.1200   8.4267879501e+01   1.4509228126e+01    0.2232237    0.1839214  16.26 0.0008665015    1.233    0.189
       391  -9.0637     10.9959    134.2900   1.2794276630e+02   4.5854543077e+01    0.1538831    0.1185438  81.88 0.0004257059    1.064    0.060
       392  -8.6285    218.5890    135.5207   8.2012863317e+01   1.1310187870e+01    0.1763834    0.1323211  57.12 7.834013e-05    1.520    0.342
       393  -8.3234     96.6173    132.7001   1.0712264578e+02   3.5983605518e+01    0.1295326    0.1083062 -13.26 0.0007020892    1.774    0.436
       394  -9.2487     39.1100    131.5626   1.2101832886e+02   4.3890343180e+01    0.2002231     0.171729 -62.92    0.0013955    1.322    0.243
       395  -8.1785    126.2931    130.3078   9.9624244689e+01   3.1250381497e+01    0.1334197    0.1135491  -6.05  0.000182422    1.583    0.368
       396  -8.3212     80.4679    130.5026   1.1068713675e+02   3.8958771203e+01    0.1312269    0.1158458 -87.05 0.0001960689    1.033    0.032
       397  -8.2660    131.4245    129.4895   9.8270179716e+01   3.0433081386e+01    0.1392367     0.133387  81.56 0.0001506719    1.022    0.021
       398 -12.2153    247.8630    102.6374   6.9670356703e+01   9.9354150077e+00     1.107833    0.5930014 -36.24  0.005184895    1.749    0.428
       399  -7.9957    192.6743    126.7292   8.4717825462e+01   1.8136608211e+01    0.1454548     0.107491  18.44 0.0002482382    1.577    0.366
       400  -9.0812      5.4944    124.4577   1.2846724533e+02   4.8377352969e+01    0.1134231   0.08356274  88.13  0.000153844    1.014    0.014
       401  -8.9221    145.7298    122.6042   9.3510478863e+01   2.8942047458e+01    0.2600335    0.1835688 -69.87  0.001208785    1.792    0.442
       402  -9.2118    108.1524    123.6035   1.0258387574e+02   3.5990565089e+01    0.1839563    0.1326835  31.86 0.0003730704    1.651    0.394
       403  -8.4944    127.5625    121.4908   9.7453408101e+01   3.2826179555e+01    0.1424352    0.1342591  88.82 0.0001058417    1.020    0.019
       404  -9.2590     13.1324    118.9916   1.2612404245e+02   4.9002782232e+01    0.2053451     0.100366  77.55  0.001101621    2.010    0.502
       405  -9.4760     16.2673    115.5579   1.2499194002e+02   4.9516921918e+01     0.127127    0.1145861 -10.93 0.0009394062    1.616    0.381
       406  -8.1644      2.3226    114.3093   1.2843028657e+02   5.0794325861e+01      0.10867    0.0692634 -56.21 0.0006317772    1.648    0.393
       407  -8.4411     21.5424    113.5155   1.2340289224e+02   4.9544359849e+01    0.1189869   0.09218009 -83.51 8.799171e-05    1.019    0.019
       408  -9.3455     90.3617    111.8238   1.0469683725e+02   4.1584924558e+01    0.2324817     0.199006  41.84 0.0005390142    1.286    0.223
       409  -8.3734     41.4887    112.5158   1.1796413894e+02   4.7904258296e+01    0.1248422    0.1018527 -81.01 0.0001425538    1.017    0.017
       410  -9.7453      6.4972    112.0019   1.2716554886e+02   5.1019614752e+01    0.1787715   0.08718264 -79.01 0.0007430631    1.572    0.364
       411  -9.5557      2.2845    108.5873   1.2795220818e+02   5.2047445171e+01    0.2248282    0.1330826 -49.66 0.0008812695    1.925    0.481
       412 -11.0422    245.1023    129.1234   7.6246159324e+01   6.9213419249e+00    0.8523471    0.4369942  16.01  0.003185175    3.436    0.709
       413 -10.4420     28.6451    106.3788   1.2061974646e+02   5.0536844700e+01    0.3203066    0.2254464   4.24  0.001929278    2.239    0.553
       414  -9.7179     59.1773    101.1875   1.1116598794e+02   4.8467686101e+01    0.2929088    0.1664781  67.23  0.001322938    2.346    0.574
       415  -9.0389     89.1662    102.8871   1.0309786170e+02   4.3773076176e+01    0.2073205    0.1922538 -59.99 0.0009741067    1.095    0.086
       416  -9.8757     67.7179    100.5618   1.0860271019e+02   4.7497266253e+01    0.3559859    0.1540648  49.23  0.001506144    2.649    0.622
       417 -10.0155      4.3305    100.7477   1.2667024878e+02   5.3646032821e+01    0.3339805    0.1157665  53.48  0.001553564    3.275    0.695
       418  -8.2773     34.6684    100.7067   1.1812088006e+02   5.1270194460e+01     0.119935   0.08308786 -45.23 0.0003707423    1.633    0.388
       419 -10.0432     25.0028     99.0644   1.2065618656e+02   5.2509262638e+01    0.3004372    0.1733915 -52.14   0.00126243    1.713    0.416
       420  -8.9543     44.4509     98.4521   1.1492822803e+02   5.0798663913e+01     0.268589    0.1544894 -38.23  0.000950599    2.338    0.572
       421  -9.7051    214.5335     97.4663   7.3566715306e+01   1.7968149351e+01    0.2581766    0.2428301 -16.32 0.0006476219    1.023    0.023
       422  -8.4745    105.6618     98.3146   9.7551086406e+01   4.1927864533e+01    0.1485565    0.1103671  86.65 0.0007047327    1.697    0.411
       423 -10.2576     86.9430     95.8125   1.0209268502e+02   4.5713603078e+01    0.3841016    0.3009547 -42.02  0.001139288    1.341    0.254
       424 -10.8144     20.6199     94.6996   1.2132808543e+02   5.3853846553e+01    0.3541445    0.2585995 -27.91   0.00198566    1.897    0.473
       425  -9.4682     68.8705     93.8592   1.0686095196e+02   4.8864262816e+01    0.2058185    0.1722453 -48.51 0.0008208309    1.214    0.176
       426  -9.5406     40.0042     93.8254   1.1544327040e+02   5.2319109689e+01    0.2680582    0.1874558  10.81  0.001127317    2.101    0.524
       427  -9.8444     44.6306     90.8970   1.1352085256e+02   5.2508802103e+01    0.5329776    0.2282478  55.36  0.002194185    3.336    0.700
       428  -9.7725      7.3789     96.2354   1.2534421242e+02   5.4454358010e+01    0.1695953   0.08612406 -85.15 0.0009503945    1.643    0.391
       429  -9.6660    198.0412     90.7534   7.4663594835e+01   2.2889403304e+01    0.5501218    0.2121436 -40.96  0.001927904    2.564    0.610
       430  -8.8651     63.6219     96.7329   1.0900542148e+02   4.8916533422e+01    0.1271558   0.09888851 -28.48 0.0006989805    1.682    0.405
       431  -8.9654     24.1101     87.9723   1.1929905864e+02   5.5101363906e+01    0.2112693    0.1351632 -33.81  0.001215481    2.062    0.515
       432  -9.5547    249.4737     86.5247   6.5499340636e+01   1.1775363107e+01    0.2823492    0.1259281 -27.51 0.0007946281    2.039    0.510
       433 -10.7321    242.9337     81.7928   6.5199497146e+01   1.3837191106e+01     0.344626     0.195087 -16.01  0.001513912    1.927    0.481
       434 -11.5294    249.4216     78.2832   6.3442045200e+01   1.2890553446e+01     0.660019    0.4097385 -14.93  0.003158201    1.678    0.404
       435 -11.4240    241.2457     78.1677   6.4502972335e+01   1.4708530227e+01     1.110781    0.5443998  19.24   0.00313032    5.588    0.821
       436  -8.6038    220.7004     85.9995   6.9566003708e+01   1.8283252674e+01    0.2051378    0.1840804 -20.68 0.0005420551    1.050    0.048
       437 -10.0503     10.7455     83.0931   1.2272099216e+02   5.7180599200e+01    0.3975331    0.2255014 -19.60   0.00215379    2.924    0.658
       438  -9.1650    201.9901     84.3067   7.2207048551e+01   2.2980168296e+01    0.2073642    0.1891983  51.08 0.0003947634    1.132    0.116
       439 -11.0294    230.3228     86.3117   6.8169355899e+01   1.6026467581e+01    0.8083695    0.2255516 -31.90  0.002622109    3.165    0.684
       440  -8.7247      2.7837     83.4227   1.2522485092e+02   5.7590754802e+01    0.1286577    0.1055148 -28.75 0.0007406595    1.598    0.374
       441  -8.4309     57.6603     81.6549   1.0754106825e+02   5.3109158310e+01    0.1366935   0.09254397 -34.36 -0.0001013342    1.781    0.439
       442  -9.6918     37.6163     80.4393   1.1370793469e+02   5.5611973134e+01    0.3735777     0.192289 -46.34  0.001898824    1.942    0.485
       443 -10.4322     47.0923     79.4388   1.1042950219e+02   5.4854523315e+01    0.2775351    0.2348424  36.97  0.001785374    1.400    0.286
       444  -8.5661     35.4849     91.4951   1.1640323335e+02   5.3295323399e+01    0.1254729    0.1014812 -71.79 0.0004418396    1.024    0.024
       445 -10.3683      6.1433     73.8839   1.2290196898e+02   5.9526359810e+01    0.2545757     0.143157  67.88  0.001356543    2.076    0.518
       446  -9.7945    217.6236     72.6633   6.6448332827e+01   2.0983188494e+01    0.4441819    0.2573024 -10.55  0.001575764    2.246    0.555
       447  -8.6816     48.5007     74.4771   1.0884412424e+02   5.5818814973e+01    0.1302146    0.1092513 -62.50 5.422383e-05    1.001    0.001
       448  -9.5180    125.5178     73.4158   8.5306593067e+01   4.3123018481e+01    0.2446899    0.1968423  60.88 0.0006280367    1.349    0.258
       449 -10.8349    101.5742     68.9419   9.0480051079e+01   4.8932766903e+01    0.4997783    0.2619995 -35.90  0.001252474    2.039    0.510
       450 -12.3026    242.0157     68.2837   6.1839995573e+01   1.5875355465e+01    0.6778107    0.4200544 -13.73  0.003143233    1.757    0.431
       451  -9.1668    230.5471     68.9635   6.3558965047e+01   1.8433843808e+01    0.2018924    0.1225074   2.23 0.0004810084    2.393    0.582
       452  -9.0693     95.3304     67.6741   9.1926711640e+01   5.0363465958e+01    0.1452867    0.1122064 -83.28 0.0007050782    1.706    0.414
       453  -8.7130      6.9487     66.5265   1.2150724221e+02   6.1119070653e+01    0.1382904    0.1177692  16.68 0.0007233009    1.557    0.358
       454 -11.5496    247.6216     61.8331   5.9462373950e+01   1.5458106727e+01     0.494949    0.3049843 -34.00  0.002150513    1.436    0.304
       455  -9.0109     43.5068     65.4977   1.0837507568e+02   5.8375702620e+01    0.2281331    0.1392941 -53.82 0.0008307601    1.352    0.260
       456 -10.1599     44.3514     62.3246   1.0725864461e+02   5.8986114732e+01    0.2535975     0.171401 -27.56  0.001396716    1.817    0.450
       457  -8.2504     28.8113     64.2001   1.1330136571e+02   6.0079650110e+01    0.1702048    0.1162536 -45.65 0.0005493175    1.378    0.274
       458  -8.1373     54.3729     62.2907   1.0368955341e+02   5.7827517237e+01    0.1330125   0.09289363 -27.00 0.0007022842    1.724    0.420
       459 -10.5495    157.4588    245.5468   1.1068607143e+02   6.9706593140e+00    0.4469973    0.2580253  30.81  0.001992285    1.790    0.441
       460 -10.1666    170.9770    232.8576   1.0703771937e+02   6.4558883870e+00    0.2698148    0.1838886 -61.94   0.00156613    2.220    0.550
       461 -10.6192    170.2491    239.9951   1.0800602542e+02   5.7137616876e+00    0.3394017    0.2295862  33.19  0.001285384    1.294    0.227
       462 -10.1457    165.8423    240.1723   1.0873960352e+02   6.3589871392e+00    0.3193655    0.2058321  18.75    0.0015288    2.127    0.530
       463  -9.7987     17.4581    248.2292   1.3265977850e+02   2.4448876102e+01    0.1955887    0.1390871 -64.86  0.001305706    2.116    0.527
       464  -9.5016      8.8245    248.3554   1.3389644730e+02   2.5264976921e+01     0.148425    0.1082303  79.02 0.0004223631    1.296    0.228
       465 -11.2953      6.2670     59.0005   1.2047558671e+02   6.2824238270e+01     0.513079    0.2920856 -21.26  0.002781266    2.459    0.593
       466 -10.8002      3.7108     53.5410   1.2044393937e+02   6.4160422942e+01    0.4929739    0.2214453 -68.27  0.002138407    1.650    0.394
       467  -8.7054    119.1950    248.3698   1.1708395305e+02   1.2144687890e+01    0.1572517   0.06934046  49.53 0.0009478249    1.671    0.401
       468  -9.9993     31.4477    246.8424   1.3056671964e+02   2.3230436300e+01    0.2286692    0.1290494  65.41 0.0007025906    1.219    0.180
       469 -11.1339    210.8642    245.9800   1.0232667364e+02  -9.7867062264e-01    0.2318713    0.1686747  24.37 0.0005292908    1.160    0.138
       470  -9.2804    124.1733    246.9221   1.1616072976e+02   1.1634892048e+01     0.155625    0.1158468  50.60 0.0004914019    1.044    0.043
       471 -11.5253     79.1568     56.6251   9.3432262486e+01   5.5448590220e+01    0.5181231    0.2851128 -37.79  0.002370636    1.788    0.441
       472 -10.8074     82.1067     49.2970   8.9900005774e+01   5.6408784486e+01    0.4096414    0.2876731 -66.00  0.001989864    1.865    0.464
       473 -10.6242     53.2299     71.1252   1.0644468764e+02   5.6018851449e+01    0.3186057    0.2612451  51.12  0.001046965    1.410    0.291
       474  -9.5683     60.7879     59.7060   1.0068229321e+02   5.7555559532e+01    0.2464587    0.1245162  26.36  0.001087908    2.700    0.630
       475  -9.3007     64.8485     57.1728   9.8478174676e+01   5.7530834375e+01    0.1859531    0.1451467 -30.27 0.0003659604    1.323    0.244
       476  -8.2772     39.4626     57.5120   1.0776078226e+02   6.0556942563e+01    0.1288452    0.1029498 -50.84 0.0002164675    1.068    0.064
       477 -10.0110    238.2722     56.4138   5.9180651427e+01   1.8314789155e+01    0.2661955    0.1320534  58.00  0.001140957    2.110    0.526
       478  -9.8422     27.4813     55.5996   1.1177680628e+02   6.2094554149e+01    0.4512761    0.2214654  23.87   0.00215017    2.582    0.613
       479  -8.7418    198.4629     55.0096   6.4363351400e+01   2.8333339920e+01    0.2271181    0.1454283 -28.72  0.000403122    1.516    0.340
       480  -9.9929     45.9978     53.9053   1.0430053713e+02   6.0632862630e+01    0.2484713    0.2117781 -25.61  0.001599737    1.260    0.206
       481  -8.7176    221.2935     53.3419   6.0534248071e+01   2.2812131313e+01    0.1505117    0.1108662  18.86 0.0004412378    1.657    0.396
       482  -8.3399    139.7010     53.6198   7.5276176243e+01   4.3485987618e+01    0.1609497    0.1182071  10.72  0.000702298    1.765    0.433
       483  -9.1147    241.2865     52.6447   5.7811488061e+01   1.8098588000e+01    0.1514926   0.09622782 -52.72  0.000421845    1.672    0.402
       484  -8.6768    131.4489     52.5225   7.6869953727e+01   4.5639229724e+01     0.150462    0.1441021 -12.92 6.879465e-05    1.027    0.026
       485  -8.3947     63.2937     52.3667   9.7467566052e+01   5.8753084586e+01    0.1396451   0.09403509 -26.60 0.0007028487    1.716    0.417
       486 -10.0121    248.3688     50.5114   5.6435090004e+01   1.6733986752e+01    0.2515776    0.1213425 -27.24  0.001082111    1.868    0.465
       487 -10.6533     49.4207     48.6356   1.0137029480e+02   6.1346876292e+01    0.4462752    0.2958329 -85.77  0.001585934    2.533    0.605
       488 -10.4528     48.8365     43.1546   9.9759384717e+01   6.2546967470e+01    0.2388399     0.189741 -14.39 0.0008958089    1.412    0.292
       489  -8.7685     42.0423     49.9276   1.0461160242e+02   6.1919193701e+01    0.2050402    0.1287346 -33.46 0.0008693106    1.695    0.410
       490  -9.6752    132.9519    245.2324   1.1459376481e+02   1.0599929962e+01     0.159551    0.1449926  56.25 0.0004450784    1.262    0.208
       491 -10.1575    105.0119     47.2705   8.2028615853e+01   5.2424839056e+01    0.2647628    0.2010677  25.14 0.0004473248    1.509    0.337
       492  -9.7791    108.3087     45.0842   8.0262797717e+01   5.2119001416e+01    0.2092029    0.1781946 -32.90 0.0005722075    1.109    0.099
       493  -8.3579    193.6458     46.1756   6.2431557612e+01   3.0831221504e+01    0.2126859    0.1425584 -14.63 0.0006731196    1.658    0.397
       494  -9.8442     12.0484     44.3080   1.1514534854e+02   6.5685340214e+01    0.2903684    0.1794243 -41.98 0.0009122001    1.495    0.331
       495 -10.1152    119.0141     41.7843   7.6094421560e+01   5.0320249933e+01    0.4562854    0.2883409  63.46  0.001640061    1.882    0.469
       496  -9.0053    127.2708     40.6707   7.3581147407e+01   4.8583596660e+01    0.3164387    0.2077208  17.33  0.001330486    2.101    0.524
       497 -10.2349    113.2712    244.5074   1.1769671145e+02   1.3490867355e+01    0.4394534    0.2628702 -58.49  0.003112619    2.169    0.539
       498  -9.7520     46.0191     39.2028   9.9488735667e+01   6.3684352867e+01    0.1930321    0.1465063  72.00  0.001086377    2.032    0.508
       499 -10.5845     57.4957     34.0168   9.2932886753e+01   6.3198861630e+01    0.2987308    0.2292583  82.23  0.001599516    2.219    0.549
       500 -10.0477      3.8515     29.6951   1.1498242345e+02   6.9242586734e+01     0.329952    0.2744444 -55.02  0.002505033    1.111    0.100
       501 -10.4776    118.1135    238.8413   1.1640523688e+02   1.3588998759e+01    0.4562431    0.2808946  24.60   0.00189939    2.612    0.617
       502 -10.1318     49.4223     32.6346   9.5618971647e+01   6.4548967876e+01    0.2474451    0.2111037  27.51  0.001604793    1.356    0.262
       503  -9.2964    114.6831    239.7149   1.1704626852e+02   1.3954387776e+01     0.228734    0.1293023  57.32  0.001097774    1.475    0.322
       504 -10.3811      9.4706     52.7961   1.1807759951e+02   6.4002914460e+01    0.4129083    0.2032745 -48.55  0.001652419    1.728    0.421
       505  -9.8383     70.8539     20.0966   8.1741255932e+01   6.3502368830e+01    0.1989773    0.1733254 -45.22 0.0008286698    1.299    0.230
       506  -8.3245    243.4148    245.4051   9.7348421844e+01  -5.5375951841e+00    0.1043241    0.0713093  24.88 0.0001600231    1.040    0.039
       507 -10.1709     78.5683     21.3371   7.9596290338e+01   6.1932429526e+01     0.339781    0.2628569 -83.79  0.001133881    2.201    0.546
       508 -10.9454    192.0473    243.9523   1.0500061624e+02   1.9961095163e+00    0.2931451    0.2171407  -1.98 0.0005641051    1.710    0.415
       509 -10.1226    202.1866    239.8882   1.0289424164e+02   9.0794346555e-01    0.2237188    0.1784986  45.17 0.0005099495    1.282    0.220
       510  -8.5364    178.9581     14.7556   5.4432267750e+01   3.8637407206e+01    0.2004541    0.1854613  75.49 0.0003235576    1.064    0.060
       511 -10.8559    198.1410    237.8282   1.0326779989e+02   1.7312890480e+00    0.3947777    0.2398338  35.72  0.001450414    1.252    0.201
       512  -9.4111     93.5587    244.6536   1.2086510342e+02   1.6151459203e+01    0.1782812    0.1171733  47.88 0.0005946543    1.206    0.171
       513  -9.5323     80.7756    244.3585   1.2287139633e+02   1.7855392032e+01    0.1699087    0.1276523  53.70 0.0004849422    1.174    0.149
       514  -9.0259     41.5880    244.7477   1.2895759711e+02   2.2453927989e+01    0.1452102    0.1001841  50.18 0.0005868264    1.317    0.240
       515 -10.5015    177.0897    243.2479   1.0728727836e+02   4.3089433499e+00    0.2308211    0.1703827  30.41 0.0005115984    1.220    0.181
       516 -10.2187    225.6958    240.1544   9.9286442059e+01  -2.5785536449e+00    0.2338696    0.1776145  20.40 0.0004600745    1.115    0.103
       517 -11.3223    211.0136    237.7428   1.0122900021e+02  -1.9057640659e-01    0.5347738    0.2655688  43.15  0.003310899    1.588    0.370
       518 -10.0993    218.8097    241.9749   1.0058464359e+02  -1.7510383651e+00    0.2168476    0.1965221  62.37  0.001298229    1.681    0.405
       519 -10.4264    221.3826    236.8995   9.9504059035e+01  -1.6422183243e+00     0.417075     0.214531  20.50  0.001641041    2.237    0.553
       520  -9.1824     98.5499    241.2839   1.1980184300e+02   1.5963948976e+01    0.1891379    0.1363686  43.13 0.0007527953    1.324    0.245
       521  -9.9105    154.1478    240.7235   1.1069962128e+02   8.0515467617e+00    0.2743245    0.1401404  57.74  0.000966029    2.142    0.533
       522 -10.0322    125.4027    239.9746   1.1531708025e+02   1.2387127464e+01    0.1976542    0.1625498  48.01 0.0004805554    1.169    0.144
       523  -9.9335    103.3926    240.0824   1.1891878077e+02   1.5475733938e+01    0.1880463    0.1308645  49.52 0.0004448729    1.127    0.113
