#   1 NUMBER                 Running object number                                     
#   2 MAG_AUTO               Kron-like elliptical aperture magnitude                    [mag]
#   3 X_IMAGE                Object position along x                                    [pixel]
#   4 Y_IMAGE                Object position along y                                    [pixel]
#   5 X_WORLD                Barycenter position along world x axis                     [deg]
#   6 Y_WORLD                Barycenter position along world y axis                     [deg]
#   7 A_WORLD                Profile RMS along major axis (world units)                 [deg]
#   8 B_WORLD                Profile RMS along minor axis (world units)                 [deg]
#   9 THETA_WORLD            Position angle (CCW/world-x)                               [deg]
#  10 FWHM_WORLD             FWHM assuming a gaussian core                              [deg]
#  11 ELONGATION             A_IMAGE/B_IMAGE                                           
#  12 ELLIPTICITY            1 - B_IMAGE/A_IMAGE                                       
         1 -18.3877    231.5237    127.3195   3.1441376342e+01   1.1119034164e+01     4.916225     3.945192  21.54    0.0221463    1.276    0.216
         2 -11.2955    193.0902     23.8219   1.1624319738e+01   3.3147108616e+01     1.338658    0.3521834  48.02  0.003763802    5.979    0.833
         3 -12.6626    194.2911     12.0057   8.3539649224e+00   3.4097244271e+01     1.443363    0.9124168  69.11  0.007875011    1.523    0.343
         4 -13.0079    206.3124     17.3584   8.6810428450e+00   3.0751080041e+01     1.828418    0.6984119  65.03  0.008081554    2.486    0.598
         5 -12.2717    216.3615     27.6350   1.0340069991e+01   2.7394845621e+01     1.231883     1.089811  -2.91  0.007995867    1.375    0.273
         6 -11.8681    240.0886     24.0525   7.6021837215e+00   2.2814780710e+01      1.34747    0.5137421 -47.92  0.006440768    2.237    0.553
         7 -12.1136    247.5162     19.7184   6.1562376243e+00   2.1811061164e+01     1.430104    0.5907183 -51.76  0.007265073    2.126    0.530
         8 -12.1073    230.7587     24.1043   8.3074650983e+00   2.4706279876e+01      1.29419    0.4791183 -36.16  0.006073215    2.176    0.541
         9  -8.7923    115.9735     12.5154   1.9208447935e+01   5.4048569638e+01    0.2953352    0.2121627  68.15  0.001395886    1.286    0.223
        10 -10.2905    120.2414      9.3905   1.7129897612e+01   5.3249921992e+01    0.4985009    0.3603705  63.52  0.001919121    1.226    0.184
        11 -10.9034    227.6319      7.2168   4.6671733823e+00   2.7081234680e+01    0.4014026    0.1397027  68.31  0.001841184    2.788    0.641
        12 -11.8127    215.2359     10.6654   6.3188812167e+00   2.9422184799e+01    0.7480996    0.4971639 -79.85  0.003650956    1.448    0.309
        13  -7.7014     29.2815    163.2985   8.6850607352e+01   3.7410166632e+01    0.1182624   0.09352343 -41.71 0.0002237265    1.543    0.352
        14 -12.0924    197.7121    249.9778   5.8662978449e+01  -2.7170867082e-01     1.233959    0.3556826  31.06  0.005726059    2.734    0.634
        15 -12.1374    215.1956    246.9120   5.5184612313e+01  -2.0163283713e+00     1.111689    0.6938373   2.27  0.007740686    1.378    0.274
        16  -7.8682     74.3210    158.2845   7.3594059743e+01   3.3320321476e+01    0.1344998     0.107632 -15.97 0.0002428783    1.593    0.372
        17 -10.5888     68.4057    144.1970   7.3265413554e+01   3.7442716101e+01    0.6305686    0.4384546  67.83  0.002621763    1.629    0.386
        18  -9.6761    119.9246    197.2205   6.7335671193e+01   1.8393753851e+01    0.1985049    0.1862279  -9.47 0.0002755396    1.191    0.160
        19  -8.4082     20.6916    137.0865   8.7159621563e+01   4.4377012547e+01    0.1713223    0.1488993 -81.64 0.0002474498    1.091    0.083
        20  -9.4562    113.9094    135.7976   5.8368562992e+01   3.2006922953e+01    0.2852923    0.2244717 -59.65  0.001090132    1.409    0.290
        21  -9.3308    107.8304    129.1165   5.8679885388e+01   3.4611172404e+01    0.3662464    0.2504009 -84.81  0.001526035    2.300    0.565
        22 -10.6743    125.0128    127.4982   5.3513314544e+01   3.1695662265e+01    0.5072021    0.3847203 -41.94  0.002494063    1.383    0.277
        23 -10.3584     42.7368    124.7074   7.8596727137e+01   4.5373190297e+01    0.2296854    0.2202413 -84.06 0.0002760452    1.039    0.037
        24 -10.6140    114.1935    118.6588   5.4487040961e+01   3.5734748353e+01    0.5499913    0.3667542 -43.03   0.00250285    1.573    0.364
        25  -9.8799    121.7015    119.9991   5.2684118599e+01   3.3959245751e+01    0.3120089    0.2474764 -66.27 0.0008343463    1.502    0.334
        26 -10.6826    122.6872    116.1670   5.1492424982e+01   3.4583975686e+01    0.3989102    0.3240995 -76.22  0.001935808    1.553    0.356
        27  -7.3942     94.2889    116.3380   5.9942794785e+01   3.9993749344e+01    0.1529427    0.1177088 -16.54 0.0006843098    1.638    0.390
        28 -11.6299     57.9506    104.2813   6.9712492871e+01   4.8634584294e+01    0.5979087    0.5700006  74.75 0.0007419315    1.064    0.060
        29 -12.2781     72.8684    109.0585   6.5398752057e+01   4.5308048050e+01     1.204702    0.7389705 -48.20  0.003630504    1.654    0.395
        30 -11.7132    113.1158    106.9798   5.1935230890e+01   3.8513816299e+01     1.047536    0.8230473 -10.48   0.00495321    1.585    0.369
        31 -11.9571    125.2264    105.9480   4.8222135364e+01   3.6223558574e+01    0.7229058    0.6828237  80.67  0.003418198    1.164    0.141
        32 -11.1063    124.0420    101.4764   4.7371714996e+01   3.7409816538e+01    0.6646853    0.4020455  30.23  0.002261728    1.906    0.475
        33 -11.3712     66.6072    105.2745   6.6781674474e+01   4.7174219205e+01    0.8303056    0.5437585 -44.18  0.003240138    1.589    0.371
        34 -11.9711     36.6282    102.2217   7.7332986662e+01   5.1639250648e+01    0.9025483    0.7842547 -83.24  0.004264442    1.129    0.114
        35  -7.7368    102.2302    102.9971   5.4214340053e+01   4.1562812087e+01    0.1992709    0.1282667 -49.05 0.0008642364    1.602    0.376
        36  -9.5881    123.4438     96.9695   4.6317971604e+01   3.8473541319e+01    0.3030041    0.2159657  60.39  0.001093054    1.610    0.379
        37  -8.0441    125.8342    195.1976   6.5668303847e+01   1.7861079304e+01    0.1802895    0.1417482  11.85  0.000298002    1.312    0.238
        38  -9.8501    116.4774     93.0776   4.7221026403e+01   4.0787521370e+01    0.2910489    0.2486697  46.41 -7.827665e-05    1.145    0.126
        39 -11.0940    192.2410    193.9425   5.1235082322e+01   7.7219885956e+00    0.8343958    0.4817381 -59.61  0.003278756    4.784    0.791
        40  -8.4326     98.8997    109.1700   5.6807252665e+01   4.0802993410e+01    0.2301001    0.2065377  63.85 0.0005230996    1.189    0.159
        41 -10.1752    183.5838     78.7311   2.7783877366e+01   2.8020469465e+01    0.3947092    0.3260264  16.08  0.001507258    1.406    0.289
        42  -8.9598    168.9664    192.4428   5.5666083260e+01   1.1542404835e+01    0.2110519    0.1886648  48.55 0.0005568532    1.409    0.290
        43  -8.4076     88.3309     78.0383   5.1811930832e+01   4.9806282997e+01    0.1994445    0.1925675 -36.98 0.0005685457    1.061    0.057
        44  -9.2603    166.4866     75.8485   3.0144637573e+01   3.2456123412e+01    0.3811366    0.2937347 -26.69  0.001649738    1.356    0.263
        45  -9.2882    207.7148    198.3723   4.9083046472e+01   4.8361375905e+00    0.3886108    0.2162246  20.37  0.002120551    1.712    0.416
        46  -8.9476    173.0650     71.9425   2.7814727164e+01   3.1526585536e+01    0.2097978    0.2068381 -29.92  0.000342359    1.021    0.021
        47  -8.0366    198.5043    188.4833   4.9093050560e+01   7.5687895048e+00     0.125578    0.1058285  10.84 0.0008089823    1.086    0.079
        48  -8.6983     63.3264    181.9223   7.9471827408e+01   2.9479604433e+01    0.2062888    0.1525401  45.60 0.0003075982    1.175    0.149
        49  -9.1967    222.5952     68.2431   1.9447699197e+01   2.1066675891e+01    0.2393353    0.2017812  67.24  0.001269337    1.306    0.234
        50  -8.6934    196.8478     67.3252   2.2674760981e+01   2.6723054842e+01    0.2543705    0.1758634   9.31  0.001192706    2.110    0.526
        51 -11.2141    146.3417    172.5579   5.7218392058e+01   1.8703591568e+01    0.6465093    0.3423628 -58.26  0.001949808    2.757    0.637
        52  -8.8622    149.2126    178.0302   5.7522269346e+01   1.7216144490e+01    0.2164661    0.1394511 -43.85  0.000342777    1.726    0.420
        53  -9.9604    163.0769    178.5646   5.4531099466e+01   1.4797620287e+01    0.3667344    0.2997223 -67.56   0.00197286    1.808    0.447
        54  -9.8526    159.6490    174.1271   5.4485863401e+01   1.6145367731e+01    0.2586984     0.245322 -51.57  0.001051721    1.315    0.240
        55  -8.3636    138.9121     58.7455   3.0826643015e+01   4.1964969909e+01    0.2069609    0.1891025  60.56 0.0003938703    1.063    0.059
        56  -9.1752    233.4541     56.8589   1.5575816369e+01   2.0346992786e+01    0.3250107      0.21443  62.83  0.001101117    1.678    0.404
        57  -9.6149    234.0702     52.8291   1.4592527113e+01   2.0722506451e+01    0.3400875    0.1747579 -29.42  0.000441196    1.788    0.441
        58  -8.4399    163.8440     56.4938   2.5058648283e+01   3.6118649884e+01     0.431492     0.260068  20.30  0.001369248    2.865    0.651
        59  -9.8848    174.6186     55.5326   2.2925445127e+01   3.3619135287e+01    0.4911571    0.3507424 -75.36  0.002381775    1.694    0.410
        60 -10.7936    169.9139     50.1264   2.2135116858e+01   3.5534615793e+01    0.6949239    0.4930659 -66.88  0.002304843    1.623    0.384
        61  -8.2957    238.9891     55.8515   1.4786665756e+01   1.9384578979e+01    0.1591456    0.1394066 -43.55 0.0003796983    1.020    0.020
        62 -10.2355    227.5249     48.6426   1.4284428780e+01   2.2561209238e+01    0.3844081    0.2463082 -48.90  0.001793867    1.425    0.298
        63  -8.8252    151.2989    180.6991   5.7511371259e+01   1.6389616451e+01    0.2081188    0.1760385  40.64 0.0004273786    1.208    0.172
        64  -8.3213    176.8437     40.1037   1.8160487505e+01   3.5162299177e+01    0.2074481    0.1762711 -67.55 0.0002888464    1.166    0.142
        65 -10.3757    210.4916     33.9924   1.2467667664e+01   2.7973617947e+01    0.5528147    0.2381325  78.36  0.002322356    2.773    0.639
        66  -9.0581    201.3287     36.9376   1.4193095047e+01   2.9706139373e+01    0.4294916    0.1858476  58.03  0.001886486    2.299    0.565
        67 -12.5198    243.7170    245.4217   5.0267478016e+01  -5.0564088419e+00     1.667834    0.7556432  25.82   0.01068647    1.752    0.429
        68  -8.5150     29.9572    242.4360   9.1345587801e+01   2.1366743924e+01    0.1501556    0.1183296  58.45 0.0003124219    1.120    0.107
        69  -7.4399    133.2625    199.2484   6.4550426944e+01   1.5986078277e+01    0.1221793   0.09230506   7.16 0.0006773621    1.430    0.301
        70  -9.0388    215.3460    224.9551   5.1974909248e+01   4.4834540212e-01    0.1904768    0.1323676  27.21  0.001305571    1.312    0.238
        71  -7.7639    236.6198    224.2819   4.8274708753e+01  -2.0683294176e+00   0.09462036   0.08020508  29.55 0.0004167519    1.721    0.419
        72  -7.6761     32.2546    218.3621   8.9709235797e+01   2.5496088409e+01    0.1000704   0.08512252 -41.78 0.0003636342    1.622    0.383
        73  -7.4583     38.3191    216.3012   8.8258128000e+01   2.5274418926e+01    0.1031624   0.08885569 -17.56 0.0003367064    1.623    0.384
        74  -8.2960     14.8561     18.1120   6.6024791152e+01   7.3112849088e+01    0.1713491    0.1203549 -25.37 -0.0006383859    1.273    0.215
        75  -8.9002    104.7886    247.9555   7.6464165354e+01   1.1900767760e+01    0.1907844    0.1290766  33.09 0.0003668732    1.113    0.102
        76  -8.4385    138.6644    199.0829   6.3306708781e+01   1.5181791854e+01     0.171672    0.1567174   9.10 0.0002192617    1.124    0.110
        77  -8.2973    135.6029    195.8092   6.3509308277e+01   1.6232818795e+01    0.2182437    0.1542467  57.31  0.001013511    1.774    0.436
        78  -9.6244    147.2904     33.8847   2.0965835458e+01   4.3439885761e+01    0.3934059    0.1926053  60.57  0.001641944    1.874    0.466
        79  -9.9503    150.9807     31.1759   1.9435394295e+01   4.2826761794e+01    0.3941891     0.261997 -57.15  0.001206173    1.667    0.400
