#   1 NUMBER                 Running object number                                     
#   2 MAG_AUTO               Kron-like elliptical aperture magnitude                    [mag]
#   3 X_IMAGE                Object position along x                                    [pixel]
#   4 Y_IMAGE                Object position along y                                    [pixel]
#   5 X_WORLD                Barycenter position along world x axis                     [deg]
#   6 Y_WORLD                Barycenter position along world y axis                     [deg]
#   7 A_WORLD                Profile RMS along major axis (world units)                 [deg]
#   8 B_WORLD                Profile RMS along minor axis (world units)                 [deg]
#   9 THETA_WORLD            Position angle (CCW/world-x)                               [deg]
#  10 FWHM_WORLD             FWHM assuming a gaussian core                              [deg]
#  11 ELONGATION             A_IMAGE/B_IMAGE                                           
#  12 ELLIPTICITY            1 - B_IMAGE/A_IMAGE                                       
         1 -12.6647     40.1175     32.3301   7.6009768313e+01   6.5515707005e+01    0.3480313    0.2497933 -15.68 0.0006168552    1.292    0.226
         2 -11.4568     45.8784     22.5046   6.9332007232e+01   6.6056419396e+01    0.4494457    0.2245249 -43.74  0.002230051    2.573    0.611
         3 -11.3830     75.4069     21.5484   5.8048410833e+01   6.0957982632e+01    0.3701311    0.3109372 -83.68  0.001925495    1.790    0.441
         4 -11.0326      1.9911     21.0544   9.0797267177e+01   7.1318598542e+01     0.337471    0.2294119 -21.38      0.00234    1.158    0.136
         5 -10.6585     14.8807      8.7608   7.7976428912e+01   7.1952489880e+01    0.2920791    0.1529864   6.19 0.0008651859    2.158    0.537
         6 -11.3909     13.6345     15.4593   8.1836025864e+01   7.1162588776e+01    0.3237463     0.240404 -39.21  0.001209311    1.516    0.341
         7 -11.7428     83.6795     14.8642   5.2930412828e+01   5.9991862687e+01    0.4362508    0.2490418  20.27 0.0006432658    2.196    0.545
         8 -11.8007    234.8432     15.0002   3.0887228087e+01   2.5935692990e+01    0.2205896    0.1687655 -73.36 0.0003025746    1.013    0.012
         9 -10.7456    172.0325     11.9314   3.5956603640e+01   4.0009045844e+01    0.1873136    0.1555806 -89.79 0.0003414958    1.023    0.022
        10 -11.2968    208.0044     13.1438   3.2646035208e+01   3.1757307527e+01    0.1950357    0.1553032 -57.48 0.0003668338    1.188    0.158
        11 -11.5079     34.9099     12.6214   6.9684736094e+01   6.8926940536e+01    0.2742311    0.2470268  32.01 0.0009175722    1.459    0.314
        12 -11.6266     30.5075      7.5937   6.9321601746e+01   7.0141989869e+01    0.4577837    0.2504089  26.31   0.00270213    1.628    0.386
        13 -10.2722     27.9136      2.2270   6.7864134406e+01   7.1100985908e+01    0.2173727    0.1495636 -20.28  0.001108891    1.414    0.293
        14 -10.2413     40.7450      7.6193   6.4686224785e+01   6.8620169374e+01    0.2190577    0.1487069  40.55 0.0002366458    1.428    0.300
        15 -10.1337     37.5235      6.0597   6.5332387501e+01   6.9285018127e+01    0.1987886    0.1381336 -37.62  0.001077728    1.851    0.460
        16 -11.8458    128.2311     10.7304   4.1730287972e+01   5.0427719953e+01    0.6486662    0.1779349  55.28  0.002528547    2.761    0.638
        17 -10.2056    123.7760      8.0092   4.1635612272e+01   5.1707475346e+01    0.2172024    0.1332943 -19.66  0.001139547    1.986    0.497
        18 -10.8076     71.8828     12.0252   5.5252321617e+01   6.2650298169e+01    0.3264442    0.2267483 -55.75  0.001805456    2.294    0.564
        19 -11.1185    117.2716      8.8577   4.3073676408e+01   5.3138175665e+01    0.4037265    0.2505232  84.70  0.001578036    1.870    0.465
        20  -9.7065     45.6921      9.9758   6.3728845497e+01   6.7577224247e+01    0.1630021    0.1328366   7.11 0.0004098569    1.084    0.077
        21 -10.7013     22.3402      9.4179   7.4298351853e+01   7.0998440125e+01    0.2677081    0.1523463  11.65  0.001163174    1.758    0.431
        22 -10.6887      2.3103      6.8255   8.4349178634e+01   7.3445578173e+01    0.2327513    0.1760145 -14.79 0.0008778598    1.082    0.076
        23 -11.9601    217.2771      8.0903   3.0829010064e+01   3.0312614189e+01    0.2592923    0.2128313 -84.27  0.001847167    1.101    0.092
        24 -10.6228     56.9883      8.0745   5.8510669969e+01   6.5835943823e+01    0.1425293    0.1175297  15.96 0.0005150469    1.076    0.070
        25 -10.1124    165.4776      7.5165   3.5591081046e+01   4.1966326830e+01    0.1254785    0.1047406  79.52   3.3381e-06    1.043    0.041
        26  -9.4401     97.9836      7.2955   4.6470395365e+01   5.7621243417e+01    0.1749542    0.1346372  54.32 0.0003353418    1.092    0.084
        27 -10.0291    188.4869      6.4812   3.2932443385e+01   3.6775698191e+01    0.1222796    0.1002794 -89.68 0.0001618056    1.036    0.035
        28 -11.0248    150.6709      5.7006   3.6923719423e+01   4.5603183154e+01    0.2648263    0.1737096 -74.15 0.0008365886    1.627    0.386
        29 -10.2247     70.4486      6.0412   5.3172152902e+01   6.3488013323e+01    0.2516305    0.1351489  38.24  0.001367565    1.608    0.378
        30 -10.0118     74.9766      3.7887   5.0899501703e+01   6.2778720071e+01    0.2360139    0.1255734  37.80 0.0009855349    1.660    0.398
        31 -10.0592    235.5138      5.5149   2.9026877096e+01   2.6845477976e+01    0.1157244   0.08586604 -72.29 -6.680425e-05    1.018    0.018
        32 -10.5231    104.5003      3.8552   4.3846650109e+01   5.6456806966e+01     0.256402    0.2141295 -19.03  0.001136441    1.408    0.290
        33 -10.9956     58.1470      2.4568   5.5553312428e+01   6.6143827368e+01    0.2884814    0.2256236  59.46 0.0009999431    1.503    0.335
        34 -11.2618     20.9496      2.1409   7.1338500514e+01   7.2042269733e+01    0.3110417    0.1504028  31.24  0.000491188    1.824    0.452
        35 -10.0603    237.8693      2.1479   2.8245069226e+01   2.6735110617e+01    0.1385673    0.1165299  85.44 0.0003853926    1.297    0.229
        36 -10.6760     80.0561      1.5884   4.8616346423e+01   6.1917655591e+01    0.2629932    0.1211177  53.61  0.001346873    1.736    0.424
        37  -9.4845      1.0000      1.7691   8.2649683604e+01   7.4249794143e+01    0.1554459   0.05219789 -41.74 0.0007793369    2.785    0.641
        38  -9.9175     10.8875      1.2458   7.6414576221e+01   7.3339620659e+01    0.1695733   0.07838986  34.98 0.0006048168    2.218    0.549
        39  -9.4150    226.3528    163.8717   6.2863781354e+01   4.2783533864e+00    0.1957726    0.1103945 -31.29 0.0009338532    1.703    0.413
        40 -10.7602     27.7324    250.5471   1.1848639828e+02   1.7914491535e+01    0.2743041   0.08837903  36.26  0.001292564    2.569    0.611
        41 -12.0113     18.0495    248.9657   1.2022814323e+02   1.9276409546e+01    0.3111413    0.2482807 -44.34  0.002156065    1.898    0.473
        42 -13.3384      7.3227    242.2998   1.2188648176e+02   2.1697079190e+01    0.9403693    0.4830601  64.31  0.005644792    1.601    0.376
        43  -9.4619     29.1985    163.3957   1.1074831073e+02   3.7481726387e+01    0.1705062    0.1155943  45.69  0.000254633    1.507    0.336
        44  -9.9033     17.5264    163.5512   1.1388220226e+02   3.8540439629e+01    0.1310788    0.1096141  87.56 -6.123267e-05    1.048    0.046
        45 -10.7994      4.3802    158.8015   1.1687837474e+02   4.0766511579e+01    0.2235922    0.2017419  80.02  0.001522706    1.126    0.112
        46 -11.6162      6.4162    153.3845   1.1583026932e+02   4.1937399845e+01    0.5797217    0.2109181  16.55  0.002382518    3.664    0.727
        47  -9.5257     27.4587    147.0770   1.0921754925e+02   4.1733778905e+01    0.2022368    0.1180038 -70.69 0.0004156144    1.509    0.337
        48 -10.4890     12.5988    147.2196   1.1348520107e+02   4.2983792642e+01    0.1930897   0.09744626 -62.39 0.0002913619    1.662    0.398
        49  -9.7422    236.2110    138.8056   5.6158339188e+01   7.0159772777e+00    0.1793273    0.1464362 -13.24 0.0006376096    1.339    0.253
        50  -9.3684     24.4982    139.0074   1.0901051831e+02   4.4029735707e+01    0.1994631    0.0799447 -49.00 0.0008089592    2.420    0.587
        51 -10.9592      3.4687    133.9300   1.1463873329e+02   4.6907072473e+01    0.3314871    0.1762539  76.02  0.001588441    2.199    0.545
        52 -10.1157    212.5143    133.9373   5.9023175258e+01   1.2179934314e+01    0.2385999    0.1972905  77.44 0.0006564813    1.509    0.337
        53  -9.6789     96.1320    133.8464   8.6267422784e+01   3.5681159478e+01    0.2120367     0.181458 -22.77 0.0005333808    1.306    0.234
        54  -9.1639     61.6470    130.7122   9.6119499905e+01   4.1922687195e+01    0.1492328    0.1085059 -25.22 0.0007024183    1.670    0.401
        55 -10.8258     12.3620    129.3877   1.1141359810e+02   4.7410280471e+01    0.2665412    0.1432703 -72.36   0.00133415    1.601    0.375
        56 -10.9174     28.4647    128.0954   1.0619059069e+02   4.6394712488e+01    0.2182973    0.2001843  20.52  0.000341603    1.245    0.197
        57  -9.8558     47.2960    127.0410   9.9983109235e+01   4.4673555502e+01    0.1937143    0.1703007 -66.28 0.0003487425    1.056    0.053
        58 -10.2318      1.6783    123.4905   1.1397480511e+02   4.9561757267e+01    0.2257299    0.0978697 -71.97 0.0002976088    1.896    0.473
        59 -11.1874     24.1002    122.0362   1.0663803778e+02   4.8290223312e+01    0.2285317    0.2072554  32.26            0    1.253    0.202
        60 -11.5563      9.9108    121.1602   1.1108668417e+02   4.9603286272e+01    0.4058787    0.2474947 -80.96  0.002159388    1.558    0.358
        61 -10.1900     17.9601    121.9447   1.0861357834e+02   4.8819492299e+01    0.1926505    0.1665408 -59.84 0.0003370387    1.042    0.040
        62 -10.5848     69.0585    116.9933   9.0825573688e+01   4.4245707047e+01     0.220235    0.2065868 -46.71            0    1.009    0.009
        63 -11.8801      2.6856    111.2994   1.1208994148e+02   5.2444756434e+01     0.586491    0.2239945 -53.66  0.002397426    2.066    0.516
        64 -10.7135     45.4441    110.7700   9.7385816755e+01   4.8901053588e+01    0.2379549    0.2256144 -45.77 0.0002522219    1.046    0.044
        65  -9.8998     64.8127    109.6322   9.0521178496e+01   4.6641499315e+01    0.1967317    0.1316185  42.48 0.0002399008    1.612    0.380
        66 -10.9221     54.6512    108.7266   9.3768643944e+01   4.8258357993e+01    0.2733935    0.1919017 -32.32 0.0008022369    1.514    0.340
        67 -10.5218     57.6472    107.6968   9.2502913285e+01   4.8107085107e+01    0.1930101    0.1494821   0.28   0.00036502    1.505    0.335
        68 -10.3317     22.4589    109.5465   1.0510445698e+02   5.1485101803e+01    0.1324104    0.1148447 -58.27 6.141132e-05    1.011    0.011
        69 -10.7493     13.3045    109.0033   1.0816603195e+02   5.2318472662e+01    0.1895159    0.1476313 -62.49 0.0006247118    1.084    0.078
        70 -10.8559      1.5918    104.2631   1.1146728116e+02   5.4182722636e+01    0.2395466      0.12462 -59.96  0.001067722    1.509    0.337
        71 -11.2300     15.9147    104.4344   1.0649920335e+02   5.3226604557e+01    0.3303385    0.1467447  26.45  0.001171174    2.471    0.595
        72  -9.9851    246.5409    101.5439   4.7080581727e+01   1.1482124756e+01    0.1281914     0.107858 -48.08 0.0001488725    1.030    0.030
        73  -9.3208    159.7441    101.0194   6.1471652415e+01   2.9689636450e+01    0.1887157    0.1281241 -43.12 0.0002556907    1.455    0.313
        74  -9.3120     91.9555     99.9654   7.9152966227e+01   4.4371436333e+01    0.1693934    0.1636143  10.64 0.0009271059    1.031    0.030
        75 -10.6632      3.6708     95.9156   1.0944835568e+02   5.6030471229e+01    0.3958651    0.1361244 -60.13  0.001762353    2.136    0.532
        76 -11.4728      7.1624     90.9623   1.0731172880e+02   5.6976941298e+01    0.3648945    0.2372832  39.54 0.0003282659    1.863    0.463
        77  -9.8532    135.2403     95.6404   6.5733716107e+01   3.6297722520e+01    0.2111873    0.1396679  39.94 0.0003026412    1.575    0.365
        78 -12.2006     20.3915     92.9291   1.0271128168e+02   5.5596816347e+01    0.3917068    0.2599756 -35.12 0.0005419455    1.446    0.309
        79 -11.2233     57.9886     91.3765   8.8324091360e+01   5.1840371471e+01     0.379888    0.2254468 -24.96  0.000925341    2.157    0.536
        80  -9.6576     45.4286     91.2467   9.2907742177e+01   5.3497101590e+01    0.2773203    0.1157772 -51.95  0.001144623    2.103    0.524
        81 -10.0693     29.0058     92.0017   9.9263472163e+01   5.5067953995e+01      0.23865    0.1770813  19.64 0.0007697172    1.482    0.325
        82 -12.0183    125.2184     93.3025   6.7652794935e+01   3.8990313657e+01    0.2734767    0.2598077  52.21 0.0002237257    1.045    0.043
        83 -12.2378     11.5322     86.5086   1.0480389839e+02   5.7721371220e+01     0.566513    0.2947419 -86.50  0.002443298    2.964    0.663
        84 -11.2089      7.0118     84.9244   1.0624929459e+02   5.8367350940e+01    0.3885925    0.2667953  43.90  0.001940473    1.826    0.452
        85  -9.1520    124.3238     86.3272   6.5907244074e+01   4.0564218384e+01    0.1545302    0.1196225   8.29 0.0006353411    1.693    0.409
        86 -11.1862     66.3425     91.5556   8.5387756816e+01   5.0579614520e+01    0.4455646    0.2882518 -72.46  0.001323422    2.274    0.560
        87  -9.1870     34.5076     84.4737   9.5380937140e+01   5.6239229971e+01    0.1343964    0.1164928 -36.07 0.0002386773    1.011    0.011
        88  -9.6076    146.1540     83.3461   5.9752187677e+01   3.6158771779e+01     0.205523    0.1371533  62.91 0.0002447672    1.599    0.375
        89  -9.2560     76.7250     82.9772   7.9318121034e+01   5.0740175028e+01    0.1750179    0.1227887 -43.65 0.0003835894    1.395    0.283
        90  -9.6291    250.2520     80.9935   4.2505060177e+01   1.4046194554e+01    0.1654002   0.09056862 -41.99 0.0008165112    1.538    0.350
        91 -10.2067     89.3626     80.6053   7.4396889038e+01   4.8940042153e+01     0.365508    0.2572118  80.51 -5.119154e-05    2.568    0.611
        92 -11.6008     48.5381     78.8340   8.8417477903e+01   5.5850188421e+01    0.3746692    0.2313072   9.03  0.000913294    1.987    0.497
        93 -12.0661     55.1776     74.9489   8.4729223129e+01   5.5772349042e+01    0.3654521    0.2958699  28.05  0.002090673    1.271    0.213
        94  -9.2802    141.6921     79.7197   5.9752793507e+01   3.7851168098e+01    0.1458716     0.116401  19.72 0.0002260163    1.559    0.359
        95  -9.3307    124.4042     79.2374   6.3823739387e+01   4.1887833035e+01    0.1885571    0.1407407 -52.03 0.0002938214    1.442    0.306
        96  -9.4959     80.4202     79.2869   7.6947007121e+01   5.0849492846e+01    0.1899067     0.137098 -55.02 0.0009294905    1.553    0.356
        97  -9.8311     31.3073     79.0969   9.5289111636e+01   5.7751735605e+01    0.2066971    0.1631622  -6.24 0.0004825267    1.302    0.232
        98 -10.2707    176.7738     76.9807   5.1921659937e+01   3.0140074884e+01    0.2552857    0.2066215  64.56  0.001210895    1.222    0.182
        99  -9.8612    159.7583     77.2388   5.5193538459e+01   3.4066484908e+01    0.2420932    0.1774839  59.59 0.0006004057    1.341    0.254
       100 -11.0031      7.2529     76.4634   1.0445080434e+02   6.0245789659e+01    0.2463204    0.1776732  56.46 0.0008291208    1.896    0.473
       101 -10.1979     22.0216     76.0247   9.8286813869e+01   5.9274357293e+01    0.1877184    0.1527511  80.11  0.001114434    1.678    0.404
       102 -11.2744     15.8739     75.3925   1.0066743709e+02   5.9899953068e+01    0.2748447    0.2395457  10.47  0.001825466    1.273    0.214
       103 -10.9240     36.1498     72.7841   9.1632450497e+01   5.8604242941e+01    0.4717048    0.3558306  -2.82  0.002004727    1.372    0.271
       104 -12.7303    105.9176     71.0643   6.6381173174e+01   4.7419607771e+01    0.3270539    0.2945428  82.97 0.0005897832    1.300    0.231
       105  -9.7769    174.9723     72.3224   5.1046598994e+01   3.1331800103e+01    0.1953524    0.1727857  76.08 0.0003819407    1.092    0.084
       106 -10.3101     81.1979     68.3602   7.3238321583e+01   5.2826788021e+01    0.3761452    0.2195236 -51.69  0.001689946    2.001    0.500
       107 -10.3005     45.4438     69.0246   8.6756902882e+01   5.8285577146e+01    0.3500799    0.2240721 -51.34  0.001831267    1.550    0.355
       108  -9.2333    120.2611     69.3401   6.1927131992e+01   4.4589339204e+01    0.1441602    0.1137018   7.30 0.0004250629    1.588    0.370
       109 -11.0770      3.0831     67.2807   1.0420310888e+02   6.2479428000e+01    0.3795423    0.1494458  35.26  0.001737241    3.191    0.687
       110 -10.2050     51.2764     66.4593   8.3626900138e+01   5.8026354172e+01    0.2810018    0.1749022 -22.69 0.0008732274    1.815    0.449
       111 -10.1636    167.9722     65.9003   5.0610673976e+01   3.4009039356e+01    0.2074295    0.1903743 -88.62 -0.001320134    1.022    0.022
       112 -11.7168     96.9483     63.9079   6.6737271658e+01   5.0555729011e+01    0.3329052     0.239838  34.30 0.0002913062    1.371    0.271
       113 -10.9843     15.2542     63.3438   9.7921874710e+01   6.2512279653e+01     0.339575    0.2027971   5.49  0.001887461    1.829    0.453
       114 -12.8594     20.9218     58.0215   9.3898574322e+01   6.3129850990e+01    0.3887656    0.2636048 -19.64 0.0006888142    1.410    0.291
       115 -10.3847     62.6652     62.1454   7.7802266181e+01   5.7160408762e+01    0.3350573    0.2051811 -51.13  0.001635048    1.844    0.458
       116 -10.4487     38.9896     60.7596   8.6843110225e+01   6.0720674377e+01    0.3821543    0.1889776 -24.62  0.001601532    2.699    0.629
       117 -11.2571     11.2895     59.3142   9.8614337258e+01   6.3630919856e+01    0.3546751    0.1865874  16.93  0.001922437    2.040    0.510
       118  -9.0793     77.7654     57.9840   7.0932774508e+01   5.5314219284e+01    0.1561346      0.11253 -35.08 0.0002217446    1.405    0.288
       119  -9.8313     48.7709     58.1797   8.1924667495e+01   5.9957387927e+01     0.188271    0.1407391 -13.02 0.0006510548    1.328    0.247
       120 -10.1910     71.7502     56.6042   7.2562089444e+01   5.6631956036e+01    0.2233896    0.1681258 -34.96  0.000581429    1.335    0.251
       121 -10.2415      6.2015     56.7743   1.0025915777e+02   6.4485766773e+01    0.3052195    0.1552223 -16.54 0.0009247955    2.185    0.542
       122 -10.2545     32.7536     55.9467   8.7981757598e+01   6.2364162038e+01    0.2210267    0.1469913 -17.12 0.0006689788    1.524    0.344
       123 -12.1292    114.5125     53.2171   5.8337226862e+01   4.8501362999e+01    0.2844277    0.2670079  22.61 0.0003194156    1.076    0.071
       124 -11.3482     87.6595     53.7480   6.6195237641e+01   5.4127945543e+01    0.4420726    0.3324736   9.11  0.001849893    1.517    0.341
       125  -9.4734    156.5739     54.4141   4.9561134758e+01   3.8470934549e+01    0.1395408    0.1270916  84.20 0.0001477078    1.030    0.029
       126 -11.9480     66.8508     52.7742   7.2990096653e+01   5.8132015667e+01    0.4264727    0.2068583  35.78  0.001553761    2.017    0.504
       127 -10.0108    149.2048     52.2461   5.0331059030e+01   4.0545417625e+01    0.2536626    0.1621292  57.26 0.0007773819    1.452    0.311
       128 -11.6312    105.9822     50.5656   5.9714739965e+01   5.0792137857e+01      0.26327    0.2232437 -13.31  0.001487087    1.281    0.220
       129  -9.1934     78.3376     52.2954   6.8748791179e+01   5.6159439643e+01    0.1831187    0.1183738 -36.80 0.0004391591    1.595    0.373
       130  -9.5618     76.2172     49.4260   6.8447802349e+01   5.7015282663e+01      0.18031    0.1247974  51.57 0.0009305502    1.600    0.375
       131  -9.8232    121.7066     50.6987   5.5752305223e+01   4.7240909888e+01    0.1882914    0.1611624 -74.78 0.0004543451    1.355    0.262
       132 -10.7442    119.3978     48.1938   5.5505775586e+01   4.8133292897e+01    0.3546353    0.2115564 -36.71  0.001695014    1.794    0.443
       133  -9.7706     33.1121     51.1457   8.6225049028e+01   6.3226356784e+01    0.2835222    0.1583601  37.18  0.001039766    2.033    0.508
       134  -9.7708      4.0315     51.0009   9.9717559371e+01   6.5775554021e+01    0.2019109    0.1026236 -35.61  0.000608011    1.660    0.398
       135 -10.0414     58.7740     50.0915   7.5085413546e+01   5.9912413042e+01     0.182673    0.1819779  45.04 0.0006675944    1.312    0.238
       136 -10.5830     10.1144     48.3024   9.6018063333e+01   6.5897888309e+01     0.258048    0.1833516  14.52  0.001662882    1.476    0.322
       137 -11.0954    137.6547     46.9618   5.1071669042e+01   4.4043924845e+01    0.3639557    0.2467964  55.17  0.001359117    1.351    0.260
       138 -10.0488     53.3693     48.0180   7.6470487202e+01   6.1098457691e+01    0.3503552    0.1719365  24.81   0.00155697    2.323    0.570
       139  -9.7179     38.3298     48.6193   8.3033842194e+01   6.3064872392e+01    0.1717439    0.1108171  14.97 0.0009408011    1.574    0.365
       140 -10.3730     69.3379     46.7822   6.9906788349e+01   5.8679617495e+01    0.3223228    0.1458714  39.71 0.0008856019    2.098    0.523
       141 -10.5092     79.0183     45.8020   6.6183860812e+01   5.7051500946e+01    0.2019987    0.1841214 -14.11 0.0003135249    1.124    0.111
       142 -10.8187     27.3805     34.6681   8.2865505235e+01   6.6744208697e+01    0.2727435    0.1642579  -9.05 0.0008732123    1.805    0.446
       143 -11.1440     19.2449     44.4447   9.0372501259e+01   6.5875764086e+01    0.9225362    0.3718527  29.21   0.00446615    2.560    0.609
       144 -10.4514     25.5060     43.5472   8.7073454819e+01   6.5428233985e+01    0.2554093    0.1878889 -68.83 0.0009150425    2.158    0.537
       145 -11.2415     22.5731     38.4043   8.6617778922e+01   6.6629863283e+01    0.3016888    0.2684789 -36.38    0.0011816    1.310    0.237
       146  -9.0184     36.4713     45.4254   8.2707958325e+01   6.3856818314e+01    0.1272024    0.1049142  -9.90 0.0002772766    1.027    0.027
       147 -10.2291     36.0468     41.5371   8.1459587177e+01   6.4575973488e+01    0.2663937    0.1819714 -27.34  0.001110073    1.332    0.249
       148  -9.5881    152.1104     44.5501   4.7605029221e+01   4.0928457928e+01    0.1952125    0.1261858  64.57 0.0002651149    1.435    0.303
       149 -10.2232      2.6909     43.4113   9.8186130494e+01   6.7327816935e+01    0.3220876    0.1477929 -30.89  0.001695428    1.976    0.494
       150  -9.6482     69.2354     41.9950   6.8156124030e+01   5.9434871796e+01    0.1759843    0.1576716   1.98 0.0002003563    1.059    0.056
       151 -10.4252     58.6875     41.5451   7.1927378871e+01   6.1309664303e+01    0.3079848     0.158151  45.99  0.001455693    2.133    0.531
       152  -9.5963    183.7844     41.1976   4.1792373907e+01   3.3871807765e+01    0.2458816    0.1205009 -67.43 0.0009676935    2.897    0.655
       153 -10.0283    171.0840     40.4810   4.3407022116e+01   3.6946136140e+01    0.1989248     0.122095  66.85 0.0007193165    1.502    0.334
       154 -10.0238    138.4062     40.0722   4.8855481222e+01   4.4791403901e+01    0.3355846    0.1871614  76.54  0.001451654    2.192    0.544
       155 -10.6461    128.1126     38.7143   5.0527241937e+01   4.7398071992e+01    0.2295225    0.1957313 -38.58 0.0004814065    1.284    0.221
       156  -9.2937     99.4448     40.4525   5.8043534932e+01   5.3655648794e+01    0.1362727    0.1214851  34.38 0.0001323094    1.022    0.022
       157  -9.8736     43.3400     40.6321   7.7886946620e+01   6.3769253229e+01    0.2179724    0.1105178  35.95  0.001087967    1.964    0.491
       158  -9.3108    204.9571     39.7431   3.8828024239e+01   2.9249655178e+01    0.1532462    0.1010199  71.78 0.0002468681    1.437    0.304
       159 -11.7329    121.1680     37.2605   5.1571454339e+01   4.9202308188e+01    0.3860147    0.3608964 -36.40  0.001346794    1.181    0.153
       160  -9.4052    239.0139     37.4641   3.4951832641e+01   2.2378358652e+01    0.1657251    0.1067694  76.40 0.0009026846    1.528    0.346
       161  -9.7979    229.9286    247.7575   7.7405102408e+01  -9.5077163272e+00         0.16    0.1244539   5.78  0.000522084    1.061    0.057
       162  -9.7530    133.1528     35.0282   4.8354211203e+01   4.6674577996e+01    0.1992504    0.1423071  33.46 0.0003494321    1.599    0.375
       163 -10.5713      2.8965     34.9212   9.5384750118e+01   6.8884456270e+01    0.2595751    0.2227616  72.17  0.001530389    1.937    0.484
       164  -9.7219      7.1830     34.1871   9.2880988157e+01   6.8715475588e+01    0.1675481    0.1513931  -1.13 0.0007282288    1.292    0.226
       165 -11.1449     90.1854     31.6018   5.7466163827e+01   5.6771858351e+01    0.4710124     0.341218  86.38  0.002104997    2.207    0.547
       166  -9.2340     55.3309     33.3482   7.0017417996e+01   6.3077530606e+01    0.1359638   0.08837847   5.32 0.0007048991    1.765    0.434
       167 -10.5371     48.4608     33.2201   7.2765797232e+01   6.4175801132e+01    0.4472433    0.1574245  37.80  0.001437669    2.698    0.629
       168 -10.7377    144.0958     31.2843   4.5203411048e+01   4.4525644721e+01    0.2220231    0.1864939 -49.16 0.0006334916    1.279    0.218
       169 -11.2749     73.2446     31.8284   6.2839970585e+01   6.0124191991e+01    0.2583694    0.1974123  38.45 0.0003279099    1.181    0.153
       170 -10.4035     70.3073     28.7049   6.2603256201e+01   6.1079533184e+01    0.3671797    0.2002325 -47.74  0.001722362    2.640    0.621
       171 -10.0994     17.9211     32.3087   8.6633192244e+01   6.8122672163e+01     0.297075    0.1309255  14.39  0.001176664    2.611    0.617
       172 -11.5144     10.1260     29.8590   8.9747377418e+01   6.9231055712e+01    0.3093486    0.2050872  33.22  0.001959069    1.855    0.461
       173 -10.2900    135.6241     29.3596   4.6150381583e+01   4.6765703569e+01    0.2206318    0.1777551  67.29   0.00049895    1.113    0.101
       174  -9.3330    151.1967     29.6037   4.3530136626e+01   4.3028268941e+01    0.1785834    0.1099152  56.63 0.0004197526    1.472    0.321
       175  -9.7615    147.3152     27.8735   4.3669517804e+01   4.4154314356e+01    0.2718927     0.101105 -38.20  0.001116186    2.752    0.637
       176  -9.5348    140.0023     26.8467   4.4608533297e+01   4.6012552475e+01    0.2200072    0.1406462 -86.36  0.001071533    1.926    0.481
       177 -10.3010    127.2602     31.1504   4.8324295653e+01   4.8529841168e+01    0.2783814    0.2372816 -49.43  0.001667647    1.299    0.230
       178 -10.2806     34.8850     29.4350   7.7193682756e+01   6.6652914244e+01    0.2560168    0.1570423 -18.90 0.0008729998    1.634    0.388
       179  -9.8737    114.3258     26.1565   4.9433339557e+01   5.2101376721e+01    0.1754851    0.1164169 -39.84 0.0005360024    1.700    0.412
       180 -10.1042    225.1307    247.3234   7.8198167653e+01  -8.8564977600e+00    0.2088608    0.1342326 -20.72  0.001308233    1.435    0.303
       181  -9.2524     59.3912     25.7004   6.5299212728e+01   6.3428940098e+01    0.1158396    0.1009409  78.16 0.0007011059    1.797    0.444
       182  -9.6957    170.8610    246.9055   8.8591311359e+01  -1.3690144176e+00    0.1983118    0.1510145   5.79 0.0008999784    1.295    0.228
       183  -9.4033    116.0003    246.9045   1.0006221952e+02   6.8656290075e+00    0.1472536    0.1391979  53.93 0.0009810609    1.123    0.109
       184  -9.6021      6.3419     20.6691   8.8173808609e+01   7.1043241669e+01    0.2397364    0.1352955 -21.39 0.0009092461    1.584    0.369
       185 -10.3777    229.3731     21.4912   3.2584008068e+01   2.6296167475e+01     0.304278    0.1513625 -74.68  0.001570243    2.088    0.521
       186  -9.7245    180.4967     22.0004   3.7471977212e+01   3.6973447218e+01    0.1569202    0.1106815  16.48  0.000582024    2.394    0.582
       187  -8.8776    120.2483     22.6517   4.7019115725e+01   5.1117901156e+01    0.1258418   0.09607925 -66.52 0.0002228459    1.583    0.368
       188  -9.7805     97.2339     21.9713   5.2015049550e+01   5.6379195561e+01     0.201952    0.1467826  51.67  0.001165282    1.199    0.166
       189 -10.5062     54.7131     22.0195   6.5529912294e+01   6.4690499337e+01     0.215936    0.1492029  30.62 0.0005561966    1.262    0.208
       190  -9.6122     21.1221     21.7252   8.0638716108e+01   6.9457816993e+01    0.1860925    0.1194035   4.55  0.000900812    1.464    0.317
       191  -8.7352     20.3636     17.3942   7.9103311229e+01   7.0167941232e+01    0.2796604    0.1341879 -26.32  0.001487668    2.082    0.520
       192 -10.2135     33.7897    247.1974   1.1710055654e+02   1.7891997052e+01    0.2020868    0.1204073  43.17 0.0005389411    1.429    0.300
       193 -10.9393     13.9271     20.9877   8.4122355087e+01   7.0314928742e+01    0.3384405    0.2065541  38.49  0.001287391    2.176    0.540
       194  -8.9933     86.6367    245.2643   1.0611494376e+02   1.1465829077e+01    0.1349718   0.08001658  56.73 0.0006985889    1.643    0.391
       195 -10.0287     84.4194     20.8124   5.5040349528e+01   5.9223349154e+01    0.1670842    0.1168168  -1.48 0.0006814544    1.652    0.395
       196 -10.1548     29.9982     21.1086   7.5922847012e+01   6.8488563427e+01    0.2422759    0.1397229  20.21 0.0007006096    1.646    0.392
       197  -9.7829    214.6673     20.3014   3.3585454215e+01   2.9518735877e+01    0.1303165   0.07433157 -68.64 0.0004358465    1.653    0.395
       198 -10.3044     38.9597     19.7851   7.1144802197e+01   6.7445354255e+01    0.2895369    0.1854389  55.78  0.001498573    2.782    0.641
       199  -9.7101    120.7628     19.2452   4.5806443336e+01   5.1352106286e+01    0.1789815    0.1332381  40.67  0.000351884    1.326    0.246
       200 -10.3524     61.5253     18.4499   6.1444540983e+01   6.3924468111e+01    0.2676844    0.1244916  39.97 0.0009702853    1.878    0.468
       201  -9.2774    145.7609     16.9986   4.0791752150e+01   4.5693340538e+01    0.1446797    0.1104705 -30.73 0.0003177662    1.508    0.337
       202 -11.9144      4.1927    232.7868   1.2199232290e+02   2.3935394756e+01     0.301153    0.1796869  62.16   0.00192155    1.343    0.255
       203  -9.6362     35.6799    240.2990   1.1624867734e+02   1.9066454339e+01    0.1288202   0.07026681  61.40 0.0003030751    1.621    0.383
       204 -11.0313    202.4592     16.1345   3.3797208200e+01   3.2645575711e+01    0.2156688    0.1509449  84.15 0.0005496116    1.238    0.192
       205  -9.8802    168.8530     14.8292   3.7065991941e+01   4.0457838832e+01    0.1801717    0.1522593  68.29 0.0002511184    1.145    0.127
       206  -9.9108     14.3278    164.3046   1.1479734443e+02   3.8632552656e+01     0.128592     0.087496 -45.79 0.0003957007    1.649    0.394
       207  -9.8437    154.7936     15.5845   3.9086150310e+01   4.3694403626e+01    0.1897443     0.109204  82.79 0.0009482845    1.735    0.424
       208  -9.4717     48.6007     14.8611   6.4795200827e+01   6.6559032636e+01    0.1565919    0.1072731 -35.80 0.0007923754    1.715    0.417
       209  -9.4960    148.6882    238.4663   9.1959309171e+01   3.4093006960e+00    0.2124157    0.1211453 -49.08  0.001074383    1.999    0.500
       210  -9.0238     99.2826     14.3351   4.8735674927e+01   5.6702259590e+01    0.1315486   0.08484054  31.22 0.0002641776    1.619    0.382
       211  -9.0590     91.0000    237.0687   1.0428624597e+02   1.2463811049e+01    0.1893842   0.07397189 -62.28 0.0007910493    2.864    0.651
       212 -11.2385     25.0874    236.1240   1.1808728582e+02   2.1114670799e+01    0.2139021    0.1318727  48.16 0.0003453926    1.367    0.268
       213  -9.6656    249.2824    233.6067   7.1722946125e+01  -9.9172148916e+00    0.1472244   0.09266355  15.15  0.000548264    1.472    0.321
       214 -11.0019      2.8289    220.0950   1.2157968401e+02   2.6734810900e+01    0.2766288     0.154948  80.95  0.001637311    1.527    0.345
       215 -11.6195      3.1406    225.8974   1.2183392118e+02   2.5471819622e+01    0.4740449    0.1582191  49.39  0.002323135    2.384    0.581
       216 -11.6888     10.9254    231.7962   1.2062917253e+02   2.3487013621e+01    0.2708391    0.1412154  44.75 0.0008717633    1.629    0.386
       217 -11.9795      9.6366    227.2450   1.2062268796e+02   2.4568673965e+01    0.2869298    0.2458629 -84.39  0.001892077    1.255    0.203
       218  -9.7733     26.9068     16.7209   7.5452261530e+01   6.9481093820e+01    0.1641922    0.1220855  13.67 0.0005137254    1.144    0.126
       219  -9.5451     47.8166    229.8529   1.1291333340e+02   1.9800890829e+01    0.1733437    0.1180628  62.84            0    1.291    0.226
       220 -10.5488    193.2202     11.5809   3.3650484690e+01   3.5192185557e+01    0.1699491   0.09747475  64.85 0.0009422865    1.608    0.378
       221 -10.1239    134.5579     11.4917   4.0921230336e+01   4.8873672285e+01    0.1281328    0.1093604  67.68 5.510931e-05    1.012    0.012
       222 -10.2652     56.8909    229.8543   1.1096302989e+02   1.8658532065e+01    0.1739039    0.1647451  75.32 0.0004101804    1.194    0.162
       223  -9.4367     97.2680     10.4414   4.7785944379e+01   5.7504371828e+01    0.1710206    0.1117308  70.02 0.0009351208    1.588    0.370
       224  -9.8142    209.7164    229.4470   7.8127604393e+01  -4.2105295730e+00    0.1700592    0.1058053  19.83 0.0007762598    1.534    0.348
       225 -10.8250    140.1550    228.0636   9.2270147041e+01   6.6670163766e+00    0.3082813    0.2024548 -67.52  0.001535368    2.094    0.522
       226  -9.8145    132.0271     20.9873   4.4244900545e+01   4.8536440121e+01     0.198512    0.1745083  59.26 0.0005400424    1.050    0.047
       227  -9.8546      3.6087     10.4917   8.5298778506e+01   7.2812592142e+01    0.1254576    0.0923944  17.99 0.0001370085    1.406    0.289
       228  -9.7731    223.1888    226.8380   7.5168518776e+01  -5.6645196349e+00    0.1715973    0.1213524  -4.72 0.0003754479    1.309    0.236
       229  -9.0352    167.3134    221.6852   8.5382085971e+01   3.4983647678e+00    0.1282056    0.1052717  64.66 0.0007033973    1.640    0.390
       230  -9.0356    114.4698    221.5061   9.7072465723e+01   1.2073888468e+01    0.1361992    0.1240489  38.33 0.0002201939    1.038    0.036
       231  -9.6953    233.2309    218.9986   7.2004826831e+01  -5.8288191770e+00    0.1708899    0.1345434 -13.22 0.0003902069    1.055    0.052
       232 -10.7775      8.3789    218.2233   1.2034331653e+02   2.6621979897e+01     0.218645    0.2154223  33.55  0.001251809    1.406    0.289
       233  -8.8849     85.5451    215.4357   1.0294310662e+02   1.7825899740e+01    0.1345276    0.1218775  56.17 4.765579e-05    1.031    0.030
       234 -10.0670     15.8153    213.1638   1.1845952710e+02   2.7012018859e+01    0.1932123    0.1347532  67.25 0.0008406418    1.206    0.171
       235  -9.6835    205.5012    212.5022   7.6003890523e+01  -8.6500072583e-01    0.1318612    0.1121375  -1.89 -0.0001033712    1.012    0.012
       236  -9.5194    193.5004    202.5028   7.6571905836e+01   2.7470715406e+00    0.1357303    0.1211453  -0.84 -0.0001226064    1.013    0.013
       237 -11.4065      4.1252    201.0496   1.2016832836e+02   3.0819758237e+01    0.3321066    0.1256084 -64.03  0.001578288    2.408    0.585
       238  -9.1674     24.4980    195.5191   1.1515803378e+02   3.0167250587e+01    0.1305307    0.1048745  75.90 7.551586e-05    1.062    0.058
       239  -9.4796     14.0766    192.7865   1.1735145723e+02   3.1823724660e+01    0.1934012    0.1330577  65.76 0.0006170288    1.301    0.231
       240 -10.1741      6.0139    192.2482   1.1915419686e+02   3.2671001146e+01    0.1717356    0.1423743  79.00  0.001157871    1.046    0.044
       241  -9.5214      1.2563    191.4508   1.2017184890e+02   3.3255825522e+01    0.2040551   0.08841641 -80.41 0.0007896383    1.970    0.492
       242  -9.1883      7.3160    188.2884   1.1856954008e+02   3.3480200051e+01    0.1160101   0.08617972 -50.08 0.0003329945    1.590    0.371
       243  -9.2932     22.3351    180.2588   1.1429801387e+02   3.4017308517e+01    0.1201302   0.09375656 -41.31 0.0003347016    1.574    0.365
