#   1 NUMBER                 Running object number                                     
#   2 MAG_AUTO               Kron-like elliptical aperture magnitude                    [mag]
#   3 X_IMAGE                Object position along x                                    [pixel]
#   4 Y_IMAGE                Object position along y                                    [pixel]
#   5 X_WORLD                Barycenter position along world x axis                     [deg]
#   6 Y_WORLD                Barycenter position along world y axis                     [deg]
#   7 A_WORLD                Profile RMS along major axis (world units)                 [deg]
#   8 B_WORLD                Profile RMS along minor axis (world units)                 [deg]
#   9 THETA_WORLD            Position angle (CCW/world-x)                               [deg]
#  10 FWHM_WORLD             FWHM assuming a gaussian core                              [deg]
#  11 ELONGATION             A_IMAGE/B_IMAGE                                           
#  12 ELLIPTICITY            1 - B_IMAGE/A_IMAGE                                       
         1 -15.2615     69.9332    144.7166   9.5228136222e+01   3.7386931560e+01     3.446691       1.8227  71.92  0.002643351    4.613    0.783
         2 -13.6852    201.3236     44.3000   3.8378810669e+01   3.0204373640e+01    0.8791763    0.7567148 -60.75  0.002965207    1.086    0.079
         3 -14.0797    211.5596     35.0867   3.5176205533e+01   2.9179470611e+01    0.7251038    0.6856505  40.37  0.001494117    1.413    0.292
         4 -13.8449    237.5694      9.0882   2.7749694852e+01   2.6896505495e+01    0.7944249    0.6000918 -68.49  0.004398176    1.023    0.022
         5 -10.7034     59.5016      7.4807   5.5261747836e+01   6.5747023140e+01    0.1230451    0.0977518  27.50 0.0004636237    1.002    0.002
         6 -10.8607      2.1557      3.5944   8.1540821564e+01   7.4278662756e+01    0.2980523   0.05228643 -39.99  0.001131327    4.658    0.785
         7 -10.6260     87.5411    207.0979   1.0042417172e+02   1.9328623674e+01    0.2002632    0.1358078 -63.28 0.0005682065    1.523    0.343
         8 -12.5275    140.0738    248.4611   9.4023941992e+01   3.0387472106e+00    0.3938132    0.3232814 -65.52  0.002430779    1.569    0.362
         9 -13.2905    105.9551    249.6360   1.0153306079e+02   7.7155377135e+00    0.6822133    0.4210058  35.09  0.003755214    1.394    0.282
        10 -14.4874     53.8342    184.9732   1.0607156307e+02   2.9196226559e+01     1.806718     1.194743  63.88  0.009040699    1.619    0.382
        11 -16.6411     41.6411    195.5573   1.1037588116e+02   2.8013547164e+01     8.602227     2.871287  57.76   0.02095555    4.991    0.800
        12 -12.4508    191.5927    192.3010   7.3480024164e+01   5.5422606184e+00     1.426924    0.6984882 -62.35  0.003550036    7.952    0.874
        13 -12.1941    106.9390    203.3857   9.5102486437e+01   1.7251924554e+01     0.513566    0.3034717  71.76  0.001971362    2.941    0.660
        14 -11.7893    109.8763    198.3837   9.3585561440e+01   1.7933170168e+01     0.392425    0.2515978  -1.43  0.001588263    2.579    0.612
        15 -10.4925     82.1601    195.0858   1.0009980335e+02   2.2939118568e+01    0.2622349    0.2408834  -8.93  0.001500299    1.253    0.202
        16 -16.2866      4.6805    178.7552   1.1793584018e+02   3.5561453906e+01     8.786208     0.791522 -72.64   0.02366322    6.118    0.837
        17 -10.5101    157.9226    192.6660   8.0941118303e+01   1.1132445833e+01    0.2537812    0.2074992 -51.52 0.0004311709    1.325    0.245
        18  -9.9580    145.6614    184.2975   8.2235860452e+01   1.5072606671e+01    0.1482359    0.1187181  70.44 0.0006094089    1.658    0.397
        19 -10.6741     81.6711    183.1645   9.8460218565e+01   2.5919076422e+01    0.2825017    0.2740611 -21.03 0.0009396175    1.122    0.109
        20 -11.1305     99.3980    181.0430   9.3403647734e+01   2.3725402480e+01    0.2774251    0.2442897  26.89 0.0007071216    1.163    0.140
        21  -9.6442    180.4318    176.1956   7.2634236898e+01   1.0612446123e+01    0.2019221     0.136247 -53.43 0.0009404546    1.668    0.401
        22 -10.6093     86.4823    176.4357   9.6091136861e+01   2.6875220243e+01    0.2354057    0.1879162 -69.38 0.0001111873    1.266    0.210
        23 -10.9967     89.2046    174.1722   9.4969492257e+01   2.7023714756e+01    0.2520583    0.2087014  16.10 0.0005820676    1.346    0.257
        24 -14.7084     80.2757    157.6591   9.4563452980e+01   3.2560008618e+01       3.0079     1.193011  56.01  0.007421223    6.062    0.835
        25 -13.5132     68.8711    152.6532   9.7008039972e+01   3.5490524724e+01     0.516831     0.432303 -22.06  0.001070166    1.362    0.266
        26 -12.3302    125.1566    243.9916   9.6655588200e+01   6.0255904067e+00    0.4316087    0.2395127 -50.19  0.002191662    2.023    0.506
        27 -10.6395    191.8284    167.2751   6.8375775840e+01   1.0386172002e+01    0.4685635    0.1996652 -48.23  0.001777111    2.428    0.588
        28 -12.2800     67.6317    170.2763   1.0029096649e+02   3.1136145972e+01    0.4597749    0.3144132 -31.81  0.001312906    1.823    0.451
        29 -10.5228    110.8329    167.5488   8.7875901967e+01   2.5120916351e+01    0.2957546    0.2039395 -76.15 0.0007985926    1.875    0.467
        30 -10.6072    186.8534    165.6268   6.9061493065e+01   1.1608460086e+01    0.2689299    0.1875678 -31.04  0.001308779    1.391    0.281
        31  -9.2006    102.9668    164.9793   8.9522472322e+01   2.7093448592e+01    0.1768741    0.1760659 -44.53            0    1.008    0.008
        32 -10.8586     36.2725    162.0235   1.0792762863e+02   3.6974317731e+01    0.2288288    0.2068278   6.19 0.0005711359    1.309    0.236
        33 -11.4831     33.0824    156.1246   1.0807437603e+02   3.8804846253e+01    0.3184168     0.287981  41.07   0.00093155    1.215    0.177
        34 -12.3036     87.9888    151.1083   9.1065585774e+01   3.3036092218e+01    0.6794395    0.4538562 -21.52   0.00285662    2.066    0.516
        35 -11.5050    133.7565    145.2736   7.7013925589e+01   2.6238272191e+01     1.164717    0.2796537 -53.37  0.002608908    5.901    0.831
        36  -9.4309    112.1971    150.3725   8.3980633492e+01   2.9086268755e+01    0.2165611    0.1428769  46.28 0.0006520918    1.598    0.374
        37 -12.0332     54.4913    148.4982   1.0060708696e+02   3.8436671745e+01     0.577517    0.2720868 -68.19  0.002306421    2.121    0.528
        38  -9.7267    174.6982    149.3204   6.8110134063e+01   1.7260941291e+01    0.1474157    0.1211852 -81.35 0.0003010157    1.627    0.385
        39 -11.2029    101.9108    137.7666   8.4131745770e+01   3.4031942064e+01    0.6441303     0.352892 -25.35  0.002125057    3.174    0.685
        40 -11.2424    105.9709    131.0373   8.1374771482e+01   3.4940358692e+01    0.4210176    0.3346146 -55.93  0.001329111    1.269    0.212
        41 -12.3930     89.3542    136.9004   8.7689467151e+01   3.6402516389e+01    0.3050886    0.2660947 -35.46 0.0004524197    1.145    0.127
        42 -10.9769     26.5213    137.7571   1.0753253639e+02   4.4127547878e+01    0.3462964    0.1852532  38.43  0.001234725    2.040    0.510
        43 -11.0819    136.0000    129.4855   7.2674101574e+01   2.9426166871e+01    0.3258665    0.1911812 -54.01  0.001306583    1.825    0.452
        44 -10.3235    111.3126    128.8974   7.9305352319e+01   3.4454888682e+01    0.2943635    0.2297161  21.27   0.00068141    1.417    0.294
        45 -15.7504      9.9675    207.0314   1.1873496742e+02   2.8451291650e+01     1.234252    0.8606963  -9.69  0.006122967    2.307    0.567
        46 -11.0954     98.3965    124.5929   8.2082539864e+01   3.7876578834e+01    0.2992663    0.2495103 -11.64  0.000427443    1.345    0.257
        47 -12.8228     72.0226    165.7149   9.8328954456e+01   3.1696170193e+01     0.773517    0.5376171  75.41 0.0007452471    1.776    0.437
        48 -10.3021    116.9938    123.5157   7.6347589265e+01   3.4623860503e+01    0.2193747    0.1398175  12.58 0.0007832791    2.448    0.592
        49  -9.8884    107.6732    118.0259   7.7650708072e+01   3.7713284313e+01    0.2111065      0.19148 -39.14 0.0003473787    1.072    0.067
        50  -9.8589     32.6665    118.6913   1.0245777751e+02   4.8435635102e+01    0.1483305   0.09172603 -35.90 0.0005542625    1.672    0.402
        51 -10.5223    231.2325    113.8280   4.9865668663e+01   1.3240551820e+01    0.2208544     0.211238 -36.17 0.0008080641    1.134    0.118
        52  -9.9187     40.3179    113.6703   9.8840331533e+01   4.8943099923e+01    0.1404881     0.106525  71.31  0.000704706    1.685    0.406
        53 -11.7124     53.0532    109.8605   9.3524330566e+01   4.8437973556e+01    0.4231968    0.1785044 -49.20  0.001671312    2.085    0.520
        54  -9.9352    205.4054    110.1925   5.3119456977e+01   1.8841975093e+01    0.2222783    0.1933479  38.48 0.0006790184    1.308    0.236
        55 -11.2680     33.8205    108.5081   1.0011206787e+02   5.0868079430e+01    0.2708535    0.1852094 -59.43  0.001416863    1.292    0.226
        56 -11.2769    119.1387    104.0901   7.0613723216e+01   3.8551971837e+01    0.2407327    0.2104181  -3.92 0.0005177268    1.247    0.198
        57 -10.1778    120.7922     98.3850   6.8560656486e+01   3.9415453898e+01    0.2120633    0.1435593  33.82  0.000359732    1.570    0.363
        58 -18.1713     11.6978    240.1302   1.2036682447e+02   2.1090452119e+01     5.860655     2.554938  23.77   0.02896718    2.867    0.651
        59  -9.3387    152.3079     84.6332   5.6880293575e+01   3.5106969238e+01     0.155948    0.1145967 -73.88 0.0007036912    1.753    0.430
        60  -9.5889    159.3413     83.7084   5.5132171199e+01   3.3665613992e+01    0.1504029    0.1138934 -80.81  0.000406649    1.651    0.394
        61 -11.2082     13.4892     60.0272   9.6978158885e+01   6.3613936457e+01    0.2361689    0.1939597 -42.62 0.0004476298    1.121    0.108
        62 -12.9929    190.7885     52.2052   4.1600258837e+01   3.1463430481e+01    0.5850968    0.3731883  46.43 0.0009563967    1.843    0.457
        63 -12.2289    120.4670    245.9805   9.7938191939e+01   6.3338192581e+00    0.3710886    0.1845873  51.46  0.001659218    2.358    0.576
        64 -12.0920    116.6476    249.0368   9.9151275952e+01   6.3114387888e+00    0.3393552    0.2423914 -81.28  0.001380601    1.927    0.481
        65  -9.4154    198.2694     23.3599   3.3915719378e+01   3.3435522708e+01    0.1117077   0.09327891  35.10 0.0004353332    1.646    0.392
        66 -11.2773     88.2619    211.4608   1.0083444578e+02   1.8224603931e+01       0.3465    0.1896478  48.02  0.001582463    1.801    0.445
        67  -9.4694    189.6508     15.2797   3.2929638975e+01   3.6210317920e+01    0.1289737   0.07786392 -71.86 0.0005325433    1.643    0.392
        68 -10.6889    167.8990    231.8645   8.5564981938e+01   1.9013585090e+00    0.2055952    0.1622789  -0.34 0.0005121892    1.224    0.183
