#   1 NUMBER                 Running object number                                     
#   2 MAG_AUTO               Kron-like elliptical aperture magnitude                    [mag]
#   3 X_IMAGE                Object position along x                                    [pixel]
#   4 Y_IMAGE                Object position along y                                    [pixel]
#   5 X_WORLD                Barycenter position along world x axis                     [deg]
#   6 Y_WORLD                Barycenter position along world y axis                     [deg]
#   7 A_WORLD                Profile RMS along major axis (world units)                 [deg]
#   8 B_WORLD                Profile RMS along minor axis (world units)                 [deg]
#   9 THETA_WORLD            Position angle (CCW/world-x)                               [deg]
#  10 FWHM_WORLD             FWHM assuming a gaussian core                              [deg]
#  11 ELONGATION             A_IMAGE/B_IMAGE                                           
#  12 ELLIPTICITY            1 - B_IMAGE/A_IMAGE                                       
         1 -10.8398     17.1879     50.4073   8.4212105959e+01   6.2767560606e+01    0.8842635     0.386245 -70.50  0.004250897    2.607    0.616
         2  99.0000     75.0122      3.5146   4.4808560309e+01   6.3748381139e+01     1.413942    0.3743116  55.48  0.003843557    7.874    0.873
         3 -11.2445     70.9482      9.4579   4.8937775178e+01   6.3723703537e+01    0.4976544    0.3473285 -47.91  0.001302403    1.974    0.493
         4 -11.7167     63.8081     11.2239   5.2279272805e+01   6.4626880575e+01    0.8556505    0.7581295  39.98  0.005843708    1.443    0.307
         5 -11.7264     66.1773     19.3734   5.5032452561e+01   6.3119973335e+01     1.184869    0.6399937  43.33  0.006217927    2.088    0.521
         6 -10.0486     76.2977     19.9291   5.1743042127e+01   6.1427549016e+01    0.6527502    0.3691366 -45.19  0.003248556    2.100    0.524
         7 -10.2826     80.7653     11.7714   4.6709037747e+01   6.1749662209e+01    0.4096572     0.313297   8.97  0.002486676    1.211    0.174
         8 -12.1606     61.0476     29.8834   6.1222074798e+01   6.2212927373e+01    0.9289404    0.8015283  22.55  0.006200992    1.280    0.219
         9 -11.4638     99.3145     46.2687   5.4734236643e+01   5.3171200828e+01     2.356087     1.585399  80.61  0.009636534    3.196    0.687
        10 -11.1393      2.6562     29.0180   8.4235895039e+01   6.7780522956e+01    0.5704122    0.2929195 -70.50  0.001009447    2.170    0.539
        11 -11.2190     45.3615     18.7267   6.2703588293e+01   6.6033322926e+01    0.6803972    0.4470564  16.49  0.003285464    1.659    0.397
        12  -9.7243     38.1980     15.2793   6.4187001402e+01   6.7393394792e+01    0.2707623    0.1833185 -29.63  0.001233451    1.175    0.149
        13  -8.9147     36.6474     11.1438   6.3038698151e+01   6.8201896825e+01    0.2958399    0.1468724 -32.07  0.001222477    1.684    0.406
        14  -8.4997    103.0140     19.5987   4.3378573487e+01   5.6488516045e+01    0.3757028     0.214066 -59.58  0.001390145    3.899    0.743
        15 -12.4745    246.4260     10.1748   1.6624376030e+01   2.1730101621e+01     1.637784    0.7193267 -34.59  0.007313533    2.063    0.515
        16  -9.2021    124.8655     11.5902   3.4660592356e+01   5.2635671169e+01    0.2160518    0.1822817  -8.83 0.0002210129    1.191    0.161
        17  -8.8027    107.9272     11.0172   3.8521259205e+01   5.6493028248e+01    0.1990229    0.1764109  13.52 0.0003366697    1.018    0.017
        18 -10.6317     99.3191      8.6910   3.9831810402e+01   5.8557681616e+01    0.2776209    0.1984372  10.65 0.0001555597    1.398    0.285
        19  -8.1268    117.2688      7.0075   3.4583906306e+01   5.4864478816e+01    0.1550871    0.1149641 -15.33  0.000302393    1.364    0.267
        20  -9.6507     91.9897      3.6841   3.9688585604e+01   6.0572943166e+01     0.225347    0.1714595 -13.50 0.0002232813    1.245    0.197
        21  -8.2800    104.5421      1.4365   3.5346318717e+01   5.8218118365e+01    0.1312959    0.1150344  22.55 0.0001491596    1.022    0.021
        22  -9.1249     29.4832    131.4522   9.4297729959e+01   4.4331103523e+01    0.2019981    0.1551145  85.60 0.0006846104    1.118    0.106
        23 -10.4396    205.2154    250.4159   7.5596313513e+01  -4.0632121887e+00    0.3509071    0.1074599  46.64  0.001592463    2.624    0.619
        24  -9.8704    192.0005    250.2563   7.7729705921e+01  -1.9134139086e+00    0.2453628     0.141732  37.69 0.0009518905    1.366    0.268
        25 -10.2955    188.1683    249.8320   7.8302693309e+01  -1.2416076350e+00     0.251976    0.2002582  19.76  0.001842468    1.384    0.277
        26 -10.0023     25.0120    134.0506   9.5605223438e+01   4.4173005624e+01    0.2170351    0.1704958  57.30 0.0005053203    1.361    0.265
        27  -9.8963     21.3818    132.1117   9.6214574840e+01   4.4909976989e+01    0.3307311    0.1396899 -65.29 0.0009848569    1.853    0.460
        28  -9.6261      8.9607    131.4003   9.8908297156e+01   4.6058043105e+01    0.2092458    0.1647144  76.39 0.0007483234    1.199    0.166
        29  -8.3339     73.5234    130.4399   8.3682678890e+01   3.9499350965e+01    0.1321801    0.1124323 -84.92 0.0002089042    1.027    0.027
        30  -8.1877     76.7099    133.6841   8.3451568047e+01   3.8325407587e+01    0.1248209   0.09830028 -39.71 0.0002307368    1.594    0.373
        31 -10.1707      3.7893    125.0369   9.9467703120e+01   4.7780382871e+01    0.2716196    0.1654456  82.73  0.001815678    1.413    0.292
        32  -8.6667     10.2956    125.6690   9.8060721606e+01   4.7181439575e+01    0.1154363   0.06702691  76.81 0.0006582085    1.637    0.389
        33 -10.0159     43.2219    119.9476   8.9504756604e+01   4.5525555757e+01    0.6513141    0.1654137 -67.72  0.002346548    3.552    0.718
        34 -10.7879     47.3591    111.4362   8.7131061655e+01   4.6994958946e+01    0.6963723    0.2222064 -60.45  0.002280615    2.453    0.592
        35 -10.8056     40.8169    109.8332   8.8582509513e+01   4.8030624183e+01    0.3802862    0.3052238 -15.74     0.001273    1.790    0.441
        36  -9.1265     76.7533    121.1873   8.1259671164e+01   4.1131803451e+01     0.307203    0.1887063 -83.57  0.001001639    1.942    0.485
        37 -11.6791    107.9631    119.9324   7.3127337541e+01   3.6404681986e+01    0.2487084    0.2321944 -78.29 -0.001877172    1.020    0.020
        38  -8.4368     27.5204    121.0772   9.3510466308e+01   4.6782865771e+01    0.1824239   0.09325581 -72.17 0.0008556141    1.547    0.354
        39  -8.0610     94.3110    120.3197   7.6643151751e+01   3.8650727328e+01    0.1349757    0.1081478 -26.97 0.0003814788    1.646    0.392
        40  -9.0455     70.3472    119.8796   8.2649194245e+01   4.2313055311e+01    0.2043169    0.1665496  73.44 0.0005051332    1.246    0.197
        41 -10.9312     12.8935    112.8488   9.6074162244e+01   4.9754692310e+01    0.5663754    0.2263784 -55.30  0.002100215    2.190    0.543
        42  -9.5253     13.9864    105.2516   9.4881875977e+01   5.1325615831e+01    0.1919038    0.1592062  44.93  0.001410728    1.484    0.326
        43  -9.1687     11.7330    102.3947   9.5099727862e+01   5.2103020777e+01    0.1843408    0.1085654 -85.71 0.0005980129    1.493    0.330
        44 -11.4155      3.6392    113.7161   9.8402070357e+01   5.0201950165e+01     0.629994    0.2471615 -60.14   0.00176932    2.012    0.503
        45 -10.7129      2.9635    104.4866   9.7580021146e+01   5.2219285019e+01    0.4425012    0.2339129 -57.67  0.002797208    1.605    0.377
        46  -8.7709     60.2580    113.8713   8.4179747813e+01   4.4966483154e+01    0.1918284     0.152448 -85.77 0.0005909392    1.184    0.155
        47  -9.3274     53.3829    113.2248   8.5858455391e+01   4.5925739451e+01    0.2681582    0.1833135  74.35  0.001518961    1.645    0.392
        48 -10.3522     27.5125    113.6177   9.2545198468e+01   4.8426625472e+01    0.3469481    0.2500199  84.81  0.002291679    1.302    0.232
        49  -9.0423     32.8280    112.4141   9.1033276147e+01   4.8219643399e+01    0.2236018    0.1628703 -26.42  0.001381801    1.992    0.498
        50  -8.8048     82.1869    110.9965   7.7865697896e+01   4.2642469270e+01    0.2017552     0.166777 -44.22  0.000496253    1.279    0.218
        51  -8.7479    126.7754    108.9720   6.5884025178e+01   3.5218757478e+01    0.1955393    0.1198061 -47.65  0.000310259    1.593    0.372
        52  -9.2022     99.1910    109.7319   7.3121124198e+01   4.0208749658e+01    0.3011971    0.1265282  38.98  0.001167532    2.641    0.621
        53 -10.2475     69.9747     99.7461   7.8813010483e+01   4.6904542425e+01    0.4925964    0.1972738 -55.19            0    2.131    0.531
        54  -9.9407     66.0156    108.9987   8.1764172748e+01   4.5342897888e+01    0.2951162    0.2552252 -33.64  0.001835275    1.380    0.275
        55  -8.8589     65.3566    105.7090   8.1303050472e+01   4.6169704409e+01    0.2513848    0.1370877  55.74 0.0006150501    2.283    0.562
        56  -9.2475     64.8402    102.3203   8.0768713726e+01   4.6998519234e+01    0.3569793    0.2325684 -29.87  0.001792932    2.157    0.536
        57  -9.5332     88.1404    107.9650   7.5643794813e+01   4.2413565064e+01    0.3602346    0.1973479  39.77   0.00167595    2.001    0.500
        58  -9.1070     77.1555    107.7289   7.8528763531e+01   4.4114142867e+01    0.2497889     0.174188 -74.08  0.001323421    1.451    0.311
        59  -8.3002     59.3356    108.3106   8.3419914495e+01   4.6333187717e+01    0.1280789   0.09167546 -37.15 0.0007044165    1.681    0.405
        60 -10.4044    114.7377    103.8045   6.7665867861e+01   3.8708137359e+01    0.4426415    0.2801824 -20.38  0.001306677    2.809    0.644
        61  -8.9364     35.6548    104.6729   8.9129998466e+01   4.9678665024e+01    0.2736163    0.1752034 -36.82 0.0008720221    1.975    0.494
        62  -8.2039     83.7665    103.9884   7.5945625587e+01   4.3980762979e+01    0.1803449    0.1044283 -55.94 0.0002044033    1.552    0.356
        63  -9.6608     50.8370    103.0380   8.4749371965e+01   4.8501699684e+01    0.2458914    0.1484264 -49.07  0.001345889    1.577    0.366
        64  -9.4334    110.2529    103.0078   6.8637511790e+01   3.9726150717e+01    0.3419159    0.2507829  15.19  0.001599365    1.978    0.494
        65  -8.9344    112.4804     99.4563   6.7164259460e+01   4.0082592595e+01    0.2350063    0.1451894  43.61 0.0001208458    1.705    0.414
        66  -8.0575    165.3100    102.2938   5.5023343115e+01   2.8074533304e+01    0.1557066    0.1240205  12.55 0.0006113409    1.589    0.371
        67  -9.0200     42.8264    101.8127   8.6719562203e+01   4.9621179855e+01    0.1755623    0.1417483 -54.47 0.0002782336    1.191    0.161
        68 -10.6271     80.7213     99.9844   7.5885704221e+01   4.5333747547e+01    0.3232695    0.2714965   9.28 0.0006550291    1.548    0.354
        69  -9.4919     74.2614    101.3960   7.7979375416e+01   4.5947531186e+01    0.2231696    0.1720222  54.05  0.001272329    1.437    0.304
        70  -8.9086     14.7876     99.9717   9.3984761360e+01   5.2417096732e+01    0.2639458    0.1096823 -74.35 0.0008551921    1.970    0.492
        71 -10.8358     11.4046     97.1994   9.4510290331e+01   5.3250639113e+01    0.3751745    0.2381863 -26.36  0.000597649    2.281    0.562
        72  -9.9589    136.7758     96.7184   6.0231080302e+01   3.5712453657e+01     0.380431    0.2446452 -35.94  0.001666322    1.643    0.391
        73  -9.1222     97.6358     85.6991   6.7604669455e+01   4.5748078850e+01    0.4746083    0.2300897 -26.58  0.001307417    5.578    0.821
        74  -9.9294     97.9861     98.3105   7.0756233294e+01   4.2947522855e+01    0.3211856    0.2717701 -72.82  0.001112864    1.198    0.166
        75  -8.6321     95.2991     95.6610   7.0837372682e+01   4.3986243474e+01    0.2286853    0.1579383  41.69 0.0005730007    1.573    0.364
        76  -9.4342     98.4594     92.4902   6.9164780019e+01   4.4139990476e+01    0.2771033    0.2389048 -40.23 0.0007211784    1.150    0.130
        77  -9.0476     95.9720     89.3086   6.9032234412e+01   4.5257712697e+01    0.3094009    0.2248505 -56.43 0.0007200014    1.309    0.236
        78 -10.1817     52.8170     90.7871   8.1802169161e+01   5.1015916143e+01    0.2355975    0.2102792   0.82 0.0009442425    1.409    0.290
        79 -11.6079     46.3753     85.5442   8.2601829793e+01   5.2868146951e+01    0.6937503    0.4015254  39.16  0.003843901    2.031    0.508
        80 -10.6381     47.3593     95.3132   8.4273406341e+01   5.0603509858e+01    0.4791691    0.2646529 -60.34 0.0008507099    1.474    0.322
        81  -9.9614     43.4897     93.5231   8.5033154826e+01   5.1400160360e+01     0.323391    0.1959436 -65.86  0.001070851    1.377    0.274
        82  -9.5224     33.8828     99.0175   8.8695198210e+01   5.1096668666e+01    0.1787935    0.1558491 -75.23 0.0002592063    1.104    0.094
        83  -8.2376    143.0045     97.5073   5.8920455161e+01   3.4178111081e+01    0.2249958    0.1516138  49.02 0.0004977587    1.501    0.334
        84 -10.0164    116.2187     96.2864   6.5362904758e+01   4.0048534864e+01    0.3066134    0.1957656 -57.02  0.001386493    1.619    0.383
        85  -8.9069     22.2537     96.7275   9.1516992485e+01   5.2574181070e+01    0.1656127    0.1375785  40.71 0.0007571276    1.493    0.330
        86  -9.6922    132.2598     93.8415   6.0576241844e+01   3.7283642655e+01    0.3574997      0.21253  40.31  0.001064478    1.808    0.447
        87  -8.7721     64.7077     93.9480   7.9047835533e+01   4.8889316270e+01    0.1917737     0.146428 -60.45 0.0004076064    1.127    0.113
        88  -8.2194    110.6548     93.2813   6.6049209837e+01   4.1760939241e+01    0.1464658    0.1139256  86.07 0.0004222655    1.638    0.390
        89  -7.9191     83.3261     93.6660   7.3687254949e+01   4.6346357808e+01    0.1404768    0.1043446  87.76 0.0007051424    1.715    0.417
        90 -10.3185     72.5380     89.4590   7.5768829967e+01   4.8843852700e+01    0.9233384    0.5420712 -84.96  0.000824463    3.108    0.678
        91 -10.2090     72.0341     76.1676   7.2572430418e+01   5.1797623603e+01    0.5971732    0.3493323 -28.06  0.002714092    2.325    0.570
        92 -10.9842     62.0733     83.6854   7.7487811352e+01   5.1486879915e+01    0.3949148    0.3132252   9.33   0.00171983    1.628    0.386
        93  -9.1184    139.1036     88.6170   5.7413386083e+01   3.6859338847e+01     0.258837    0.2003979 -53.33 0.0004758395    1.324    0.245
        94  -9.4148    124.1957     88.9439   6.1287714942e+01   3.9998337023e+01    0.3066121    0.1930752  73.51   0.00118001    2.620    0.618
        95  -9.4358    116.5835     88.1974   6.3085776543e+01   4.1694597519e+01    0.2865503    0.1430688 -40.56  0.001141491    2.005    0.501
        96  -9.9511    109.7716     88.0442   6.4879027648e+01   4.3045486885e+01    0.3492777    0.2044698 -40.92  0.001407528    1.683    0.406
        97 -10.0172    106.5590     85.9702   6.5188957893e+01   4.4087013185e+01    0.3972361    0.2348879  36.84 0.0004177153    1.901    0.474
        98  -8.8927     16.6196     88.7122   9.1857532080e+01   5.4735144531e+01    0.2202925   0.09278233 -73.68  0.000291735    2.049    0.512
        99  -8.7498     15.2360     84.9857   9.1668560244e+01   5.5636020443e+01    0.2140501    0.1630904  -9.00  0.001490812    1.816    0.449
       100  -9.2588      6.8389     87.7995   9.4470864247e+01   5.5564217984e+01    0.1909264    0.1522144  64.58 0.0007438184    1.445    0.308
       101 -10.3411     64.7490     80.9808   7.6028105348e+01   5.1737675432e+01    0.4353784    0.2477546 -57.14  0.001054513    1.545    0.353
       102  -9.3888    163.3761     84.6410   5.0561813447e+01   3.1956905431e+01    0.3388925    0.2791563  73.10 0.0009193332    1.353    0.261
       103  -9.3490    139.4398     83.7007   5.5918518354e+01   3.7768867863e+01    0.2544444    0.1911865  22.82   0.00115189    1.648    0.393
       104  -8.3618     88.5016     84.0031   6.9759996117e+01   4.7642266822e+01    0.1957563    0.1749643  36.43 0.0005798622    1.240    0.193
       105  -9.2607     29.4650     83.2352   8.7188389282e+01   5.4948484993e+01    0.2815678    0.1696416 -77.77 0.0009161232    1.628    0.386
       106 -10.5670     87.5149     73.5561   6.7152848121e+01   5.0011017724e+01    0.5398279    0.3773516 -34.33  0.002795144    1.439    0.305
       107  -9.6612     82.0505     73.5830   6.8806295471e+01   5.0871426397e+01      0.48497    0.3044913 -21.10  0.002179934    2.323    0.570
       108  -9.1013     82.0304     82.9869   7.1378212193e+01   4.8876587933e+01    0.2041575    0.1822593 -53.78 0.0004295356    1.019    0.018
       109  -9.9895     82.6107     79.1454   7.0182115177e+01   4.9611070651e+01    0.2824738    0.2723833  17.73 0.0006410575    1.154    0.134
       110  -8.1960     75.5936     83.4591   7.3399152565e+01   4.9726363158e+01      0.13643    0.1165437 -45.42 7.903146e-05    1.082    0.076
       111  -9.1966    116.9573     67.9959   5.7001180489e+01   4.5702854151e+01    0.3103938    0.2092676   0.54  0.001280475    2.382    0.580
       112 -10.2041    112.8529     73.2583   5.9759689693e+01   4.5497497860e+01    0.6481377    0.4719379  54.72  0.002444371    1.531    0.347
       113  -8.8934    118.7157     81.0319   6.0478954373e+01   4.2751906356e+01     0.279056    0.2377836  88.16 0.0008483293    1.404    0.288
       114 -10.3650    114.6388     80.5618   6.1442293991e+01   4.3665204764e+01    0.4075823     0.346082 -25.78  0.001422142    1.234    0.190
       115 -12.2293    138.8863     72.8436   5.2806168995e+01   4.0004039237e+01     1.070535     0.708999  40.23  0.002371515    1.591    0.372
       116 -10.3213    126.0965     74.9176   5.6700956378e+01   4.2438100565e+01    0.5083165    0.2896897  48.61  0.001127792    1.818    0.450
       117  -9.8668     44.1357     80.8577   8.2279129749e+01   5.4122415581e+01    0.1809784     0.151416 -75.01 0.0003765592    1.171    0.146
       118  -9.7611      7.3635     80.4991   9.3254943883e+01   5.7093975050e+01    0.4527053    0.2191468  13.74  0.002588109    3.015    0.668
       119  -9.1904      9.4627     76.5062   9.2001684744e+01   5.7820021228e+01    0.2251765    0.1324845 -63.23 0.0008210248    1.247    0.198
       120 -11.3333     52.8090     79.8622   7.9401471284e+01   5.3416366400e+01    0.6680515    0.4427762  10.80  0.002147934    2.162    0.537
       121 -10.3872     96.2308     76.0057   6.5292783099e+01   4.8035016514e+01    0.4984237    0.4248919  47.92  0.002074725    1.287    0.223
       122  -9.7147     24.8532     78.4453   8.7679563222e+01   5.6354702844e+01    0.2685395    0.2023315 -25.20  0.001590488    1.616    0.381
       123  -9.4311     31.1078     75.9146   8.5253784441e+01   5.6396465655e+01    0.3593057    0.2482213  60.13   0.00220258    1.880    0.468
       124  -9.6240    170.4935     68.5380   4.4256278719e+01   3.3115024285e+01    0.3569975    0.2535039  73.91 0.0009888235    1.678    0.404
       125  -9.9264    172.5104     76.4667   4.6196510090e+01   3.1203316720e+01    0.4751194    0.3055667 -40.37  0.001076667    1.546    0.353
       126  -9.6824    173.2689     72.6357   4.4904627779e+01   3.1694043598e+01    0.3092654    0.2592173 -55.88 0.0006370659    1.263    0.208
       127 -10.3991    101.8077     71.1978   6.2250478837e+01   4.8019339865e+01     0.513291    0.3066656 -58.41  0.001941002    1.991    0.498
       128  -9.3433    103.0367     77.4911   6.3771039653e+01   4.6510356217e+01    0.1966636    0.1824131 -25.60 0.0004922202    1.083    0.076
       129  -9.8252    106.0088     73.8347   6.1847569414e+01   4.6705037990e+01    0.3667426    0.2859772 -18.57  0.001871392    1.473    0.321
       130  -9.5427     15.4899     74.3574   8.9797634211e+01   5.7899059898e+01     0.443725    0.2370223 -88.88  0.002320776    2.401    0.584
       131  -8.9920    194.0610     76.2681   4.1837804610e+01   2.5760082226e+01    0.2135685    0.2027552  61.08 0.0003152153    1.058    0.055
       132  -9.7578    164.6656     74.5796   4.7322931660e+01   3.3505191728e+01    0.3424112    0.2906421 -28.28  0.001692413    1.206    0.171
       133  -9.7268    152.0583     73.2545   4.9768684511e+01   3.6832957883e+01    0.4267591    0.2757228 -22.22   0.00112774    1.860    0.462
       134 -10.8783    148.4628     68.4494   4.9130048294e+01   3.8577210077e+01    0.6042949    0.2810126 -49.02  0.001734329    2.490    0.598
       135 -10.5212    151.3974     67.7536   4.8227628169e+01   3.7996709158e+01    0.4431642    0.2843763 -15.51  0.001457019    2.088    0.521
       136 -10.0127     38.6258     72.5014   8.2147012944e+01   5.6461675684e+01    0.2912772    0.2618121 -10.91  0.001101719    1.324    0.245
       137  -9.8518     34.7413     69.2155   8.2648965814e+01   5.7515301868e+01    0.3232726    0.2519335 -45.47  0.000221302    1.148    0.129
       138  -8.9697      1.5538     70.9665   9.3508155398e+01   5.9426219895e+01    0.2718397   0.06998861 -59.50  0.001294106    2.389    0.581
       139  -9.2662     52.9030     70.8923   7.7192371292e+01   5.5332727224e+01     0.275891    0.1932825  23.41  0.001617278    1.751    0.429
       140  -9.5375     21.0889     61.0055   8.5317892227e+01   6.0329341766e+01    0.3544993    0.1999913 -52.54 0.0003374343    1.348    0.258
       141  -9.3619     16.3405     43.6865   8.2821605784e+01   6.4163017672e+01    0.2084089    0.1487816 -35.04 0.0005770431    1.278    0.218
       142 -10.1281     10.1796     66.7068   9.0071689126e+01   5.9847157934e+01    0.8617699    0.2072739 -47.67  0.003653343    3.310    0.698
       143  -9.0714    154.6508    249.7087   8.3787012482e+01   4.2275480058e+00     0.109403   0.07643678  29.54 0.0007028179    1.669    0.401
       144 -11.3654      4.8647     40.9358   8.6464273597e+01   6.5379292930e+01    0.5555158    0.4533947  73.52  0.003312924    1.677    0.404
       145 -10.3397     23.8363     68.1594   8.5953712226e+01   5.8629095218e+01    0.3390228    0.2800048  57.68   0.00141843    1.523    0.344
       146 -11.0413     28.8472     62.1202   8.2954920642e+01   5.9506901351e+01     0.620566    0.2965422 -46.80  0.001683328    1.713    0.416
       147  -9.7380    128.1609     58.8197   5.1046321140e+01   4.5011471810e+01    0.5768062    0.2884222  34.67  0.002143469    2.556    0.609
       148 -10.0603    105.1438     67.4856   6.0145965109e+01   4.8135424661e+01    0.4345965    0.2962024  62.07  0.002038134    1.921    0.479
       149 -10.9030    108.5906     62.1349   5.7452973076e+01   4.8503858969e+01    0.7656083    0.5838332 -64.22  0.003090857    1.628    0.386
       150 -10.8265    119.9474     60.3019   5.3706360533e+01   4.6527192395e+01    0.6035124    0.4618727  -7.34  0.002076112    1.555    0.357
       151  -9.9703    123.3920     55.8086   5.1287536872e+01   4.6595581474e+01    0.3565277    0.2513501  40.10  0.000247259    1.457    0.314
       152  -7.9752     44.6731     68.7155   7.9303445362e+01   5.6677031253e+01    0.1248213   0.08245017 -33.14 0.0007005868    1.605    0.377
       153  -9.2659     66.9381     60.9780   6.9884368796e+01   5.5650928332e+01    0.2827308    0.2104536  25.81  0.001108615    1.551    0.355
       154 -10.0006    196.9263    245.4591   7.6292453619e+01  -2.1628617796e+00    0.3311937    0.1446356  29.56  0.001506668    2.982    0.665
       155 -10.0141     68.4199     48.7040   6.5477152849e+01   5.7842531243e+01    0.3046724    0.2590731  22.40  0.001363912    1.292    0.226
       156 -10.7217     61.1482     64.3309   7.2757661408e+01   5.5722473748e+01    0.9220834    0.5903237 -83.17  0.004161383    2.896    0.655
       157 -11.3120    180.7099    242.4497   7.8592850902e+01   8.7973938973e-01    0.3539914    0.2027662  48.61  0.002151426    1.390    0.281
       158 -10.6799     59.1340     53.6271   7.0245755016e+01   5.8131954504e+01    0.6758327    0.2899329 -45.26  0.002016721    1.960    0.490
       159 -10.8598     56.7490     45.3075   6.8386214633e+01   6.0032109170e+01     1.455671    0.5235677  24.89  0.005105757    4.917    0.797
       160 -10.3425     51.0175     37.4345   6.7752861880e+01   6.2182981282e+01    0.2955397    0.2882731  79.81 0.0005436733    1.395    0.283
       161  -9.3482    244.7734    241.9810   6.8005956113e+01  -9.4085492115e+00    0.1274517   0.08665801 -19.66 0.0007028425    1.667    0.400
       162  -8.3010    212.0037    241.4603   7.3251724679e+01  -4.1743259511e+00    0.1729363   0.08863873  42.28 -1.266051e-05    1.495    0.331
       163  -9.1462    221.0163    239.5136   7.1486282691e+01  -5.4233610671e+00    0.1836686   0.08893809  41.57  0.001033062    1.592    0.372
       164  -8.4621    188.6299    233.9520   7.6119967896e+01   6.1919623847e-01    0.1662872   0.09692684 -69.57 0.0007034503    4.602    0.783
       165 -11.1392     62.4440     37.4999   6.3610334360e+01   6.0715630636e+01     0.954797    0.4190428  36.04  0.004172755    2.558    0.609
       166  -9.5249    219.4215    218.2142   6.8478073202e+01  -2.7055044465e+00    0.1440083    0.1168535 -43.50 0.0005407796    1.629    0.386
       167 -10.2981     50.4429     30.7680   6.5524117114e+01   6.3432009950e+01    0.4689254    0.3784228   1.52  0.002906407    1.264    0.209
       168  -9.3566     17.8649     65.8937   8.7427158547e+01   5.9531775441e+01    0.2871648    0.1089867 -49.17 0.0009492455    2.069    0.517
       169  -9.6078    174.1434     65.9061   4.2704927690e+01   3.2638002782e+01    0.2486802    0.2161784 -67.96  0.001189804    1.257    0.204
       170  -9.6657    128.1562     80.1294   5.7726656166e+01   4.0963300340e+01    0.3616871    0.2727388  -6.59 0.0006664772    1.773    0.436
       171  -9.8700     94.9181     65.6355   6.2555689616e+01   5.0367908153e+01    0.4576523    0.2881379  19.29  0.002030974    2.291    0.564
       172  -9.7307     85.6077     61.7827   6.4175709756e+01   5.2706017991e+01    0.5615567    0.2299529 -42.28  0.002274329    2.233    0.552
       173 -11.7716     81.8327     55.3832   6.3296598330e+01   5.4557775819e+01    0.5578978    0.3633818 -30.04            0    1.541    0.351
       174 -10.3410     39.2284     63.4167   7.9780704752e+01   5.8324816360e+01    0.4350599    0.3289043 -84.08   0.00231918    1.623    0.384
       175 -10.1173     42.4952     61.4449   7.8174454972e+01   5.8417252532e+01     0.346929    0.2553458  48.62  0.001205753    1.751    0.429
       176  -9.9482    136.6922     61.0333   4.9612496649e+01   4.2682535282e+01    0.4906753    0.2039918 -41.23  0.001773706    2.372    0.578
       177 -11.7175    139.2439     54.8658   4.6956697547e+01   4.3160114427e+01    0.8035023    0.4397116 -53.02   0.00300756    2.352    0.575
       178  -8.7984    183.4804     61.4766   3.9526523532e+01   3.0967209922e+01    0.1538409    0.1515611  40.55 6.099183e-05    1.026    0.025
       179 -11.0015    130.4028     53.0229   4.8528494690e+01   4.5519429470e+01    0.4760492    0.3958312  82.11  0.001696455    1.503    0.335
       180 -11.2881    207.6398     59.1586   3.4576549533e+01   2.5046163119e+01    0.3382034    0.2615807  66.86  0.001644086    1.318    0.242
       181 -11.5847    194.7543     45.6251   3.2766740822e+01   3.0454590935e+01    0.5041102    0.3500264 -72.53  0.002231557    1.779    0.438
       182 -11.2757    191.0607     48.5365   3.4261135496e+01   3.1001032770e+01    0.4198467    0.3099034 -54.93  0.001091619    1.455    0.313
       183  -9.9882    190.4977     58.9334   3.7463524263e+01   2.9547989187e+01    0.2380102    0.1525038 -32.08 0.0007835527    1.572    0.364
       184 -10.9225    164.1507     55.6644   4.1597744711e+01   3.6898954473e+01    0.5489466    0.4138672 -58.55 0.0004787498    1.520    0.342
       185 -10.3577    160.3925     51.7855   4.1147336683e+01   3.8479463267e+01    0.4751555    0.2734551 -16.38  0.001795282    2.287    0.563
       186 -10.0112      3.4450     55.9233   9.0243449383e+01   6.2447313067e+01    0.2317917    0.2165024  15.67  0.001203617    1.429    0.300
       187 -10.5213      3.5267     50.9570   8.9210806163e+01   6.3452012305e+01    0.4837095    0.3158439 -89.95  0.003141863    1.875    0.467
       188  -9.7205    174.7601     55.3463   3.9344527464e+01   3.4221965591e+01    0.3192477    0.2545797  41.76  0.000770788    1.282    0.220
       189  -9.7563    212.9644    216.6551   6.9339700429e+01  -1.3914158463e+00    0.1816484    0.1294137  38.73 0.0004668056    1.143    0.125
       190 -11.1872     87.1096     46.9706   5.8738214629e+01   5.5244521539e+01    0.5204784    0.4189233  20.29  0.001088201    1.321    0.243
       191 -10.4271     91.4268     31.9985   5.1785194273e+01   5.6982404598e+01    0.5381224    0.4961599  62.94  0.002573631    1.380    0.275
       192 -10.7763     86.0263     39.8034   5.6475878164e+01   5.6677733010e+01     1.306971    0.5702985  40.28  0.005623332    2.449    0.592
       193  -9.6399     83.4491     36.2275   5.5957063357e+01   5.7715890443e+01    0.6771311    0.3730092 -49.09   0.00190818    2.125    0.529
       194  -8.4782     68.9365     55.7084   6.7597905091e+01   5.6424250856e+01    0.1693971    0.1526398 -31.50 0.0001654103    1.051    0.049
       195 -11.7710    151.1258     46.6864   4.1472829472e+01   4.1611102628e+01    0.9934273    0.6285787 -14.57  0.004212173    1.947    0.487
       196 -10.9707    163.8337     34.3377   3.4731421105e+01   4.0184481430e+01    0.9727111    0.2454401  52.77  0.002933314    3.380    0.704
       197  -9.5138    166.9949     29.5842   3.2569294048e+01   3.9996383690e+01    0.2771248     0.196975 -48.30 0.0007600139    1.526    0.345
       198  -9.9852    161.2990     44.4616   3.8573284909e+01   3.9383595109e+01    0.3975036    0.2815432  40.52  0.001319518    1.451    0.311
       199  -9.9965    164.3698     40.1169   3.6531772940e+01   3.9233618583e+01    0.3531232    0.2953928  33.39 0.0005073269    1.238    0.192
       200 -11.4800    204.7390     46.3378   3.1370839673e+01   2.7721404952e+01    0.4792926    0.3039062  66.34  0.001520296    1.590    0.371
       201 -11.7088    212.7155     47.2674   3.0419772512e+01   2.5503499718e+01    0.5816636    0.3538867 -84.34  0.001900574    2.290    0.563
       202 -10.3559     42.4573     53.9213   7.6127411166e+01   5.9955611105e+01    0.5027312    0.3364282   4.53  0.002125901    1.957    0.489
       203  -8.8752    121.1128     50.1275   4.9948518419e+01   4.8075366337e+01    0.2217673    0.1885097   8.98 0.0003430494    1.242    0.195
       204  -8.6863    175.4933     47.0186   3.6602790953e+01   3.5322196317e+01    0.2356046    0.1514396 -30.98  0.001030818    1.584    0.369
       205  -9.8749     41.9395     43.8496   7.3281322780e+01   6.1986484672e+01    0.4586215     0.238762 -60.08  0.002315954    2.118    0.528
       206  -9.5236     23.6228     44.4489   8.0293232390e+01   6.3496695693e+01    0.2189632    0.1962445  82.94  0.001528581    1.480    0.324
       207 -10.2979    214.5559     42.3344   2.8764577176e+01   2.5724352694e+01    0.2557413    0.1914248 -18.59 0.0007444665    1.485    0.327
       208 -10.2728    124.6221     41.8179   4.6096250226e+01   4.8659597354e+01    0.2847922     0.242925 -57.24  0.001026529    1.367    0.268
       209  -9.5792    123.2624     37.8059   4.4993871461e+01   4.9582944667e+01    0.3685889    0.2990686  -7.25 0.0009521357    1.273    0.215
       210 -10.1284    128.8084     36.9486   4.3287181647e+01   4.8451110685e+01    0.4860118    0.3452371  87.35  0.001149313    2.171    0.539
       211 -11.7750    197.3630     57.9538   3.5959675325e+01   2.7908289321e+01      0.65036    0.2960124 -46.32  0.002351534    2.365    0.577
       212 -10.9988     30.3225     38.5983   7.6010503935e+01   6.4084234862e+01    0.4197499    0.1987939 -52.33  0.001581998    1.698    0.411
       213  -8.0527     25.5387     38.4923   7.7829968737e+01   6.4502019138e+01    0.1646176     0.113202  18.14 0.0008570323    1.758    0.431
       214 -10.6073    208.1858     40.1584   2.9071747521e+01   2.7690303456e+01    0.2773618    0.2390887 -50.59 0.0006449714    1.144    0.126
       215  -8.4689    141.4182     40.2719   4.1467167211e+01   4.4973808427e+01    0.2475553    0.1802312 -39.06 0.0007413293    1.409    0.290
       216  -8.9614    117.1423     39.9711   4.7389842943e+01   5.0595050101e+01    0.2128659    0.1909932 -52.77   0.00041974    1.269    0.212
       217  -9.2345    109.8258     39.1202   4.9080257921e+01   5.2274503574e+01    0.3411769    0.2384114  49.89   0.00173096    1.502    0.334
       218  -9.8886    111.7925     33.7184   4.6510893996e+01   5.2694081149e+01    0.5001751    0.3307988  19.07  0.002360883    1.824    0.452
       219 -10.9715    176.6239     37.7412   3.3465208489e+01   3.6369439274e+01    0.5148373    0.2907361 -62.75  0.001925542    2.586    0.613
       220 -11.2621    195.4995     36.8132   3.0018569341e+01   3.1498243352e+01    0.4638738    0.2826485 -67.46   0.00189237    2.154    0.536
       221 -10.6512     10.4134     31.9775   8.1900349827e+01   6.6794820168e+01    0.3761321    0.1802211 -48.47 0.0005108186    1.490    0.329
       222  -8.4264    243.3844    178.2805   5.7166344402e+01  -1.8561882115e+00    0.1395631   0.08769488  18.35 0.0007005524    1.728    0.421
       223  -9.7640     11.0988     47.1343   8.5632975984e+01   6.3806937380e+01    0.2935365    0.2334678 -49.86  0.001552803    1.077    0.072
       224  -8.1843    172.5235     41.4726   3.5404231699e+01   3.6916831301e+01      0.15137    0.1457553  45.29 3.147658e-05    1.027    0.027
       225  -9.6711      9.0036     37.2750   8.3937406533e+01   6.5866143378e+01    0.2703641    0.1686506 -73.53  0.001083856    1.796    0.443
       226  -9.9333    138.9928     34.7388   4.0075373676e+01   4.6367760249e+01    0.3311215    0.2264407  41.99   0.00114629    1.438    0.304
       227  -8.4794     98.2338     32.1643   4.9782383044e+01   5.5673303750e+01    0.2948077   0.08457971  43.38 0.0009865258    3.569    0.720
       228  -9.9073    154.5232     29.8988   3.5058432773e+01   4.3173702851e+01    0.5269043    0.2353868 -36.55  0.001297011    2.249    0.555
       229  -9.9015    136.3857     29.2948   3.8713445129e+01   4.7749485415e+01    0.4813085    0.2975551   6.40   0.00146904    2.268    0.559
       230  -7.9992    120.4479     31.4047   4.3344319947e+01   5.1152430576e+01     0.139818    0.1318261  14.14 0.0001068497    1.033    0.032
       231  -8.8680     38.6681     31.2471   7.0271007812e+01   6.4655670932e+01    0.1679186    0.1537948  13.62 0.0006693911    1.325    0.245
       232  -9.8712     12.7665    161.8252   1.0065450067e+02   3.9405034657e+01     0.157575    0.1194608 -81.35 0.0007179259    1.194    0.163
       233  -9.2442     42.0765     27.3765   6.7488839703e+01   6.4976311153e+01     0.281468    0.1972127 -61.57  0.001246577    1.969    0.492
       234 -10.4800     39.9685     23.1459   6.6693223476e+01   6.5923400800e+01    0.3401536    0.2480848  -1.53  0.001300859    1.418    0.295
       235 -10.4705      6.0760    157.8550   1.0164821599e+02   4.0774605477e+01     0.336631    0.1474527 -78.69  0.002009014    1.727    0.421
       236  -8.5825     12.5388    153.9705   1.0009501647e+02   4.1035769198e+01    0.1551589    0.1196413  76.27 0.0005137506    1.152    0.132
       237  -9.3695     23.4315     26.2785   7.4698557516e+01   6.6932448632e+01    0.2811849    0.1718813   2.66   0.00156961    1.992    0.498
       238  -9.4315    107.5346     26.1280   4.4746118876e+01   5.4679641001e+01    0.2313698    0.1774535  23.72  0.001255116    1.299    0.230
       239  -8.9270    156.4960     24.1765   3.2709397186e+01   4.3401612967e+01    0.3583435     0.223603 -62.02  0.001513913    2.196    0.545
       240  -8.2354     91.9878     19.4854   4.6535967371e+01   5.8684469103e+01    0.3038147    0.1712399  30.92  0.001458712    1.900    0.474
       241  -9.2913     90.0180     23.2911   4.8720446878e+01   5.8531786645e+01    0.4543694    0.3078294  44.82  0.002475698    1.536    0.349
       242  -9.6114     85.6173     22.2262   4.9659013994e+01   5.9486173802e+01    0.2709835    0.2395485  12.03 0.0009443442    1.084    0.077
       243  -8.9985    103.3106     23.9728   4.5067402621e+01   5.5846956234e+01    0.2673174     0.200127  21.85 0.0007568814    1.342    0.255
       244  -8.7980     32.7468    151.0194   9.5696420095e+01   3.9790482783e+01    0.1739313    0.1448848 -54.81 0.0006464771    1.513    0.339
       245  -8.0616    179.4368     22.4618   2.8145010955e+01   3.7610135923e+01    0.1459315    0.1382767  87.79 6.007275e-05    1.046    0.044
       246  -9.5438    115.3883     21.0361   4.0650157610e+01   5.3671372019e+01    0.4012404    0.2298833  28.31  0.001285066    2.014    0.504
       247  -8.7013    131.2103     20.6248   3.6685304325e+01   5.0099585101e+01    0.2066399    0.1766675  79.21 0.0007095137    1.367    0.268
       248  -8.6083    125.7559     21.4375   3.8254920347e+01   5.1278074505e+01    0.2048983    0.1190306  43.41 0.0009382244    1.641    0.391
       249  -9.4931     19.7398     20.9873   7.4381860075e+01   6.8159511047e+01    0.1551088    0.1153565 -46.54 0.0002713433    1.203    0.168
       250  -8.7621     30.6098     20.0391   6.9353792960e+01   6.7390479203e+01    0.1693664    0.1598826  77.31  0.001132336    1.670    0.401
       251  -8.4190      1.2912     16.1128   8.0887015575e+01   7.0204965339e+01    0.2068838   0.05579484 -51.01  0.001034397    2.322    0.569
       252  -8.9576    236.9848    146.7536   5.1693674305e+01   3.8960179249e+00    0.1818237    0.1138974  45.42 0.0008789604    1.570    0.363
       253  -8.5747    145.7865     13.4858   3.1007440873e+01   4.7362557972e+01    0.3433618   0.09653736  53.69  0.001156868    2.896    0.655
       254  -9.9361      1.8219    144.6723   1.0152179145e+02   4.3805914463e+01    0.3323561    0.1262413  87.54   0.00166597    2.526    0.604
       255  -8.0149      7.8159    139.8368   9.9901228866e+01   4.4362407207e+01    0.1401063   0.09480469  78.27 0.0002351392    1.241    0.194
       256  -9.6343     15.8089    137.2005   9.7958200028e+01   4.4285280177e+01    0.2787419    0.1404403 -86.87 0.0009302887    1.683    0.406
       257 -10.3396     87.7759    134.1820   8.0878105901e+01   3.6577368021e+01    0.3993261    0.2207846  51.98  0.001664201    1.882    0.469
       258  -8.0949    111.7980     10.6131   3.7371621332e+01   5.5698688489e+01    0.1795111    0.1288423  67.24 0.0009343497    1.654    0.395
       259  -8.5213     30.5345    134.4972   9.4407743750e+01   4.3568471289e+01    0.1739823    0.1195696 -56.79  0.001083808    1.492    0.330
