#   1 NUMBER                 Running object number                                     
#   2 MAG_AUTO               Kron-like elliptical aperture magnitude                    [mag]
#   3 X_IMAGE                Object position along x                                    [pixel]
#   4 Y_IMAGE                Object position along y                                    [pixel]
#   5 X_WORLD                Barycenter position along world x axis                     [deg]
#   6 Y_WORLD                Barycenter position along world y axis                     [deg]
#   7 A_WORLD                Profile RMS along major axis (world units)                 [deg]
#   8 B_WORLD                Profile RMS along minor axis (world units)                 [deg]
#   9 THETA_WORLD            Position angle (CCW/world-x)                               [deg]
#  10 FWHM_WORLD             FWHM assuming a gaussian core                              [deg]
#  11 ELONGATION             A_IMAGE/B_IMAGE                                           
#  12 ELLIPTICITY            1 - B_IMAGE/A_IMAGE                                       
         1 -11.2994    175.6632     18.2809   6.0422916158e+01   3.8846555499e+01    0.3475106    0.3016272  72.01 0.0008373854    1.132    0.117
         2  -9.5844    145.8988     15.9660   6.4542578304e+01   4.6979111433e+01    0.3379895    0.2272155  21.33  0.001021235    1.662    0.398
         3 -10.1391    131.5736     12.1670   6.5902686783e+01   5.1099505055e+01    0.2808096    0.2559813 -32.33 0.0006309338    1.205    0.170
         4 -11.1197    245.2177     10.0009   5.0669888327e+01   2.2437270936e+01    0.5202631      0.32239  88.41  0.001954216    1.741    0.426
         5 -11.1371    245.3392      3.6294   4.9116467653e+01   2.3011376322e+01    0.3162543    0.2573442 -70.71  0.000219398    1.169    0.144
         6  -8.3284    217.6259      9.8189   5.2953256757e+01   2.8914072095e+01    0.2053184     0.104327 -37.24 0.0009451467    1.823    0.452
         7  -9.0093    166.7097     10.1212   5.8994045947e+01   4.2034728222e+01    0.2261325    0.1898749  87.30 0.0003704607    1.237    0.192
         8  -9.4126    186.4740      8.3979   5.5829580201e+01   3.6964867344e+01    0.2299363    0.2232471  54.85 0.0005047539    1.043    0.042
         9  -9.1093    111.5271      8.6843   6.9015847030e+01   5.6474454455e+01    0.2506954    0.1994372  37.48 0.0005330656    1.123    0.110
        10  -9.1586    193.7041      4.8982   5.3942735386e+01   3.5399680551e+01    0.3559339    0.2431217 -62.18  0.001797837    1.571    0.363
        11 -10.5142    126.0473      5.3443   6.4247908280e+01   5.3175459871e+01     0.384282    0.2982291 -59.00 0.0006867151    1.612    0.380
        12  -8.5757    223.2477      5.4109   5.1270436266e+01   2.7963280680e+01    0.1791568    0.1194761 -86.91 0.0009391903    1.558    0.358
        13  -9.9825    183.5690      3.0555   5.4500007919e+01   3.8202909837e+01     0.310597    0.2521476  63.85 0.0004256917    1.156    0.135
        14  -8.6427    176.5333      3.8737   5.5596440517e+01   3.9987503071e+01    0.1999554    0.1402255 -18.53  0.000780754    1.522    0.343
        15  -9.3126    223.1809    226.8298   1.0227573850e+02  -7.2697470001e-01    0.2165876    0.1799285 -16.03  0.001081765    1.470    0.320
        16 -11.5686    226.4169    219.0064   1.0049423155e+02  -3.5591697838e-01    0.7834416     0.614733 -54.15  0.004906822    2.631    0.620
        17 -10.1238    232.9618    214.1614   9.8582226115e+01  -7.8843924513e-01    0.3338594    0.2833872  -6.40  0.001908532    1.376    0.273
        18 -11.2716    216.8806    195.0010   9.8162075478e+01   3.9220111804e+00    0.6476158    0.3617863 -40.55   0.00344301    2.303    0.566
        19 -11.0650    235.9561    231.1828   1.0077586375e+02  -2.9724540981e+00     1.245934    0.5062242 -20.87  0.006394153    2.993    0.666
        20 -10.8636    248.1323    229.1441   9.8452321036e+01  -4.4323303085e+00    0.6240343    0.3431367 -30.11  0.003996222    2.133    0.531
        21 -11.3893    240.2095    219.2596   9.8186234190e+01  -2.3674591209e+00      1.07778    0.3735503 -29.44  0.005286505    3.104    0.678
        22 -11.1212    248.5264    216.1695   9.6298892009e+01  -3.2208879433e+00    0.6639621    0.3776998 -38.06  0.003797458    2.566    0.610
        23 -12.5444    225.9796    196.4416   9.6780162314e+01   2.2944232864e+00     1.220165    0.8101346 -23.68  0.006434067    1.556    0.357
        24 -11.8759    238.0910    189.2301   9.3361538298e+01   1.2527097535e+00     1.115225    0.4453573 -22.41  0.004987698    2.834    0.647
        25 -12.1121    239.1599    180.1135   9.1472604810e+01   2.1720325939e+00     1.080198    0.6393694  15.72  0.005915802    1.616    0.381
        26 -11.2196    243.0460    247.6863   1.0206079644e+02  -5.4579007977e+00    0.6608979    0.2872753  34.10  0.003370799    1.720    0.419
        27 -11.4222    247.1418    241.4415   1.0048884013e+02  -5.4334628362e+00    0.7895595    0.4391775  41.70  0.005010039    2.028    0.507
        28 -11.9850    244.9666    202.2046   9.4516479241e+01  -1.2541177088e+00      1.08919    0.9448366 -89.62  0.006461885    3.100    0.677
        29 -11.9173    249.2039    185.4385   9.0777814829e+01  -2.4372333356e-02     1.023841     0.408967 -26.11  0.004911869    2.462    0.594
        30  -9.4413    199.9410    224.6461   1.0604536782e+02   2.9429152917e+00    0.2597832    0.1896562 -27.26  0.001766817    1.620    0.383
        31  -9.0150    161.5157    226.0164   1.1333661429e+02   8.6017328674e+00    0.1486581    0.1190167 -38.71  0.001031805    1.588    0.370
        32  -9.4166    217.0293    223.8207   1.0288282200e+02   4.9367849098e-01    0.2920698    0.1998953 -42.26   0.00181927    2.205    0.546
        33  -8.1343    213.0050    225.4845   1.0384308666e+02   9.0106911104e-01    0.1722689    0.0904614  35.54 0.0006914638    1.498    0.332
        34  -8.5373    180.4173    224.1442   1.0954636576e+02   5.9687760538e+00    0.2143631    0.1423444  59.46  0.001192707    2.370    0.578
        35  -9.6878    192.0810    220.4420   1.0685532839e+02   4.6476606365e+00    0.2639328    0.2267316  37.03  0.001189568    1.328    0.247
        36  -9.9851    210.7189    218.5951   1.0319098855e+02   2.0267478409e+00    0.3222318    0.2177048 -21.03  0.002089523    1.616    0.381
        37  -8.6497    168.7731    216.0293   1.1059855912e+02   8.8524522651e+00     0.136079    0.1020927 -38.39 0.0008745317    1.647    0.393
        38  -9.6439    185.5268    213.0238   1.0696566904e+02   6.6199783824e+00    0.2646151    0.2234055 -23.04  0.001024923    1.393    0.282
        39  -8.2906     23.8469    214.6400   1.3845651412e+02   2.8133029136e+01    0.1450022   0.06768832  45.35 0.0009397757    1.639    0.390
        40 -11.8390    215.3695    209.4177   1.0088895818e+02   2.3961890480e+00    0.7829949    0.6234099  59.70  0.004832518    2.165    0.538
        41 -11.0143    205.0684    206.2604   1.0224545901e+02   4.3949313185e+00     0.639733    0.2449977 -27.55  0.002740775    3.453    0.710
        42  -9.7250    211.1577    201.1740   1.0027629650e+02   4.0651751264e+00    0.2979906    0.2341214  17.64 0.0008701124    1.027    0.027
        43 -10.4805    210.5939    196.6888   9.9610165540e+01   4.7249595895e+00    0.3834914    0.2498073  41.40  0.001085131    1.509    0.337
        44  -8.7820    199.1962    210.5138   1.0401763663e+02   4.7862625026e+00    0.1917567    0.1498909 -61.34 0.0008680206    2.365    0.577
        45  -9.4297    175.1507    209.4334   1.0840666557e+02   8.7594927804e+00    0.3126929    0.2410612 -79.19  0.001787914    2.476    0.596
        46  -8.7121    131.9859    211.0235   1.1715659479e+02   1.5307903929e+01    0.1850979    0.1402834   5.54  0.000979987    1.723    0.420
        47  -8.5674    161.1935    209.8571   1.1119148252e+02   1.0929407132e+01    0.1748901    0.1273926  19.01 0.0008484034    1.358    0.263
        48  -9.9934    196.9485    204.8496   1.0352720844e+02   5.8734644917e+00    0.2861875    0.2281967  53.88   0.00109502    1.704    0.413
        49  -8.4727    127.3066    206.3371   1.1751208524e+02   1.6776444630e+01    0.1175168   0.09115414   5.11 0.0003769741    1.676    0.403
        50  -8.0679    164.3267    203.2959   1.0960762826e+02   1.1395012762e+01    0.1270054   0.08742021  13.55 0.0007023799    1.628    0.386
        51  -9.1503    191.8074    208.9990   1.0515892602e+02   6.1528880398e+00    0.2415715    0.1704371 -29.92    0.0010442    1.636    0.389
        52  -8.9556    184.3858    201.3649   1.0536118015e+02   8.3885442672e+00    0.1853316    0.1252844  13.98 0.0005483631    1.520    0.342
        53  -8.6747    176.2758    197.6183   1.0634654717e+02   1.0266231933e+01    0.1166374   0.09892072  69.66 0.0007001562    1.710    0.415
        54  -9.0233    148.5130    197.0077   1.1187597825e+02   1.4952621636e+01    0.1722361     0.128459 -45.26  0.001035941    1.600    0.375
        55  -8.6111    184.8791    192.5721   1.0381166898e+02   9.5574197656e+00    0.2761028    0.1420888 -22.26  0.001236695    2.763    0.638
        56 -10.7265    236.2214    207.9615   9.6988970826e+01  -5.9268954715e-01    0.5139815    0.2808532 -28.50  0.002395909    1.953    0.488
        57 -10.1974    231.9891    237.7377   1.0242294052e+02  -3.0693863360e+00    0.5086558    0.3124208 -39.62  0.003257495    2.541    0.606
        58  -8.2695    191.4999    186.9950   1.0154470766e+02   9.2354645751e+00    0.1767889    0.1040095  -7.66  0.000698573    2.428    0.588
        59  -9.5405     11.7818    184.1765   1.3931143719e+02   3.4765347460e+01    0.1663488    0.1314167 -28.57 0.0008145034    2.032    0.508
        60 -11.7876    247.3967    192.5458   9.2388394691e+01  -5.5227118402e-01    0.6063318    0.4908683 -22.19  0.003140798    1.486    0.327
        61  -9.3679     23.3367    181.9596   1.3686441385e+02   3.4216886930e+01    0.2792913    0.1253138  61.52  0.001431908    1.992    0.498
        62  -8.6922    217.6614    176.5264   9.4619177249e+01   6.1965709439e+00    0.2170192    0.1151587 -31.12  0.001085906    1.958    0.489
        63  -8.6493    237.3842    168.7339   8.9563272499e+01   3.8733291600e+00    0.1751109    0.1071816 -14.57 0.0009399897    1.575    0.365
        64  -8.9783    149.5693    226.2990   1.1563169661e+02   1.0363214174e+01    0.1846494     0.119326 -56.19  0.001137267    2.138    0.532
        65  -8.3160      9.6981    166.6343   1.3886340090e+02   3.8391005630e+01    0.1041239   0.07213501 -55.14 0.0007034878    1.735    0.423
        66  -8.2563    184.5021    164.4941   9.8749418174e+01   1.3913782006e+01    0.1424917    0.1182828  16.50 0.0008095356    1.075    0.070
        67  -9.6193    237.7194    163.0370   8.8359402632e+01   4.5449053865e+00    0.4259694    0.1732308  46.62  0.001509896    2.710    0.631
        68  -9.6787    250.2569    157.3147   8.5079341888e+01   3.1619369402e+00     0.374644    0.1433953 -34.75  0.001634957    2.616    0.618
        69  -8.7081    132.3192    157.2946   1.0895216216e+02   2.4808640460e+01    0.1374538    0.1069055   3.12  0.000282326    1.609    0.379
        70  -9.7453    234.8800    153.9324   8.6967956659e+01   6.2311728771e+00    0.2591872    0.1909387  31.86 0.0003726876    1.283    0.221
        71  -8.7173     59.9758    153.0103   1.2607323530e+02   3.6501436860e+01    0.2030326    0.1281422  67.22 0.0004813156    1.661    0.398
        72  -9.6309    241.0363    149.2562   8.4923848678e+01   5.7671495489e+00    0.2628352    0.2346326  51.04 0.0009444663    1.561    0.359
        73  -9.5565    228.9723    153.9366   8.8007042248e+01   7.2821215697e+00    0.1825329    0.1632946 -44.78  0.000797493    1.566    0.362
        74 -10.9573    246.5131    143.6395   8.2809451536e+01   5.5409833927e+00     0.490086    0.4063034 -45.22  0.002915381    1.673    0.402
        75  -8.9350    237.9957    140.8406   8.3618388729e+01   7.4353936290e+00    0.3059133     0.230106  88.40 0.0008381024    3.243    0.692
        76  -8.1484    200.0106    134.0153   8.9052939026e+01   1.5802987420e+01    0.1731551    0.1513369  15.09 0.0003298557    1.026    0.025
        77  -9.9011    239.8690    128.1336   8.0464413552e+01   8.8216854659e+00    0.2404846     0.178404  -6.51 0.0003684904    1.227    0.185
        78 -10.3621    235.9879    130.2414   8.1589550450e+01   9.2632679754e+00    0.4427359    0.2223873  30.17  0.001936286    2.200    0.546
        79  -9.3936    231.6556    129.6791   8.2197256577e+01   1.0168528625e+01    0.3185641    0.2013802 -13.23  0.001403183    1.592    0.372
        80  -9.3346    234.5215    127.5116   8.1212892896e+01   9.9234252516e+00    0.2279077    0.1923491  -4.49 -1.283962e-05    1.029    0.028
        81  -8.5511    179.7660    132.2502   9.2836969644e+01   2.0267814472e+01     0.233638    0.1174823 -26.16  0.000889978    2.430    0.588
        82  -9.7938    226.3450    129.2007   8.3009458044e+01   1.1266586793e+01    0.2505965     0.214172  16.77 0.0004102713    1.082    0.076
        83  -7.7911    247.3186    129.3290   7.9529276114e+01   7.2801052324e+00    0.1422213   0.09104528   8.62 0.0004389041    1.685    0.406
        84  -8.8618    201.1041    126.5937   8.7097357302e+01   1.6771289673e+01    0.3798352    0.1832425 -38.84  0.001560802    2.138    0.532
        85  -8.6849    186.6171    128.1588   9.0416969877e+01   1.9543559656e+01    0.2114843     0.134792 -21.42 0.0009455764    1.724    0.420
        86  -9.2928    213.5146    123.1077   8.3894446840e+01   1.4749126883e+01    0.4385322    0.2355992 -36.67   0.00194693    1.867    0.464
        87  -8.8342    249.7290    122.8393   7.7685044947e+01   7.6987625500e+00     0.264469    0.1524827  25.27  0.001276242    1.916    0.478
        88  -9.0005    239.5945    122.7491   7.9274760667e+01   9.6138047480e+00    0.2054007    0.1813854  82.04  0.001181982    1.717    0.418
        89  -9.4483    232.6924    121.9247   8.0226123342e+01   1.1065721426e+01    0.3614298    0.3024377  25.67  0.001749751    1.161    0.139
        90  -8.1888    226.4949    116.5385   8.0003964140e+01   1.3076558660e+01    0.1430702    0.1246899  -0.00 0.0001380971    1.003    0.003
        91  -8.3895    220.5692    114.7722   8.0608681376e+01   1.4552715278e+01    0.2031604     0.125377 -39.18 0.0009472559    1.690    0.408
        92  -9.4507    209.6588    112.2642   8.1965921989e+01   1.7235976418e+01    0.5054513    0.2282045 -23.39  0.001878866    2.548    0.608
        93  -8.8145     25.7620    111.4360   1.3039032813e+02   4.9261139825e+01    0.1469965    0.1184083  -9.33 0.0009410117    1.611    0.379
        94  -8.4873    201.4964    110.0055   8.2943216725e+01   1.9361614362e+01    0.2076444     0.124416  -4.10 0.0005293442    2.362    0.577
        95  -8.1973    197.2097    107.0346   8.3018233198e+01   2.0788356316e+01     0.196821    0.1165155 -30.55 0.0006962105    1.660    0.398
        96  -9.3757    214.2603    104.9182   7.9283735087e+01   1.7377278885e+01    0.2462326    0.2149006 -13.08 0.0005206408    1.062    0.059
        97  -8.6856    228.7997    103.8987   7.6538043269e+01   1.4434383607e+01    0.2142742    0.1765152   5.52 0.0005378968    1.156    0.135
        98  -7.9687    182.4908    104.4873   8.5351091479e+01   2.4520526396e+01    0.1528442    0.1428991   7.34 0.0002148216    1.023    0.022
        99  -9.2430    246.6846    102.3303   7.3365614177e+01   1.1022857810e+01    0.2454828    0.2036711 -75.53 0.0008178801    1.797    0.443
       100  -9.7589    243.0905     99.2904   7.3169457831e+01   1.2149296492e+01    0.5119946    0.1935693 -33.76   0.00132129    2.348    0.574
       101  -9.6632    206.2741     98.1832   7.8995874157e+01   2.0177192582e+01    0.2957458    0.2413448  35.54 0.0008734147    1.209    0.173
       102  -8.4695    171.7785     96.0196   8.5376634297e+01   2.8457701407e+01    0.2010577    0.1249689 -34.22 0.0004023761    1.608    0.378
       103  -9.4163    244.4484     93.5293   7.1570285404e+01   1.2655155727e+01      0.23917    0.2086871 -16.95 0.0006266413    1.042    0.040
       104  -8.9239    234.2264     94.4139   7.3318139952e+01   1.4644180943e+01    0.1843286    0.1402028  66.26 0.0009050682    1.676    0.403
       105  -8.2541    212.8430     93.8310   7.6681178352e+01   1.9373343087e+01    0.1984802    0.1700264 -50.37  0.000571428    1.352    0.260
       106  -8.5494    250.0884     92.9520   7.0626812612e+01   1.1599974224e+01    0.2088489    0.1452978  17.73 0.0005807616    1.600    0.375
       107  -8.9460    150.7626     92.7663   8.9378164238e+01   3.3891630049e+01    0.2116895    0.1904984  85.85  0.001063382    1.368    0.269
       108  -9.7445    207.5450     87.5255   7.5939214505e+01   2.1531274208e+01    0.4975394     0.333171  -5.14  0.002242894    1.755    0.430
       109  -9.0910    205.1943     84.8603   7.5634543281e+01   2.2480358681e+01    0.2033686    0.1866906  22.37 0.0002665978    1.067    0.062
       110  -8.5592    250.6108     87.2782   6.9185508218e+01   1.2241611693e+01    0.1952282    0.1173245 -16.29 0.0007655441    1.642    0.391
       111  -8.5129    245.9100     87.4800   6.9883790562e+01   1.3167306609e+01     0.193056    0.1361505  52.86  0.001027216    1.576    0.366
       112  -8.4429    221.4479     87.2515   7.3514568343e+01   1.8426167899e+01    0.1971232    0.1268783 -38.34 0.0004294738    1.534    0.348
       113  -8.2766    236.2960     86.3168   7.0977665626e+01   1.5328443916e+01    0.1434254    0.1014025  11.84 0.0003511329    1.607    0.378
       114  -8.8117     20.4327     86.3021   1.2877986412e+02   5.5506461071e+01    0.2056312    0.1296315  49.40  0.001174599    1.828    0.453
       115  -9.3434    239.8931     85.1223   7.0154448555e+01   1.4730920370e+01    0.2069592    0.1857229 -44.12 0.0007450738    1.225    0.183
       116  -9.0937    170.8351     83.0148   8.1880132320e+01   3.0950449964e+01    0.2606893    0.1812271 -62.75  0.001083948    2.066    0.516
       117  -9.1277    244.6575     80.3214   6.8292523686e+01   1.4374238856e+01    0.2820189    0.2001025 -52.79 0.0009680536    1.675    0.403
       118  -9.2858    212.4227     77.4796   7.2390208187e+01   2.1897498630e+01    0.2884499    0.2354403 -18.56 0.0009641882    1.170    0.146
       119  -9.2259    241.2205     74.7747   6.7373615635e+01   1.5830574273e+01    0.4163828    0.2319389  -7.58  0.001766191    2.311    0.567
       120 -10.2980    223.7326     76.0940   7.0226840189e+01   1.9499633366e+01    0.3157663    0.2492426 -10.95 0.0005399142    1.248    0.198
       121  -8.7899    235.5442     75.3322   6.8298909489e+01   1.6980901583e+01    0.2390508    0.1525762  33.82 0.0009979208    1.764    0.433
       122  -8.8217    188.8203     74.8434   7.5826982050e+01   2.7928474053e+01    0.2114046    0.1853379 -60.85 0.0007783093    1.328    0.247
       123  -9.7406    232.1848     69.3905   6.7237054747e+01   1.8515242718e+01    0.3366937    0.2455449  28.46  0.001643904    1.521    0.343
       124  -8.7636    239.1647     67.9044   6.5907591723e+01   1.7172672836e+01    0.2171765    0.1761074 -46.40  0.001216737    1.275    0.216
       125  -8.6023    250.4104     66.5008   6.4129166071e+01   1.4951608053e+01    0.3152817    0.1206481 -25.96  0.001249421    2.404    0.584
       126  -7.9337    176.4897     67.5085   7.6053389766e+01   3.2117490006e+01    0.1532454    0.1482843   4.33 0.0008103556    1.030    0.029
       127  -9.0597    245.0418     65.9388   6.4653561707e+01   1.6156981750e+01    0.2077238    0.1851708 -29.15 0.0005226633    1.047    0.045
       128 -10.5734    218.9175     60.7107   6.6808498687e+01   2.2717219165e+01    0.3770925     0.302358 -22.71  0.001031099    1.188    0.158
       129  -9.5356    214.4040     59.6234   6.7170835386e+01   2.3934242629e+01    0.2196926    0.1648431 -57.55 0.0006875679    1.538    0.350
       130  -8.3217    174.2104     58.8496   7.3826091034e+01   3.4023150582e+01    0.2211198     0.174823  25.19  0.001060898    1.336    0.252
       131  -9.2871    204.1888     57.4157   6.8108724013e+01   2.6710255060e+01    0.2433579    0.1647557 -33.44 0.0004591522    1.422    0.297
       132  -9.1048    114.9619     54.2741   8.6726639476e+01   4.9169831462e+01     0.259651    0.2119632 -30.27 0.0005406953    1.203    0.169
       133  -9.7957    192.2326     51.5621   6.8318055455e+01   3.0493496221e+01    0.3417065    0.2443932   6.89 0.0008802829    1.678    0.404
       134  -8.1729    125.4868     53.4602   8.3409835459e+01   4.6925007090e+01    0.1526062    0.1457001   7.74 0.0001130865    1.043    0.042
       135  -9.5689    148.3072     51.3340   7.6876868890e+01   4.1731359619e+01    0.2583736    0.2544754  -7.65 0.0003815783    1.080    0.074
       136  -9.4462    228.5965     49.1357   6.2376100697e+01   2.1940296993e+01    0.4453415    0.1577217  62.59  0.001652342    2.954    0.661
       137 -10.2766    247.1711     46.6312   5.9565270873e+01   1.8064658216e+01    0.3065883     0.239214  82.47  0.001426564    1.485    0.327
       138 -10.2665    241.7368     45.9020   5.9978574719e+01   1.9345261880e+01    0.3030992    0.2376878  59.30 0.0007341947    1.375    0.273
       139 -10.4588    202.0204     45.1677   6.4883872330e+01   2.8871223561e+01    0.4601309    0.2645741  51.80  0.001666523    1.720    0.419
       140  -8.2340    180.6785     44.3094   6.8036025751e+01   3.4429739958e+01    0.1546868    0.1147528 -63.83 0.0007035707    1.646    0.392
       141  -8.4297    145.2085     44.6124   7.5235704788e+01   4.3528544398e+01    0.2177905    0.1334417  44.31 0.0002083175    1.577    0.366
       142 -10.1600    248.9202     38.3201   5.7315677214e+01   1.8644150933e+01    0.3448643    0.2888679 -13.16  0.001088019    1.208    0.172
       143  -8.0256     32.6916     40.6901   1.1367266913e+02   6.4992580856e+01    0.1350189   0.08005071 -31.69 0.0004597667    1.619    0.382
       144  -9.2096    229.0738     37.0563   5.9102833365e+01   2.3275557836e+01    0.2655481     0.192738  67.17  0.001232552    1.451    0.311
       145  -9.8799    205.0462     37.2760   6.2149891588e+01   2.9090775449e+01    0.2207277    0.1907677  23.69  0.000470596    1.235    0.190
       146  -9.0113    202.0282     35.0435   6.1908112933e+01   3.0118005492e+01    0.2029076    0.1623793 -54.93  0.000502234    1.316    0.240
       147  -9.0462    104.5156     33.5297   8.1834686845e+01   5.4923886527e+01    0.3001993    0.1405433 -31.44  0.001194866    2.111    0.526
       148  -8.6115    218.3959     33.2510   5.9310647572e+01   2.6263714050e+01    0.2014463    0.1179166 -36.64 0.0006547566    1.602    0.376
       149 -10.2949    192.6359     32.6819   6.2519041593e+01   3.2797775103e+01    0.2532119    0.2479612 -74.29 0.0002495576    1.038    0.037
       150  -9.8002    126.1429     30.6463   7.4587930503e+01   5.0272990328e+01    0.3398232    0.3021759  79.58 0.0008425029    1.341    0.254
       151  -8.7410    203.4322     31.4709   6.0671226383e+01   3.0180954018e+01    0.1394803     0.136468 -45.85 0.0001026001    1.012    0.012
       152  -9.4275    214.5889     28.1472   5.8338845425e+01   2.7770939885e+01    0.3441929    0.1995399 -39.55  0.001174672    1.648    0.393
       153  -9.4020    184.6676     28.6431   6.2432512698e+01   3.5338526941e+01    0.2780516     0.249705  42.74 0.0007121082    1.103    0.093
       154  -7.7984    101.0000     26.9760   8.0136628158e+01   5.6671542872e+01    0.2348101   0.08012883 -30.30 0.0007980638    2.912    0.657
       155  -8.7474    165.6115     24.7704   6.4185164593e+01   4.0804458618e+01    0.2006889    0.1331839 -35.94 0.0004261813    1.553    0.356
       156  -9.1820    220.7322     22.7039   5.6153417313e+01   2.6859594953e+01    0.2582203     0.168296  -8.69  0.001265619    1.767    0.434
       157  -8.5618    195.3712     23.2447   5.9275763849e+01   3.3159889306e+01    0.2078196    0.1212032 -36.28  0.000440141    1.679    0.404
       158  -9.7155    138.2256     22.0147   6.8389885193e+01   4.8309924565e+01    0.4033246    0.2050651  42.42 0.0005421197    1.915    0.478
       159  -8.6057    249.6020     22.2424   5.3300574809e+01   2.0241471661e+01    0.1724843    0.1172096 -13.20 0.0006689053    1.588    0.370
       160 -10.0943    116.4910     21.6662   7.3396921655e+01   5.3795828342e+01    0.4513152    0.2398359  46.42 0.0009638071    1.730    0.422
       161  -9.0566    226.9491     19.6573   5.4704439747e+01   2.5685379909e+01    0.4003433    0.1254279 -33.02  0.001529533    2.658    0.624
       162  -8.4074    215.0000     19.5024   5.5880383359e+01   2.8596775639e+01     0.286862   0.07594979 -23.24 0.0007602509    3.744    0.733
       163  -8.6236    206.4778     20.4760   5.7100658940e+01   3.0620926802e+01    0.1381059    0.1315026 -65.45 0.0001198344    1.029    0.028
       164  -8.9672    191.0022    247.9795   1.1083635697e+02   1.5960370546e+00    0.1595676      0.12111  50.06  0.001133897    1.683    0.406
       165  -8.7083    240.5380     18.4537   5.3142716844e+01   2.2651148830e+01    0.1288829    0.1167679 -49.88 0.0001280312    1.008    0.008
       166  -8.9902    146.3925    242.5121   1.1811800013e+02   8.6254160727e+00    0.2305873    0.1109118 -48.56  0.001174692    2.777    0.640
       167  -8.1620    158.3089     16.3324   6.2472543388e+01   4.3658481321e+01     0.158597    0.1021952  32.26 0.0004769153    1.670    0.401
       168  -8.0835     92.3506     14.3231   7.7109297763e+01   6.0263802795e+01    0.1552898   0.09625809  21.01 0.0007048446    1.750    0.429
       169  -9.3585    238.2381     13.2121   5.2021335063e+01   2.3700576629e+01      0.19218    0.1349712 -56.32  0.001074018    1.378    0.274
       170  -8.2568    169.4331    242.5014   1.1395940147e+02   5.3131474884e+00    0.1145616   0.08462071  31.71 0.0001925661    1.009    0.009
       171  -8.4731    214.4201    241.2924   1.0590162127e+02  -9.9360200742e-01    0.1218521    0.1033699 -19.75 0.0009389702    1.560    0.359
       172  -8.4388    201.4065    241.2237   1.0813644638e+02   8.5301052254e-01    0.1223714    0.1074623 -29.82 0.0009422643    1.626    0.385
       173  -9.7280    224.7601    244.9054   1.0466373378e+02  -2.7787564806e+00    0.2927237    0.2599201  -9.73  0.002384499    1.589    0.371
       174 -10.1922    216.1162    234.1308   1.0458542639e+02  -4.8796827248e-01    0.3250031    0.2705252 -52.88  0.002167613    2.272    0.560
       175  -9.3884    204.0332    235.6955   1.0691189088e+02   1.0791329174e+00     0.278924     0.243182 -65.93  0.001984175    2.206    0.547
       176  -8.2045    189.5932    237.5108   1.0971419111e+02   2.9730556829e+00     0.114934   0.08540732  27.25  8.97146e-05    1.027    0.026
       177  -8.0238    201.6660     11.6747   5.5087496557e+01   3.2726458949e+01      0.14743   0.09792589  36.08 0.0003432116    1.713    0.416
       178  -8.1297     50.0270    235.4666   1.3488838713e+02   2.2022905355e+01    0.1173723   0.08611884  10.20 0.0008052989    2.307    0.566
       179  -9.3182    195.2396    232.9942   1.0808863526e+02   2.6672626418e+00    0.2605083    0.2015049  46.74  0.001807428    1.561    0.360
       180  -9.3824    185.8887    230.2844   1.0939668840e+02   4.3764381812e+00    0.1925138    0.1727743 -66.95 0.0008273093    1.824    0.452
       181  -8.4650    126.3321     10.3002   6.6255296710e+01   5.2628056594e+01    0.1582827   0.09681258  32.70 0.0007032841    1.650    0.394
       182  -8.9152    157.2207    230.9344   1.1476739538e+02   8.5834752977e+00    0.1666774    0.1368541  45.14 0.0005308592    1.226    0.184
