#   1 NUMBER                 Running object number                                     
#   2 MAG_AUTO               Kron-like elliptical aperture magnitude                    [mag]
#   3 X_IMAGE                Object position along x                                    [pixel]
#   4 Y_IMAGE                Object position along y                                    [pixel]
#   5 X_WORLD                Barycenter position along world x axis                     [deg]
#   6 Y_WORLD                Barycenter position along world y axis                     [deg]
#   7 A_WORLD                Profile RMS along major axis (world units)                 [deg]
#   8 B_WORLD                Profile RMS along minor axis (world units)                 [deg]
#   9 THETA_WORLD            Position angle (CCW/world-x)                               [deg]
#  10 FWHM_WORLD             FWHM assuming a gaussian core                              [deg]
#  11 ELONGATION             A_IMAGE/B_IMAGE                                           
#  12 ELLIPTICITY            1 - B_IMAGE/A_IMAGE                                       
         1  99.0000     80.3707     57.4502   2.3943646516e+01   5.6160907329e+01     2.824902     2.077559   7.56   0.01274794    2.047    0.511
         2 -15.1665     12.1024     24.1785   4.5710949229e+01   7.4384423206e+01     4.481716     1.503062 -48.24   0.01849343    2.694    0.629
         3 -12.3032     65.0141     17.5674   1.1706372748e+01   6.6003641551e+01    0.6501333    0.3896491  58.96  0.001701538    1.547    0.354
         4  -8.9894     32.3905     33.4809   3.5941002876e+01   6.9893841659e+01     2.787578    0.7615119 -41.81   0.00896264    4.108    0.757
         5 -13.6461     81.6331     31.9370   1.3085106082e+01   6.0210530212e+01     1.216331     0.934043  71.97  0.004027666    1.337    0.252
         6 -13.8834     46.8604     41.5312   3.1597035894e+01   6.5932805876e+01     1.878842     1.238421 -21.33  0.008781626    1.989    0.497
         7 -14.7721     63.5977     38.7964   2.2645262882e+01   6.3164073846e+01     2.917704     1.866536  -8.63   0.01209655    2.698    0.629
         8 -14.9825     89.9213      7.1043   3.5977954249e+02   6.1138319869e+01     2.941634     1.264989  63.45   0.01303297    1.966    0.491
         9 -12.5248    245.9468     14.3445   3.4715375035e+02   2.5646870624e+01    0.6684682    0.3412859 -53.47  0.004372213    1.407    0.289
        10 -11.1040    208.3504     17.3467   3.4976880942e+02   3.2283572868e+01    0.4038834     0.203876 -57.55  0.001783384    1.622    0.383
        11 -10.7818    174.5028     13.2633   3.5114541163e+02   3.9926324818e+01    0.2814808    0.2032927 -75.34 0.0009626015    1.190    0.159
        12 -12.6059    118.9129     10.2685   3.5612290612e+02   5.3579592998e+01     1.219469    0.5858161  65.35  0.005698964    1.837    0.456
        13 -10.3244    202.1448     11.2523   3.4873594861e+02   3.4192336411e+01    0.2038737    0.1498064 -56.51 0.0003904137    1.057    0.053
        14 -11.2065    185.0751     10.6547   3.4968277694e+02   3.7858915316e+01    0.3680567    0.2997229  74.41   0.00210064    1.348    0.258
        15  -9.6252    181.7218      5.2165   3.4851916435e+02   3.9140093742e+01      0.37988    0.1481607 -74.21  0.001647836    2.753    0.637
        16 -12.6898    241.9328     22.5296   3.4896930974e+02   2.5450954465e+01    0.7155122    0.3652872 -73.85  0.004370295    1.940    0.485
        17  -9.1311    168.5208      8.9865   3.5045866490e+02   4.1724296843e+01    0.1582768    0.1075706  14.15 0.0008101282    2.555    0.609
        18  -9.1679    155.3154      9.6752   3.5177307366e+02   4.4729682290e+01    0.1407889   0.07787589 -61.66  0.000704311    1.667    0.400
        19 -11.1414    249.5074      5.9545   3.4538192791e+02   2.5910830201e+01     0.455213    0.1444558 -36.99  0.002485428    2.152    0.535
        20 -11.2647    244.6067      3.8932   3.4516396317e+02   2.6952224819e+01    0.2182527    0.1313799  77.55  0.001215117    1.873    0.466
        21 -11.6317    148.9625      6.6989   3.5146390442e+02   4.6534332074e+01    0.4784503    0.2500724 -63.37  0.001286576    1.825    0.452
        22 -11.6635    137.6033      4.4852   3.5186655828e+02   4.9492274098e+01    0.4218757    0.2553211 -71.74 0.0007428495    1.560    0.359
        23  -9.0236    200.3180      5.6467   3.4752483467e+02   3.5141956625e+01    0.1336904   0.06188315 -57.37 0.0007046705    1.744    0.427
        24  -8.8770    129.4414      4.5317   3.5275230947e+02   5.1495476139e+01    0.1289027    0.1132276  78.23 0.0001317729    1.126    0.112
        25  -9.4839     40.1031      4.3446   1.4234485924e+01   7.2989715727e+01    0.1757311    0.1122887  62.19 0.0006081832    1.658    0.397
        26 -11.1880    215.4929      2.2524   3.4600492599e+02   3.2444648327e+01    0.2146038    0.1411216 -60.96 0.0003940166    1.149    0.130
        27  -9.5687    178.2962      8.3906   3.4957175099e+02   3.9580434421e+01    0.1639374    0.1003166 -83.21 0.0009192558    1.479    0.324
        28 -13.7487     78.5718    105.3526   3.9544561415e+01   4.5678531069e+01     1.644741     1.373091  35.95  0.006829769    1.224    0.183
        29 -13.0598    189.5902    248.4767   3.8148434010e+01   1.6383421655e-01    0.8356754    0.2613406  26.99  0.004058753    2.824    0.646
        30 -13.3242     95.1912    100.2914   3.2664498177e+01   4.3746722769e+01     1.505927     1.217768  56.32  0.006899334    1.273    0.215
        31 -10.9604     14.6908    114.4319   6.6393356552e+01   5.1537727850e+01    0.2694505    0.1304758  24.81  0.001138202    2.087    0.521
        32 -11.6162    129.4393    105.6131   2.4486485593e+01   3.5479588167e+01    0.6298773    0.5497257 -68.64    0.0021729    1.172    0.147
        33 -10.8998    248.1786    107.0907   5.2571872645e+00   1.3546594827e+01    0.2421567    0.1556453  85.02  0.001394896    2.797    0.643
        34 -11.6072     16.8009    101.7160   6.3834510940e+01   5.4882807292e+01     0.389727    0.3617918 -37.21  0.002011966    1.128    0.114
        35 -10.5703    172.4088    101.9541   1.4551916277e+01   2.7344953207e+01    0.4029972     0.213297  60.42  0.001765931    2.313    0.568
        36 -11.9929      3.1574     96.8334   6.9342367896e+01   5.7117986617e+01    0.5534968    0.4534189 -54.47   0.00261442    1.169    0.144
        37 -10.6203     36.5392     98.8537   5.4627946567e+01   5.3731625760e+01    0.3019871    0.2736625   8.29  0.001642791    1.189    0.159
        38 -11.3713    204.5084     93.4691   7.6368913659e+00   2.2660050609e+01    0.4657407     0.436177 -22.89  0.002094475    1.209    0.173
        39 -10.4449    201.6954     92.3090   7.7551981328e+00   2.3359513938e+01    0.2700796    0.2234737 -61.59 0.0009429693    1.181    0.153
        40  -9.5893    194.1793     96.7863   9.8318103017e+00   2.4029868662e+01    0.1778274    0.1542642 -11.86   0.00107802    1.361    0.265
        41 -12.0955    143.4366     92.2865   1.7732378536e+01   3.5198964543e+01    0.5273858    0.4584665  16.07  0.001599031    1.440    0.306
        42  -9.8400    162.9166     92.1686   1.3839147694e+01   3.1055384929e+01    0.2124463    0.1800631 -74.63 0.0004008055    1.226    0.184
        43  -9.2920    226.4832     90.5136   4.3092094006e+00   1.9286548756e+01    0.1240239   0.09689425 -45.69 0.0008101275    1.029    0.028
        44 -11.8175    249.2296     84.9742   8.7398045283e-01   1.6457487948e+01    0.3984492    0.2092112 -41.15  0.001946152    1.401    0.286
        45 -11.6457    245.6985     80.0778   2.3629668385e-01   1.7664852636e+01    0.3375233    0.2653101 -77.33  0.001992493    1.456    0.313
        46  -9.5000    150.5088     86.4967   1.4719208619e+01   3.4753030301e+01    0.2521571      0.14048  68.30  0.001027298    2.320    0.569
        47 -11.0654    174.8063     80.8951   8.9587373860e+00   3.0525024387e+01    0.3898584    0.2194105 -41.77  0.001619166    1.579    0.367
        48 -10.6543    155.2957     79.4675   1.1908814045e+01   3.4970022058e+01    0.3997389    0.2654015 -33.54  0.001033529    1.569    0.363
        49  -8.8322    128.0608     81.1384   1.8071330691e+01   4.0776599381e+01     1.167138    0.4794634  59.33    0.0017041    2.926    0.658
        50 -11.7843    117.8601     73.8852   1.8377720992e+01   4.4506202203e+01    0.6800742    0.4529021 -52.59  0.003139424    1.516    0.340
        51 -11.5410    121.4497     72.4609   1.7045760644e+01   4.3949442441e+01     1.032627     0.676567 -89.05  0.004278369    2.240    0.554
        52 -11.4655     28.7033     80.7562   5.4317809981e+01   5.9419115222e+01    0.6049483    0.3749347   4.45  0.002366576    1.971    0.493
        53 -11.0429     33.4031     76.8050   5.1000990945e+01   5.9902650326e+01    0.5496675    0.3244883 -51.57  0.002504597    1.601    0.376
        54 -10.2692    182.1762     80.1046   7.6392133641e+00   2.9130146350e+01    0.3234387    0.2165128  47.55  0.001492863    1.776    0.437
        55 -11.0757     13.3815    119.3832   6.7477301635e+01   5.0265415463e+01    0.3726881    0.1329048 -84.27  0.001262185    2.993    0.666
        56 -10.8457    201.2361    236.0359   3.4413800848e+01   6.4284621504e-01    0.2309438    0.1126631   3.31  0.001182453    2.621    0.618
        57  -9.9693    214.4518    232.2365   3.1653325600e+01  -1.7575440327e-01    0.1366985   0.09294822 -39.68 0.0009511529    1.688    0.408
        58  -9.0720    153.4935    220.4899   4.1192977628e+01   8.3587373328e+00    0.1231317    0.1039339   6.73 0.0008104969    1.019    0.019
        59  -9.3939    123.9468    206.0588   4.5586195886e+01   1.4807975091e+01     0.160603    0.1356792  -1.60 -0.001320134    1.168    0.144
        60  -9.5641    249.6447    186.3098   1.9223484814e+01   2.3161995716e+00   0.09407539   0.07925856 -47.57 0.0007043357    1.728    0.421
        61 -10.7063    244.5423    181.8460   1.9187367429e+01   3.4550489167e+00    0.1909711    0.1611613 -39.08   0.00147346    1.475    0.322
        62 -10.5366    227.3994    178.9533   2.1170292442e+01   5.8037620154e+00    0.2415213     0.197992 -27.05 0.0009855819    1.165    0.142
        63 -10.7730    110.3128     75.1584   2.0758633685e+01   4.5981987594e+01    0.4716879    0.3590777 -46.54  0.001632472    1.305    0.234
        64  -9.7416    206.2165     75.7019   3.4151952876e+00   2.5084493665e+01    0.2562956    0.1676209 -66.60  0.001416235    1.657    0.396
        65 -10.0352    104.2523     76.1704   2.2780858761e+01   4.7143502748e+01     0.294475    0.2137772  58.76  0.001124447    1.409    0.290
        66 -11.0815    249.9559     74.2109   3.5870515531e+02   1.7790286644e+01    0.2257578    0.1718896 -65.88  0.001045985    1.336    0.251
        67  -9.3319    218.9165     71.4649   1.0587099311e+00   2.3360574345e+01     0.156308     0.119888  74.95  0.000470723    1.518    0.341
        68  -9.6380    156.4823     70.5841   9.2691479642e+00   3.6234058540e+01    0.3005455    0.2188572 -83.41  0.001520146    1.556    0.357
        69 -11.4550     96.3245     71.2597   2.3556068782e+01   4.9909533743e+01    0.3725852    0.2655659  42.34 0.0004046003    1.451    0.311
        70 -10.1260    212.9960     76.5037   2.8113202433e+00   2.3706038961e+01     0.201167    0.1501996 -32.46 -0.0001347557    1.298    0.230
        71 -12.0382    215.0165     60.7239   3.5908124178e+02   2.5583716535e+01    0.3973514    0.3305734 -85.64  0.001339377    1.272    0.214
        72 -10.8870    246.4551     60.1588   3.5621387685e+02   2.0177291235e+01    0.2108554    0.1272629 -75.87 0.0008890975    1.946    0.486
        73  -9.7578    131.5992     59.8504   1.0828030775e+01   4.3807722983e+01    0.2751719    0.2090369 -83.00 0.0004816831    1.432    0.302
        74 -11.2018    125.5384     56.8032   1.1137613625e+01   4.5763097706e+01    0.5517691    0.2954942  56.66  0.002083393    1.831    0.454
        75 -10.4216    169.7144     61.4605   4.6852858990e+00   3.4747421120e+01    0.2646135    0.2228444 -71.34 0.0007926154    1.100    0.091
        76  -9.7918    174.2947     56.0515   2.6122955789e+00   3.4551910155e+01    0.1852014    0.1536763 -55.57 0.0004586684    1.050    0.048
        77 -10.8104    209.9153     54.3231   3.5813354168e+02   2.7429173944e+01    0.2527602    0.2014525  84.13 0.0008394447    1.352    0.260
        78 -10.3974    246.4808     54.4846   3.5508167970e+02   2.0894012654e+01    0.1155604   0.08416567 -48.82 -1.034261e-05    1.006    0.006
        79  -9.3370    219.3350     53.0685   3.5697806181e+02   2.5813447642e+01    0.1713904    0.1227747 -47.69 0.0004122519    1.097    0.088
        80  -9.4208    168.1826     52.7929   2.5660415123e+00   3.6389164654e+01    0.3081092    0.1549653  84.52  0.001256373    2.719    0.632
        81 -11.2511    132.7209     51.6745   8.0190035432e+00   4.4862627176e+01    0.5234026    0.3112656  89.81  0.002199678    2.257    0.557
        82  -9.8405    234.7056     51.0396   3.5526848484e+02   2.3314896594e+01    0.1680311    0.1205874 -45.26  0.000510358    1.086    0.079
        83  -9.8515    213.6685     50.1562   3.5683628708e+02   2.7265741122e+01    0.1876245    0.1417269 -70.08 0.0003786195    1.229    0.187
        84  -8.8976    198.5364     49.6256   3.5816362173e+02   3.0321939488e+01    0.1275841    0.1016464 -61.11 0.0001316652    1.059    0.056
        85 -12.5986    227.0278     41.5024   3.5383793298e+02   2.5878465715e+01    0.6718678    0.4484698  45.65  0.002115111    2.274    0.560
        86 -12.2442    120.9523     44.1156   7.8726466347e+00   4.8881271057e+01    0.3354849    0.3122809 -11.16  0.001096966    1.286    0.222
        87 -11.2533    157.0724     42.7054   1.2714664609e+00   4.0376425859e+01     0.290224    0.2475829  78.22 0.0005261335    1.166    0.142
        88 -11.2372    247.3944     42.4799   3.5263182148e+02   2.2220323421e+01      0.19958    0.1707577 -37.58  0.000721765    1.312    0.238
        89  -9.5454    203.2390     43.1062   3.5615924975e+02   3.0233478172e+01    0.1714497    0.1587965 -35.34 0.0006776486    1.301    0.231
        90 -13.1420    213.4695     39.1881   3.5437636922e+02   2.8712363994e+01    0.2987942    0.2508798 -79.98 0.0006183617    1.199    0.166
        91  -9.9022    180.1841     40.7523   3.5788098875e+02   3.5392281401e+01    0.2092431    0.1519105 -85.75  0.000614459    1.344    0.256
        92 -11.9477    132.8908     38.6111   3.7579395799e+00   4.6747140274e+01    0.5209264    0.3104485 -80.94  0.002315002    2.062    0.515
        93 -12.7102    240.8541     34.3709   3.5141762248e+02   2.4287954388e+01    0.5103907    0.3094663  81.20 0.0004904418    1.855    0.461
        94 -10.8347    248.6274     31.2304   3.5033643026e+02   2.3334561575e+01    0.3190706    0.1897589 -82.11  0.001519867    1.771    0.435
        95 -10.6742    160.2356     35.7390   3.5884392695e+02   4.0570875400e+01    0.2378822    0.2021725  74.76 0.0003943084    1.204    0.170
        96 -11.7146    151.4312     31.6185   3.5876100963e+02   4.3178215349e+01    0.3983794    0.2982157  52.86  0.001398484    1.516    0.340
        97  -9.5225     97.3054     33.5630   9.3734715474e+00   5.6215671217e+01    0.1948588    0.1235181  51.50 0.0007457204    1.521    0.343
        98  -9.6262    102.6518     30.4194   6.8315348653e+00   5.5333496079e+01    0.2470995    0.1310532  67.74 0.0007539429    1.841    0.457
        99  -9.4287    216.2116     27.1278   3.5146625487e+02   2.9634590933e+01    0.1600347    0.1427393 -53.55 0.0004546297    1.233    0.189
       100 -10.7430    168.5775     26.9518   3.5541360715e+02   3.9735372327e+01    0.3623644    0.1778595  75.45  0.001739041    2.010    0.503
       101  -9.0992    106.5018     27.4623   4.8254229566e+00   5.4764107382e+01    0.1402605    0.1264609  85.45 0.0001579667    1.016    0.015
       102 -10.1828    100.9867    175.9904   4.6773823251e+01   2.4485320672e+01    0.1960448    0.1861128  33.36            0    1.009    0.009
       103 -11.8252    234.8501     20.6470   3.4895852699e+02   2.6904220336e+01    0.4935321    0.2364379 -82.06  0.002821684    2.235    0.552
       104  -9.5773    202.5209     25.5038   3.5206383438e+02   3.2541438678e+01     0.123946   0.09625643 -59.35 8.645306e-05    1.006    0.006
       105  -9.2955    169.4993    157.4728   2.7255992840e+01   1.7450859222e+01      0.13391    0.1223571 -23.57 6.815982e-05    1.028    0.028
       106  -9.3188    187.0509     18.3886   3.5149551435e+02   3.6602123791e+01    0.1761765    0.1080612  80.74  0.001005184    1.590    0.371
       107  -9.7529    139.3506     16.5457   3.5559101547e+02   4.7867404476e+01    0.1586888    0.1165694  69.23 0.0002759479    1.302    0.232
       108 -12.5405     18.3031    152.2112   6.8804240037e+01   4.0883931275e+01    0.6747401    0.4359047  56.34  0.003122838    1.467    0.318
       109 -10.3740    138.3180    152.6670   3.3085929252e+01   2.3622930063e+01    0.2230987    0.1765944  79.89  0.001107106    1.748    0.428
       110  -9.8719    249.3051    150.3508   1.3131142689e+01   7.2726637830e+00    0.1149587   0.07214389 -15.27 0.0007041522    1.705    0.413
       111 -10.7569     59.2713    144.9155   5.4230865202e+01   3.8336796816e+01     0.552093    0.2465047  41.18   0.00211529    2.129    0.530
       112 -12.7620      3.5211    139.6154   7.2868625943e+01   4.5386058269e+01    0.9143382    0.4065632 -85.57  0.003719839    2.100    0.524
       113 -10.8177     51.6671    143.4377   5.6550998209e+01   3.9731261400e+01    0.2856422    0.2687737  88.19 0.0007199855    1.029    0.029
       114  -9.2990    194.4641    137.5032   1.8636116632e+01   1.7026088326e+01    0.1311226    0.1128461 -33.11 6.869354e-05    1.010    0.010
       115  -9.6978    150.4881    134.5156   2.6478019602e+01   2.5253608504e+01    0.1428806    0.1350454 -36.14 0.0001044025    1.003    0.003
       116 -11.6313      8.8944    128.7997   7.0112342573e+01   4.7985474830e+01    0.4821515    0.2766153   9.63   0.00221847    2.007    0.502
       117 -11.6813      3.4128    125.6081   7.1905551317e+01   4.9212778792e+01    0.4959612    0.2829843  29.79  0.002141238    1.762    0.433
       118  -9.8908    248.6820    129.3333   9.3922169724e+00   1.0324287544e+01    0.1121244    0.0751639 -54.34  0.000430714    1.694    0.410
       119 -11.2550     64.5948    128.1577   4.9513008722e+01   4.2049837820e+01    0.3651855    0.2968425 -76.37   0.00137003    1.248    0.199
       120  -9.4467    167.8896    119.6524   1.9541777007e+01   2.4937416085e+01    0.1865918     0.182399 -82.35  0.001037816    1.107    0.097
       121 -12.8617     64.7747    113.6353   4.6468513886e+01   4.5872521108e+01     1.397912     1.045959  66.80  0.006512569    1.517    0.341
       122 -12.4026    112.8345     97.7898   2.6739260097e+01   4.0674552958e+01     2.105325     1.307865 -60.87  0.008862208    1.829    0.453
       123 -10.6948     73.5730     92.1499   3.7836585287e+01   4.9853944914e+01      0.78484    0.6391303 -40.86  0.003765941    1.284    0.221
       124 -11.5631    234.6376     75.4009   3.2547781067e-01   2.0086282737e+01    0.3119396    0.2332108 -53.49  0.000820738    1.134    0.118
