#   1 NUMBER                 Running object number                                     
#   2 MAG_AUTO               Kron-like elliptical aperture magnitude                    [mag]
#   3 X_IMAGE                Object position along x                                    [pixel]
#   4 Y_IMAGE                Object position along y                                    [pixel]
#   5 X_WORLD                Barycenter position along world x axis                     [deg]
#   6 Y_WORLD                Barycenter position along world y axis                     [deg]
#   7 A_WORLD                Profile RMS along major axis (world units)                 [deg]
#   8 B_WORLD                Profile RMS along minor axis (world units)                 [deg]
#   9 THETA_WORLD            Position angle (CCW/world-x)                               [deg]
#  10 FWHM_WORLD             FWHM assuming a gaussian core                              [deg]
#  11 ELONGATION             A_IMAGE/B_IMAGE                                           
#  12 ELLIPTICITY            1 - B_IMAGE/A_IMAGE                                       
         1 -12.7443    165.7338     85.0968   6.4155308012e+01   3.1790270120e+01      1.48354    0.9308826 -27.03  0.006292413    1.782    0.439
         2 -11.0983     91.8039     43.1317   6.9720531348e+01   5.5696388635e+01    0.4927691    0.2311734 -40.78  0.001729678    2.265    0.559
         3 -11.0452    106.9718     18.6615   5.5781000200e+01   5.5657695547e+01     0.522499    0.2242354  50.63 0.0003501451    1.996    0.499
         4 -11.6159     12.4844      2.7805   8.5862438781e+01   7.3245224745e+01    0.5468372    0.3404852  37.11   0.00344866    2.285    0.562
         5 -12.3320     20.3492     18.1517   8.8948546059e+01   7.0204613204e+01    0.4301353    0.4135609  47.69  0.003197576    1.745    0.427
         6 -12.1268     24.1131      8.4342   8.2293099094e+01   7.1273964925e+01     0.347894    0.1802286 -27.82 0.0002842535    1.665    0.399
         7 -11.3519     20.8699      4.1521   8.1824123067e+01   7.2213749647e+01    0.3447282    0.2177488 -32.01  0.001711966    1.448    0.309
         8 -11.7813     27.6476      3.6899   7.7952415583e+01   7.1494710290e+01    0.3030412     0.207049  41.86 0.0005601601    2.043    0.510
         9 -11.5843     32.2186      1.8159   7.4613626724e+01   7.1144153809e+01    0.2432942    0.1671941  17.15  0.000516023    1.241    0.194
        10  99.0000     43.3013      8.5755   7.2915897422e+01   6.8795493469e+01    0.6757476    0.2469906 -41.34  0.002819156    3.686    0.729
        11  -9.0448     49.9849     11.9687   7.1677294777e+01   6.7379798140e+01    0.3537084    0.1854009  -2.14  0.001629024    2.618    0.618
        12 -10.9511     41.5300     19.4310   7.9027832426e+01   6.7598622181e+01    0.5343076    0.2839413  28.81  0.002546531    1.838    0.456
        13 -11.4916     39.8406     12.1241   7.6293181659e+01   6.8833528660e+01    0.4665621    0.3108611 -36.76  0.002867362    1.655    0.396
        14 -10.9495     31.1404     12.8363   8.0864608860e+01   6.9850252730e+01    0.3970943      0.15118 -35.01  0.001370517    2.353    0.575
        15 -11.3995      9.9730     15.4863   9.3416819939e+01   7.1518232222e+01    0.2933393    0.1553675 -32.51 0.0004931802    1.481    0.325
        16 -11.9929      4.5788     18.0312   9.7508864203e+01   7.1466806482e+01    0.3690735    0.3586029 -31.29  0.002164169    1.528    0.346
        17 -10.7651     64.0347     14.3184   6.7174846411e+01   6.4787406538e+01    0.3592822    0.2191114   8.19  0.001896624    1.797    0.444
        18 -11.6208     78.9519     10.6513   6.0328523698e+01   6.2410123892e+01    0.4223297    0.2159396  39.04 0.0004455358    1.723    0.420
        19 -10.8218     74.4623     15.9744   6.4200495489e+01   6.2701824746e+01    0.2547234    0.2247541  49.63 0.0007738413    1.363    0.267
        20 -12.6348    240.1055      9.7684   3.4401909961e+01   2.4980634802e+01    0.4755498    0.2603382 -86.60  0.001491511    1.811    0.448
        21 -10.8249     26.4432     14.1340   8.3889077570e+01   7.0201299037e+01     0.195939    0.1356933  -6.61 0.0002478344    1.222    0.182
        22 -10.5958    157.3435     12.8648   4.3949299081e+01   4.4165557552e+01    0.3321682    0.2843068  66.40  0.002004256    1.044    0.042
        23 -10.0667    118.8287     12.6068   5.0726007710e+01   5.3542518688e+01    0.2175986    0.1885238 -36.93  0.001229291    1.318    0.241
        24 -10.1879    117.5231      9.4801   4.9840528293e+01   5.4136539498e+01    0.2060796    0.1871093 -20.92 0.0007222943    1.233    0.189
        25 -10.1929    101.5621     11.4178   5.4264325330e+01   5.7593034791e+01    0.5420823    0.2071961  30.26  0.001808038    4.101    0.756
        26 -10.5664    176.0265     11.2011   4.0926729555e+01   3.9711499315e+01    0.2007202    0.1911564 -55.84 0.0003876533    1.142    0.124
        27 -10.4596    126.9952      8.0198   4.7424922531e+01   5.2025988623e+01    0.2258413    0.1673398  47.45  0.001286378    1.193    0.162
        28 -10.3621    132.3861     10.2370   4.7201668758e+01   5.0532929580e+01    0.2826737    0.2037036 -22.46  0.001002363    1.545    0.353
        29  -9.9456    130.4757      6.2424   4.6161819389e+01   5.1344759150e+01    0.2554695    0.1743095  17.25 0.0007107859    1.718    0.418
        30  -9.3826     59.3677      9.7992   6.6797813764e+01   6.6109853849e+01    0.1621362    0.1039794 -11.35 0.0009259214    1.505    0.336
        31 -10.0399     55.0661     11.3871   6.9276162062e+01   6.6644835265e+01     0.380945    0.1573035 -24.26  0.001354092    2.499    0.600
        32 -11.0446      6.9508      8.5190   9.1987632734e+01   7.2861094349e+01    0.4282695     0.163496  31.15  0.001320906    3.090    0.676
        33 -11.1662    215.9339      7.0596   3.5735503412e+01   3.0612026204e+01    0.3441783    0.2151411 -46.45  0.001387258    1.486    0.327
        34  -9.8859    191.8703      7.8858   3.8226385718e+01   3.6180920855e+01    0.1832865    0.1625804  67.55 0.0003542174    1.149    0.130
        35 -10.9516    146.1613      6.4523   4.3628464786e+01   4.7512456691e+01    0.4418787    0.2856745  56.93  0.002379497    1.344    0.256
        36 -11.7327    244.4419      4.8832   3.3067238043e+01   2.4586688938e+01    0.4439472    0.1367591 -46.32  0.002005999    2.575    0.612
        37 -10.7443     66.9903      7.8945   6.3058498945e+01   6.4966035105e+01    0.2031527    0.1513058   5.80 0.0003013912    1.212    0.175
        38 -10.5414     92.0940      6.2786   5.4586410445e+01   6.0123599328e+01    0.3869489    0.1839187  28.11  0.001303181    2.408    0.585
        39 -11.2310    223.5102      5.0533   3.4649041313e+01   2.9104529676e+01    0.2807211    0.1892262 -42.22  0.001114479    1.413    0.292
        40 -12.1541    178.8063      4.3089   3.8693591598e+01   3.9683731367e+01    0.3339655    0.2325478  66.01 0.0002241585    1.281    0.219
        41 -10.4834     97.6152      4.6673   5.2491108232e+01   5.9069120469e+01    0.2965073    0.1645677  27.15  0.001196322    1.899    0.473
        42 -11.9105     73.9224      5.1230   5.9407184925e+01   6.3933022255e+01    0.9699432    0.3468163 -15.75   0.00378248    3.599    0.722
        43 -11.7572     34.9948     15.2846   8.0154020293e+01   6.9033576682e+01    0.5333518    0.2356886  18.15 0.0006899771    3.005    0.667
        44 -11.3609    237.4870      2.0000   3.2944318990e+01   2.6358959176e+01     0.342858    0.1603238  76.34  0.001800751    1.992    0.498
        45 -10.4917    164.8661      5.4203   4.0681347855e+01   4.3000073460e+01    0.2366513    0.1790922 -65.72 0.0005815383    1.390    0.281
        46  -9.9064      3.2048      4.1326   9.2127768852e+01   7.3813839443e+01    0.1692393    0.1089478 -19.35 0.0003884617    1.187    0.157
        47  -9.5728      1.3342      1.2772   9.1867619782e+01   7.4378563792e+01    0.1520034   0.08930481   7.61 0.0005586285    1.612    0.380
        48 -10.0618    113.3657      3.0581   4.8289171783e+01   5.5648948826e+01    0.3008913    0.1766736  87.64  0.001283161    2.519    0.603
        49  -9.5843    195.1095      2.1611   3.6439214871e+01   3.5953567407e+01    0.1818626    0.1303637 -65.16  0.001065179    1.330    0.248
        50  -9.3442     68.0039      4.0288   6.0856192487e+01   6.5161001819e+01    0.1904773    0.1338051  24.28 0.0003978843    1.218    0.179
        51 -10.2533     88.7292      1.5049   5.3430257176e+01   6.1244762918e+01    0.2173254    0.1025861  51.61 0.0002514854    1.761    0.432
        52  -9.5465     81.8126      1.3935   5.5291621348e+01   6.2692329420e+01    0.1858154   0.09108803  43.53  0.000579364    1.691    0.409
        53 -10.6865     16.1507    193.0283   1.2326794141e+02   3.1738054285e+01    0.2152084    0.1671453  29.82 0.0009245772    1.593    0.372
        54 -10.6201    250.1812    246.5522   8.2560667530e+01  -1.1193436787e+01    0.2154351    0.1399509 -13.31  0.001448657    1.354    0.261
        55 -12.5099    225.9599    245.9358   8.6708277486e+01  -7.9433776306e+00    0.9306871    0.4570563  12.95  0.004457544    2.610    0.617
        56 -12.1246     28.8896    248.1504   1.2424866574e+02   1.9421720776e+01    0.7707759    0.2893905  63.71  0.004000722    2.486    0.598
        57 -11.4029      4.6844    236.1887   1.2779765801e+02   2.4060767664e+01    0.3386128    0.2597836 -73.37  0.002666187    1.505    0.336
        58 -12.3273     19.8341    237.9864   1.2527477336e+02   2.2247824883e+01    0.6405091    0.2651156  46.20   0.00377749    1.887    0.470
        59 -13.2537      6.0700    244.8529   1.2793738597e+02   2.2333944793e+01    0.8751427     0.591786  42.82  0.004947469    1.478    0.323
        60 -11.2767     17.2736    247.4106   1.2618702620e+02   2.0770253139e+01    0.2231077    0.1458303  58.70 0.0007433438    1.151    0.131
        61  -9.4461    187.0000    191.9825   8.4871382616e+01   6.3361831971e+00    0.2257786   0.07828912 -42.64 0.0008119043    3.008    0.668
        62  -9.5551    211.4975    188.4562   7.9245702842e+01   2.6529679547e+00    0.2433087    0.1194758 -27.38  0.001027739    2.296    0.564
        63  -9.4151      1.6257    188.1796   1.2593430438e+02   3.4031052507e+01    0.1582803   0.08314055 -72.08 0.0005733108    1.628    0.386
        64 -11.4606     16.0670    182.8803   1.2255770207e+02   3.3981001613e+01    0.4723018    0.2188482  82.86  0.002359417    2.137    0.532
        65  -9.9037     58.8175    182.1679   1.1280711336e+02   2.9587149846e+01     0.187437    0.1616727  64.78 0.0007935906    1.087    0.080
        66  -9.7744    167.4830    183.5126   8.7434618123e+01   1.1477608171e+01    0.1439929    0.1336064  18.12 0.0002267528    1.004    0.004
        67  -9.3488      1.5456    180.4898   1.2548556419e+02   3.5713817251e+01    0.1167237    0.0881948  84.54 0.0001811729    1.007    0.007
        68 -10.0131    244.1653    178.3264   7.1206327960e+01  -1.1300482329e+00    0.2595276    0.1305712 -23.12  0.001180839    2.096    0.523
        69  -9.2071     69.5820    177.9577   1.0971449080e+02   2.9164898760e+01     0.178261   0.09934739 -43.97 0.0005632308    2.267    0.559
        70 -10.4470     46.5812    177.6011   1.1517497048e+02   3.2105609568e+01    0.2555474    0.1992414  72.64  0.001224291    1.164    0.141
        71  -9.5395    200.5120    176.4887   7.9026269056e+01   6.6733157007e+00    0.1437726    0.1270178   1.08 0.0001825991    1.029    0.029
        72 -11.1038     17.9460    173.1941   1.2138241690e+02   3.6003054443e+01    0.3603447    0.2186396  68.81  0.002105179    1.536    0.349
        73  -9.2241     74.5285    171.4655   1.0760966800e+02   3.0009812178e+01     0.135591    0.1252871 -88.73 7.008286e-05    1.045    0.043
        74 -12.0201     35.9599    164.9360   1.1635206284e+02   3.6222946519e+01     0.711148    0.4148663  86.94  0.003690922    1.722    0.419
        75 -10.8681     36.8596    157.9277   1.1534304745e+02   3.7800988838e+01    0.2267286    0.1824508  67.29 0.0003796319    1.203    0.169
        76 -11.8388     50.6646    162.4107   1.1239083324e+02   3.5225456357e+01    0.6307172    0.4101274  87.83   0.00255398    1.578    0.366
        77 -11.5431     42.4453    163.4185   1.1457961495e+02   3.5903764243e+01    0.4912596    0.4580839 -45.39   0.00258116    1.291    0.225
        78  -9.2234     99.2460    164.9391   1.0031956890e+02   2.7806137497e+01    0.1780181    0.1203593 -61.68  0.000294739    1.479    0.324
        79  -9.7026     67.2188    165.1852   1.0855685000e+02   3.2500451076e+01    0.1975176    0.1477773  70.63   0.00106674    1.366    0.268
        80  -8.9708    200.3189    162.6544   7.6156302494e+01   9.2329958690e+00    0.1405534    0.1183658 -79.78 0.0007049122    1.726    0.421
        81  -9.9629      8.8855    162.2409   1.2257027978e+02   3.9263190400e+01    0.3386728   0.08540175  35.00  0.001450842    3.502    0.714
        82 -12.3322     22.0714    157.2090   1.1896102136e+02   3.9362145322e+01    0.5387812    0.4895965  -2.31  0.003712494    1.471    0.320
        83 -10.1621     11.3073    153.5442   1.2125598518e+02   4.1100053523e+01     0.280822    0.1921038   7.35  0.001689127    2.096    0.523
        84 -10.1513    177.8064    151.2438   7.8395879132e+01   1.5907612078e+01    0.3034628    0.2679906  78.87  0.001285308    1.415    0.293
        85 -10.4654     18.4932    146.7260   1.1879656960e+02   4.2151435188e+01     0.249488    0.1668942 -40.55  0.001082267    1.796    0.443
        86 -10.1473    207.1579    146.2207   7.1156789650e+01   1.0945140346e+01    0.2202617    0.1920319   2.64 0.0009715821    1.142    0.124
        87 -10.1444     41.1529    146.2056   1.1276154413e+02   4.0196760601e+01    0.1828631    0.1619748 -66.54 0.0002584576    1.109    0.099
        88 -10.6875     22.7903    144.1916   1.1740534540e+02   4.2405274304e+01    0.2082273    0.1700678 -89.00 0.0004088033    1.070    0.065
        89 -10.3804     10.5457    144.4594   1.2060441175e+02   4.3295573819e+01    0.2614243    0.1361219 -46.60  0.001363064    2.134    0.531
        90  -9.5531    220.4741    143.9708   6.8130743295e+01   8.7499794227e+00    0.2183649    0.1309397 -36.66 0.0007490012    1.538    0.350
        91  -9.9603      2.5091    143.9882   1.2258947803e+02   4.3955791128e+01    0.1930536   0.09347859 -73.96  0.001031394    1.607    0.378
        92  -9.4524     49.3864    141.8263   1.0988877529e+02   4.0380049863e+01    0.1907994    0.1066821 -55.94 0.0002820585    1.613    0.380
        93  -9.5607    239.6992    140.6839   6.4043295514e+01   5.7198104224e+00     0.139515    0.1002249  -2.95 0.0004024289    1.616    0.381
        94 -10.5416      9.2769    137.3168   1.2023079230e+02   4.5077658391e+01    0.2883842    0.1101013 -70.09 0.0009105378    2.013    0.503
        95 -10.7385      2.8529    136.6390   1.2184546607e+02   4.5657804695e+01    0.2888608    0.1296377 -72.03  0.001494294    1.714    0.416
        96 -10.0421     21.0700    135.6193   1.1687708397e+02   4.4610814895e+01    0.2229906    0.1453058 -82.03 0.0007196722    1.341    0.254
        97  -9.9690     13.9325    135.9939   1.1885423944e+02   4.5064498500e+01    0.1850375    0.1487069 -82.44    0.0012088    1.036    0.034
        98  -9.5617    122.8101    135.5663   8.8191978124e+01   3.0525388314e+01    0.2159761    0.1453006  51.37  0.000419992    1.600    0.375
        99 -10.0583    249.7054    134.0199   6.0976811868e+01   5.0248980682e+00    0.1945183    0.1559598 -29.39 0.0005797215    1.068    0.063
       100 -10.7276     55.8717    133.3564   1.0669494025e+02   4.1715944787e+01    0.2886758    0.1991612  83.36  0.001150269    1.697    0.411
       101 -10.3642    107.5471    133.0736   9.1788683638e+01   3.3976040782e+01    0.2323999     0.208387  37.43 0.0006197296    1.151    0.131
       102 -10.2670     79.6681    133.0635   9.9726406935e+01   3.8590804431e+01    0.2057689     0.174385 -57.58 0.0005117808    1.102    0.093
       103 -11.4636     73.4984    129.2822   1.0077883566e+02   4.0417844591e+01     0.463343    0.2980789  57.80  0.002137913    1.886    0.470
       104 -11.3512     37.5415    129.9218   1.1146810647e+02   4.4546081464e+01    0.4197056    0.2405948 -56.55   0.00129599    1.514    0.339
       105  -8.8829     80.2859    129.2747   9.8779658220e+01   3.9427233524e+01    0.1412553    0.1097928 -27.27 0.0001698956    1.509    0.337
       106  -9.5575      9.6708    129.1118   1.1926282417e+02   4.7004093766e+01    0.1741143    0.1295005 -72.85   0.00038393    1.073    0.068
       107 -11.4769     21.7078    121.1378   1.1484336485e+02   4.8062816412e+01    0.4949304    0.2250371 -44.07            0    2.312    0.567
       108 -10.1431     26.1796    120.0971   1.1336455550e+02   4.7960580168e+01    0.1998754    0.1652319 -68.54 0.0004973591    1.006    0.006
       109 -11.4326     13.4514    126.0311   1.1785686364e+02   4.7485318325e+01    0.3948772     0.219867  29.10 0.0005881009    2.095    0.523
       110 -11.2731     10.7635    122.7690   1.1823453417e+02   4.8446942459e+01    0.2560984    0.1985442  54.45  0.001046415    1.441    0.306
       111  -9.5259     56.6361    126.6762   1.0529735756e+02   4.3272977103e+01    0.1470994   0.09840383 -32.82  0.000704003    1.789    0.441
       112 -11.4210      2.2871    123.8431   1.2074185500e+02   4.8710092883e+01    0.4581929    0.1456441 -66.03   0.00177839    2.240    0.554
       113  -9.7663    220.1851    124.5728   6.3729344794e+01   1.2262912706e+01    0.1893085    0.1352763  33.09 0.0004982256    1.567    0.362
       114  -9.2516     77.4766    122.5980   9.8214953620e+01   4.1479533097e+01    0.1429377    0.1351699 -64.20 0.0001158454    1.027    0.026
       115  -9.2127     32.4727    121.6052   1.1170235771e+02   4.7054327781e+01    0.1304346    0.1109059 -62.88 -7.139219e-05    1.050    0.047
       116 -10.3770     72.0890    117.7297   9.8812069967e+01   4.3447118734e+01    0.4091581    0.1751083 -59.56  0.001572024    2.241    0.554
       117 -10.6283     86.0394    116.6208   9.4282083602e+01   4.1607217680e+01    0.2713585    0.1992892 -47.70 0.0005623851    1.280    0.219
       118  -9.3994    220.4225    116.5121   6.1786505813e+01   1.3643729735e+01    0.1455698    0.1309513 -26.07 -9.111137e-05    1.038    0.036
       119  -9.2896    179.4831    116.5120   6.9669105852e+01   2.2548032521e+01    0.1543332    0.1485714 -21.82 0.0002063565    1.004    0.004
       120 -11.3095     17.5336    114.7694   1.1521108403e+02   4.9906239557e+01    0.3305956    0.2185736 -48.82 0.0008348782    1.409    0.290
       121 -12.6881     14.8349    109.0372   1.1523059451e+02   5.1464144001e+01    0.7058679    0.3648061 -42.64  0.003644173    1.938    0.484
       122 -10.0033     35.2242    114.2676   1.0967200193e+02   4.8593535467e+01    0.1795883    0.1443596  84.46  0.001054551    1.329    0.247
       123 -11.1115    249.1829    112.3107   5.6267568450e+01   8.6597181026e+00    0.2525719    0.2240278 -53.69 0.0006811812    1.183    0.155
       124  -9.7838     94.9827    112.5292   9.0583620780e+01   4.1088590909e+01    0.2501563    0.1935797 -52.31  0.001234289    1.238    0.192
       125  -9.6584      3.0000    112.9285   1.1933232085e+02   5.1249533437e+01    0.2092425   0.05579251 -72.76 0.0008009342    2.932    0.659
       126 -12.1339     54.9892    110.2815   1.0262730107e+02   4.7486592890e+01    0.2846904    0.2581307 -49.06 0.0004077114    1.049    0.046
       127 -11.4260     36.3972    109.3620   1.0844179345e+02   4.9676175216e+01    0.4940255      0.31605  79.60  0.001735959    2.067    0.516
       128 -11.0488     35.7181    102.8512   1.0745587961e+02   5.1308863986e+01    0.5660303    0.3187014   6.14  0.002689103    2.477    0.596
       129 -11.1253     40.7727     97.8301   1.0474395024e+02   5.2026717276e+01    0.3084564    0.2634653  74.19 0.0002770743    1.385    0.278
       130 -10.8110     24.1608    108.9993   1.1229137833e+02   5.0805215618e+01    0.3610298    0.2357187 -44.37  0.001816169    1.466    0.318
       131  -9.9694     70.7313    108.4514   9.7159283707e+01   4.5883016397e+01    0.2651407    0.1815639 -57.87 0.0006661592    1.363    0.266
       132 -11.6583      2.9106    106.3230   1.1855757146e+02   5.2811406398e+01     0.352144    0.3005511 -59.59  0.001454866    1.132    0.116
       133  -9.3652     82.4781    108.4924   9.3439082515e+01   4.4115718060e+01    0.1482353    0.1369327 -42.20 0.0001167412    1.018    0.018
       134 -10.4118    243.9465    104.7013   5.5313173787e+01   1.0902521059e+01    0.1849125    0.1747877 -38.01 0.0006639948    1.084    0.077
       135 -10.5604    247.1548    102.1530   5.4278876519e+01   1.0690763230e+01     0.186846    0.1760261 -37.62 0.0006972069    1.086    0.079
       136 -10.2329     51.1166    105.1282   1.0280867604e+02   4.9181812276e+01    0.2131627    0.1669376 -44.66 0.0004469499    1.175    0.149
       137  -9.9053    213.9957    115.5374   6.2677992525e+01   1.5163603517e+01    0.2068975    0.1451267  46.52 0.0005973906    1.529    0.346
       138  -9.2168    223.4303    103.5727   5.8193078322e+01   1.5268177789e+01    0.1425669    0.1298319 -38.07 0.0001563038    1.006    0.006
       139 -10.0249    119.7831    102.0510   8.0527734129e+01   3.8762736231e+01    0.3976437    0.2090728 -34.09  0.001490756    2.168    0.539
       140 -11.2101     61.9992     98.9292   9.7774534217e+01   4.9335857019e+01    0.4093554    0.3249296 -27.12  0.001538048    1.313    0.239
       141 -10.5991     66.5196     98.1115   9.6056255300e+01   4.8923730370e+01    0.2739344    0.1885074 -51.13 0.0007664033    1.307    0.235
       142 -11.2464    156.9385     82.5940   6.5378579211e+01   3.4352354863e+01    0.9898167    0.4965719  28.35  0.002979384    3.895    0.743
       143 -11.9108    162.6189     92.3635   6.6897066191e+01   3.1166174293e+01    0.6255082    0.3527624 -22.12  0.002066892    2.469    0.595
       144 -12.0775    158.8084     90.0365   6.7100309921e+01   3.2509925423e+01    0.5609183     0.342025 -31.55   0.00218021    1.735    0.424
       145 -11.6109     37.6333    243.8312   1.2246546089e+02   1.9249510001e+01    0.4911388    0.2934546 -89.42  0.002947148    1.556    0.357
       146 -11.6933      5.7410     83.9990   1.1437573555e+02   5.7862962533e+01    0.7909524    0.1853791 -44.36  0.002972046    3.575    0.720
       147 -11.7888      3.9011     78.0943   1.1402694809e+02   5.9296980651e+01    0.7598414    0.3167578 -79.41  0.003331069    2.769    0.639
       148 -12.1669     13.2994     75.6827   1.1005376475e+02   5.9338912702e+01    0.6199952    0.2079791 -57.48   0.00169489    2.115    0.527
       149 -11.1607      8.2690     73.9663   1.1162558080e+02   6.0007901442e+01     0.302795    0.2160931 -34.70  0.001004943    1.321    0.243
       150 -13.2113     16.3290     67.6270   1.0711442980e+02   6.0943445788e+01     0.473273    0.2470963 -48.27 0.0004902868    1.487    0.328
       151 -11.5877     22.0854     66.8803   1.0461534015e+02   6.0709282160e+01    0.3574138    0.2970134  68.15  0.001123279    1.644    0.392
       152 -11.7083      3.0631     99.9383   1.1767885631e+02   5.4301865012e+01    0.2637256    0.2106128 -76.53 0.0002984648    1.105    0.095
       153 -11.3997      1.4750     96.0234   1.1765770432e+02   5.5293244017e+01    0.3230897    0.1375626 -71.72 5.231599e-05    1.864    0.464
       154 -11.1491    144.1576     98.5567   7.3035459077e+01   3.4214211942e+01    0.5015712    0.3950341  77.17   0.00229938    1.633    0.388
       155  -9.3237     50.9697     99.2916   1.0158660624e+02   5.0595277624e+01    0.1768225    0.1691888 -40.41 0.0004128948    1.096    0.088
       156 -10.8702     22.3328     86.8355   1.0896096339e+02   5.6190771279e+01    0.3194246    0.2009637 -36.40  0.001349459    1.542    0.352
       157 -10.3364     22.6285     99.3121   1.1117613697e+02   5.3238255732e+01     0.284509    0.1575246  23.63  0.001498975    2.134    0.531
       158 -11.0189     20.5928     93.9606   1.1091943768e+02   5.4650696458e+01    0.5752167   0.08985396 -58.27  0.001965524    3.475    0.712
       159 -11.0650     14.8830     97.9027   1.1352247538e+02   5.4105790333e+01    0.2812672    0.1856126 -85.35 0.0008490819    1.557    0.358
       160  -9.6305    249.8696     95.8339   5.2484329692e+01   1.1172966232e+01    0.1855228    0.1435289 -56.26 0.0005308656    1.301    0.232
       161 -11.0491     93.6329     94.6911   8.6281158634e+01   4.5431359356e+01    0.4126883    0.1777508 -37.04  0.001379061    2.689    0.628
       162 -11.1703     97.0805     89.1129   8.3590410118e+01   4.6034974464e+01    0.5729179    0.3085768 -29.34  0.002182074    2.380    0.580
       163 -11.2235     28.0282     95.9817   1.0874125130e+02   5.3610215590e+01    0.1910793    0.1565238 -55.38            0    1.017    0.016
       164  -9.6828     31.4903     92.9671   1.0694860057e+02   5.4033494113e+01    0.1984073    0.1113835 -61.82 0.0003870349    1.505    0.335
       165  -9.5527    181.2320     92.3014   6.2930483590e+01   2.6781568904e+01    0.2600815    0.1740229 -71.43  0.001050219    2.203    0.546
       166  -9.0672    127.3143     92.6497   7.5748036618e+01   3.9175046176e+01    0.1587974     0.125612 -81.40 0.0007046623    1.727    0.421
       167  -9.5760     46.9821     92.5104   1.0141551364e+02   5.2638706464e+01    0.1866017    0.1339789  29.29  0.000776438    1.572    0.364
       168  -9.8069     35.9676     91.4043   1.0504751351e+02   5.4002581011e+01    0.2251527    0.1652069 -88.97 0.0009678411    1.673    0.402
       169 -10.4670     25.7631     91.0456   1.0857298737e+02   5.4951925045e+01    0.2376684    0.2185548 -42.18 0.0009286698    1.131    0.116
       170 -11.4184     10.9878     90.8788   1.1369013281e+02   5.5989612986e+01    0.3382799    0.2462674  23.86  0.001663051    1.679    0.405
       171  -9.9993     76.7815    101.4211   9.3497909511e+01   4.6665170288e+01    0.1998183    0.1414676  14.95 0.0009499809    1.713    0.416
       172 -10.3777    108.7977     91.4030   8.0672610548e+01   4.3294848553e+01    0.2159208    0.1445965  29.68 0.0009493837    1.650    0.394
       173  -9.6828     83.1464     88.8211   8.8007525849e+01   4.8536880913e+01     0.201602    0.1625407 -20.07 0.0004947304    1.299    0.230
       174 -10.7361     78.5246     88.0263   8.9325039809e+01   4.9460739795e+01    0.3142818    0.2291152  75.23  0.001424657    2.207    0.547
       175 -10.1257     46.3627     87.6883   1.0049031696e+02   5.3827028570e+01     0.282225    0.1896952  66.44  0.001352732    2.304    0.566
       176 -10.6941     43.8865     83.3189   1.0031501924e+02   5.5093501498e+01    0.4678155    0.2423762  45.14   0.00211439    2.542    0.607
       177  -9.1424    139.2899     87.6969   7.1127969848e+01   3.7506869301e+01    0.1526001    0.1244829 -78.58 0.0006986132    1.568    0.362
       178 -11.0072     57.6089     96.5086   9.8680941225e+01   5.0464427024e+01    0.4966151    0.2833956  50.11  0.002129137    2.300    0.565
       179 -10.2740     64.9363     87.3030   9.3793457209e+01   5.1633921643e+01     0.231555    0.2115409  18.95  0.000919317    1.182    0.154
       180  -9.7027     67.5878     84.2096   9.2008811924e+01   5.1957304885e+01    0.2507369    0.1457369 -29.38  0.001092238    1.998    0.500
       181  -9.5174    110.9721     85.4912   7.8260124357e+01   4.4103024032e+01       0.2163    0.1354875  66.65 0.0008103159    2.629    0.620
       182  -9.3064     83.0051     85.2748   8.7026886761e+01   4.9340858717e+01    0.1705285    0.1289717  32.46 0.0004146485    1.391    0.281
       183 -10.4276    133.0386     83.2526   7.1412036020e+01   3.9798338463e+01    0.2433594    0.2186641 -37.36 0.0005091025    1.109    0.099
       184  -9.7123     56.2144     83.7459   9.5933728469e+01   5.3581066240e+01    0.1783918    0.1406124 -25.98 0.0002613254    1.254    0.203
       185  -9.5027    173.4885     83.4969   6.2073736074e+01   3.0222705553e+01    0.1506222    0.1488802 -25.20 0.0002104498    1.019    0.018
       186  -9.2240    117.4729     83.5192   7.5764003984e+01   4.3156160809e+01    0.1539995    0.1450404  -4.75 2.414089e-05    1.038    0.037
       187  -9.5289     62.1850     82.8256   9.3536666197e+01   5.3014250606e+01    0.1884186     0.145946 -27.39 0.0002642275    1.267    0.211
       188 -11.2490     30.8095     81.7663   1.0478070839e+02   5.6690951426e+01     0.320439    0.2172342 -26.99 0.0002457123    1.537    0.350
       189  -8.9990    196.2752     82.2997   5.7423189901e+01   2.5006255562e+01    0.1428559    0.1164764  10.73 0.0002771295    1.535    0.348
       190  -9.8231    145.8718     81.6188   6.7682470805e+01   3.7153371173e+01    0.2681627    0.2086177 -27.81  0.001276544    1.337    0.252
       191 -10.6997     21.3232     81.3318   1.0820872362e+02   5.7531088136e+01    0.3593688    0.1973159 -30.76  0.001538928    1.948    0.487
       192 -11.1248     18.8472     79.1225   1.0867005334e+02   5.8206785248e+01    0.4158869    0.2135245 -32.96 0.0004495834    2.024    0.506
       193  -9.8532     86.7695     80.4139   8.4312657578e+01   4.9746390297e+01    0.2029635    0.1392074  24.32  0.000954415    1.615    0.381
       194  -9.5417    111.7923     79.5866   7.6194848005e+01   4.5135700975e+01     0.200853    0.1452928  55.10 0.0004583747    1.570    0.363
       195  -9.6341     71.0876     79.3234   8.9361265607e+01   5.2518734944e+01    0.1858555    0.1747209  -4.20 0.0004210943    1.088    0.081
       196 -11.5583     38.5357     68.9979   9.8582319343e+01   5.8825253396e+01    0.5391275    0.4498258 -79.20  0.002085304    1.517    0.341
       197 -12.2223     61.2841     73.0052   9.1012026440e+01   5.5278985810e+01    0.6870133    0.3950346 -33.33  0.001361372    1.756    0.431
       198 -10.6186     54.0068     73.8464   9.3983638920e+01   5.6045158368e+01    0.2912993    0.2407606 -58.52 0.0006951266    1.284    0.221
       199 -12.6428     44.7365     75.2550   9.7896573106e+01   5.6812871689e+01    0.2958685    0.2539217 -49.45 0.0004995546    1.108    0.098
       200 -12.0296     50.3187     68.4966   9.3812307142e+01   5.7640934363e+01    0.3683274    0.2616963  -9.18 0.0004147875    1.562    0.360
       201 -11.6165     51.7309     62.8270   9.1500904170e+01   5.8650835799e+01    0.7284551    0.4965398 -88.23   0.00308092    3.403    0.706
       202  -9.5413    122.2335     76.3499   7.2187711214e+01   4.3539772230e+01    0.2147288    0.1426144  55.23 0.0009424466    1.658    0.397
       203 -10.6728     90.6291     75.3965   8.1465777374e+01   5.0103189607e+01    0.2793238    0.2166818 -64.24 0.0007791587    1.638    0.390
       204 -10.1235     74.6170     76.0314   8.7120086417e+01   5.2681813418e+01    0.2103529    0.1693076 -37.77 0.0006360142    1.139    0.122
       205 -10.2501    145.7227     73.4789   6.5251809785e+01   3.8681266827e+01    0.2858926    0.2053339 -36.70 0.0007630106    1.400    0.286
       206  -9.7151    137.4762     74.0359   6.7436687981e+01   4.0520286937e+01    0.2278441    0.1504718 -34.94 0.0004040222    1.531    0.347
       207 -10.6016    102.8015     73.2825   7.6897630290e+01   4.8208441053e+01    0.2643424    0.1806703  46.00  0.001152309    1.528    0.346
       208 -10.5935    151.5793     71.2955   6.3226489316e+01   3.7665488750e+01    0.5060153    0.2597118  34.56  0.001650437    2.595    0.615
       209 -11.6676     77.3814     64.2451   8.2323782109e+01   5.4631927887e+01    0.7130955    0.3553054 -52.73  0.002908646    2.405    0.584
       210 -11.4337    167.6403     70.0051   5.9403714361e+01   3.3984337810e+01    0.2599953    0.2236024  57.97 0.0003684264    1.158    0.137
       211  -9.9198     68.2365     69.3943   8.7323979597e+01   5.5043094176e+01    0.3255286    0.1428697 -40.54  0.001326452    2.141    0.533
       212  -9.5790    160.7786     69.4515   6.0657902065e+01   3.5752254508e+01    0.2038247    0.1381594  42.28 0.0003257804    1.530    0.346
       213  -9.2828    200.5451     68.3910   5.3036356860e+01   2.6282880457e+01    0.1407473    0.1353902 -74.22 7.453509e-05    1.027    0.027
       214  -9.0002    189.2863     68.6709   5.4980648950e+01   2.8932505739e+01    0.1523283    0.1092639 -65.71 0.0002788447    1.613    0.380
       215 -11.0043     31.5207     68.1010   1.0113172286e+02   5.9679534343e+01    0.2446649    0.1731715  -8.05 0.0003694376    1.552    0.356
       216 -11.2035     10.6783     62.7952   1.0828990977e+02   6.2339568892e+01    0.2787519    0.1977683 -38.30 0.0009935999    1.196    0.164
       217 -12.0217      4.1001     64.7398   1.1139696336e+02   6.2257383344e+01    0.4280079    0.3580199  86.53  0.001720718    1.459    0.315
       218 -11.2990      5.0171     58.8135   1.0973066859e+02   6.3494805328e+01    0.2896475    0.2423742  42.74 0.0003424291    1.589    0.371
       219 -10.5578     95.6065     64.6408   7.6288665169e+01   5.1272934283e+01    0.4003815    0.2648969  -6.93  0.001167805    2.057    0.514
       220  -9.4876     98.4288     60.4624   7.3947251690e+01   5.1484353081e+01    0.1450662    0.1335181  -2.25 3.695566e-05    1.007    0.007
       221  -9.2750     99.4804     65.4850   7.5344127547e+01   5.0357275097e+01    0.1478228    0.1356673  -2.25 7.385211e-05    1.020    0.020
       222 -10.5316    155.4328     60.6912   5.9139414673e+01   3.8500586239e+01    0.3874721    0.2718458  -7.49  0.001734655    1.880    0.468
       223  -9.5658    109.3941     63.2036   7.1547563850e+01   4.8742374853e+01    0.2027708    0.1359889 -46.94 0.0002675074    1.626    0.385
       224  -9.4760    202.1869     62.1590   5.1143519751e+01   2.6859893554e+01    0.2013095    0.1613368 -78.17  0.001058784    1.330    0.248
       225 -10.3058    121.2984     61.3477   6.7552009205e+01   4.6469777517e+01     0.313889    0.2190703  46.47  0.001086737    1.401    0.286
       226 -10.3641     84.1656     61.5792   7.9037092566e+01   5.3972789833e+01    0.3647584    0.2297243  35.83  0.001756716    1.613    0.380
       227 -10.0169     86.8678     59.2065   7.7284422346e+01   5.3923929890e+01    0.3164179    0.2196223  50.37  0.001561018    1.679    0.404
       228 -11.3340     29.9953     60.7736   9.9728454249e+01   6.1382209355e+01    0.8018109    0.4942545   1.98  0.004166977    1.895    0.472
       229 -10.1535     32.7322     43.8465   9.3132856928e+01   6.4519733418e+01    0.4354677    0.2526368 -15.74  0.001795343    1.919    0.479
       230 -11.3099     26.9106     50.1380   9.7850402007e+01   6.3835617576e+01    0.5638825    0.4702951  79.95  0.003511485    1.886    0.470
       231 -12.7766     38.5930     50.6542   9.2909020272e+01   6.2604650468e+01    0.6583391    0.5275821 -27.64  0.003364096    1.027    0.026
       232 -11.7042     34.1452     49.3329   9.4395788375e+01   6.3322200011e+01    0.3911508    0.2516273 -25.14  0.001410613    1.452    0.311
       233  -9.4941    215.3934     60.4578   4.8797102651e+01   2.4026610065e+01    0.1384833    0.1249873 -57.26 0.0001581826    1.020    0.020
       234 -10.8757     63.4959     59.5366   8.5831838575e+01   5.7719606414e+01    0.2289438    0.2218777 -34.83  0.001374055    1.238    0.192
       235 -11.0285     59.3699     58.8340   8.7182236938e+01   5.8445285513e+01    0.3814063    0.3033199  66.49  0.001411958    1.999    0.500
       236 -12.3741    147.2117     56.7706   5.9692449603e+01   4.1128510168e+01    0.2937165    0.2744912 -21.18 0.0003332791    1.103    0.094
       237 -12.0199     75.3045     56.0937   8.0224028865e+01   5.6522854075e+01    0.2438221    0.2152024 -21.62 0.0002877241    1.066    0.062
       238 -10.5300     73.7459     51.1158   7.8974868094e+01   5.7682081970e+01    0.4456429     0.220461  27.68  0.001363111    2.363    0.577
       239 -10.4782     78.7036     47.1193   7.5681908652e+01   5.7517005703e+01    0.2386942    0.1733252 -32.98 0.0005663692    1.331    0.248
       240 -10.2723     98.6167     55.9221   7.2286459911e+01   5.2244896356e+01    0.2580216    0.1837608  30.08 0.0006721417    1.417    0.294
       241 -10.0813    133.4971     54.5320   6.2139602722e+01   4.4772690923e+01    0.2461757    0.2074299  67.47 0.0007063822    1.286    0.222
       242 -12.0496    130.1569     49.4466   6.1244271194e+01   4.6343783072e+01    0.5668626     0.362758 -27.14 0.0005035056    1.658    0.397
       243  -9.7564    120.0272     52.9179   6.5019199667e+01   4.8148322542e+01    0.2233917     0.164538  18.47 0.0002777409    1.553    0.356
       244 -11.0019    104.5914     52.4394   6.9210837718e+01   5.1600616303e+01    0.3055016    0.2398792 -69.25 -0.0001120966    1.851    0.460
       245 -11.0348     87.2520     51.3644   7.4320754872e+01   5.5238192711e+01    0.3461347    0.3117725   5.00  0.001550279    1.021    0.020
       246  -9.3963     62.1712     53.1625   8.4101772939e+01   5.9129773921e+01    0.1678052    0.1601488 -44.96 0.0004305512    1.301    0.231
       247 -10.7395     11.2880     44.4850   1.0322030640e+02   6.6123054524e+01    0.4054646     0.272959 -49.50  0.001426666    1.204    0.169
       248 -12.0114      7.9172     51.6480   1.0673827801e+02   6.4857553439e+01     0.404721    0.3433058  24.40  0.001102939    1.489    0.328
       249 -10.8708     12.3313     50.7152   1.0452485027e+02   6.4795061309e+01    0.2910882    0.2112463 -76.48  0.001312821    1.727    0.421
       250  -9.7513     17.1884     51.8600   1.0268462075e+02   6.4242200314e+01     0.166267     0.147998 -49.45 0.0004357554    1.214    0.176
       251  -9.9952     53.3056     50.0982   8.6530023342e+01   6.0944142264e+01    0.2225544    0.1671437   7.72 0.0006571126    1.340    0.254
       252 -10.4568     17.0110     57.3946   1.0428647303e+02   6.3102025474e+01    0.3860561    0.1939923 -56.53  0.000672525    1.625    0.385
       253  -9.5228    166.8335     48.8247   5.3296961216e+01   3.7479738697e+01    0.1915588    0.1642344 -81.76 0.0004202437    1.244    0.196
       254 -10.7640    112.7600     47.6724   6.5146685488e+01   5.0593588578e+01    0.4325316    0.3110389 -85.33  0.001512683    2.425    0.588
       255 -10.4229    155.7419     48.0916   5.5178137982e+01   4.0336711769e+01    0.3013475    0.2185097  30.90  0.001456986    1.581    0.367
       256 -10.0650    151.9309     47.8055   5.5852630256e+01   4.1319032100e+01     0.236885    0.1673926  40.50 0.0008752129    1.456    0.313
       257 -10.7866    143.2366     45.8044   5.7030510736e+01   4.3737573491e+01    0.3087916    0.2717802 -80.58 0.0006788105    1.286    0.222
       258 -10.1060     62.6815     47.0690   8.1649918322e+01   6.0160936341e+01    0.1861479    0.1539766 -15.33 0.0004404786    1.055    0.052
       259 -10.2526     35.4944    239.5103   1.2258090940e+02   2.0293672292e+01    0.2078872    0.1683974  82.99  0.001023124    1.175    0.149
       260 -10.7760     51.0684     44.9580   8.5554583480e+01   6.2184941491e+01    0.2306297    0.1744105 -24.93 0.0003395138    1.145    0.127
       261 -11.7171     51.6161     40.1760   8.3480335293e+01   6.2955335164e+01    0.5306191     0.296542  30.34 0.0009852784    1.834    0.455
       262 -10.5895     83.1790     40.6530   7.1616016755e+01   5.7742875455e+01      0.37733    0.2141136  17.41  0.001589019    2.442    0.590
       263  -9.4782     73.8332     44.1346   7.6289484285e+01   5.8863492587e+01    0.2473032    0.2316063  42.14 0.0005987583    1.322    0.244
       264 -10.3280     65.3928     41.7535   7.8534921996e+01   6.0653083496e+01    0.2743514    0.1870701  29.03  0.000610891    1.447    0.309
       265 -11.7963     81.5987     34.9160   6.9862245414e+01   5.8899280330e+01      0.66947    0.3107793 -37.95  0.002490311    2.224    0.550
       266 -11.6532     69.0739     37.9523   7.5603935990e+01   6.0668766295e+01    0.7059098    0.4930098   5.43  0.003807168    1.518    0.341
       267 -10.8586     73.4921     37.5320   7.3792019367e+01   5.9978893911e+01     0.271369    0.1925461 -27.98  3.45853e-05    1.347    0.258
       268 -11.0735     77.0541     35.0141   7.1483869755e+01   5.9725107522e+01    0.4177165    0.3118518 -18.97  0.001465411    1.279    0.218
       269 -10.7565      6.9822     41.3574   1.0432179019e+02   6.6998010758e+01    0.2673311    0.1169836 -49.20 0.0006945333    1.667    0.400
       270  -9.5323    163.0751     42.2702   5.2003597924e+01   3.9326353490e+01    0.1919949    0.1774447  71.44 0.0003714532    1.036    0.035
       271 -10.1168     97.0177     41.9812   6.7640619577e+01   5.4818722884e+01    0.2968621    0.2071991 -27.24 0.0006606805    1.439    0.305
       272 -11.7247    100.5608     37.4805   6.4852559987e+01   5.4734043061e+01    0.4825846    0.2895928  27.92 0.0007159652    1.844    0.458
       273 -11.0869     23.8020     41.8881   9.6548230391e+01   6.5716921277e+01    0.5526531    0.3384595  56.77   0.00252837    3.801    0.737
       274 -10.6171     32.2008     33.3545   8.9442681420e+01   6.6484877906e+01    0.3824655     0.171877  27.88  0.001915663    2.341    0.573
       275 -12.5338     27.6951     38.0780   9.3373054546e+01   6.6085396759e+01    0.3935483     0.334763 -26.57  0.001810792    1.131    0.116
       276 -12.4953     24.3521     35.1202   9.3870077107e+01   6.6934062481e+01    0.3303823    0.1999929  -1.81 0.0003511193    1.769    0.435
       277  -9.6704    138.0670     40.9074   5.6533883537e+01   4.5675713010e+01    0.2117864    0.1908229  84.64 0.0006992423    1.215    0.177
       278  -9.9295     37.5124     40.6108   8.9797515782e+01   6.4618229255e+01    0.2837617    0.2194466 -87.73  0.001282409    2.715    0.632
       279 -10.8874     41.5347     37.4648   8.6783654111e+01   6.4716636990e+01    0.4712882    0.3604878 -53.26  0.002839222    1.648    0.393
       280  -9.1199    188.1879     39.4132   4.7121790842e+01   3.3478208426e+01    0.1842201    0.1280816  82.68 0.0002456873    1.508    0.337
       281 -10.2587      2.1922     37.0438   1.0535811970e+02   6.8097498657e+01    0.2377965    0.1397776 -27.45  0.001005641    1.488    0.328
       282  -9.5187    179.1467     36.8442   4.7745499458e+01   3.6040889454e+01    0.1866949    0.1594122  39.83 0.0003833265    1.281    0.220
       283  -9.3056    154.3717     36.8314   5.1914670621e+01   4.2208049308e+01    0.1965431    0.1372252  -9.79 0.0009423979    1.771    0.435
       284 -11.9881     57.7241     34.7878   7.8761934706e+01   6.2974653362e+01    0.3167642    0.2598831  -6.37 0.0002557736    1.030    0.029
       285 -10.1214     54.7144     30.2977   7.8108862183e+01   6.4127136479e+01    0.1983885    0.1652324 -30.48  0.001251254    1.283    0.220
       286 -10.9155     22.3766     25.6823   9.1141584165e+01   6.8775398120e+01    0.3111921    0.2415744  -5.95  0.001257944    1.151    0.131
       287 -11.3963      9.5123     33.6462   1.0065168913e+02   6.8340087733e+01    0.6013861    0.3406897  30.67    0.0032939    2.206    0.547
       288 -11.2854     17.8162     31.0844   9.5573118452e+01   6.8219876402e+01    0.3427848    0.2242671  14.88  0.002176477    1.609    0.378
       289 -10.8754     97.6131     31.2164   6.3283514226e+01   5.6208520703e+01    0.3024816     0.202344  21.02  0.001520478    1.613    0.380
       290 -11.1831    101.3081     28.7165   6.1234620100e+01   5.5740907929e+01    0.3571827    0.3058053 -30.33 0.0007861318    1.275    0.216
       291 -10.3026    201.9226     33.9232   4.3813957737e+01   3.0849132107e+01      0.22956    0.1869989 -33.97 0.0009622947    1.288    0.223
       292 -11.5063    192.8046     33.0184   4.4747861218e+01   3.3164721149e+01     0.271568    0.2249566 -75.77 0.0002998182    1.171    0.146
       293 -10.0015    247.0335     33.2790   3.8884225108e+01   2.0758850208e+01    0.1719003    0.1417826 -79.34 0.0003972585    1.120    0.107
       294 -10.2654    225.7688     32.9883   4.0871202540e+01   2.5417998191e+01    0.3051767    0.1088344 -52.27  0.001158265    3.005    0.667
       295 -10.6727    165.9643     31.9585   4.8395932261e+01   3.9930851947e+01    0.3076697     0.199825  75.63 0.0008674284    1.587    0.370
       296 -10.8309     48.2615     31.7651   8.1485807362e+01   6.4813530302e+01    0.2406363     0.176903  -2.58  0.001450722    1.252    0.202
       297  -9.8699     50.4806     27.5672   7.8719268923e+01   6.5160476212e+01    0.2379276     0.161105  12.90 0.0007157714    1.438    0.305
       298 -10.4599    123.9266     42.6563   6.0431776911e+01   4.8795780143e+01    0.5505573    0.2829134 -17.98  0.002166737    2.573    0.611
       299 -10.7606    235.6028     29.9629   3.9203400543e+01   2.3614711270e+01    0.2771176    0.1721888  70.43 0.0008840665    1.609    0.379
       300 -11.3724    196.4973     26.4095   4.2528117226e+01   3.3067602186e+01    0.4160032    0.3106859 -76.33  0.002320003    1.332    0.249
       301  -9.3571    151.2942     28.3712   4.9796512163e+01   4.4010295365e+01    0.1470845    0.1005812  28.96 0.0007026715    1.729    0.422
       302 -10.8415    111.8758     26.4054   5.7523599948e+01   5.3681520277e+01    0.4638619    0.1955119 -27.82  0.001915904    2.498    0.600
       303  -9.7410    108.5805     24.3104   5.7562955652e+01   5.4669877147e+01    0.2470063    0.1503447  26.57 0.0008845247    1.824    0.452
       304 -10.3046    131.7596     26.1004   5.2832344616e+01   4.9056463711e+01     0.364997    0.1840789  45.16  0.001076661    1.869    0.465
       305 -10.3372    128.4966     23.9713   5.2775957936e+01   5.0080414583e+01    0.2880926    0.2175304 -38.58  0.001035253    1.462    0.316
       306 -11.2343    129.3034     19.2653   5.0948536160e+01   5.0394981566e+01    0.2751291    0.2371388   3.12 0.0006542891    1.252    0.201
       307 -10.6747     69.7743     26.4625   7.0513842552e+01   6.2240911275e+01    0.2653347    0.2077421  20.58 0.0007359476    1.139    0.122
       308 -10.5982    218.3904     25.8954   3.9952470585e+01   2.7963381480e+01     0.220105    0.1707745  71.59 0.0003521004    1.262    0.208
       309 -10.1773    214.0014     26.0068   4.0437323336e+01   2.8963981630e+01    0.2071751    0.1799833 -79.38 0.0009845465    1.022    0.021
       310  -9.7946    124.1026     21.9158   5.2989812535e+01   5.1352810689e+01    0.2014502    0.1731646  48.41            0    1.047    0.045
       311 -10.4974    118.9070     25.8211   5.5590960906e+01   5.2134195769e+01    0.2339088    0.1965833  -9.51 0.0002720086    1.256    0.204
       312  -9.9199    120.2075     21.0210   5.3527513686e+01   5.2367363713e+01     0.347912    0.2085136  24.64  0.001619957    1.995    0.499
       313 -10.0536      1.7759     25.6986   1.0191990139e+02   7.0268417000e+01      0.19051    0.1109297 -40.86  0.000570083    1.263    0.208
       314 -10.7523      9.6820     24.9567   9.7445322216e+01   6.9920788128e+01     0.354548    0.1500165  13.45  0.001841719    2.622    0.619
       315  -9.7925     99.1718     20.5956   5.8598371246e+01   5.7165812693e+01    0.1842888    0.1624933  35.09 0.0002411295    1.057    0.054
       316 -11.3408     94.9137     23.9218   6.1150793110e+01   5.7690344877e+01    0.6030418     0.233749  50.53  0.002484309    2.333    0.571
       317 -10.6677     90.3320     20.2075   6.0970349765e+01   5.9079865236e+01    0.3240218    0.2746443  20.53  0.001987719    1.033    0.032
       318 -10.3698     61.8541     24.1878   7.2532507104e+01   6.3899575502e+01    0.1871188    0.1532928 -12.09 0.0008142109    1.118    0.106
       319  -9.3839     59.4869     21.4649   7.2244033806e+01   6.4656420610e+01    0.1287774    0.1059076   4.38 0.0001056913    1.009    0.009
       320  -9.9551     54.4696     23.9348   7.5412924962e+01   6.5105636603e+01    0.1933492    0.1518177  19.39 0.0005786591    1.171    0.146
       321 -10.5040    185.8024     21.6623   4.2588931345e+01   3.6214089340e+01     0.329971    0.1648182 -51.08  0.001474714    2.139    0.532
       322 -10.6009    103.6886     21.6732   5.7810532227e+01   5.6058588415e+01    0.4262351    0.1974841  28.93  0.001641521    2.902    0.655
       323 -12.6062     74.7061    238.9459   1.1519803736e+02   1.5605070108e+01    0.6922975    0.4792649 -72.56  0.004474549    1.547    0.354
       324  -9.3968    227.4909     22.4916   3.8266310329e+01   2.6303200936e+01    0.1311083    0.1055891 -68.28 0.0001851024    1.078    0.072
       325 -10.3753    168.3411     21.8170   4.5014683095e+01   4.0511614927e+01    0.2331819    0.2113646  77.45  0.000295778    1.008    0.008
       326 -10.6176    170.8125     18.8184   4.3784780254e+01   4.0221311873e+01     0.249332     0.193755 -73.72            0    1.339    0.253
       327  -9.6127    155.7917     21.8770   4.6977352192e+01   4.3625538485e+01     0.184038    0.1516492 -71.27 0.0002551791    1.313    0.238
       328  -9.8990     36.3283     22.9832   8.3094797976e+01   6.7728474300e+01    0.1667032    0.1274953 -21.30 0.0003960654    1.107    0.096
       329 -11.0106     66.4160     21.2161   6.9446845880e+01   6.3523765490e+01    0.3639621    0.2229457  58.77   0.00175878    2.556    0.609
       330  -9.1491     50.3177    240.3132   1.1992676220e+02   1.8432767660e+01   0.09644126   0.08930708 -34.90  0.000548216    1.646    0.393
       331 -10.1021    195.4271    238.7360   9.1245694258e+01  -2.5758373672e+00    0.2534268    0.1704267  19.27  0.001506225    1.340    0.254
       332 -10.5550     16.3573     18.8026   9.1363483660e+01   7.0458446485e+01    0.2353033    0.1160189 -36.35 0.0002423659    1.624    0.384
       333  -9.8466    135.0303    238.4569   1.0315258027e+02   6.8792200500e+00    0.2767621    0.1215536 -39.52   0.00118756    3.351    0.702
       334 -11.7185    234.7899    248.6071   8.5561085334e+01  -9.4542658272e+00    0.4671239    0.2409022  15.10  0.002548451    1.987    0.497
       335 -11.4218     30.0174    233.9403   1.2322967991e+02   2.1950073439e+01    0.3965169    0.1720743  81.35  0.002050984    2.441    0.590
       336 -10.1547     24.1134    232.4676   1.2421150681e+02   2.2856819864e+01    0.1951174    0.1789427  38.10 0.0008710318    1.496    0.332
       337  -9.7032    248.9499     20.3103   3.5954554608e+01   2.1930445120e+01    0.2009611   0.07885861 -81.01 0.0007041419    4.369    0.771
       338  -9.3664    139.5958     20.1796   4.9257282350e+01   4.7804094014e+01    0.1756286    0.1303587   1.87  0.000805754    1.607    0.378
       339 -10.3903    159.9848    236.0051   9.7797185455e+01   3.3570648560e+00    0.1969695    0.1422289   6.45 0.0005287625    1.658    0.397
       340 -10.1148     50.6467     15.4872   7.3102728518e+01   6.6834958354e+01    0.2718149    0.1405967  41.66  0.001419151    2.002    0.501
       341  -9.0141    115.6749    244.6719   1.0775831069e+02   8.7642547030e+00    0.1154828   0.09272337   4.55 0.0007049884    1.698    0.411
       342 -10.2439     88.0186    249.7572   1.1362657101e+02   1.1845688614e+01    0.1660977    0.1252537  49.30 0.0003676059    1.076    0.071
       343  -9.8366    177.4965    234.9800   9.4157212188e+01   7.5029529105e-01    0.1697299    0.1237571 -35.83 0.0009431803    1.559    0.358
       344 -11.4816    153.6033    233.1850   9.8681097472e+01   4.8346685203e+00    0.3011753    0.2048174 -63.03  0.001242789    2.020    0.505
       345  -9.7316     38.3499    232.8659   1.2162978865e+02   2.1240283073e+01    0.1526007    0.1170676  82.09 0.0006332267    1.131    0.116
       346 -10.0330    109.5414    243.0280   1.0878495183e+02   9.9581787653e+00    0.2636512    0.1509277  58.18  0.001104681    1.805    0.446
       347 -10.6263      5.4228     13.5355   9.5149496766e+01   7.2167455318e+01    0.1709839    0.1539393  -9.19 0.0005458266    1.390    0.280
       348  -9.7195     54.6294     19.1408   7.3151865996e+01   6.5741242690e+01    0.1590394    0.1367592  18.02 0.0005227912    1.200    0.167
       349  -9.8932    160.0032     17.9831   4.5113060456e+01   4.2992415989e+01    0.2108821    0.1492333 -66.49  0.000328641    1.606    0.377
       350 -12.2084     21.9596    248.7921   1.2546491542e+02   2.0039463580e+01    0.4130957    0.2260278  47.60  0.001630701    1.462    0.316
       351 -10.3302    164.9963     17.5210   4.4231966185e+01   4.1800546348e+01    0.2052198    0.1219571  66.82 0.0003675306    1.517    0.341
       352 -10.7063      4.5537    226.2987   1.2737431921e+02   2.5955545939e+01     0.304402    0.1178581  57.00  0.001572066    2.051    0.512
       353  -9.8331    190.5457    226.6390   9.0265496331e+01  -2.9924538414e-02     0.213127    0.1201199 -33.63 0.0007245025    1.958    0.489
       354 -10.1779     77.5710     15.4306   6.2913738157e+01   6.2170092710e+01    0.2383154    0.1692128  30.46 0.0005682496    1.236    0.191
       355 -10.8653    242.7847     15.1640   3.5346466313e+01   2.3814432395e+01    0.2047948    0.1655088  54.61  0.001339027    1.526    0.345
       356 -10.7574     86.5966    233.2359   1.1231650558e+02   1.5053867519e+01    0.2437827    0.1187799  48.45  0.001032256    1.741    0.425
       357 -11.1436    120.2701    226.3508   1.0462361811e+02   1.1340626672e+01    0.2011393    0.1829847  81.41 0.0006919535    1.182    0.154
       358  -9.5398    229.7006     14.6907   3.6302817116e+01   2.6700547896e+01    0.1137073   0.09384761  41.13 0.0003122457    1.599    0.374
       359 -10.0468     65.9988    226.0928   1.1575833966e+02   1.9222294249e+01    0.1816369    0.1534145  65.99 0.0005345177    1.055    0.052
       360 -10.3249     26.7643    224.6036   1.2325411644e+02   2.4116369667e+01     0.153999   0.08198549  49.37 0.0006226747    1.558    0.358
       361 -11.2491     21.2145    222.2665   1.2414674594e+02   2.5150757452e+01    0.2480869    0.1435601  82.82  0.001192952    1.475    0.322
       362 -10.1858    123.5902    222.1909   1.0337996655e+02   1.1594494584e+01    0.1742513     0.170735 -56.54  0.001044672    1.177    0.151
       363  -9.3606    126.5384    221.5176   1.0266504165e+02   1.1250141505e+01    0.2075607    0.1061755  47.07  9.48675e-06    1.790    0.441
       364 -10.1701    142.4143    220.8679   9.9215929543e+01   8.7908578116e+00    0.2771176    0.1604608  24.67  0.001312967    1.972    0.493
       365  -9.3633     41.7522    220.9447   1.2013530380e+02   2.3211757935e+01     0.144469   0.08787844 -77.69 0.0008730019    1.550    0.355
       366 -10.0697     72.6415    249.9655   1.1652832841e+02   1.3870326715e+01    0.1825919    0.1662917 -35.23  0.001344063    1.621    0.383
       367  -9.4978    174.0367    220.0000   9.2498738158e+01   3.7081409577e+00    0.2244101   0.06666519  38.49 0.0008050982    2.961    0.662
       368 -11.3772      9.6691    217.1758   1.2599920842e+02   2.7284586766e+01    0.2914506    0.1752164  59.49  0.001532248    1.340    0.254
       369  -9.5908     37.9355    217.4916   1.2062670682e+02   2.4344300707e+01    0.1644565     0.103518  40.17 0.0006743323    1.537    0.350
       370 -11.3067     30.1039    215.8835   1.2204515076e+02   2.5523302940e+01    0.3423956    0.2451067  19.49  0.002184263    2.000    0.500
       371 -11.2976    235.8016    215.2491   7.9731610672e+01  -5.2910333828e+00    0.3004559     0.162416 -23.90  0.001129514    1.824    0.452
       372 -11.5577    240.9437    211.9783   7.8221800819e+01  -5.5820426985e+00     0.453763    0.3075797 -11.02  0.002738505    1.338    0.253
       373  -9.1660    194.6672    215.3077   8.7544221364e+01   1.0799723185e+00    0.1217666    0.1035122  62.35 0.0002524145    1.668    0.400
       374  -9.4969    137.1775    215.6229   9.9557777962e+01   1.0623337964e+01    0.1954722    0.1160386  28.95 0.0009439279    1.729    0.422
       375 -10.5383     88.8939    241.3949   1.1266953316e+02   1.3217635939e+01    0.2166262    0.1505619 -44.52  0.001305192    1.988    0.497
       376 -10.3440     21.6242    212.6289   1.2347498761e+02   2.7062338068e+01    0.2797378    0.1428595  54.90  0.001648695    1.654    0.396
       377 -10.1143    208.9480    212.0262   8.4164474356e+01  -7.1362971429e-01    0.2022635    0.1640014   6.59 0.0005347712    1.070    0.065
       378  -9.4620     76.3266    212.3031   1.1226032053e+02   2.0646062447e+01    0.1153925    0.1002295 -20.91 0.0005236625    1.644    0.392
       379 -10.3594     10.5948    208.6380   1.2535444141e+02   2.8937399862e+01    0.2138632    0.1737244 -26.78  0.001011091    2.044    0.511
       380  -9.7110      2.3125    212.3059   1.2710478184e+02   2.8924765609e+01     0.195907    0.1125474  61.83  0.001293051    1.397    0.284
       381 -12.0193      4.6567    207.5169   1.2642123675e+02   2.9697735618e+01    0.5300533    0.2502458  85.51  0.003051832    1.814    0.449
       382 -11.1885     19.6734    202.2715   1.2318020433e+02   2.9420472715e+01    0.4357033    0.1628498 -72.80  0.002171561    2.304    0.566
       383 -10.3313    175.4304    202.8031   8.9287493059e+01   6.4407332284e+00    0.2415792    0.1760801  36.81 0.0005660042    1.261    0.207
       384 -10.0480     23.6890    216.5712   1.2332925072e+02   2.6047525537e+01    0.1878517    0.1069856  30.65  0.001120156    2.014    0.503
       385  -9.7631      9.7403    202.4242   1.2515810751e+02   3.0308626384e+01    0.1299579    0.1092336  27.13 0.0007140141    1.590    0.371
       386  -9.1821    223.4842    201.4936   7.9462331615e+01  -1.4112332361e+00    0.1291149    0.1125714   2.80 0.0008084391    1.102    0.092
       387  -9.4533     34.2487    201.5134   1.2014401518e+02   2.8104498612e+01    0.1361609    0.1166845  21.36 0.0009202174    1.567    0.362
       388  -9.5184    215.4865    194.5416   7.9656796993e+01   9.8059161250e-01    0.1372312    0.1138125   2.84 -1.202562e-05    1.055    0.052
