#   1 NUMBER                 Running object number                                     
#   2 MAG_AUTO               Kron-like elliptical aperture magnitude                    [mag]
#   3 X_IMAGE                Object position along x                                    [pixel]
#   4 Y_IMAGE                Object position along y                                    [pixel]
#   5 X_WORLD                Barycenter position along world x axis                     [deg]
#   6 Y_WORLD                Barycenter position along world y axis                     [deg]
#   7 A_WORLD                Profile RMS along major axis (world units)                 [deg]
#   8 B_WORLD                Profile RMS along minor axis (world units)                 [deg]
#   9 THETA_WORLD            Position angle (CCW/world-x)                               [deg]
#  10 FWHM_WORLD             FWHM assuming a gaussian core                              [deg]
#  11 ELONGATION             A_IMAGE/B_IMAGE                                           
#  12 ELLIPTICITY            1 - B_IMAGE/A_IMAGE                                       
         1 -14.4329    206.0452      6.7862   5.0411698928e+01   3.2355086552e+01     1.844838     1.578136  14.53  0.007843937    1.423    0.297
         2 -13.1236    189.9185     14.8325   5.4488730189e+01   3.5630613614e+01    0.7485254    0.4982978 -45.77  0.002380128    1.519    0.342
         3 -15.0277    185.7336     33.6227   6.0661400595e+01   3.4540996299e+01     2.607675      1.52186  17.33   0.01008325    2.825    0.646
         4 -11.4154     58.2740      3.4280   7.9548972634e+01   6.7222662037e+01    0.2361284    0.1048174  40.45  0.001150333    2.155    0.536
         5 -10.2826      9.9673    214.0000   1.3689146166e+02   2.9463755490e+01    0.1169473      0.10311  29.44 0.0003315362    1.714    0.416
         6 -19.6816     29.2904    158.6290   1.2941253062e+02   3.8730561714e+01     18.00077     5.331952 -77.35   0.07197749    3.343    0.701
         7 -13.0241    113.4380    196.3726   1.1551121358e+02   1.9767756907e+01    0.4770078     0.413071 -47.97  0.002576402    1.390    0.281
         8 -11.0228    121.2456    198.4057   1.1417980687e+02   1.8122667779e+01    0.2209044    0.1719991 -61.15 0.0006618339    1.432    0.302
         9 -11.1129    208.6630    197.2573   9.6763097518e+01   3.0716303091e+00    0.2252063    0.1948277  53.41 0.0006992477    1.432    0.302
        10 -10.2605     99.0205    191.6157   1.1789161964e+02   2.2944483976e+01     0.217104    0.1715958 -89.44 0.0005770134    1.276    0.217
        11 -11.3299     60.2725    189.4154   1.2570794800e+02   2.8784113790e+01    0.3652962     0.211289 -66.47  0.001382437    1.697    0.411
        12 -10.0959    166.0333    188.4760   1.0346432355e+02   1.2084211391e+01    0.2129762    0.1192179  41.25 0.0007519515    1.585    0.369
        13 -12.1214    110.4826    188.6627   1.1508164121e+02   2.1722443571e+01    0.8486173    0.5265779 -14.23  0.002715245    6.472    0.845
        14 -11.1738    110.2188    183.3888   1.1439465668e+02   2.2804103198e+01    0.2922866    0.2308595  -2.36  0.001597257    1.982    0.496
        15 -11.2530     99.3862    180.7695   1.1637722864e+02   2.5056379426e+01    0.2509674    0.2070717  48.95 0.0006201658    1.145    0.127
        16  -9.8139    205.5185    179.5242   9.4070167437e+01   6.2514398838e+00     0.134174    0.1186122  20.06 4.840576e-05    1.034    0.033
        17 -14.3362     11.5996    206.6024   1.3624801466e+02   3.0677759136e+01    0.5836532    0.3390118  31.10  0.003953781    2.109    0.526
        18  -9.6567    209.8327    176.0028   9.2575406330e+01   5.9954787509e+00    0.1999889     0.157221 -65.10 0.0007707776    1.983    0.496
        19 -12.0616    144.2624    179.2612   1.0641456175e+02   1.7716279561e+01    0.4081075    0.2433398  45.09  0.001820173    1.522    0.343
        20 -11.7015    121.1331    212.2923   1.1601865522e+02   1.5650421629e+01    0.3023664    0.2030292  73.94  0.001217877    1.788    0.441
        21 -11.2530    137.9972    171.7274   1.0647120535e+02   2.0304517260e+01    0.3831054    0.2169483 -52.51  0.001801722    1.921    0.479
        22 -10.9665    141.1459    169.7811   1.0543599763e+02   2.0105040257e+01     0.239957    0.2017194  65.90 0.0006818468    1.241    0.194
        23  -9.1460     98.5506    213.4541   1.2056020508e+02   1.8906154362e+01     0.119372   0.09999716  58.15 9.993878e-05    1.051    0.049
        24  -9.9694    202.7934    170.8933   9.2899025648e+01   8.1120211843e+00    0.2122591    0.1739157   7.34  0.000611738    1.206    0.171
        25 -10.8477    129.9801    211.6580   1.1420297960e+02   1.4338669678e+01    0.2009066    0.1659543 -89.36 0.0005733831    1.380    0.275
        26 -11.8774    195.2399    168.6784   9.3921272232e+01   9.9174814947e+00    0.3326366    0.3130537  30.72 0.0006406054    1.115    0.103
        27 -11.0551    191.8664    163.2726   9.3493501231e+01   1.1480216718e+01    0.5178674    0.2426735 -44.70  0.002156423    2.371    0.578
        28 -10.2736    162.4644    168.1684   1.0052679698e+02   1.6368698961e+01    0.2787462    0.2064998  76.12 0.0008152119    1.904    0.475
        29 -11.1840    230.0672    166.6749   8.7022484374e+01   3.6766695134e+00    0.3290203    0.1605792 -48.09  0.001348256    3.014    0.668
        30 -12.4960    127.3257    208.1401   1.1426364309e+02   1.5379598209e+01    0.4310431    0.3058368   9.27  0.002270147    2.324    0.570
        31 -12.5671    106.9396    208.6625   1.1837172388e+02   1.8511519674e+01    0.6368715    0.4628399 -77.59   0.00303886    1.523    0.343
        32 -12.1355    104.0268    199.4594   1.1784134003e+02   2.0664412109e+01    0.4836371    0.3933316  67.21  0.002774067    1.108    0.098
        33 -11.6193    114.2856    208.7517   1.1692805673e+02   1.7356650869e+01    0.2174463    0.2030545  75.20   0.00108779    1.151    0.131
        34 -11.1778    189.5228    155.4237   9.2327718612e+01   1.3299008888e+01    0.3908856    0.3484553 -43.39  0.001365132    1.232    0.189
        35 -12.6190     99.1952    154.0068   1.1234784569e+02   3.0753554775e+01    0.5966164    0.4357343 -38.46  0.003136907    1.686    0.407
        36 -10.9170    164.5055    152.4596   9.6944161128e+01   1.8918615090e+01    0.3290091    0.2304637  85.92  0.001395174    2.470    0.595
        37 -11.7850    133.8784    145.0295   1.0235288604e+02   2.6506232926e+01     1.244568    0.3149921 -54.44  0.003112962    5.871    0.830
        38  -9.5964    163.3265    210.3286   1.0751278714e+02   8.9751309641e+00    0.1271743   0.09300019  12.08 6.131607e-05    1.703    0.413
        39 -10.1596    136.0000    209.9545   1.1279267895e+02   1.3643027365e+01    0.1831025   0.07286721 -52.77  0.000803622    2.951    0.661
        40 -10.2271    152.0280    150.4834   9.9290704658e+01   2.1817172396e+01    0.2170727    0.1379059  43.20 0.0003475179    1.504    0.335
        41 -10.6523    174.3853    148.8481   9.4052450347e+01   1.7578773660e+01    0.2984875    0.2607186  81.56 0.0008720877    1.407    0.290
        42 -11.5331    144.2900    146.2281   1.0016796769e+02   2.4217268004e+01    0.3999414      0.25959 -72.93  0.001678985    2.337    0.572
        43 -12.2533    109.3674    139.7675   1.0726401007e+02   3.2175147104e+01     0.602574    0.3413338 -36.13  0.002517096    2.377    0.579
        44 -12.5972     98.1968    139.6738   1.1005814956e+02   3.4096701115e+01    0.3180661    0.2711525  81.82 0.0004928754    1.189    0.159
        45  -9.5571    128.3319    140.3090   1.0270410213e+02   2.8572446183e+01    0.1451699    0.1169306  -2.71 0.0007041524    1.669    0.401
        46 -10.5365    142.0025    138.7476   9.9105720125e+01   2.6214942699e+01    0.2085104    0.1969556  46.13 0.0004340395    1.032    0.031
        47 -11.4233    105.9580    130.9702   1.0636287092e+02   3.4731471698e+01    0.3835908    0.3053249 -75.03  0.001269516    1.332    0.249
        48 -11.5683    104.0850    126.2887   1.0587198515e+02   3.6109739495e+01    0.3161753    0.2750582 -33.74  0.001081774    1.275    0.215
        49 -11.3586    135.8405    128.1147   9.8205610963e+01   2.9691040444e+01    0.5466205    0.1999058 -48.65  0.001865733    2.803    0.643
        50 -11.1004    116.2056    130.0924   1.0354893019e+02   3.3079302852e+01    0.3337294    0.2915701 -21.57 0.0009028733    1.340    0.254
        51 -11.3196    160.3743    127.1417   9.2194992119e+01   2.4733831357e+01    0.4312998    0.3117703 -54.84  0.001885724    1.537    0.349
        52 -10.9375    120.6902    124.2079   1.0110086798e+02   3.3526450849e+01    0.3378325    0.2282096 -30.88  0.001113456    1.827    0.453
        53 -12.3804    193.1820    193.5406   9.9005191358e+01   6.3444754559e+00    0.9013602    0.4990294 -55.90  0.003997773    2.997    0.666
        54 -10.4484    111.2081    119.0405   1.0238916364e+02   3.6453285185e+01    0.2702411    0.2116689  34.19 0.0002826366    1.369    0.269
        55 -10.7533    168.1297    113.0605   8.6966278953e+01   2.5776996543e+01    0.3754703    0.2967537 -80.52  0.001190951    1.696    0.410
        56 -11.0874    134.9100    112.0394   9.4554798068e+01   3.3287232657e+01    0.4995967    0.1477522 -43.11  0.001497169    3.427    0.708
        57 -10.4762    205.4872    110.1712   7.8643581476e+01   1.7786285250e+01    0.3239732    0.2093031  41.29 0.0008920609    1.596    0.373
        58 -11.4269    118.8519    110.3668   9.8283364488e+01   3.6909618989e+01    0.6371716    0.2690892  51.88  0.002218136    2.833    0.647
        59 -12.4873    202.9120    198.9996   9.8133150906e+01   3.8203798037e+00    0.4842646    0.2847763  18.93  0.002382326    2.032    0.508
        60 -10.9310     87.5570    202.8283   1.2156507367e+02   2.2473019366e+01    0.5753832    0.2317057  59.56  0.002365055    3.143    0.682
        61  -9.9245     93.7907    205.3734   1.2060251895e+02   2.1089593089e+01    0.1843497    0.1581221 -16.10 0.0007137146    1.809    0.447
        62 -10.2422     95.4175    200.9707   1.1977333968e+02   2.1680306163e+01    0.3636287    0.2066003  88.11  0.001784436    2.425    0.588
        63 -12.5987    170.1704     69.5993   7.4363817039e+01   3.3230627280e+01    0.7721214    0.4785564 -70.30  0.001082045    2.699    0.629
        64  -9.6473    163.3807    203.3205   1.0642734783e+02   1.0085264114e+01    0.1544935    0.1253181 -59.69 0.0009324487    1.527    0.345
        65 -10.1753    198.5855    222.7269   1.0283030224e+02   1.2827662416e+00    0.2148609    0.1354408  37.72 0.0003730331    1.304    0.233
        66 -13.7430    171.3871     48.3450   6.7593689365e+01   3.6246990811e+01    0.9879668    0.8689997  -1.08 0.0008175963    1.236    0.191
        67 -10.6672      6.0242    215.0000   1.3760215246e+02   2.9643234404e+01    0.1694475   0.08853924  36.02  0.001144855    2.027    0.507
        68 -12.1571    155.5104    199.0112   1.0731294882e+02   1.2175918350e+01    0.6104919    0.3455759 -68.02  0.002649265    3.167    0.684
