#   1 NUMBER                 Running object number                                     
#   2 MAG_AUTO               Kron-like elliptical aperture magnitude                    [mag]
#   3 X_IMAGE                Object position along x                                    [pixel]
#   4 Y_IMAGE                Object position along y                                    [pixel]
#   5 X_WORLD                Barycenter position along world x axis                     [deg]
#   6 Y_WORLD                Barycenter position along world y axis                     [deg]
#   7 A_WORLD                Profile RMS along major axis (world units)                 [deg]
#   8 B_WORLD                Profile RMS along minor axis (world units)                 [deg]
#   9 THETA_WORLD            Position angle (CCW/world-x)                               [deg]
#  10 FWHM_WORLD             FWHM assuming a gaussian core                              [deg]
#  11 ELONGATION             A_IMAGE/B_IMAGE                                           
#  12 ELLIPTICITY            1 - B_IMAGE/A_IMAGE                                       
         1 -11.5449     80.4110     23.3817   7.4891608504e+01   6.1857254487e+01    0.5993784    0.3125018  35.42 0.0005440909    2.221    0.550
         2  -9.2483     26.3866     22.2370   9.9960451570e+01   7.0659211373e+01    0.5919518    0.2827966 -48.07  0.002896665    1.697    0.411
         3  -8.8851     45.9993     20.9931   8.8541044092e+01   6.8458762552e+01    0.4523192     0.178988 -45.27  0.001867995    2.248    0.555
         4  -9.6683     20.2835      8.8927   9.7238432490e+01   7.4025299604e+01    0.6450374    0.2728789 -29.20  0.002560657    3.271    0.694
         5  -9.7130    133.7235     13.7205   5.6301904159e+01   5.0225714360e+01    0.3861135    0.2531906  50.94 0.0004061197    1.479    0.324
         6  -9.8667     77.4707     13.0735   7.0552868203e+01   6.4038283948e+01    0.7344545    0.2725739  47.92  0.002792351    2.663    0.624
         7  -9.3836     64.2430     13.8471   7.6112323401e+01   6.6602766052e+01    0.4085748    0.2967716  -7.15  0.001271239    1.454    0.312
         8  -8.0110     88.0150     13.2826   6.7142728858e+01   6.1682754624e+01    0.2642018    0.1868995  10.50 0.0007312365    1.580    0.367
         9  -8.0562     97.0256     12.0003   6.3823661643e+01   5.9742162680e+01    0.2314833    0.1998833  18.47 0.0009522698    1.120    0.107
        10  -9.7164     31.5873     11.0357   9.1164034163e+01   7.2324570105e+01    0.3860889    0.3159234  -0.99  0.001014333    1.255    0.203
        11  -9.0280     32.0772      6.0869   8.7888489334e+01   7.3167247965e+01     0.246494    0.2142696 -30.32 0.0003238395    1.123    0.110
        12  -8.9417    125.1720     10.4056   5.6492636496e+01   5.2832283433e+01    0.2735164    0.2055177  25.17 0.0004545678    1.396    0.284
        13  -8.1504    143.0414      9.0313   5.2771200569e+01   4.8225530104e+01    0.2551765    0.1613582  31.51  0.001129089    1.751    0.429
        14  -8.9288     71.5338      8.8628   7.0347140591e+01   6.5874487720e+01    0.2304335     0.192402  39.70 0.0002688994    1.228    0.186
        15  -9.9290    119.2442      6.9333   5.6096202126e+01   5.4737817349e+01     0.270876    0.2419832  10.91 0.0002159478    1.098    0.089
        16  -9.5529     46.6160      6.2150   7.9732325136e+01   7.0956135667e+01    0.3017045    0.2218009  13.81 0.0002994722    1.449    0.310
        17  -8.7686     41.2457      5.8264   8.2354934469e+01   7.1883228976e+01    0.3317249    0.2194173 -19.27   0.00130075    1.495    0.331
        18  -8.6830    156.2554      6.7134   4.9947261309e+01   4.4892450895e+01    0.3276554    0.1821944  42.46  0.001106497    1.897    0.473
        19  -9.1831     77.5677      6.3625   6.6743395158e+01   6.4909415299e+01    0.3541914    0.2057956  30.20  0.001604111    1.910    0.477
        20  -9.7879      8.1575      5.4399   1.0415864766e+02   7.5777520345e+01    0.4238411    0.2234547  -2.38  0.001127674    2.504    0.601
        21  -9.1087     92.7232      5.1347   6.1425372972e+01   6.1571895183e+01    0.4947321    0.2148543  47.01  0.001991197    2.188    0.543
        22  -9.7402     84.8824      5.4844   6.3886635066e+01   6.3371172077e+01    0.2873262    0.2398973 -18.18  0.001603071    1.147    0.128
        23  -8.2146    180.5255      3.4734   4.5986749563e+01   3.8711087989e+01    0.3991733    0.1665659  24.15  0.001196885    4.491    0.777
        24  -8.1531    171.9865      3.2514   4.6796138490e+01   4.0987328997e+01    0.2362608    0.1938209 -15.52 0.0004420747    1.230    0.187
        25  -8.6079    133.4142      3.5884   5.2042972135e+01   5.1316090099e+01    0.4205776    0.1829192  46.25  0.001065274    2.269    0.559
        26  -8.4050    125.5127      3.7497   5.3460464642e+01   5.3401444335e+01    0.2756352    0.2174325  21.34 0.0004563957    1.301    0.231
        27  -8.8561    110.0517      2.3374   5.5803534776e+01   5.7559073447e+01    0.4181335    0.2460016 -42.87  0.001868901    1.871    0.465
        28  -7.7209    105.2383      1.6213   5.6491932316e+01   5.8850744938e+01     0.256263    0.1305646  63.65  0.001082793    1.946    0.486
        29  -8.2229     75.6790      3.6986   6.5830094121e+01   6.5648741935e+01    0.1468871   0.09736262  21.05 0.0002805348    1.627    0.386
        30  -8.5545     57.3463      3.1473   7.2616335058e+01   6.9488485891e+01    0.2761098    0.1943111  45.64 0.0007834187    1.512    0.339
        31  -8.2375    143.0997      2.0895   4.9940059923e+01   4.8848689481e+01    0.2140034    0.2035228  32.51 0.0003878943    1.038    0.036
        32  -8.6421    100.6543      6.1487   5.9880620758e+01   5.9536012630e+01    0.2666066     0.251855 -76.77 0.0009782936    1.219    0.180
        33  -8.6472      2.0786    110.4075   1.2722808656e+02   5.1475133276e+01    0.3173214    0.0840821 -61.13  0.001309823    3.248    0.692
        34  -8.7201    249.1555    249.8739   9.2242658344e+01  -3.2790035244e+00    0.1426644    0.1020393  20.74  0.001234519    1.249    0.200
        35  -9.4027    239.3739    250.1501   9.3687307630e+01  -2.1750755519e+00    0.1982552   0.09884602  29.78 0.0005021698    1.416    0.294
        36  -8.5643    227.7900    250.3782   9.5420729722e+01  -8.2899401890e-01    0.1505726   0.06365832  28.96 0.0009600687    1.736    0.424
        37  -9.0697    218.2001    248.8137   9.6665899355e+01   4.5797208860e-01    0.2217168    0.1059834 -28.21  0.001510029    2.494    0.599
        38 -10.3074    186.1482    247.3515   1.0149740677e+02   4.6017857629e+00    0.2954518    0.1296784  30.62  0.001816635    1.765    0.433
        39  -8.0894    133.7735    106.6664   8.8114738439e+01   3.4547489392e+01    0.3476354    0.1932635 -29.06  0.001154304    2.325    0.570
        40  -7.2688    160.7371    106.9345   8.1924017475e+01   2.8867653677e+01    0.2275946    0.1135481 -18.47  0.000696099    3.900    0.744
        41  -7.8316    124.5194    106.9868   9.0527918504e+01   3.6333613549e+01    0.2163016    0.1424729 -44.11 0.0006476601    1.524    0.344
        42  -6.9189     76.3234    107.6733   1.0419379786e+02   4.4579392175e+01    0.1448911    0.1021805  74.62 0.0007048759    1.691    0.409
        43  -7.6636    109.2185    106.5731   9.4487722756e+01   3.9340700051e+01    0.2035411    0.1381474  27.73 0.0009408509    1.735    0.424
        44  -9.0404     14.4851    105.3578   1.2306946082e+02   5.1857199975e+01    0.2880773    0.1726546 -34.27   0.00155102    2.303    0.566
        45  -8.1118     68.4127    104.3900   1.0595317328e+02   4.6479612738e+01    0.2480983    0.1343664  15.01 0.0009516351    3.296    0.697
        46  -9.4997    242.1948     95.7515   6.4912305116e+01   1.3637263473e+01    0.4706125    0.2293322 -56.41    0.0014182    6.230    0.839
        47  -9.3100    217.4732    101.0849   6.9834036070e+01   1.7808259279e+01    0.2459057    0.2168887 -11.55 0.0002951794    1.043    0.041
        48  -7.5090     94.9648    103.0000   9.7666283205e+01   4.2667829025e+01    0.2321854    0.0811702  39.17 0.0008010913    2.933    0.659
        49 -10.4515     11.9566     94.1028   1.2277191994e+02   5.4713053324e+01    0.8597272    0.3382418 -36.52  0.003309112    4.318    0.768
        50  -7.2942    140.5201     99.4740   8.4607528262e+01   3.4557251778e+01    0.1489016    0.1416883   2.02 9.886813e-05    1.048    0.045
        51  -7.3451     83.4865     93.4935   9.8868266536e+01   4.6749978624e+01    0.1421772    0.1337152 -50.04 -1.81348e-06    1.072    0.067
        52  -8.3971     43.8563     92.2481   1.1166377654e+02   5.2423672779e+01    0.3026069    0.2135495 -13.04  0.001574271    2.070    0.517
        53  -8.0683    109.2649     91.1157   9.0544032136e+01   4.2659937845e+01    0.3726591    0.1978066  25.78  0.001320181    3.044    0.672
        54  -8.2574     96.6498     90.4931   9.4066893913e+01   4.5165839099e+01    0.3636243    0.2375295   3.73  0.001398613    2.966    0.663
        55  -8.2010      2.1135     89.7425   1.2566943702e+02   5.6333833126e+01     0.251854    0.1069979 -56.19   0.00124824    2.176    0.540
        56  -7.9126     62.5153     88.9566   1.0463977028e+02   5.0948946298e+01    0.3139692    0.1289338 -38.06 0.0009852684    4.257    0.765
        57  -8.0865     66.0783     84.4375   1.0237695228e+02   5.1527923255e+01    0.2432082    0.2057836 -12.59 0.0009388492    1.457    0.314
        58  -9.6659      7.6969     77.7685   1.2247379965e+02   5.8914013231e+01    0.6222284    0.2509339 -38.87   0.00268652    3.231    0.690
        59  -7.9481    126.5793     83.9238   8.3759574312e+01   4.0596882793e+01    0.3040892    0.1854537  12.66  0.001027537    3.365    0.703
        60 -10.3376     37.4156     80.9504   1.1186385180e+02   5.5839484529e+01    0.6006467    0.3517892 -14.28  0.002663662    2.944    0.660
        61  -8.7658     88.6771     78.6574   9.3283163597e+01   4.9236968194e+01    0.4521783    0.2823866  13.37  0.001761632    2.820    0.645
        62  -7.6585    184.4227     78.0234   6.9268106986e+01   2.8395745907e+01    0.2258891    0.1384656 -29.96 0.0004876172    1.545    0.353
        63  -8.9273     50.6181     76.4331   1.0599437781e+02   5.5480661648e+01    0.4223285    0.2439489   8.46  0.001811496    2.843    0.648
        64  -7.5429    120.3333     76.2692   8.3109686156e+01   4.3471155907e+01    0.1513716    0.1189066   9.61 0.0003552749    1.589    0.371
        65  -7.6755    105.6463     76.6756   8.7424775952e+01   4.6449911207e+01    0.1555389    0.1188672  -2.47 0.0007047025    1.762    0.433
        66  -8.5186     74.7644     74.3526   9.6711920035e+01   5.2568788436e+01     0.315123    0.2044006 -38.61 0.0009094205    1.624    0.384
        67  -9.6762     23.6108     74.1930   1.1587088376e+02   5.8719480264e+01     0.769291    0.3043203 -38.01  0.002938032    3.634    0.725
        68  -9.0286     23.4750     69.4895   1.1508709069e+02   5.9878915946e+01    0.7227456    0.2504404  18.72  0.002886078    3.727    0.732
        69  -8.2154     48.2171     70.9242   1.0557607382e+02   5.7092793555e+01    0.2638684    0.1945149  15.82  0.001423491    1.680    0.405
        70  -7.5670    129.3477     69.3145   7.8491885159e+01   4.2817962234e+01    0.1603197    0.1198898  11.09 0.0003813779    1.721    0.419
        71  -7.8470    106.4919     67.4780   8.4233124125e+01   4.8185169432e+01    0.2676177    0.1408151  34.82  0.001026759    2.302    0.566
        72  -8.7482     83.4802     64.2166   9.0556797858e+01   5.3355889764e+01    0.3057956    0.2585523   1.12  0.001207354    1.393    0.282
        73  -9.4386    119.7951     63.7993   7.9178924967e+01   4.6026406824e+01    0.3104364    0.2547421  19.79 0.0008639747    1.374    0.272
        74  -8.3562     16.1422     63.8513   1.1709337500e+02   6.1785546310e+01    0.2671981    0.2057245  -8.52  0.001197761    1.642    0.391
        75  -8.5488     19.5066     60.9986   1.1512591712e+02   6.2245779063e+01    0.2156295    0.1839826 -23.91  0.000620342    1.364    0.267
        76  -9.5777     63.0961     61.2235   9.7058723547e+01   5.7382191532e+01    0.6056902    0.3657072  16.92  0.001914192    2.416    0.586
        77  -9.6105     36.6083     59.0779   1.0729823453e+02   6.1218863380e+01    0.5330644     0.374373   6.10  0.001721758    1.846    0.458
        78  -8.4743     26.0301     60.6277   1.1223159541e+02   6.1828254946e+01    0.3292292    0.2116316 -46.03  0.001811531    1.479    0.324
        79  -7.8668     11.5018     60.9799   1.1857560378e+02   6.2775642793e+01    0.1957754    0.1031594 -72.66 0.0005050181    1.539    0.350
        80  -8.6570     97.5420     57.7682   8.3638422234e+01   5.2000823932e+01    0.5773131    0.3385918  -3.18  0.001626813    5.193    0.807
        81  -7.7306    111.1811     58.5633   7.9771011623e+01   4.8943853827e+01    0.2166868    0.1403894  34.43 0.0009361011    1.750    0.429
        82  -7.5628     49.3097     58.3275   1.0170970020e+02   5.9946182498e+01    0.1428806   0.09637716 -32.38 0.0007039927    1.660    0.398
        83 -10.0003     74.8776     50.3106   8.8755604866e+01   5.7865717930e+01    0.4737743    0.3447735 -27.98 0.0003701852    1.455    0.313
        84  -8.2002    215.6928     52.2798   5.7056695964e+01   2.4657997015e+01    0.3303866    0.1914892 -10.25  0.001455147    1.916    0.478
        85  -9.1921     45.1929     49.1451   1.0060304979e+02   6.2583212167e+01    0.4495978    0.2584758 -35.46  0.001290428    1.900    0.474
        86  -8.5000    118.5683     51.0076   7.4925441625e+01   4.8661556246e+01    0.2772154    0.2204538  49.90 0.0004738782    1.299    0.230
        87  -8.3862    106.5931     48.7469   7.7461899594e+01   5.1800864383e+01    0.3917021    0.2245806  24.76  0.001194084    2.725    0.633
        88  -8.0671     16.5119     41.9476   1.1221519521e+02   6.7030974929e+01    0.2054357    0.1048821 -65.27  0.001034475    1.595    0.373
        89  -8.7154     10.5120     47.4784   1.1649983852e+02   6.6093910760e+01    0.3227013    0.1600518 -65.12 0.0006181979    1.564    0.360
        90  -8.9802     13.6632     45.7086   1.1456825783e+02   6.6326946408e+01    0.2268632    0.2087448 -57.82 0.0007293992    1.135    0.119
        91 -10.9609     83.1712     40.0506   8.1578007521e+01   5.8364389016e+01    0.4170204    0.2794337 -23.03            0    1.648    0.393
        92  -8.8973     87.5094     37.9908   7.9169067804e+01   5.7869601574e+01     0.289914    0.2516312 -12.79 0.0006627358    1.145    0.127
        93  -8.6106      2.8456     43.1652   1.1943446954e+02   6.7513952628e+01    0.5700646    0.1005865 -58.01  0.002149747    3.154    0.683
        94  -9.1145      6.6058     34.2824   1.1552267566e+02   6.9437981280e+01    0.4607289    0.2724727 -31.34  0.002597464    1.807    0.447
        95  -7.5109    142.7614     44.3882   6.6588088436e+01   4.3839839752e+01    0.2186458     0.137732  46.59 0.0009418336    1.613    0.380
        96  -9.1954     55.9866     43.5038   9.3815678728e+01   6.2381907794e+01    0.7412808    0.3063906 -31.51   0.00219539    4.727    0.788
        97  -8.0585     93.0000     40.9832   7.8589800724e+01   5.6176129430e+01    0.3592527    0.1704314 -28.12  0.001143743    2.472    0.595
        98  -8.1248     92.0356     37.0255   7.7221661372e+01   5.7092371131e+01    0.2640607    0.2027573 -35.64 0.0006279956    1.233    0.189
        99  -9.5104     37.1431     36.9676   1.0012490447e+02   6.6288214537e+01    0.6186448    0.3281418 -33.58  0.002835562    2.121    0.529
       100  -9.5459     69.3486     36.6901   8.5388733485e+01   6.1612706617e+01    0.4546985    0.2899282  14.79  0.001984404    2.307    0.567
       101  -8.5292     73.9851     34.2925   8.2489299455e+01   6.1223911919e+01    0.2517788    0.1981577 -33.30 0.0007218666    1.169    0.144
       102  -9.0971     62.8520     37.2187   8.8305369962e+01   6.2623633092e+01    0.2791112     0.168731 -24.16  0.001179444    2.061    0.515
       103  -7.6798     52.5259     38.4854   9.3373021869e+01   6.3963516118e+01    0.1405237    0.1208517 -34.66 -5.962075e-05    1.050    0.048
       104  -8.1697    106.2143     36.9456   7.2791538812e+01   5.3947597537e+01    0.2557364    0.1720703   1.49  0.001078044    2.023    0.506
       105  -9.3523     19.3220     36.1718   1.0911152348e+02   6.8176933424e+01    0.6025293    0.1640402  26.44   0.00234959    3.914    0.745
       106  -9.1481     21.5351     32.0982   1.0658733208e+02   6.8933639714e+01    0.3259855    0.2502525   8.29 0.0008560129    1.538    0.350
       107  -8.8443     55.4860     35.6030   9.0832487049e+01   6.4126995341e+01    0.2615915    0.1800094 -60.78 0.0008631482    1.666    0.400
       108  -7.1351    124.3063     40.2774   6.9294306934e+01   4.9086800351e+01    0.1542334    0.1152329  20.59 0.0003812502    1.551    0.355
       109  -7.4471    163.3696     33.7601   5.8815000806e+01   4.0006508811e+01    0.1983571     0.141169  -9.67 0.0009082668    1.510    0.338
       110  -8.9324      2.0530     30.1560   1.1708536651e+02   7.0619851583e+01    0.3929785    0.1934409 -88.19  0.001884787    2.334    0.572
       111  -7.6922      3.3247     25.3251   1.1507297487e+02   7.1681644034e+01    0.1683927    0.1082986 -29.01 0.0006300641    1.626    0.385
       112  -7.3546    133.3315     30.6879   6.3371499282e+01   4.8235007096e+01    0.1579768    0.1154105 -62.26 0.0007043867    1.675    0.403
       113  -9.3480     62.2721     25.7654   8.3278716685e+01   6.4935221264e+01    0.5735425    0.3426361 -14.77  0.001238748    2.401    0.584
       114  -9.3535     69.3346     25.6992   8.0280812827e+01   6.3664026127e+01    0.3261886    0.2672542 -49.22  0.001647184    1.324    0.245
       115  -8.4407     42.4256     27.8802   9.3694239991e+01   6.7588380796e+01    0.2786021    0.1797129 -18.40 0.0008215781    1.931    0.482
       116  -7.0727    144.2712     27.6759   5.9965578740e+01   4.5792244652e+01    0.1550815     0.111289 -54.80 0.0002120937    1.574    0.365
       117 -10.2906    174.4377    247.7399   1.0343354180e+02   6.0612477442e+00    0.2663122     0.189116 -19.85  0.002095815    1.769    0.435
       118  -7.6033    109.9965     26.2864   6.7100459098e+01   5.4701872017e+01    0.1896686    0.1332342  55.36 0.0004911449    1.460    0.315
       119 -10.3505    196.6756    249.1409   1.0003432098e+02   3.0958396248e+00    0.3065001    0.1944079  45.72  0.002228561    1.789    0.441
       120  -8.7283    144.6812     23.3430   5.8201139450e+01   4.6222307703e+01    0.2631268    0.2349814  18.73 0.0003242627    1.142    0.124
       121  -8.0627    250.3166    108.3297   6.6762684390e+01   1.0627386488e+01    0.1351517   0.08614395   9.27 0.0007046246    1.681    0.405
       122  -7.6186    129.0586     22.4750   6.0914406454e+01   5.0420540554e+01    0.2263752     0.144682  57.80  0.001012667    1.551    0.355
       123  -9.2181     92.4365     20.4772   6.9421760085e+01   5.9676910036e+01    0.2889083    0.2575201  23.55 0.0008041653    1.101    0.092
       124  -7.4104     97.1995    242.0648   1.1597231199e+02   1.6525953633e+01    0.1068398   0.08036093 -69.13 0.0005790257    1.726    0.420
       125  -8.7886      8.7276     20.2180   1.1006398040e+02   7.2548167223e+01    0.3741285    0.2069448  28.73  0.002077103    2.161    0.537
       126  -9.3105     12.9886     18.4916   1.0665768941e+02   7.2643472006e+01    0.4888176    0.2267299 -22.84   0.00214822    3.014    0.668
       127  -8.1807    140.3549     20.0926   5.7702912183e+01   4.7752214853e+01    0.2409383     0.192999  43.37 0.0005568788    1.247    0.198
       128  -7.4966    146.8001     19.1835   5.6198679400e+01   4.6147500031e+01     0.208846    0.1648459  29.72 0.0004532225    1.334    0.250
       129  -8.6636     36.4753     19.3484   9.2790832603e+01   7.0092852496e+01    0.2099136    0.1237271  31.73  0.001082167    1.917    0.478
       130  -8.2807    127.5127     16.8161   5.8827290108e+01   5.1508678638e+01    0.2714976    0.2168369  43.05 0.0002677839    1.235    0.190
       131  -9.5606    156.9576    249.7206   1.0651035607e+02   8.0885947901e+00     0.330248   0.06697711  37.65  0.001396137    3.553    0.719
       132  -7.5275    189.4752     15.5511   4.9042404603e+01   3.5257127212e+01    0.1404802    0.1360659 -31.02 0.0002421213    1.022    0.021
       133 -10.1489    132.4476    235.9247   1.0928008824e+02   1.2898803772e+01    0.1866006    0.1536362  30.47 0.0003855671    1.147    0.128
       134  -9.4658    188.1071    234.0773   9.9581443316e+01   5.7007322752e+00    0.1669679     0.141688  26.23 0.0007293748    1.257    0.205
       135  -7.5709    247.6760    224.7014   8.8972084077e+01  -1.1128968563e+00    0.1082981   0.05759563  13.67 0.0007025269    1.628    0.386
       136  -7.6489      4.4165    221.8266   1.3116414293e+02   2.9207588600e+01    0.1133079   0.07686768 -80.63 0.0005011289    1.623    0.384
       137  -7.6835     60.6467    219.3227   1.2093468707e+02   2.4162219882e+01      0.11593   0.05681633  57.41 0.0007047215    1.757    0.431
       138  -7.8193    242.2478    208.7440   8.7369047540e+01   9.8739675785e-01    0.1532343   0.09354776  12.07  0.001042844    1.347    0.258
       139  -8.8495    240.5605    190.5647   8.4666926704e+01   2.9745545157e+00    0.1929574    0.1722455   5.08 0.0006029633    1.443    0.307
       140  -7.3422    113.3105     11.2909   5.9392337156e+01   5.5800562283e+01    0.1544091    0.1042398  29.03 0.0005437424    1.584    0.369
       141  -8.0979    108.8339     10.6569   6.0127715200e+01   5.7003253884e+01    0.2008454    0.1392872  76.41 0.0009337928    1.707    0.414
       142  -8.6458    228.3707    185.2041   8.5665849072e+01   5.2897353831e+00    0.1869077    0.1474707  25.11 0.0002573748    1.211    0.174
       143  -8.8843    229.4474    180.5191   8.4675487646e+01   5.6437115056e+00    0.1977313    0.1676272  11.74 0.0001220449    1.211    0.174
       144  -7.6647     10.5297    180.4302   1.2870648303e+02   3.5975430152e+01    0.1058978   0.08063443  66.34 0.0001462785    1.031    0.030
       145  -7.5195    240.9804    179.0385   8.2599119844e+01   4.1012452004e+00    0.1407379    0.1050039  14.38 0.0003811971    1.058    0.054
       146  -7.9301    229.9161    175.6728   8.3735402676e+01   6.1122160307e+00     0.162869    0.1225797  22.25  0.000371698    1.131    0.116
       147  -8.1998     83.8627    174.1284   1.1227516500e+02   2.9281086651e+01     0.181009    0.1372404  60.30 0.0002854438    1.195    0.163
       148  -9.8619    197.5679    172.5410   8.8658376552e+01   1.1613368326e+01    0.2229048    0.1886318  18.11 0.0004897011    1.064    0.060
       149  -7.4997     83.6359    159.1584   1.1051373632e+02   3.2254188659e+01    0.1562358    0.1125433 -56.25 0.0004060211    1.514    0.339
       150  -7.6052    217.2413    155.7863   8.2067428358e+01   1.0516097639e+01    0.1711288    0.1234287   8.22 0.0003144876    1.278    0.218
       151  -8.7274    203.6861    154.0561   8.4072888226e+01   1.3062398232e+01    0.1807714     0.153539   0.29 0.0008035775    1.067    0.063
       152  -7.4581    145.2386    150.9904   9.5041013799e+01   2.3965843448e+01      0.16741    0.1133588 -44.64 0.0007301547    1.604    0.376
       153  -9.1206     67.4614    144.9187   1.1265511192e+02   3.7396202520e+01    0.4135264    0.2460672  59.87   0.00217158    1.715    0.417
       154  -7.4462    108.7214    136.6763   1.0089956355e+02   3.3047773964e+01    0.1307058    0.1067636 -15.26 0.0005715145    1.587    0.370
       155  -7.3568    125.4997    135.5668   9.6588962839e+01   3.0371465555e+01    0.1366808    0.1284008  48.09 6.222222e-05    1.024    0.024
       156  -7.4248    139.6650    138.7132   9.3908542078e+01   2.7201775130e+01    0.1382933    0.1057697   7.35 0.0004887707    1.627    0.385
       157  -7.3807     40.4963    129.5153   1.1795639063e+02   4.3953036631e+01    0.2409463    0.1195768   3.05 0.0008098233    5.769    0.827
       158  -8.3405     12.4777    121.0474   1.2498466113e+02   4.8342717195e+01    0.1724091   0.06894682 -57.11 0.0008093363    2.520    0.603
       159  -7.1143     99.9948    119.0000   9.9746982749e+01   3.8268128232e+01    0.2228368   0.07801807  38.86 0.0004350878    2.846    0.649
       160  -7.8809    142.0751    111.9652   8.7418576170e+01   3.1824030746e+01    0.2334681    0.1773406   3.49  0.000797309    1.688    0.408
