#   1 NUMBER                 Running object number                                     
#   2 MAG_AUTO               Kron-like elliptical aperture magnitude                    [mag]
#   3 X_IMAGE                Object position along x                                    [pixel]
#   4 Y_IMAGE                Object position along y                                    [pixel]
#   5 X_WORLD                Barycenter position along world x axis                     [deg]
#   6 Y_WORLD                Barycenter position along world y axis                     [deg]
#   7 A_WORLD                Profile RMS along major axis (world units)                 [deg]
#   8 B_WORLD                Profile RMS along minor axis (world units)                 [deg]
#   9 THETA_WORLD            Position angle (CCW/world-x)                               [deg]
#  10 FWHM_WORLD             FWHM assuming a gaussian core                              [deg]
#  11 ELONGATION             A_IMAGE/B_IMAGE                                           
#  12 ELLIPTICITY            1 - B_IMAGE/A_IMAGE                                       
         1 -12.8421     43.0177     80.7449   7.4444008832e+01   5.5282486587e+01     1.078748     0.701497 -31.43  0.005870289    1.605    0.377
         2 -13.2122     44.9974     23.1879   5.4566499702e+01   6.5976980889e+01    0.9874766    0.7104478 -47.22  0.006014709    1.765    0.434
         3 -12.3183     78.0509     13.9435   3.7960492897e+01   6.1887798871e+01     0.524531    0.3129007  -3.92  0.002693562    1.893    0.472
         4 -10.4271    116.3394     16.7798   2.8516787101e+01   5.3495963801e+01    0.4023389    0.1661402 -44.24  0.001519551    3.314    0.698
         5 -11.0087    227.0054     16.1336   1.1628633814e+01   2.6091741436e+01    0.4908104    0.2914033  83.89   0.00254793    1.619    0.382
         6 -12.2419    177.5542      4.1030   1.3853135694e+01   3.9561531279e+01    0.5285457     0.484759 -30.97  0.003335535    1.253    0.202
         7 -12.2178    156.2259     11.7109   1.9080371092e+01   4.4249727492e+01     0.548225    0.4430263  76.30  0.003129814    1.162    0.139
         8 -12.4316    164.8646     12.4145   1.7982189958e+01   4.1983701536e+01    0.5719629    0.4045861  83.19   0.00301342    1.403    0.287
         9 -12.1916    169.3450      8.9306   1.6306193185e+01   4.1186417547e+01    0.6440863     0.373257 -62.95  0.002982191    2.088    0.521
        10 -12.4673    158.3988      3.8165   1.6301608835e+01   4.4437466308e+01    0.9544047    0.3789154  60.22  0.004058958    2.048    0.512
        11 -12.3139    169.5141      2.7592   1.4476315413e+01   4.1720120874e+01    0.6597475    0.3673283  78.92  0.003168247    1.714    0.417
        12 -11.7095     75.9752     25.4959   4.3617120831e+01   6.0839906304e+01    0.4125062     0.295518 -13.00  0.001968797    1.348    0.258
        13 -10.7742    231.8912      9.2112   9.5959747427e+00   2.5729159294e+01    0.4347267    0.2724623 -69.36  0.002394091    1.491    0.329
        14 -10.7904     39.8242      7.6238   4.9656960979e+01   6.8803714520e+01    0.2847495    0.1453605 -26.01  0.001422138    1.774    0.436
        15 -10.7431    223.3294      4.8847   9.3411186618e+00   2.8199113241e+01    0.4017641    0.1526857 -49.25  0.001738302    2.467    0.595
        16 -10.1655    192.5746      5.3059   1.2443548759e+01   3.5662166540e+01     0.240582    0.1187105 -33.69  0.001077669    2.083    0.520
        17 -10.5009    141.3427      1.6808   1.8225240859e+01   4.8887804390e+01    0.6696153     0.186176 -32.44  0.002479394    3.559    0.719
        18 -11.1525    131.4834      3.8525   2.0669049641e+01   5.1122526811e+01    0.7263221     0.214507  51.38  0.002750539    2.650    0.623
        19 -11.0904    121.3271      4.2059   2.2745754141e+01   5.3526196112e+01    0.4862333    0.3871181  61.17  0.002886253    1.161    0.139
        20 -10.4887    111.9907      5.5196   2.5222845371e+01   5.5585096277e+01    0.2743865     0.105413  55.83  0.001116134    2.143    0.533
        21 -10.3837    106.5067      4.8274   2.6206591786e+01   5.6887990773e+01    0.4707423    0.2737579 -84.14  0.001802304    3.976    0.749
        22 -11.2582     70.7339      5.6740   3.6658022252e+01   6.4127572198e+01    0.3929398    0.2075568  48.50  0.001889077    1.816    0.449
        23 -10.0763    208.0396      4.6920   1.0694617571e+01   3.1895434835e+01    0.2116876    0.1903935 -11.18 0.0008663515    1.410    0.291
        24 -10.5778    204.2339      4.6001   1.1044935132e+01   3.2837677958e+01    0.2702382    0.1465351  70.55   0.00134548    1.627    0.385
        25 -11.5983    145.8164      4.6140   1.8466470056e+01   4.7526900907e+01    0.5009965    0.2833815 -63.79  0.002220131    2.479    0.597
        26 -11.4498     85.5099      3.5709   3.1124150615e+01   6.1484254544e+01    0.5387518    0.3189528  50.79  0.002351636    1.530    0.346
        27 -11.3757     79.7953      3.5955   3.2818084160e+01   6.2617847131e+01    0.4040376    0.2304851  57.63  0.002116511    1.902    0.474
        28 -10.9900     60.7442      2.2065   3.8508092248e+01   6.6237389687e+01    0.4114193    0.2239517  36.19  0.002304031    1.613    0.380
        29  -9.4317    217.9655      2.2187   9.1851262384e+00   2.9748861063e+01    0.1747472   0.09317637  76.88 0.0008719551    1.682    0.406
        30 -11.1877    191.2004     37.5866   2.1383132483e+01   3.2291968334e+01    0.4635708    0.1797292 -43.26  0.001741959    2.580    0.612
        31 -13.5612    241.2580    125.2642   3.5700980302e+01   6.5086137697e+00     1.358976     1.145883  63.99  0.007655353    1.413    0.292
        32 -13.3190    244.7418    110.3709   3.1730381723e+01   8.2726151278e+00     1.407682    0.9575588 -51.69  0.006674662    1.541    0.351
        33 -10.6874      4.7108    124.5711   9.3561906277e+01   4.8385184482e+01    0.2471759    0.1438067  78.56  0.001422988    1.755    0.430
        34 -11.6415     10.5322    121.7298   9.1706083141e+01   4.8643484913e+01    0.3205339     0.211319  52.41  0.001998458    1.693    0.409
        35 -10.4767    154.5952    120.2220   5.1791340576e+01   2.6790421627e+01    0.2307055    0.1509952 -32.96 0.0009615698    1.682    0.405
        36 -11.4249    190.1704    114.2167   4.2359422916e+01   1.9727171950e+01     1.008596    0.5123271 -19.95  0.003068235    3.756    0.734
        37 -10.9497    212.6744    113.4560   3.7826657198e+01   1.4677051949e+01    0.5483636    0.3542947 -34.22  0.002501219    1.506    0.336
        38  -9.7476      2.6525    116.2942   9.3197603989e+01   5.0393836652e+01    0.1175171    0.0751711  70.64  0.000478137    1.671    0.402
        39 -10.4617    224.3524    110.8598   3.5136612260e+01   1.2530831516e+01    0.4550669    0.1671762 -43.20   0.00159545    2.633    0.620
        40 -10.6746    220.4858    107.5115   3.4985536020e+01   1.3975242870e+01     0.308974    0.2879177   2.92  0.001640524    1.135    0.119
        41 -10.6081    148.5109    110.7132   5.0800199066e+01   3.0191482978e+01    0.3808865    0.2270967 -39.10  0.001315769    1.716    0.417
        42  -9.5966     94.6562    111.3126   6.5490105953e+01   4.1089285885e+01    0.1517991    0.1156733  80.53 0.0007046617    1.706    0.414
        43  -9.8610    155.9901    108.7334   4.8466960588e+01   2.8876786749e+01    0.2136365     0.137765  48.06 0.0008956968    1.546    0.353
        44 -10.5255     16.9924    103.9516   8.7482535888e+01   5.2274114711e+01    0.2976757    0.2061518  34.17  0.001865248    1.731    0.422
        45  -9.2255    164.7941    134.5867   5.2938618224e+01   2.1463528619e+01    0.2198467    0.1478902  56.90 0.0009415619    1.620    0.383
        46 -10.0183     30.7652    101.6786   8.2896809414e+01   5.1704055082e+01    0.2909302    0.1521649 -43.95  0.001470002    1.865    0.464
        47  -9.4785    208.9836     94.2973   3.3682427740e+01   1.8949995584e+01    0.2085198    0.2029955  63.73 0.0006984062    1.062    0.058
        48 -10.6674     18.0336    127.6877   9.0426128350e+01   4.6713584483e+01    0.1671834    0.1433731 -83.64 0.0008258406    1.086    0.079
        49  -9.8194    178.7771     92.8739   3.9077594704e+01   2.6525059282e+01     0.310069     0.218122 -57.15  0.001361495    1.606    0.377
        50 -10.8219     13.0510     89.8549   8.6448552005e+01   5.5741116497e+01    0.1827572    0.1506278 -90.00  0.001243838    1.286    0.222
        51 -11.4710      2.5177     86.0530   8.9233808451e+01   5.7195445059e+01    0.7988961    0.2079736 -70.04  0.003204055    3.104    0.678
        52 -12.4186      5.0077     75.9342   8.6711346194e+01   5.9284830314e+01     0.638246    0.4167753  80.85  0.003565033    1.967    0.492
        53 -13.0210     15.1928     73.3965   8.2630911486e+01   5.9237876903e+01    0.8054468    0.6081664  36.38  0.005353959    1.657    0.397
        54 -10.9179    238.4958    228.0099   5.6974809542e+01  -8.4665545147e+00    0.1781774    0.1408411   7.37 0.0008784857    1.053    0.050
        55  -9.5702    100.6118     84.1736   5.6398207658e+01   4.6019267387e+01    0.2203269    0.1332701 -34.99 0.0006614069    1.719    0.418
        56  -9.5167    145.5084     81.5072   4.3305385843e+01   3.6791468641e+01    0.1552947      0.15142  21.12 3.324698e-05    1.026    0.025
        57  -9.8891    215.1566     79.4972   2.8861028780e+01   2.0006240826e+01    0.3443887    0.1820769 -41.56  0.001452995    1.783    0.439
        58  -9.9482    221.2368     78.0893   2.7554763743e+01   1.8797082237e+01    0.3680272    0.2089272 -67.32  0.001413403    2.643    0.622
        59 -10.0892    169.6322     76.3071   3.6321457232e+01   3.1814593815e+01    0.3131764    0.2840757  68.44  0.001497827    1.109    0.099
        60  -9.5018    218.5090     71.5093   2.6308138807e+01   2.0502354378e+01    0.1462234    0.1349927 -63.22 0.0008104769    1.020    0.019
        61 -10.5912     75.2316     69.0964   5.9935470962e+01   5.3547844297e+01    0.4203752    0.2913728   3.38  0.002056934    1.853    0.460
        62  -9.9963     83.5278     68.6706   5.7013585786e+01   5.2268962818e+01    0.2595401    0.2304603   3.99  0.001217115    1.122    0.109
        63 -11.1449    214.7270     66.4643   2.5588676414e+01   2.2208231610e+01     0.309217    0.2379963 -22.44  0.001566319    1.458    0.314
        64 -11.0176     25.5317     65.2581   7.6947778965e+01   6.0230425100e+01    0.4060097    0.2063512 -58.08  0.002145828    1.656    0.396
        65  -9.7303    179.4438     66.4953   3.1544944776e+01   3.1008963855e+01    0.3242634    0.1478818  58.14  0.001208838    2.157    0.536
        66 -10.5564    233.3592     64.1144   2.2385778867e+01   1.8167093573e+01    0.2486608    0.1904906  53.68  0.001337481    1.420    0.296
        67  -9.2110    132.4580     63.5277   4.0962900716e+01   4.3159087136e+01    0.1505475    0.1445425  22.52 0.0001836854    1.010    0.010
        68 -10.3347    218.8587     61.8480   2.3807249952e+01   2.1924063348e+01    0.2144573    0.2043269  13.24  0.001085173    1.227    0.185
        69 -10.6877    209.7064     59.9289   2.4647767072e+01   2.4443916058e+01    0.4883083    0.1765347 -44.51  0.001723569    2.711    0.631
        70 -10.4680    192.1482     87.0037   3.4835950744e+01   2.4307475984e+01    0.6187633    0.2281953  55.48  0.002067624    2.750    0.636
        71  -9.6383    200.0162     63.6979   2.7158616540e+01   2.6264602435e+01    0.2112492    0.1926146  72.35  0.000897823    1.081    0.075
        72  -9.4182     76.4010     59.2381   5.6307584733e+01   5.5281489700e+01    0.1953128    0.1252793 -49.47 0.0009564715    1.649    0.393
        73 -10.9361    198.1134     53.2788   2.4642904338e+01   2.8333777984e+01    0.5984216    0.3658192  -2.85   0.00228991    2.969    0.663
        74  -9.5743    138.1742     55.8325   3.7049930539e+01   4.3081740440e+01    0.2194207    0.1738623  26.67  0.001079925    1.361    0.265
        75 -11.5027    215.3251     51.4292   2.1648306978e+01   2.4328474578e+01    0.4497208    0.3534694  -8.85  0.002163418    1.638    0.389
        76  -9.5770    220.7615     53.6012   2.1464589927e+01   2.2695799199e+01    0.1991048    0.1311204  81.63 0.0009487395    1.662    0.398
        77  -9.7829     35.0255     52.4970   6.9644026161e+01   6.1989467522e+01    0.1980745    0.1454367 -41.47 0.0008005677    1.128    0.113
        78 -10.9976     85.4824     47.8836   4.9198778287e+01   5.5731647739e+01    0.4683353    0.3800143  45.79  0.002476517    1.360    0.265
        79 -10.1705    164.6378     53.8948   3.0685811485e+01   3.6783314541e+01    0.2740166    0.2005056  47.28  0.001315153    1.346    0.257
        80 -11.8367     81.5606     39.4604   4.7336132221e+01   5.7805925501e+01    0.7625979    0.3780655 -37.83  0.003495272    1.995    0.499
        81 -11.4671      3.5188     41.3687   7.9621726696e+01   6.6504690966e+01    0.3683737    0.3586529 -59.18  0.002988402    1.357    0.263
        82 -11.0298    181.1285     40.1053   2.3646236874e+01   3.4535249708e+01    0.3153827    0.2140546 -66.38  0.001471448    1.713    0.416
        83 -11.7876     40.0582     29.3455   5.9268702558e+01   6.5626173641e+01    0.4744014    0.2533433 -38.42    0.0020199    1.631    0.387
        84 -11.1062      3.7427    230.1966   1.0118858286e+02   2.6184527901e+01    0.2290124    0.1600576  43.00  0.001708153    1.588    0.370
        85  -9.6146     97.4506     36.5207   4.1127512199e+01   5.5180954764e+01    0.1375356    0.1255465  12.17  6.78381e-05    1.035    0.034
        86  -9.7013     66.5188     35.5207   5.1120196994e+01   6.0976965314e+01     0.263021    0.1225915  39.38  0.001215692    2.185    0.542
        87 -10.7328      5.9551     35.0951   7.6725903589e+01   6.7568465691e+01    0.2409513    0.1429044  28.47  0.001391341    2.108    0.526
        88 -10.9567     86.0576     31.3815   4.2666895555e+01   5.8164807376e+01     0.231939    0.1766911  -7.04 0.0008693708    1.293    0.227
        89 -10.0896    145.1094     27.9291   2.6291880048e+01   4.5290301433e+01    0.4121376    0.2415524 -78.41  0.001570003    3.013    0.668
        90 -10.0825     90.2579     28.3318   4.0114826996e+01   5.7762704882e+01    0.2532855    0.2203862 -17.09  0.001186516    1.162    0.140
        91 -11.6288    248.6907    224.5620   5.4599942680e+01  -9.5563623977e+00    0.4570308    0.2959777 -24.55  0.002860998    1.522    0.343
        92  -9.5122    103.1348     25.8495   3.5359939778e+01   5.5413629405e+01    0.1996325    0.1466352  24.76  0.000793807    1.334    0.251
        93 -11.5780    178.4621     23.7985   1.9350433165e+01   3.7269687325e+01    0.4599495     0.353103  55.86  0.002491021    1.243    0.195
        94 -11.2099    173.2748     20.7823   1.9233729329e+01   3.8943965090e+01    0.3967992    0.1902509  65.06  0.001129007    1.863    0.463
        95  -9.8894     11.5323     24.5008   7.0534532580e+01   6.9124597892e+01     0.113976   0.08631776 -30.75 0.0002262098    1.030    0.029
        96  -9.7596    224.3178     22.9044   1.3496253245e+01   2.5931774149e+01    0.2417101    0.1685147 -86.54  0.001319804    1.374    0.272
        97  -9.7538    168.6591     26.7093   2.1710281915e+01   3.9445473334e+01    0.1487474    0.1002645  38.46 0.0002927068    1.648    0.393
        98  -9.9076    187.2167     19.6369   1.6963827761e+01   3.5506950829e+01     0.260494    0.1602515  60.24  0.001285133    1.489    0.328
        99 -10.3368    128.3784     18.4980   2.6465972553e+01   5.0471523669e+01     0.329321    0.2497166  51.35  0.001487652    1.171    0.146
       100  -9.8546     31.7613    227.3925   9.6294997666e+01   2.3785620996e+01    0.1354415   0.09806532  38.35 0.0006857672    1.626    0.385
       101 -10.0104     94.5734     17.1639   3.4291002757e+01   5.8249176795e+01     0.260174     0.211253  87.19   0.00145897    1.823    0.451
       102 -12.3749    203.0655    221.2712   6.2323434174e+01  -1.8772808495e+00    0.6858752    0.4122215 -17.79  0.003492768    2.153    0.535
       103  -9.8133    247.8111     16.2264   9.8144760459e+00   2.1321339403e+01    0.2312074   0.09414252 -62.35 0.0009496303    2.784    0.641
       104  -9.6720     64.6348     16.3102   4.3671093677e+01   6.3993669286e+01    0.1113832    0.1028032 -75.42 0.0007038641    1.755    0.430
       105  -9.7143     20.2802     15.0330   6.2399420075e+01   6.9964899496e+01     0.205232    0.1240823   0.34  0.001272766    1.676    0.403
       106 -12.0347    210.0343    215.4191   5.9996358782e+01  -2.2071060134e+00    0.5900517    0.3870665   3.72  0.003117584    1.833    0.455
       107 -13.0762    183.2904    217.6509   6.5551315354e+01   2.0952064575e+00    0.6353338    0.4902169  12.94  0.003722307    1.372    0.271
       108 -10.1914     78.4898    219.5226   8.6923986366e+01   1.9311448570e+01    0.1240902    0.1006586  66.42 0.0002126272    1.021    0.021
       109 -11.2614     50.5117    218.3875   9.2219221703e+01   2.3301844578e+01    0.3625874    0.2089433  46.78  0.002199261    1.520    0.342
       110 -10.2430     67.5214    217.5102   8.8874686937e+01   2.1248012700e+01    0.1237714    0.0968577  69.16 4.346022e-05    1.016    0.016
       111 -11.6071    158.6895    225.5209   7.1655540155e+01   5.1387478108e+00    0.2605478    0.2277184  38.10  0.001179368    1.048    0.046
       112  -9.7853    141.3129    206.5218   7.2339077160e+01   1.1564286147e+01    0.2261955    0.1266759 -52.13  0.001083733    2.028    0.507
       113  -9.1576    250.5270     11.4937   8.5852462580e+00   2.1272830011e+01     0.125986    0.1017589 -69.49 6.341971e-05    1.004    0.004
       114  -8.5443    220.3055     11.3102   1.1124630394e+01   2.8227110843e+01    0.1246057    0.0961391  43.56 0.0004411758    1.613    0.380
       115 -12.4730    247.3638    182.0104   4.6858151885e+01  -3.6289742350e+00     1.180661    0.4344594 -39.38  0.004878508    2.749    0.636
       116  -9.9744    129.8714     12.8540   2.4150565732e+01   5.0689557434e+01    0.2245209    0.1683832  35.62 0.0009074442    1.289    0.224
       117 -12.3426    244.1303    200.3609   5.0994212951e+01  -5.7136320975e+00    0.8065471    0.6482825 -27.53  0.004665476    1.318    0.241
       118 -11.1898    247.0190    192.4765   4.8978335411e+01  -5.0776486168e+00     0.452149    0.3377801  35.97  0.002524358    1.373    0.272
       119 -10.0442     80.3417    199.6724   8.4376512203e+01   2.3071227653e+01    0.1406487   0.08421227  68.63 0.0005042088    1.739    0.425
       120  -9.8629     24.3246    198.6763   9.5697494638e+01   3.0312091919e+01    0.1250084   0.06558377  68.09 0.0004474507    1.686    0.407
       121  -9.8833    202.8213    197.1236   5.8078495374e+01   1.8773061983e+00    0.1972207    0.1871255  46.08  0.001039516    1.249    0.199
       122 -10.5414    205.8756    191.8880   5.6486702336e+01   2.1687052322e+00    0.2619354    0.1753865  30.00  0.001355493    1.408    0.290
       123 -11.1862    194.8295    185.3026   5.7411500644e+01   5.3559746340e+00     0.614191    0.3758551  40.61  0.002977604    1.518    0.341
       124 -10.1609     37.3366    185.4622   9.1988769181e+01   3.1724388591e+01    0.1835673    0.1803874 -60.99  0.001024876    1.429    0.300
       125 -10.0234     26.5006    180.5115   9.3825102500e+01   3.3958021700e+01    0.1208385     0.093359  83.36 7.655618e-05    1.011    0.011
       126  -9.2005    172.3218    163.6557   5.7767498698e+01   1.3894410413e+01    0.1511054    0.1199627  86.52 0.0007050075    1.731    0.422
       127 -10.7067    220.7917    156.1890   4.6253472571e+01   5.3361989837e+00    0.2812598    0.2280799 -75.78  0.001430633    1.833    0.455
       128 -10.2173     20.6700    155.8447   9.2852797788e+01   4.0017318497e+01    0.1763027    0.1723211  73.71  0.001317146    1.328    0.247
       129 -10.0666    162.9720    151.9798   5.7346474199e+01   1.8232845204e+01    0.2492221    0.1937027  81.97  0.001145727    1.718    0.418
       130  -9.8500     53.7465    143.4831   8.3191851348e+01   3.9433029367e+01    0.2593677    0.1637339 -68.80  0.001241445    1.402    0.287
       131 -12.0269     10.9941    140.7037   9.3649937570e+01   4.4266881267e+01    0.3339227    0.2356938  54.68  0.002195408    1.484    0.326
       132  -8.9017     24.3108    141.6496   9.0468857216e+01   4.2949474091e+01    0.1305196   0.07916038  73.79  0.000704504    1.718    0.418
