#   1 NUMBER                 Running object number                                     
#   2 MAG_AUTO               Kron-like elliptical aperture magnitude                    [mag]
#   3 X_IMAGE                Object position along x                                    [pixel]
#   4 Y_IMAGE                Object position along y                                    [pixel]
#   5 X_WORLD                Barycenter position along world x axis                     [deg]
#   6 Y_WORLD                Barycenter position along world y axis                     [deg]
#   7 A_WORLD                Profile RMS along major axis (world units)                 [deg]
#   8 B_WORLD                Profile RMS along minor axis (world units)                 [deg]
#   9 THETA_WORLD            Position angle (CCW/world-x)                               [deg]
#  10 FWHM_WORLD             FWHM assuming a gaussian core                              [deg]
#  11 ELONGATION             A_IMAGE/B_IMAGE                                           
#  12 ELLIPTICITY            1 - B_IMAGE/A_IMAGE                                       
         1 -16.6627    242.4732    101.7809   4.7089541810e+01   1.2620928716e+01     9.355601     1.253191 -39.57   0.02420382    5.935    0.831
         2 -10.0487     40.7941     14.3721   6.7818433714e+01   6.8424586127e+01    0.1665452   0.09331619  27.24 0.0002882089    1.599    0.375
         3 -12.0045    160.1512    239.0450   8.9993802649e+01   1.4448583138e+00    0.2385855    0.2267022 -50.49  0.001333751    1.308    0.236
         4 -10.7585    144.8747    232.5647   9.2320355974e+01   4.9500927878e+00    0.2440016    0.1859549 -78.53  0.001121324    1.919    0.479
         5 -10.2217     72.4887    228.0087   1.0794045172e+02   1.6626670988e+01    0.1862606     0.100738  78.87 0.0007331023    2.548    0.608
         6 -10.2799    191.4053    226.7453   8.1475012549e+01  -1.1253965609e+00    0.1764193    0.1134089 -27.54 0.0006597732    1.566    0.361
         7 -10.7229    162.7838    225.0375   8.7227797219e+01   3.5516621430e+00    0.2538874    0.1817942 -20.98  0.001356531    1.549    0.355
         8 -10.3638     84.3462    226.6794   1.0513230288e+02   1.5275017759e+01    0.1436635   0.08899698  61.82  0.000704944    1.732    0.423
         9 -10.1076     99.4815    225.4848   1.0154559003e+02   1.3332991557e+01    0.1357806    0.1197102  51.50 0.0003325238    1.031    0.030
        10 -10.1098    114.6615    223.3297   9.7778826402e+01   1.1479404211e+01    0.1439371   0.09877683  63.02 4.893257e-05    1.736    0.424
        11 -10.7235    126.0025    220.6535   9.4786348016e+01   1.0254062546e+01    0.2000928    0.1614299  36.46 0.0004890661    1.127    0.113
        12 -10.4466     74.3362    219.6614   1.0661815997e+02   1.8197012389e+01    0.1456542   0.08905074  63.72 0.0007051379    1.753    0.430
        13 -11.6684    204.6720    217.5686   7.7203032468e+01  -1.5404491971e+00    0.2431518    0.1546807 -39.48 0.0008002925    1.586    0.369
        14 -10.6042    143.8077    216.4930   9.0061550949e+01   8.2342603044e+00    0.2537233    0.1990534 -46.18  0.001392476    1.372    0.271
        15 -10.2804    111.8247    216.3441   9.7451008457e+01   1.3396878268e+01    0.1914522    0.1740318  73.59 0.0008117204    1.156    0.135
        16 -10.7491    199.1182    214.8614   7.7830312978e+01  -2.5375677900e-01    0.1901018    0.1812126  -7.13 0.0007195742    1.267    0.211
        17 -11.6881    185.8206    214.1176   8.0433740470e+01   1.9225440749e+00    0.3018965    0.2176057 -43.65   0.00103269    1.493    0.330
        18 -10.5126     76.5178    213.0313   1.0534437010e+02   1.9382512409e+01    0.1987648    0.1090504  82.23 0.0008101904    2.664    0.625
        19 -11.9033    217.8690    210.0638   7.3276952282e+01  -2.2115845793e+00    0.3126624    0.1746637 -47.01  0.001541319    2.077    0.519
        20 -10.6829    177.1571    209.7321   8.1490847410e+01   4.1084339363e+00    0.2563204    0.1661628 -58.18  0.001213421    2.103    0.525
        21 -11.3631    116.4878    209.2601   9.5299586983e+01   1.4192771462e+01    0.3578961    0.2092079 -62.93  0.001629694    1.963    0.491
        22 -10.6864    205.9887    207.7531   7.5160976308e+01  -6.5002633044e-02    0.2299715    0.1702261 -48.75  0.001271283    1.628    0.386
        23 -12.6612    186.0585    203.9230   7.8531921276e+01   3.7525361087e+00    0.5170158    0.3040491 -51.13  0.002420612    2.004    0.501
        24 -11.2561    198.5240    203.8326   7.5931381949e+01   1.7775701660e+00    0.2842039    0.2187784 -47.20  0.001256368    1.490    0.329
        25 -13.0359    164.6368    200.8189   8.2627862888e+01   7.9166341378e+00    0.8359928    0.4270773 -38.02  0.003569586    2.071    0.517
        26 -11.5048    162.3347    193.2399   8.1738017111e+01   9.8565110536e+00    0.4545573    0.2677666 -50.02  0.001748686    1.806    0.446
        27 -10.8421    211.6996    201.3818   7.2850031075e+01   1.7262966620e-01    0.1807725    0.1665393  85.55 0.0009266993    1.687    0.407
        28 -10.5633    177.5055    197.5292   7.9168952248e+01   6.3883200546e+00    0.2470796    0.1366147 -55.59  0.001033927    2.361    0.576
        29 -11.0395    148.6621    197.2615   8.5644925737e+01   1.1391340453e+01    0.3480256    0.1875576 -62.66  0.001352669    2.669    0.625
        30 -11.6071    124.2427    197.0717   9.1465197732e+01   1.5617349682e+01    0.3358537     0.272027 -80.80  0.001564655    1.484    0.326
        31 -10.3056    203.0306    197.0565   7.3740014340e+01   2.2859495671e+00    0.1953358    0.1753956 -80.88 0.0008980354    1.674    0.403
        32 -10.7785    112.3873    197.1810   9.4401350057e+01   1.7565471850e+01    0.2058799    0.1397541 -72.37 0.0008814825    1.768    0.434
        33 -10.2751    193.5614    195.7771   7.5424274684e+01   4.0495704413e+00    0.1906196    0.1304756 -50.06 0.0009217309    1.667    0.400
        34 -10.7069    209.3222    194.8463   7.2068496439e+01   1.6894885264e+00    0.2067822    0.1628121 -45.09  0.000909874    1.411    0.291
        35 -11.5513    154.5320    240.5318   9.1412873223e+01   2.0302603850e+00    0.2438644    0.1299693 -48.58  0.001199949    2.136    0.532
        36 -10.5719    134.4879    170.5342   8.3993545243e+01   1.9896105959e+01    0.3284318     0.151404 -51.40  0.001218645    2.198    0.545
        37 -11.2662    205.9295    168.9527   6.7543174955e+01   7.0384117310e+00    0.3331139    0.1936241 -48.00  0.001139821    1.774    0.436
        38 -11.9063    121.6118    167.4275   8.6691856226e+01   2.2992142904e+01    0.7083886    0.3052109 -52.53  0.002563026    2.321    0.569
        39 -10.6574    167.9721    168.2820   7.5447304588e+01   1.4098960380e+01    0.3482543    0.2059379 -52.86  0.001474667    1.848    0.459
        40 -11.0361    149.4935    168.4845   7.9846878029e+01   1.7553426565e+01     0.318716    0.1498637 -48.67  0.001199868    2.130    0.531
        41  -9.3737    222.2896    167.3183   6.4121864854e+01   4.5691650240e+00    0.1396442   0.09798517 -10.92 0.0006499686    1.597    0.374
        42 -10.8116    185.0935    166.3669   7.1258456971e+01   1.1294233600e+01    0.2937657    0.2102983 -46.80  0.001008682    1.400    0.286
        43 -11.6002    192.1292    163.5604   6.9181123942e+01   1.0562370862e+01    0.6133847    0.2069672 -44.21  0.002096608    2.817    0.645
        44 -11.9996    138.7079    162.9320   8.1356272009e+01   2.0873384714e+01    0.6251746    0.3043742 -56.09  0.002293954    2.317    0.568
        45 -12.9359    213.1307    163.3524   6.4991050382e+01   6.8485768994e+00    0.6320489    0.2811223 -35.06  0.002567883    2.166    0.538
        46 -10.5451    159.5215    162.8014   7.6237791062e+01   1.6902559555e+01    0.3786747    0.1494045 -48.88  0.001297512    2.577    0.612
        47 -10.6603    186.3712    193.2292   7.6440896118e+01   5.7273885427e+00    0.1992621    0.1304239 -50.59 0.0009537083    1.721    0.419
        48 -11.7171    205.5874    161.6077   6.6065281577e+01   8.5054133395e+00    0.4038592    0.2498821 -43.33  0.001205598    1.515    0.340
        49 -11.0638    177.3791    159.1121   7.1364133238e+01   1.4252072493e+01    0.4658335    0.2250228 -46.11  0.001830696    2.021    0.505
        50 -10.6306    151.4861    159.5833   7.7465626967e+01   1.9178233822e+01    0.3287193    0.1506915 -47.90  0.001208414    2.161    0.537
        51 -11.5545    196.5201    156.5926   6.6781881355e+01   1.1139226007e+01    0.4341399    0.2651201 -47.39  0.001418561    1.621    0.383
        52  -9.9338    199.3605    169.2206   6.8902819262e+01   8.1395945552e+00    0.2026244    0.1269589 -48.03 0.0008501252    1.640    0.390
        53 -10.5931    105.2855    157.4326   8.9101795564e+01   2.8352759968e+01    0.2734249    0.1946606 -81.02 0.0009681275    1.803    0.445
        54 -11.0440    205.8993    190.7012   7.1939172667e+01   2.9808379381e+00    0.2704845    0.1885911 -42.57 0.0009484491    1.440    0.306
        55 -11.0946    167.7193    155.7596   7.2791047010e+01   1.6844580632e+01    0.5190524    0.1944347 -43.99  0.001766507    2.580    0.612
        56 -11.7982    204.4784    154.2891   6.4710818176e+01   1.0120606060e+01    0.3726076     0.208457 -38.62  0.001230698    1.636    0.389
        57 -10.9443    119.0252    154.2697   8.4672449422e+01   2.6652905449e+01    0.3938283    0.2021845 -63.15  0.001398415    2.481    0.597
        58 -10.5830     49.7839    155.1883   1.0463091787e+02   3.7117942540e+01    0.2555083    0.1320949  66.46 0.0009575134    2.852    0.649
        59 -10.4762    144.5018    153.9974   7.7961556415e+01   2.1819672851e+01    0.2486358    0.1524152 -48.40  0.001040297    1.615    0.381
        60 -10.8701    132.9298    151.8988   8.0454998287e+01   2.4575449429e+01    0.4598062    0.2247812 -56.48  0.001656147    2.304    0.566
        61 -10.4846    199.6090    190.7553   7.3211281031e+01   3.9935705500e+00     0.270673    0.1228878 -38.40  0.001133177    2.100    0.524
        62 -10.5527    157.5298    155.2430   7.5055268091e+01   1.8965916920e+01    0.3022993    0.1499576 -50.38  0.001140655    2.077    0.518
        63 -11.7655    200.1062    147.2587   6.4021054163e+01   1.2311519503e+01    0.5536615    0.2175241 -41.82  0.002039844    2.336    0.572
        64 -11.2925    195.8007    142.9847   6.3913902975e+01   1.3986277817e+01    0.3507798    0.2486117  28.36  0.001547741    1.631    0.387
        65 -12.3424    189.8349    147.9891   6.6244137440e+01   1.4140511733e+01    0.8738294    0.3243727 -38.01  0.002990861    2.713    0.631
        66 -10.9704    192.6059    136.9381   6.3174297626e+01   1.5824768971e+01    0.5094348    0.1789545 -45.96  0.001717576    2.758    0.637
        67 -10.3920    182.1140    149.7435   6.8258281786e+01   1.5289771230e+01    0.2747164    0.1943334 -49.35 0.0009521059    1.423    0.297
        68 -10.1821    215.4913    147.9837   6.1284756558e+01   9.3214824489e+00    0.2235972     0.126194 -41.51 0.0009417816    1.583    0.368
        69 -10.7092     39.4019    147.6115   1.0655824785e+02   4.0226547503e+01    0.3403545    0.1464574  64.45  0.001023068    4.709    0.788
        70 -11.4216     56.0717    145.4865   1.0122817532e+02   3.8874161921e+01    0.4876004    0.2452951  73.26  0.001504217    4.302    0.768
        71 -11.8423    172.3896    190.5376   7.8956944744e+01   8.6551719545e+00    0.2900223    0.2539532 -71.40  0.001266368    1.474    0.322
        72 -10.4677    175.5633    145.3435   6.8679520696e+01   1.7514561950e+01    0.2996897    0.1428397 -47.70  0.001133304    2.084    0.520
        73 -11.8504    148.5612    142.8576   7.4411135038e+01   2.3555335926e+01    0.8009271    0.3382564 -54.11  0.002625118    2.795    0.642
        74 -11.0201    106.5268    144.5290   8.6044511284e+01   3.1345669184e+01    0.3629329    0.2416507  78.09   0.00138745    2.451    0.592
        75 -10.2591    208.6963    144.0935   6.1683927447e+01   1.1308207145e+01    0.2342255    0.1659595 -52.56 0.0009489834    1.482    0.325
        76 -10.5266    165.5947    142.5358   7.0270078497e+01   2.0139769570e+01    0.4538244    0.1456712 -44.61  0.001404779    3.001    0.667
        77 -11.2492    124.5154    142.0441   8.0469445748e+01   2.8565004236e+01    0.5238071    0.2906968 -71.55  0.001656948    3.405    0.706
        78 -10.1516    179.4896    190.1107   7.7313648399e+01   7.5094173785e+00    0.2153153    0.1370553 -42.73  0.001021295    1.558    0.358
        79 -11.8810    229.6805    138.3320   5.6765388277e+01   8.5688646059e+00    0.2309594    0.1490191 -47.88 0.0009355259    1.462    0.316
        80 -10.2816    203.2877    140.9628   6.2006457735e+01   1.2937564591e+01    0.2145132    0.1747017 -37.52  0.000662834    1.115    0.103
        81 -10.7096    182.0348    140.6819   6.6210407840e+01   1.7186016392e+01    0.3111524    0.2147696 -37.29  0.001172749    1.384    0.278
        82 -11.4331    219.6070    136.1864   5.7995370259e+01   1.0774573133e+01    0.3500831    0.1246028 -38.42  0.001278476    2.555    0.609
        83 -11.3165    138.8407    188.2091   8.6330369307e+01   1.5077022966e+01    0.4499618    0.2080701 -54.17  0.001723275    2.348    0.574
        84 -10.2852    210.4907    188.9954   7.0703270943e+01   2.5542651075e+00    0.2077326    0.1243715 -40.30 0.0007180135    1.574    0.365
        85 -10.3830    217.5490    187.2548   6.9006982344e+01   1.7498405380e+00    0.2537711    0.1211295 -43.51   0.00112602    2.024    0.506
        86 -11.3859    197.9429    135.6071   6.1821539962e+01   1.5028395809e+01    0.6125315    0.2074855 -41.11  0.002086227    2.722    0.633
        87 -10.6023    172.1022    136.9982   6.7502277856e+01   1.9989423975e+01     0.354582    0.1959758 -55.60  0.001370261    2.140    0.533
        88 -10.8977     23.0033    137.7235   1.1009776941e+02   4.4303737595e+01    0.2964152    0.1485855  79.01  0.001181053    2.804    0.643
        89  -9.9740    205.4822    136.5222   6.0598721343e+01   1.3376365502e+01    0.1459724    0.1315425 -32.06 0.0001590075    1.016    0.016
        90 -10.3318    187.6957    134.5296   6.3607359425e+01   1.7299603641e+01    0.2775408    0.1290698 -42.50  0.001068921    2.007    0.502
        91 -10.2290    162.4745    135.0600   6.9223829879e+01   2.2409841903e+01    0.2480699    0.1493405 -43.78 0.0009463103    1.602    0.376
        92 -10.2922    192.5483    187.3427   7.3990928973e+01   5.8153072189e+00     0.264337    0.1330735 -46.80  0.001124627    2.052    0.513
        93 -12.5201    225.9061    132.7313   5.6183574142e+01   1.0256393162e+01     0.420796    0.2123841 -27.54  0.001720288    2.389    0.581
        94 -10.8451    179.3234    132.4938   6.4870317799e+01   1.9436830809e+01    0.3918333    0.2028872 -42.55  0.001576713    1.826    0.452
        95 -11.2677    131.4735    130.0072   7.5722181010e+01   3.0016777536e+01    0.5200476    0.2799573 -59.71  0.001879075    2.345    0.574
        96 -10.9085    142.7493    130.0478   7.2794285181e+01   2.7666365084e+01    0.4891644    0.2060067 -48.86  0.001674841    2.392    0.582
        97 -12.1186    221.1614    128.5780   5.6064596713e+01   1.1888538952e+01    0.3858058    0.1764143 -30.52  0.001489005    2.524    0.604
        98 -10.6829    204.6451    129.6932   5.9208939499e+01   1.4855336752e+01    0.2996066    0.2092827 -54.51  0.001062531    1.502    0.334
        99 -10.7943    192.9925    128.8766   6.1231059932e+01   1.7354015087e+01    0.3380029    0.2034517 -36.28  0.001420056    1.599    0.375
       100 -10.6311    168.4053    128.2842   6.6236587186e+01   2.2612145522e+01    0.4553488    0.1805755 -45.33  0.001567199    2.438    0.590
       101 -10.6693     12.7772    129.3869   1.1214276535e+02   4.7196270652e+01    0.2867231    0.1228154  74.87  0.000955526    4.271    0.766
       102 -10.3988    212.0474    128.6693   5.7646526772e+01   1.3604619708e+01    0.2615074    0.1775613 -47.23  0.001299781    1.372    0.271
       103 -11.0900    152.6566    127.3183   6.9661753474e+01   2.6178512575e+01    0.5642809    0.1772306 -47.06  0.001679806    3.186    0.686
       104 -10.4423     73.3163    129.6549   9.2833561438e+01   4.0609857068e+01    0.1556604    0.1165113  75.81 0.0007048275    1.718    0.418
       105 -11.1460     98.8379    127.7244   8.4464967064e+01   3.6895127254e+01    0.3105164    0.2125552 -82.20  0.001246581    2.173    0.540
       106 -10.7604    129.0018    187.4805   8.8613157870e+01   1.6971041535e+01    0.3460325    0.1936143 -59.14  0.001437843    2.013    0.503
       107 -10.7941    117.0295    124.3342   7.8293780321e+01   3.4266321308e+01    0.3303434    0.2068259 -74.99   0.00117356    2.716    0.632
       108 -11.2083     59.0744    123.8923   9.6233086702e+01   4.4058809299e+01    0.4381697    0.2446014 -87.49  0.001539721    3.240    0.691
       109 -10.5033    188.5206    122.8427   6.0687309159e+01   1.9475845169e+01     0.360813    0.1374186 -43.70  0.001266978    2.452    0.592
       110 -11.5821     43.5427    122.5766   1.0112802564e+02   4.6239045703e+01    0.5130759    0.2769498  89.78   0.00190755    3.059    0.673
       111 -11.3960     28.6337    122.3614   1.0604164555e+02   4.7746386955e+01    0.5666535    0.2651137  79.55  0.001729634    4.985    0.799
       112  -9.9956    186.4774    128.9442   6.2545331702e+01   1.8679390561e+01    0.2340449    0.1407335 -41.98    0.0010201    1.555    0.357
       113 -10.4492    194.6754    121.1739   5.9097187675e+01   1.8521788887e+01    0.3080067    0.1195765 -47.43  0.001076258    2.566    0.610
       114 -10.1767    202.8499    121.3315   5.7615560323e+01   1.6815510590e+01    0.2148835    0.1704135 -47.79  0.001125116    1.177    0.150
       115 -10.5515    172.4346    120.0115   6.3321704816e+01   2.3474921346e+01     0.334321     0.188362 -42.42  0.001384972    1.694    0.410
       116 -10.6487    158.3387    120.0404   6.6488851269e+01   2.6529545761e+01    0.4096017      0.18908 -43.64  0.001505656    2.098    0.523
       117 -10.9540     83.1847    131.6419   9.0164053854e+01   3.8582068082e+01     0.333255    0.2433908  86.76  0.001395367    1.847    0.459
       118 -10.5723    185.5873    114.7491   5.9315253003e+01   2.1696358597e+01     0.366097    0.1368856 -42.47  0.001273127    2.497    0.599
       119 -11.2042    165.2840    185.7375   7.9620189243e+01   1.0895275396e+01    0.4318028    0.2550772 -52.06  0.001899513    1.853    0.460
       120 -10.5764    155.6554    185.6541   8.1829023833e+01   1.2636788669e+01    0.3666712    0.1414947 -52.77  0.001248124    2.970    0.663
       121 -10.6538    192.8668    113.8933   5.7705995243e+01   2.0310208171e+01    0.3211656    0.1840529 -37.93  0.001339567    1.663    0.399
       122 -11.3063    108.6889    112.3768   7.7636081688e+01   3.8714934886e+01    0.7668347    0.2405036 -54.09  0.002074226    4.077    0.755
       123 -11.2452     79.1315    112.6645   8.7019574157e+01   4.3950735090e+01    0.4252283    0.2722504 -83.50  0.001619424    2.692    0.629
       124 -10.8870     92.8514    112.7616   8.2603138508e+01   4.1598206459e+01    0.2986536    0.2108928 -81.03  0.001244999    2.098    0.523
       125 -10.7160    174.5344    110.3229   6.0457101911e+01   2.4977499897e+01     0.378619    0.1459677 -39.50  0.001297378    2.541    0.607
       126 -11.5009    141.2173    117.4849   7.0005880248e+01   3.0800599198e+01    0.7198013    0.2628609 -52.83  0.002104149    3.468    0.712
       127 -11.1128     66.6862    110.7304   9.0734212386e+01   4.6315425789e+01    0.2953502     0.185202 -80.60   0.00117774    2.453    0.592
       128 -10.9565     13.9272    110.0817   1.0903487954e+02   5.1953717512e+01    0.3365118     0.174567 -82.33  0.001537479    2.105    0.525
       129 -11.0277    179.8149    123.3162   6.2567940610e+01   2.1217072770e+01    0.4345361     0.238909 -36.40  0.001781334    1.821    0.451
       130 -10.2773    182.5701    108.2852   5.8319646857e+01   2.3612012620e+01    0.2923205    0.1360752 -44.76  0.001124687    2.042    0.510
       131 -10.5548    133.0000    108.9624   6.9881984657e+01   3.4443426040e+01    0.2653241   0.08854438 -44.39 0.0008040867    2.954    0.661
       132 -10.5607    189.4869    106.7403   5.6608139388e+01   2.2401911468e+01    0.3682025    0.1343624 -42.64  0.001287222    2.539    0.606
       133 -12.2742     45.1269    101.6279   9.6230271990e+01   5.1293063718e+01    0.7242926    0.4109752  76.70  0.002407697    4.425    0.774
       134 -11.8128     22.3724    101.5010   1.0455498477e+02   5.3464851220e+01    0.7120472     0.371137  81.67  0.002643817    3.728    0.732
       135  -9.8590    205.2981    104.3584   5.3221822186e+01   1.9475744651e+01    0.1425036     0.112431  -3.72 0.0005561883    1.707    0.414
       136 -11.7195    120.1557    183.8817   9.0183183108e+01   1.9341617747e+01    0.7101007     0.214107 -59.65  0.001921767    4.689    0.787
       137 -11.2263    108.9481     98.8886   7.3847976958e+01   4.1702707898e+01    0.4805028     0.308447  79.68  0.001615701    3.493    0.714
       138 -10.5024     82.0000     99.9912   8.2746218630e+01   4.6485865076e+01    0.2522754   0.08277822 -50.50 0.0008004946    2.929    0.659
       139 -11.7933     63.5997     95.7539   8.8027522888e+01   5.0343044780e+01    0.4606174    0.2934843 -81.37  0.001826419    2.787    0.641
       140 -11.1561     94.9865    186.2993   9.7061720490e+01   2.2935915149e+01    0.3051665    0.1836712  86.66  0.001178878    2.650    0.623
       141 -10.8067    128.3803    101.2046   6.8984432360e+01   3.7113534758e+01    0.2322073     0.144632 -53.04 0.0009578297    1.741    0.426
       142 -11.1575    149.8365    100.9808   6.3498555118e+01   3.2390093519e+01    0.6245268    0.1703123 -47.60  0.001675006    4.151    0.759
       143 -11.0645    124.1615     90.4900   6.7065010280e+01   4.0257486183e+01    0.2932712    0.1817478 -62.40  0.001147259    2.262    0.558
       144 -11.3430     34.6301     88.8784   9.7208696878e+01   5.5429291376e+01    0.4800566    0.2286686 -70.64  0.001904718    2.740    0.635
       145 -10.8440      4.5002     91.0059   1.0931906723e+02   5.7127423217e+01    0.1792005   0.09861261  82.96 0.0008106708    2.615    0.618
       146 -11.0673     86.5748     86.8059   7.7403693334e+01   4.8620371983e+01    0.2121633    0.1415798 -56.90 0.0009496446    1.723    0.420
       147 -11.5657     48.4337     84.2284   9.0603745388e+01   5.4993035886e+01     0.436395    0.2818711  86.86  0.001714465    3.377    0.704
       148 -11.1756    104.6551     83.3136   7.0532024562e+01   4.5850942679e+01    0.2352048    0.1894882 -86.02  0.001113042    1.744    0.427
       149 -11.5325     24.2716     78.5482   9.8871928972e+01   5.8732668496e+01    0.6859301    0.2276303 -62.12  0.002609956    2.894    0.654
       150 -10.5389     74.6605     80.3447   7.9573087932e+01   5.2060219615e+01    0.1434627    0.1182783  81.69 0.0007048153    1.779    0.438
       151 -11.0876    203.9536    183.7748   7.0957890555e+01   4.5766147359e+00    0.3763441    0.1886765 -46.19  0.001638594    2.035    0.509
       152 -10.0753    175.5193    100.9533   5.7875858086e+01   2.6589998022e+01    0.2362185    0.1436863 -40.21  0.001030175    1.585    0.369
       153 -10.4241    215.5701    193.7849   7.0653962316e+01   9.0579729605e-01    0.1877228    0.1203718 -46.79 0.0009529862    1.705    0.414
       154 -10.7955    127.8234     75.0158   6.1464279813e+01   4.2409187740e+01    0.2519058    0.1729093 -66.14  0.001085266    2.020    0.505
       155 -11.2362     82.1349     72.2748   7.4350711717e+01   5.2400587668e+01    0.2711647    0.1973082 -70.29  0.001239259    2.141    0.533
       156 -10.3832    182.7042    183.4668   7.5304578660e+01   8.2712722758e+00    0.2648409    0.1250418 -43.40  0.001075529    2.063    0.515
       157 -10.6657     95.2329     71.2448   6.9639205836e+01   5.0105220128e+01    0.2312342    0.1152292 -50.89  0.000886958    2.436    0.589
       158 -11.5936     51.1226     68.2896   8.4791077854e+01   5.8088800591e+01    0.6022487    0.2246475 -57.64  0.001998466    3.928    0.745
       159 -10.7773     16.5510     69.3092   9.9857220744e+01   6.1378719571e+01     0.248873    0.1164848 -64.41  0.001149745    2.146    0.534
       160 -10.1449    203.4996     65.9451   4.4366880697e+01   2.6357569092e+01    0.2089339    0.1259592 -39.29  0.001005736    1.579    0.367
       161 -11.0103     37.0136     63.2406   8.9141712506e+01   6.0831249351e+01    0.3183851    0.1666621 -61.78  0.001407737    2.471    0.595
       162 -12.2488    174.3128    182.2185   7.6890279937e+01   1.0010554948e+01    0.5024511    0.3116631 -44.52  0.001654776    1.601    0.375
       163 -10.9662     73.2204     58.9576   7.2988117880e+01   5.6481716425e+01    0.4052797    0.1540373 -47.33  0.001481678    3.034    0.670
       164 -12.0357    147.7057    178.3176   8.2281153357e+01   1.5684124948e+01      0.49199    0.2909201 -47.57  0.002135584    1.701    0.412
       165 -11.7526      7.6180     54.0840   9.9918615221e+01   6.5194590849e+01     0.656881   0.04626962 -54.67  0.002129552    4.425    0.774
       166 -10.8701     45.0407     49.4799   8.0890033024e+01   6.2515587083e+01    0.2266598    0.1587709 -17.15 0.0007633246    1.365    0.267
       167 -10.9114     63.0000     54.0465   7.5099319838e+01   5.9068744013e+01    0.2218411    0.0737338 -42.42 0.0008066362    2.972    0.663
       168 -10.8291     53.7598     53.1150   7.8497064681e+01   6.0650479437e+01     0.330739    0.1604672 -56.43  0.001271202    3.393    0.705
       169 -10.8757     30.6409     50.4430   8.7785290193e+01   6.4039498280e+01    0.2973374    0.1640678 -64.60  0.001306158    3.020    0.669
       170 -10.6295     92.2411     50.2425   6.3350338934e+01   5.4324206661e+01    0.2186209    0.1071956 -45.87  0.000895181    2.452    0.592
       171 -11.4269    137.9272    178.0300   8.4618491898e+01   1.7536495873e+01    0.3956065    0.2312796 -49.62  0.001576438    1.730    0.422
       172 -10.7006     16.7468     42.7178   9.1864833611e+01   6.6793270207e+01    0.3701513   0.07348035 -50.82    0.0013284    3.783    0.736
       173 -11.2215      4.8346     40.2039   9.7168440978e+01   6.8116508859e+01    0.4043514    0.1483294 -62.47  0.001704321    3.317    0.699
       174 -10.3594    108.6647    184.9941   9.3315237089e+01   2.1031501044e+01    0.2408593    0.1266359 -81.52 0.0007052041    4.384    0.772
       175 -11.0003    192.1596    177.0135   7.1992059213e+01   7.8873945056e+00    0.3521131    0.1975736 -42.60  0.001582936    1.706    0.414
       176 -10.0411    218.4838    176.0162   6.6593371570e+01   3.6151658581e+00    0.2146461     0.122253 -40.32  0.001030142    1.597    0.374
       177 -11.4465    183.0719    174.7880   7.3458928193e+01   9.9514199103e+00    0.4400105    0.2132381 -41.52  0.001799147    1.983    0.496
       178 -11.1462     27.3481     30.1445   8.1605825103e+01   6.7964621110e+01    0.2490708   0.08837561 -37.08  0.001096251    2.589    0.614
       179 -11.2269     77.7503    175.3007   9.9883242944e+01   2.8271603532e+01    0.3593583    0.2006145 -82.28  0.001416236    2.399    0.583
       180 -11.6171    177.2351    170.3382   7.3803347264e+01   1.1932738572e+01    0.4191247    0.2648451 -43.14  0.001393385    1.533    0.348
