#   1 NUMBER                 Running object number                                     
#   2 MAG_AUTO               Kron-like elliptical aperture magnitude                    [mag]
#   3 X_IMAGE                Object position along x                                    [pixel]
#   4 Y_IMAGE                Object position along y                                    [pixel]
#   5 X_WORLD                Barycenter position along world x axis                     [deg]
#   6 Y_WORLD                Barycenter position along world y axis                     [deg]
#   7 A_WORLD                Profile RMS along major axis (world units)                 [deg]
#   8 B_WORLD                Profile RMS along minor axis (world units)                 [deg]
#   9 THETA_WORLD            Position angle (CCW/world-x)                               [deg]
#  10 FWHM_WORLD             FWHM assuming a gaussian core                              [deg]
#  11 ELONGATION             A_IMAGE/B_IMAGE                                           
#  12 ELLIPTICITY            1 - B_IMAGE/A_IMAGE                                       
         1 -13.2801      2.9066    128.0933   1.3133185521e+02   4.7884793489e+01     1.250582    0.3093179 -76.76  0.005703946    3.217    0.689
         2 -12.8261    198.5929     33.0786   6.1285111763e+01   3.0858887986e+01     1.183872    0.7481176  51.81  0.005461549    1.521    0.342
         3 -13.6179    213.7236     14.8403   5.3841833609e+01   2.8780891237e+01     1.465612    0.9569594  26.00  0.005139917    1.764    0.433
         4 -11.8951      6.1833      2.8913   1.0653015855e+02   7.3019331687e+01    0.4212116    0.3431249   1.16  0.003287444    1.394    0.283
         5 -11.8873      2.1387     12.7783   1.1257261550e+02   7.1471551213e+01    0.5453086     0.209807 -57.65  0.002943351    1.973    0.493
         6 -10.2655     16.7119     25.7942   1.1014381629e+02   6.8027562929e+01    0.1841444    0.1382146  60.06 0.0009474506    2.025    0.506
         7 -10.4478    184.5569    250.2948   1.1014156812e+02   5.0275701925e+00    0.2390776     0.101577  39.12   0.00144056    1.712    0.416
         8 -10.5648    169.3106    248.9122   1.1232149596e+02   7.4099774208e+00    0.2051996    0.1481005  19.12 0.0009320758    1.637    0.389
         9 -11.2865    149.8903    248.4321   1.1526661707e+02   1.0288818390e+01    0.2697893    0.2074946 -76.13  0.002163457    1.889    0.471
        10 -12.4037    133.9376    248.5920   1.1774607556e+02   1.2539200161e+01     1.115098    0.1787548  41.39  0.003936548    5.335    0.813
        11 -10.9161    114.9263    250.2778   1.2081165843e+02   1.4945004259e+01    0.6153274    0.1574105  41.57  0.002977825    3.020    0.669
        12 -11.4823    109.0524    246.0195   1.2136060212e+02   1.6260031255e+01    0.3489427    0.2308423  83.61  0.001111871    1.820    0.450
        13 -11.4268    100.1304    247.8465   1.2287342031e+02   1.7198337644e+01    0.4699544    0.2822102  50.49  0.002816548    1.181    0.153
        14 -11.2503     84.6406    230.6344   1.2396452049e+02   2.1500819961e+01    0.3730491    0.1946084 -74.08  0.002540451    2.280    0.561
        15 -10.5235     79.6406    225.7629   1.2439338168e+02   2.2828451425e+01    0.3388614    0.2066876  87.18  0.001375971    1.779    0.438
        16 -11.5006     96.6492    239.9143   1.2279268455e+02   1.8685265087e+01    0.4552035    0.3361646 -22.43  0.003061307    3.236    0.691
        17 -10.4294     91.1846    241.8191   1.2378805366e+02   1.9132990788e+01    0.2196946    0.1522637  62.07 0.0008127021    1.141    0.124
        18 -10.6386     89.8242    238.2313   1.2372799699e+02   1.9789161004e+01     0.208547    0.1580331 -73.34   0.00118871    1.589    0.371
        19 -10.8772     86.8456    248.2289   1.2491492032e+02   1.8831759241e+01    0.2712113    0.1983616  41.18  0.000855894    1.416    0.294
        20 -11.1451     83.1988    244.5365   1.2520897949e+02   1.9769538766e+01    0.4666687    0.2509165 -53.43  0.003294132    2.747    0.636
        21  -9.2878     62.5133    250.5034   1.2866878080e+02   2.1418905960e+01     0.156964   0.09993363  29.46 0.0009527066    2.332    0.571
        22 -11.0940     60.4966    245.9540   1.2870454609e+02   2.2258782200e+01    0.3813907    0.2467834  44.23  0.003179251    1.407    0.289
        23  -9.5648     66.3474    244.2805   1.2773509994e+02   2.1817554050e+01    0.2402444    0.1213379  32.92  0.001168085    2.553    0.608
        24 -11.8076     57.5340    208.6407   1.2676820878e+02   2.8094120027e+01    0.8881872    0.3547872  52.79  0.003737853    1.984    0.496
        25 -13.2597      3.4133    187.5781   1.3467409175e+02   3.6906181717e+01     2.122531    0.2335879 -77.18  0.007805365    6.942    0.856
        26 -12.8031     18.6264    217.0152   1.3354329729e+02   3.0813265125e+01     1.271351     0.911114   0.19  0.008347293    4.151    0.759
        27 -13.5404     11.4292    207.9064   1.3426442782e+02   3.2891970933e+01     1.660433    0.8095812 -69.04   0.01226166    2.142    0.533
        28 -13.5513     28.3998    246.7030   1.3337988555e+02   2.5545845374e+01      1.28971    0.5684494  46.48  0.009943585    1.650    0.394
        29 -13.2161      3.9446    245.0959   1.3671075715e+02   2.8038156418e+01    0.8283747    0.3804808  80.90  0.006769537    1.771    0.435
        30 -12.7011     14.0455    238.6972   1.3509637508e+02   2.8029474255e+01    0.5776072    0.3017206  54.83  0.002734424    1.312    0.238
        31 -12.8119     31.2391    227.1292   1.3208594278e+02   2.8064327679e+01    0.3989551    0.2291219 -76.28  0.000813516    1.780    0.438
        32 -13.8597     37.6116    218.6863   1.3066067946e+02   2.8692881950e+01    0.9939784    0.6946168  41.93  0.008289076    1.514    0.339
        33  -9.8349     73.2972    247.3565   1.2688837317e+02   2.0589118920e+01    0.1853707   0.09730444  42.50  0.001090212    1.580    0.367
        34  -9.8860     73.7243    243.3295   1.2656478040e+02   2.1080210981e+01    0.2294592    0.2093288  17.79  0.002076381    1.841    0.457
        35  -9.9181    193.9496    244.7753   1.0805753502e+02   4.1680129909e+00    0.1503289    0.1037198  37.84 0.0003590822    1.020    0.020
        36 -11.2816    175.9900    242.5652   1.1057625802e+02   7.0827132115e+00    0.2933278     0.147409  54.28   0.00135891    2.052    0.513
        37 -11.4381    166.4560    242.2251   1.1202892601e+02   8.5455372463e+00    0.3444196    0.1315081  46.55  0.001781946    1.952    0.488
        38 -10.5687    142.0219    221.5587   1.1365794096e+02   1.4711386592e+01    0.2748788    0.1589492  40.68 0.0003496477    1.398    0.285
        39 -10.6730    136.0236    224.7361   1.1501279739e+02   1.5200166385e+01    0.2735533    0.1839826 -44.92   0.00107685    2.020    0.505
        40 -10.0829    132.2150    223.4514   1.1550781529e+02   1.5936542914e+01    0.1984924    0.1748963  61.51 0.0008958332    1.184    0.155
        41 -12.0447    135.5936    241.2218   1.1678425990e+02   1.3184820725e+01    0.4082679     0.222578  55.43  0.002361471    1.607    0.378
        42 -11.8979    135.3240    236.2552   1.1633337812e+02   1.3833385992e+01    0.3636793    0.3035697   2.02  0.002494219    1.809    0.447
        43 -11.0151    134.9979    231.2546   1.1587420666e+02   1.4510046557e+01    0.2799574    0.2153297 -10.35  0.001485882    2.262    0.558
        44 -11.2074    244.9863    241.4970   9.9960042973e+01  -3.0778353515e+00    0.1599267    0.1435637  -8.91  0.001382504    1.616    0.381
        45 -10.0843    143.3896    240.8555   1.1551610469e+02   1.2103781906e+01    0.1788066   0.09954613  40.96  0.000900001    1.382    0.276
        46 -10.9424    116.5683    238.6741   1.1955416007e+02   1.6180311591e+01    0.2715249    0.2227676 -19.25  0.002117293    2.132    0.531
        47  -9.8033     53.8571    240.8259   1.2939929977e+02   2.3706692288e+01    0.1557411    0.1024779  70.89   0.00071636    1.209    0.173
        48 -10.8029    105.4023    237.2491   1.2119809432e+02   1.7885489775e+01    0.2638635    0.2249366 -18.62  0.002122777    2.063    0.515
        49  -9.1575     61.7131    238.9944   1.2811063951e+02   2.3080367219e+01    0.1645571    0.1006303  50.09  0.000827912    1.239    0.193
        50  -9.4212    172.8892    235.8896   1.1028439480e+02   8.2677655866e+00    0.1373423    0.1039882  52.68            0    1.281    0.219
        51  -9.4662    166.0000    235.9428   1.1138809560e+02   9.3099632206e+00    0.1375199   0.06309611 -44.29 0.0006290817    2.982    0.665
        52 -10.9985    128.2998    234.6209   1.1729886657e+02   1.5051201304e+01     0.276777    0.1861123  74.71  0.001957329    1.805    0.446
        53 -11.0183    122.6542    233.6880   1.1811784640e+02   1.5975507480e+01    0.3088441    0.2206062  53.29   0.00128448    1.070    0.065
        54  -8.5693     70.9784    235.0288   1.2643442433e+02   2.2556483834e+01    0.1163492   0.08431194  62.98 0.0006190348    1.043    0.041
        55  -8.9054     94.3535    219.3466   1.2144017002e+02   2.1867538310e+01    0.2139528    0.1371409  83.03  0.001086899    1.746    0.427
        56 -10.5843     98.3628    223.4294   1.2113640398e+02   2.0738527818e+01    0.2975311     0.182968  34.28  0.001447593    1.794    0.443
        57 -11.3974    113.3652    231.3106   1.1939557502e+02   1.7592705223e+01    0.3030523    0.2686515  31.98  0.001943669    1.433    0.302
        58 -11.6086    104.9269    227.4000   1.2041238012e+02   1.9288970468e+01     0.502828    0.2644264  65.87  0.002279435    2.122    0.529
        59 -10.2349    156.7109    232.0708   1.1243677055e+02   1.1167080615e+01    0.1847787    0.1547063  32.68 0.0005207252    1.220    0.180
        60 -10.4745    250.3569    230.9758   9.7669624565e+01  -3.0404444972e+00    0.2024817   0.09351533 -23.35  0.001251874    2.516    0.602
        61  -9.6430     91.0275    250.4896   1.2444552891e+02   1.8018216304e+01    0.2438639     0.116645  40.15  0.001650666    1.791    0.442
        62  -9.2412     46.0036    231.3135   1.3005524632e+02   2.5918963342e+01    0.1699312   0.08942316  65.73  0.001269953    1.513    0.339
        63 -10.0330    141.4564    231.4554   1.1484445158e+02   1.3532385186e+01     0.154243    0.1154731  45.60 0.0005605426    1.041    0.039
        64  -8.3875     57.4040    231.2167   1.2829498332e+02   2.4678029258e+01    0.1205276   0.07319663  81.72 0.0009287089    1.539    0.350
        65  -9.6332     55.0543    235.7636   1.2892902413e+02   2.4287930833e+01    0.2184647    0.1139274  57.37  0.001091769    1.400    0.286
        66 -10.5495    117.0433    224.5471   1.1814589782e+02   1.7994803111e+01    0.2529595    0.1733283  42.18 0.0004831696    1.260    0.206
        67  -9.0387     64.7777    224.6713   1.2670682568e+02   2.4789077545e+01    0.1788841    0.1310278 -42.59  0.001171886    2.481    0.597
        68  -8.9850     87.8464    223.9045   1.2290873265e+02   2.2056403894e+01     0.145271   0.09350003  64.17 0.0008180825    1.318    0.241
        69  -9.4066     92.4766    225.9125   1.2231837044e+02   2.1164362139e+01    0.1841296    0.1143062  48.87  0.000722338    1.234    0.190
        70 -10.7162    245.6327    219.9011   9.6711793141e+01  -1.4340474391e+00    0.2426662    0.1261491 -19.18  0.001513424    2.186    0.542
        71 -10.5625     70.1019    218.2297   1.2537913832e+02   2.5121083098e+01    0.4038421    0.2163964  81.82  0.002629181    2.093    0.522
        72  -8.6950    118.7382    217.9328   1.1719127179e+02   1.8672431577e+01    0.1151679   0.09340423 -65.14 0.0008788453    1.518    0.341
        73 -10.5570     98.2303    231.5345   1.2185909420e+02   1.9615749835e+01    0.2274466    0.1931509 -76.07   0.00121198    1.447    0.309
        74  -9.3415    137.0419    214.4505   1.1368265545e+02   1.6423147939e+01    0.1667569   0.08716145  45.19   0.00034383    1.488    0.328
        75  -9.2935     88.1581    212.8890   1.2191167846e+02   2.3654118678e+01    0.1919959    0.1245351  87.76  0.001001903    1.683    0.406
        76  -9.0784    101.8191    211.7709   1.1946287698e+02   2.1974944864e+01    0.2725506   0.08503493  55.83  0.001073851    4.144    0.759
        77  -9.6374    112.5254    208.2147   1.1723602257e+02   2.0985412031e+01    0.1849006    0.1516133  44.04  0.000630133    1.202    0.168
        78  -9.6600    156.1030    208.0682   1.0960081415e+02   1.4277219406e+01    0.1679537    0.1330404  44.45 0.0003189497    1.008    0.008
        79  -8.5378    134.3098    208.3409   1.1343391873e+02   1.7695076717e+01    0.1061228   0.08304644  17.96 0.0006114659    1.692    0.409
        80  -9.2708     74.6684    208.3274   1.2382717822e+02   2.6090828247e+01    0.1633267   0.09880432  57.23 0.0003764913    1.314    0.239
        81  -9.1913    125.6059    206.3339   1.1472588576e+02   1.9319043508e+01    0.1800404    0.1085854 -63.34  0.001117499    2.092    0.522
        82  -9.0865     32.9390    206.9775   1.3075538463e+02   3.1008000557e+01       0.1207    0.1071641 -69.89 0.0004855959    1.593    0.372
        83 -10.7164    246.9159    205.8135   9.4282621982e+01  -4.0292802708e-01    0.2710335    0.1564167  27.58  0.001708132    1.368    0.269
        84  -8.1564    133.0000    202.9927   1.1301513758e+02   1.8666970928e+01    0.1538088   0.06619857 -52.23 0.0005335298    2.860    0.650
        85  -9.0965    103.9345    203.0810   1.1820653468e+02   2.3002203801e+01    0.1544677    0.1327073  12.34  0.000939574    1.718    0.418
        86 -10.0236     84.1528    201.4389   1.2156066702e+02   2.5971143757e+01    0.2166689    0.1769068 -51.75  0.001300435    1.666    0.400
        87  -9.9006     91.0410    205.0466   1.2068657548e+02   2.4481993947e+01    0.3732552    0.1618564  39.85  0.001627384    2.075    0.518
        88 -10.7604     27.7953    195.3451   1.3094258725e+02   3.3422401581e+01    0.4207597    0.2250489  73.92  0.001232965    1.579    0.367
        89  -8.5682    145.2124    198.0030   1.1018659105e+02   1.7438669531e+01    0.1273664   0.09670398 -50.76 0.0003222071    1.621    0.383
        90 -10.9561    103.2319    196.0208   1.1756994206e+02   2.4213954975e+01    0.1926504    0.1621637  61.82 0.0003224933    1.055    0.052
        91  -9.5952     97.6735    196.5629   1.1864174368e+02   2.4917011564e+01    0.3773271    0.1533985  51.93  0.001553832    2.166    0.538
        92 -10.8020    249.5609    194.2330   9.1927061722e+01   2.3550698708e-01    0.2810723    0.1882739  26.35  0.001857212    1.144    0.126
        93 -11.7346     58.1774    194.7617   1.2560009080e+02   3.0287266325e+01     0.368552    0.3131693 -22.89  0.001666528    2.116    0.527
        94  -9.6786     44.4028    199.6620   1.2837322672e+02   3.1008739501e+01    0.2559637    0.2250742  11.02  0.002103025    1.918    0.479
        95  -9.2221     20.9719    194.9432   1.3207764166e+02   3.4137021584e+01    0.1752521    0.1011261 -63.79  0.001166458    1.986    0.496
        96  -8.9110     19.8306    191.1582   1.3206522995e+02   3.4878024084e+01    0.1393396    0.1015821  71.99  0.001172357    1.018    0.018
        97  -8.6887    119.0383    193.7757   1.1440912911e+02   2.2221686179e+01    0.1543479   0.07945604  44.86 0.0003078969    1.609    0.379
        98  -8.6293     72.5078    192.9957   1.2286862952e+02   2.8853410549e+01    0.1125732   0.08885344 -40.24 -8.864504e-05    1.987    0.497
        99 -10.6852     15.5946    192.0198   1.3283194598e+02   3.5116460793e+01    0.1943775    0.1237087  80.65 0.0003672478    1.214    0.177
       100  -9.4583    191.5102    191.4761   1.0099881810e+02   1.0430506227e+01    0.2080523    0.1695918  32.52 0.0006025154    1.024    0.024
       101  -8.6550     38.5254    192.4300   1.2890286591e+02   3.2837965040e+01    0.1263626   0.08251512 -71.77 0.0001089012    1.562    0.360
       102  -8.9294     40.9167    188.8447   1.2823083781e+02   3.3200212272e+01    0.2076222     0.150465  84.19 0.0008200513    1.157    0.135
       103  -9.4606     31.9264    189.9241   1.2989549237e+02   3.3932917424e+01    0.2775227   0.07293697  47.13  0.001459717    2.792    0.642
       104 -10.2964    250.0477    187.9455   9.0750183447e+01   7.5033625802e-01    0.2744804    0.1555158  -8.94  0.001584022    1.881    0.468
       105  -8.7842    114.4363    189.4280   1.1472816077e+02   2.3613821934e+01    0.1153863    0.0949702  56.27 8.447037e-05    1.004    0.004
       106  -9.1637     77.0500    188.6328   1.2162064228e+02   2.9011937967e+01    0.1472609    0.1127537  55.94 0.0004542409    1.110    0.099
       107 -11.3920     65.3967    186.5434   1.2358515346e+02   3.0828646294e+01    0.2678827    0.1980705 -66.94 0.0005224298    1.480    0.324
       108 -10.2438     10.0874    187.6877   1.3354845141e+02   3.6329878595e+01    0.1854171    0.1211861  80.31  0.000697167    1.154    0.134
       109  -9.8915     83.5964    186.8206   1.2021588950e+02   2.8460522624e+01    0.1897723    0.1356165  60.71 0.0003229776    1.171    0.146
       110  -9.7452     29.1547    184.2895   1.3002306820e+02   3.5175237814e+01    0.2200373    0.2153902  -4.83  0.001414389    1.642    0.391
       111  -9.3714     24.1193    184.0524   1.3090543935e+02   3.5696782609e+01    0.1618457    0.1210309  55.62 0.0006985245    1.234    0.190
       112  -8.7694    140.1477    183.2019   1.0905407853e+02   2.0485462729e+01    0.1573825    0.1249088  64.23 0.0002904855    1.273    0.215
       113 -10.3687    127.8158    182.6647   1.1131702416e+02   2.2601023011e+01    0.1971327    0.1740226  64.60 0.0002745232    1.089    0.082
       114  -8.7876    107.9394    182.6350   1.1511410932e+02   2.5710334292e+01    0.1613278    0.1264347  55.33 0.0005003664    1.073    0.068
       115  -9.3232     36.7890    182.6535   1.2853331394e+02   3.4701235620e+01    0.1612696    0.1190819 -77.33  0.001263367    1.340    0.254
       116  -9.2503     86.0507    180.1051   1.1902544182e+02   2.9284146624e+01     0.168876    0.1350399  65.62 0.0003335481    1.043    0.042
       117  -8.8561     26.9942    180.0401   1.3013542724e+02   3.6126252046e+01     0.121544   0.09049261  74.44 0.0005757232    1.001    0.001
       118 -12.4565     43.9918    207.8900   1.2898465165e+02   2.9715285857e+01     1.148697    0.4217885  68.71  0.005789106    3.355    0.702
       119 -11.8001    248.0491    172.7169   8.8268378488e+01   2.5978783716e+00    0.4769738    0.3587041   9.17  0.003120536    1.137    0.120
       120 -11.6869     65.2885    175.7128   1.2257922743e+02   3.2746741030e+01    0.2176204    0.1730126  62.94 0.0003468205    1.073    0.068
       121 -10.7628     62.1389    172.4878   1.2287440669e+02   3.3709627528e+01    0.2242909    0.1855765  41.05  0.001673294    1.379    0.275
       122  -9.4893    103.0219    176.0309   1.1523349558e+02   2.7568631784e+01    0.1713011    0.1447174  64.29  0.001197288    1.018    0.018
       123 -10.7387     75.7355    174.7646   1.2044468469e+02   3.1600507408e+01    0.2294925    0.1744208  69.76 0.0005102811    1.134    0.118
       124 -10.3728     19.2493    173.3455   1.3112286686e+02   3.8029952560e+01    0.3242094    0.1587216  70.25  0.001608434    1.799    0.444
       125 -10.6123     12.1824    173.4449   1.3242293516e+02   3.8627394235e+01    0.2550654    0.1469735 -64.09  0.001845042    1.857    0.461
       126  -9.1175    107.5342    172.9076   1.1393366353e+02   2.7427911512e+01    0.1731977    0.1410632  56.92 0.0005962388    1.057    0.054
       127  -9.2513     45.9452    172.3421   1.2600963667e+02   3.5581249557e+01    0.1444568    0.1275832  72.31 0.0003848656    1.209    0.173
       128 -10.4933     44.4391    166.5557   1.2580122718e+02   3.6804102295e+01    0.4557974    0.1540213 -54.13  0.001877498    3.708    0.730
       129  -8.8769     48.1650    168.6748   1.2525643843e+02   3.6010363578e+01    0.2343369    0.1062527  46.00  0.001376276    1.936    0.484
       130  -9.8942     27.8213    171.4665   1.2939891074e+02   3.7578331024e+01    0.2505254    0.1545887 -63.75  0.001350291    1.722    0.419
       131  -8.4188     52.6189    170.7682   1.2457406570e+02   3.5131210929e+01    0.0900175   0.08442061   0.53  0.000406858    1.622    0.383
       132 -11.5339     83.8077    166.1953   1.1784612543e+02   3.2073584922e+01    0.5057394    0.3823767  39.55  0.003380306    1.387    0.279
       133 -11.1566     14.3589    167.0021   1.3163744932e+02   3.9600758437e+01    0.2539986    0.2197725  46.02  0.001641243    1.433    0.302
       134 -12.0683    245.0582    163.0997   8.6883750917e+01   4.1359576671e+00     0.510004    0.3541902 -39.99   0.00296771    1.930    0.482
       135 -12.0074    247.5483    158.3136   8.5539589797e+01   4.2044294396e+00    0.9278877    0.7402014 -84.75  0.005040314    2.699    0.629
       136  -8.6207     61.0183    164.5929   1.2229628864e+02   3.5295232439e+01     0.152693    0.0959785  45.14 0.0002886867    1.492    0.330
       137 -13.0396      9.7712    114.1417   1.2855884599e+02   5.0209767030e+01    0.8380753    0.2253396 -74.29   0.00380015    2.974    0.664
       138 -11.9124      3.4459    110.4165   1.2975615943e+02   5.1397716608e+01    0.5771524    0.1943283 -55.65  0.002967461    2.788    0.641
       139 -12.2038      2.4076    142.3490   1.3242811389e+02   4.5146907945e+01    0.5774403    0.2258695 -77.00  0.003433282    2.024    0.506
       140 -10.6129    192.3610    248.8606   1.0878764522e+02   4.0138772299e+00    0.2141383    0.1137353  38.96  0.001244713    1.329    0.248
       141 -10.8113     23.5600    149.9111   1.2860925534e+02   4.1994271108e+01    0.2419356    0.1765732 -79.79  0.001017829    1.194    0.162
       142 -11.0491     31.8944    155.1988   1.2733518952e+02   4.0210875043e+01    0.2815159      0.24403 -28.27  0.001136523    1.792    0.442
       143 -10.8267     22.1877    155.0080   1.2928917121e+02   4.1144737612e+01      0.25545    0.1491016  63.56  0.001755193    1.497    0.332
       144 -10.2973     25.7917    154.5995   1.2852867966e+02   4.0897358956e+01    0.2438656    0.1034327  61.01   0.00103687    2.325    0.570
       145  -8.6108    228.3401    155.2444   8.8034970947e+01   8.1160944122e+00     0.165314    0.1142719 -32.34 0.0004840828    1.618    0.382
       146 -12.6560    248.0195    100.6160   7.2629180648e+01   1.0774336866e+01     1.035245     0.529236 -20.48  0.004702117    1.894    0.472
       147 -11.9335    247.7859    142.2560   8.2179551814e+01   5.9374953064e+00    0.7644469    0.5028386  44.15  0.004293086    1.470    0.320
       148 -12.6313    248.8995    132.7845   7.9953427662e+01   6.8046837799e+00      1.14238    0.6439185 -19.28   0.00580968    1.728    0.421
       149 -10.0293    249.7127    117.9190   7.6475390345e+01   8.3725438560e+00     0.362111    0.2376929   9.05  0.001242728    1.575    0.365
       150 -11.3659    248.4559    112.9406   7.5505962765e+01   9.2143165827e+00    0.5443032    0.3775741  32.51  0.001916073    1.358    0.263
       151  -8.6272    113.8145    151.2260   1.0942980217e+02   3.0307323982e+01    0.2671694   0.09724963 -59.64  0.001016698    3.549    0.718
       152 -10.2759     96.5941    151.0013   1.1310102695e+02   3.3063563370e+01    0.2820869    0.2303674 -59.91 0.0009781421    1.290    0.225
       153  -8.7124     55.6420    150.2952   1.2186910482e+02   3.8648628892e+01    0.1209858   0.07188407  67.85 0.0007032393    1.699    0.411
       154 -11.9457     68.4454    144.4359   1.1835645017e+02   3.8245811195e+01    0.5646751    0.3644379  76.42  0.002204144    1.663    0.399
       155  -9.9309     41.4731    147.5481   1.2461876735e+02   4.0732234631e+01    0.1875468    0.1529815  81.31  0.000536091    1.018    0.018
       156  -9.6989    235.8691    145.9296   8.4863101211e+01   7.7856258718e+00    0.2098058    0.1501994  17.83  0.000526019    1.282    0.220
       157 -10.0888     32.5548    145.1418   1.2629805046e+02   4.2088908231e+01     0.187127    0.1274516 -38.36  0.001194318    2.269    0.559
       158  -9.8212    133.4920    141.0646   1.0340232752e+02   2.8740583662e+01    0.3858973    0.2314053 -56.73  0.001913085    1.918    0.479
       159 -10.7802      9.4640    136.5064   1.3053158405e+02   4.5756951435e+01     0.174383    0.1215272 -52.91 0.0007280047    1.720    0.419
       160 -11.0516     13.0286    137.2734   1.2982223753e+02   4.5331639678e+01    0.2054345    0.1442622  72.23 0.0005149232    1.211    0.174
       161 -10.5730     19.5147    141.5443   1.2877441550e+02   4.3966445374e+01    0.2399185    0.1365009  87.96  0.001041744    1.519    0.342
       162 -11.0878     16.3811    139.2061   1.2925460003e+02   4.4684233696e+01    0.2081976    0.1783433  80.27  0.001671851    1.157    0.135
       163 -10.5380     32.7879    140.6647   1.2581826582e+02   4.2947382040e+01    0.2418855    0.1421381  75.53  0.001313233    1.640    0.390
       164  -8.9733    100.0089    146.2326   1.1162294587e+02   3.3446958670e+01    0.1875605    0.1472379   1.73  0.001059686    2.015    0.504
       165 -11.1808     60.0445    136.4557   1.1920376735e+02   4.0869711863e+01    0.2405934    0.1920775  82.43 0.0004490837    1.127    0.112
       166  -9.5356    108.8500    136.3326   1.0798140282e+02   3.3927557101e+01    0.3010432    0.2205139   3.38  0.001435362    2.317    0.568
       167 -10.5378     44.7016    130.2933   1.2197918414e+02   4.3839319016e+01     0.264993    0.1544259  70.94 0.0008418915    1.854    0.461
       168 -10.0843     66.3352    128.0971   1.1655325667e+02   4.1792542257e+01    0.2764022    0.1250473 -53.11  0.001186464    2.191    0.544
       169  -9.9211     59.1056    128.0121   1.1826967408e+02   4.2695127289e+01    0.1776891    0.1528679  89.08 0.0004314648    1.011    0.010
       170 -10.3133     29.9928    126.7162   1.2501457125e+02   4.6007687422e+01    0.1517964    0.1284644  82.38 0.0004801634    1.083    0.077
       171  -9.9257    209.9748    125.6533   8.4806189194e+01   1.5653575198e+01    0.2513709    0.1998071 -22.28 0.0005138957    1.279    0.218
       172  -8.2140     48.2951    126.3457   1.2062892990e+02   4.4263531739e+01    0.1127936   0.08186354 -44.84  0.000441439    1.669    0.401
       173 -12.0242     17.7492    122.2282   1.2743088914e+02   4.7963197432e+01    0.3407203    0.1887127  35.49  0.002203287    2.000    0.500
       174  -9.6578    238.4955    122.0544   7.9165906540e+01   1.0150425122e+01    0.2042943    0.1261832 -20.04  0.001013637    1.580    0.367
       175  -8.5618     50.4596    122.4952   1.1958605219e+02   4.4820570804e+01    0.1176938   0.09879372 -88.09 0.0003042099    1.025    0.024
       176 -10.2495     31.5838    117.4000   1.2356371987e+02   4.7775745297e+01    0.3345671   0.09294894 -50.72  0.001290535    4.314    0.768
       177  -9.8835    231.7353    116.2096   7.8886923644e+01   1.2286917659e+01    0.2118553    0.1689305 -37.08 0.0006581608    1.416    0.294
       178  -9.8435    167.8211    113.0502   8.9945750182e+01   2.6748690036e+01    0.3065015    0.2546129 -86.12  0.001015726    1.606    0.377
       179  -8.6463    203.4901    111.4900   8.2600219900e+01   1.9078149410e+01    0.1469947    0.1298804  18.23 0.0001668445    1.038    0.037
       180 -11.3703     14.9965    104.8454   1.2628239039e+02   5.1749497186e+01    0.2434352    0.1797693  74.96  0.001012078    1.283    0.221
       181  -9.8498     16.1642    158.2503   1.3072079714e+02   4.1058718508e+01    0.1635984     0.127099  82.90  0.000375682    1.055    0.052
       182  -8.4585    104.6571    153.3064   1.1171678298e+02   3.1393081145e+01    0.1296279   0.08775403  71.67  0.000421263    1.689    0.408
       183 -13.1891     40.0885    243.6900   1.3157378690e+02   2.4781662058e+01    0.8260241     0.560172  68.30  0.005875603    1.091    0.083
       184  -8.3022     71.7441    100.0058   1.1026518999e+02   4.6931004186e+01    0.1536426    0.1002389 -59.16 0.0002511306    1.400    0.286
       185 -10.1643     16.9269     99.0080   1.2508246497e+02   5.2826157019e+01    0.1636812    0.1425037 -87.76            0    1.119    0.106
       186 -12.7393     10.6775    152.3923   1.3141077619e+02   4.2610070491e+01    0.7678021    0.2884756 -85.33 0.0001619994    2.399    0.583
       187 -11.2903    243.7996    120.8670   7.8059329265e+01   9.2147654263e+00     0.502507    0.3440449 -48.43  0.002560316    2.022    0.506
       188  -9.6625      2.0000     89.9545   1.2808511891e+02   5.5704580633e+01     0.184166   0.04794054 -73.64 0.0008018186    2.938    0.660
       189 -10.9539    249.6434    150.9191   8.3706678690e+01   4.6276479532e+00    0.4713919    0.2647502 -28.10  0.002517486    1.814    0.449
       190 -10.5148     84.1195    155.9463   1.1647386134e+02   3.3936038392e+01    0.2947831    0.2285486  33.94  0.001020058    1.473    0.321
       191 -12.2330    122.5820    245.0036   1.1917801065e+02   1.4552194428e+01     0.660522    0.2495554  42.42  0.003841382    1.985    0.496
       192 -11.5760    124.2314    240.3616   1.1849636169e+02   1.4900539550e+01    0.4605427    0.1916427  41.75  0.002713711    1.857    0.461
       193 -11.3700    202.4793    247.4646   1.0708373418e+02   2.6463480852e+00    0.4222022    0.1592657  30.90  0.002085661    2.920    0.658
       194 -10.9577    198.9842    245.5082   1.0737607099e+02   3.3466155632e+00    0.2523019    0.1314066  36.81  0.001641788    1.396    0.284
