#   1 NUMBER                 Running object number                                     
#   2 MAG_AUTO               Kron-like elliptical aperture magnitude                    [mag]
#   3 X_IMAGE                Object position along x                                    [pixel]
#   4 Y_IMAGE                Object position along y                                    [pixel]
#   5 X_WORLD                Barycenter position along world x axis                     [deg]
#   6 Y_WORLD                Barycenter position along world y axis                     [deg]
#   7 A_WORLD                Profile RMS along major axis (world units)                 [deg]
#   8 B_WORLD                Profile RMS along minor axis (world units)                 [deg]
#   9 THETA_WORLD            Position angle (CCW/world-x)                               [deg]
#  10 FWHM_WORLD             FWHM assuming a gaussian core                              [deg]
#  11 ELONGATION             A_IMAGE/B_IMAGE                                           
#  12 ELLIPTICITY            1 - B_IMAGE/A_IMAGE                                       
         1 -14.5486     68.7150    144.0811   9.9887892424e+01   3.7598985854e+01     5.082321     2.420411  64.12  0.002742974    4.603    0.783
         2 -13.1411    198.2704     42.2737   4.2079782650e+01   3.0495838024e+01      1.04094    0.9035007 -50.84  0.003327555    1.134    0.118
         3 -13.7460    207.6474     33.2146   3.8767361145e+01   2.9494862720e+01     1.318821    0.8977112 -16.48  0.001347045    2.002    0.501
         4 -11.0298     33.2185     14.3417   7.4128527153e+01   6.9357821488e+01    0.4807899   0.08210035 -38.59   0.00150762    6.004    0.833
         5 -12.0238    235.2926      9.0739   3.0999994058e+01   2.6259261365e+01    0.4911273    0.4163802  59.03  0.002768937    1.492    0.330
         6 -12.3229    229.0687      7.3768   3.1095074482e+01   2.7739629039e+01     0.616832    0.3476739 -43.85   0.00281718    1.584    0.369
         7 -11.9303    233.9815      2.9186   2.9845435355e+01   2.7176750407e+01    0.6326341    0.2739148  84.13  0.003198312    2.213    0.548
         8 -11.8557     49.7918      4.2599   6.1737778732e+01   6.7978690079e+01    0.4530326    0.3864576 -68.03  0.002904892    2.162    0.538
         9  -9.8231    142.1690    208.2153   9.2267540208e+01   1.0669296545e+01    0.1944895    0.1598834  59.01 0.0007156409    1.352    0.261
        10 -11.4273    140.0609    248.3948   9.8636244831e+01   3.6275951680e+00     0.490455    0.2873683 -53.73  0.002680211    2.080    0.519
        11 -13.9723     43.7327    195.9908   1.1353071584e+02   2.8083039585e+01      3.36776     1.237894  61.99   0.01003354    4.186    0.761
        12 -17.5611     12.8799    242.9883   1.2325688467e+02   2.1419277450e+01     10.81803     5.508297 -81.66   0.02453945    1.788    0.441
        13 -11.0712    107.5910    203.7954   9.9526492332e+01   1.7351483658e+01    0.3460311    0.2428938 -70.99  0.001293439    1.609    0.379
        14 -11.0268    110.6270    203.2053   9.8727931663e+01   1.6988604719e+01     0.316006    0.2500848  87.97 0.0009354159    1.464    0.317
        15 -10.9427    192.1640    193.1016   7.8678830746e+01   4.9043812413e+00    0.6868849    0.3659842 -60.52  0.002422443    3.993    0.750
        16 -16.1398      6.0838    207.9262   1.2262150713e+02   2.9250767771e+01     5.489265    0.8054013 -69.42   0.01513042    4.525    0.779
        17  -9.9523     31.5980    202.9436   1.1689445850e+02   2.7852258441e+01    0.2889349    0.2020648  72.58  0.001498383    1.256    0.204
        18 -11.3890    121.7142    197.9060   9.5290701258e+01   1.6294605717e+01    0.4780775    0.3167557 -71.08  0.002255759    1.892    0.472
        19 -10.5121     60.5774    198.0393   1.0983406576e+02   2.5540381708e+01     0.261407    0.1930644  36.87 0.0004568634    1.383    0.277
        20  -8.8581     82.0234    194.9972   1.0435520090e+02   2.3272119323e+01     0.213605    0.1681197 -28.05  0.001135029    1.694    0.410
        21 -11.4081    101.6424    242.9950   1.0588560740e+02   1.0342359401e+01    0.7687397    0.2750171 -57.51  0.002167624    3.131    0.681
        22  -9.2200     69.3371    183.4601   1.0590456800e+02   2.7787824850e+01    0.2699665    0.1863484  78.55 0.0007261746    1.586    0.369
        23 -12.8714     56.2430    185.4318   1.0939674170e+02   2.9045598580e+01    0.9198328    0.6904845  50.67  0.005252144    1.280    0.219
        24 -10.3892     65.6264    179.1622   1.0625560132e+02   2.9325530263e+01    0.3739938    0.2533796 -68.36 0.0009869424    1.407    0.289
        25 -10.5097    147.4827    187.4267   8.7399261180e+01   1.3999739054e+01    0.3892522     0.288711 -72.57  0.001534588    1.812    0.448
        26  -8.5662     72.4553    188.4920   1.0580748519e+02   2.6160900376e+01    0.1392667    0.1224665  75.17 8.852493e-05    1.048    0.046
        27  -9.8086    119.8561    186.1926   9.3768072849e+01   1.9194942555e+01    0.1943054    0.1719162 -10.02 0.0002872768    1.298    0.230
        28  -8.2157     77.2333    185.6448   1.0423751514e+02   2.6153453202e+01    0.1405534   0.09921058  79.02 0.0005449728    1.573    0.364
        29  -9.8793    106.5262    250.1524   1.0568125624e+02   8.3252627008e+00    0.2577224    0.1396234  48.51  0.001371087    1.624    0.384
        30  -8.9135     79.8287    183.1833   1.0323736798e+02   2.6359369134e+01    0.2153141    0.1776504  69.34 0.0006963878    1.193    0.161
        31  -8.7589     38.0681    181.6171   1.1339743382e+02   3.2094426830e+01    0.1685469    0.1527043  67.74 0.0005173355    1.122    0.109
        32 -10.2114     99.4371    180.8867   9.7938949488e+01   2.3860215865e+01    0.2665778     0.236114  29.83 0.0006392982    1.185    0.156
        33  -8.6871     89.7796    180.8226   1.0037035347e+02   2.5414567967e+01    0.1974294    0.1579821  78.15 0.0004404602    1.328    0.247
        34  -9.5831     42.7935    179.8695   1.1205376635e+02   3.1986740226e+01    0.2308236    0.2054129 -72.02  0.000449136    1.146    0.128
        35  -9.5017     45.9252    176.4955   1.1088824863e+02   3.2441090787e+01    0.2898231    0.2261476  70.64  0.001483894    1.216    0.178
        36 -10.3488    186.9796    175.4558   7.6232671107e+01   9.1369974891e+00    0.3666114    0.3077865 -43.54  0.001258354    1.247    0.198
        37  -9.1366    147.9742    174.2791   8.4740021532e+01   1.6718500275e+01    0.2046988    0.1906026  32.82 0.0003123175    1.051    0.049
        38 -11.9211     82.7918    158.8419   9.8558253295e+01   3.1838657921e+01    0.9423348    0.6504943  83.15 0.0005968836    1.836    0.455
        39 -13.0022     71.3778    153.6648   1.0082049211e+02   3.4817920664e+01    0.7189603    0.5124151 -60.09  0.001069802    1.316    0.240
        40  -9.9858     92.8604    248.7039   1.0829014501e+02   1.0548682372e+01    0.2459266    0.1027232  30.46   0.00107724    2.557    0.609
        41  -9.1349    110.7892    167.7244   9.2710311908e+01   2.5048335634e+01     0.286679    0.2051549 -69.32 0.0006529496    1.562    0.360
        42  -9.1627    184.5091    167.4974   7.5087816758e+01   1.1154161532e+01    0.1472242    0.1368015  -7.85 0.0008106206    1.003    0.003
        43 -10.4283     33.7097    165.7622   1.1274705539e+02   3.6390481795e+01     0.456511    0.2204373  48.66  0.001783633    2.133    0.531
        44  -8.1520     46.2362    158.6727   1.0854353109e+02   3.6786981993e+01    0.1362247   0.09469686  79.34  0.000329209    1.525    0.344
        45 -11.5061     89.9781    151.8115   9.5275121912e+01   3.2443333548e+01    0.7154736    0.5004084 -25.11  0.003207669    1.923    0.480
        46 -10.7478    134.0148    146.5074   8.2275179393e+01   2.5667728555e+01    0.9247652    0.2804726 -53.15  0.002563134    3.924    0.745
        47 -10.5430     54.0359    149.5663   1.0504266870e+02   3.8144308380e+01    0.5743179    0.2881931  52.24  0.002240765    2.336    0.572
        48  -8.8274    174.8958    149.1551   7.3129848873e+01   1.6761708718e+01    0.2280271    0.2109684 -82.17 0.0006503405    1.269    0.212
        49  -8.6539    111.0314    149.1010   8.8922213203e+01   2.9462271350e+01    0.3717887    0.1713838  58.08  0.001084483    3.999    0.750
        50  -9.8215     38.9148    146.4050   1.0886748622e+02   4.0655730866e+01    0.3343024     0.204546  48.71 0.0009164376    1.760    0.432
        51  -9.3646    144.3865    146.2014   7.9590283486e+01   2.3647167318e+01    0.2298419    0.1468801 -56.89 0.0009569929    1.744    0.427
        52 -11.0994     56.2350    145.4486   1.0374881999e+02   3.8908701060e+01    0.5271818    0.4453903  69.19  0.002973727    1.233    0.189
        53 -10.2374    103.1873    138.2010   8.8731814784e+01   3.3524472477e+01    0.5621486    0.3454974 -22.91  0.002102455    2.607    0.616
        54 -11.6340     90.7788    137.6715   9.2180190209e+01   3.5809150744e+01    0.2904555    0.2613399 -41.36 0.0004738999    1.114    0.102
        55 -11.1730     44.0925    130.2601   1.0481620307e+02   4.4157002158e+01    0.4801094    0.2899073 -81.78  0.002021188    1.856    0.461
        56 -10.0993    105.9205    130.8860   8.6283191302e+01   3.4792250874e+01    0.3705579    0.3306661 -65.44  0.001176367    1.150    0.130
        57 -10.5180     32.3434    130.4883   1.0844943763e+02   4.5296473597e+01    0.3313152    0.2042985 -59.37  0.001042883    1.383    0.277
        58 -10.0885    112.0991    129.0941   8.4103399736e+01   3.4053369847e+01    0.3686061    0.2889639  -4.85 0.0008581388    1.631    0.387
        59 -11.5437     70.6066    171.3616   1.0386185306e+02   3.0538939228e+01    0.4993987    0.3005538 -37.55  0.002215122    2.196    0.545
        60 -10.0653    135.4965    127.7789   7.7443952224e+01   2.9641673089e+01    0.4601365    0.1513046 -51.87  0.001305586    3.580    0.721
        61  -8.8201    160.4726    126.9673   7.1106825413e+01   2.4464891872e+01    0.2237414    0.1344559 -64.43 0.0006844727    2.509    0.601
        62 -10.3614     99.2898    125.0163   8.6816965029e+01   3.7416413864e+01    0.3206425     0.262987  -6.55 0.0006504701    1.462    0.316
        63  -8.9406     92.1475    124.8261   8.8897855099e+01   3.8723747490e+01    0.2252294    0.2013102  78.29 0.0005450028    1.252    0.202
        64 -10.5528    118.4359    123.3891   8.0926768744e+01   3.4147954705e+01    0.4266324    0.2925506  11.59  0.001730309    2.121    0.529
        65 -11.2082     74.8940    167.0336   1.0206385501e+02   3.0992089274e+01    0.3398317    0.3215841  54.17  0.001632084    1.094    0.086
        66  -8.8658    135.0000    120.0128   7.5604341767e+01   3.1484982328e+01    0.2637078   0.08878476 -45.26  0.000799708    2.924    0.658
        67  -9.9151    231.3235    113.8340   5.4413941924e+01   1.2066393933e+01     0.267426    0.2284671 -34.52  0.000778107    1.062    0.058
        68 -10.7076     40.7216    113.6594   1.0286986400e+02   4.8648600381e+01    0.3386876     0.181944  51.40  0.001482571    2.434    0.589
        69  -9.1903    108.1569    118.2210   8.2539253014e+01   3.7370423068e+01    0.2207993    0.2030525  -9.96  0.000344571    1.143    0.125
        70 -12.0154     50.3114    107.8277   9.8435286956e+01   4.9007786127e+01    0.6199438    0.5511049 -58.68  0.002614826    1.061    0.057
        71 -11.3758     43.5346    109.1225   1.0101618161e+02   4.9461620903e+01     0.397698    0.3356657  63.73  0.001348212    1.390    0.280
        72 -11.3838     18.3311    110.2241   1.0970320455e+02   5.1477875406e+01    0.3209639    0.2031925 -64.41   0.00137661    1.301    0.231
        73  -9.2447    205.3670    110.1074   5.7796950504e+01   1.8010036297e+01     0.233131    0.2023447  35.04 0.0006756769    1.279    0.218
        74 -10.5590    114.9645    109.2999   7.8234192780e+01   3.8064109870e+01    0.3895985    0.2060592 -31.98  0.001375927    2.385    0.581
        75  -8.7460    134.6136    105.7735   7.1910872247e+01   3.4666050213e+01    0.2257744    0.1459748 -52.27 0.0008120408    1.646    0.392
        76  -8.2140    139.5698    106.4962   7.0837881773e+01   3.3417932021e+01    0.1551374    0.1516084 -42.98 0.0001119142    1.023    0.022
        77  -9.4100    128.0829     95.2642   7.0672221641e+01   3.8301661043e+01    0.2758808    0.2128582  65.44  0.001278491    1.531    0.347
        78  -9.7212     51.4435     93.4839   9.4657647358e+01   5.2283399183e+01    0.1400817    0.1247512 -42.99 6.843678e-05    1.023    0.023
        79  -9.4660    155.5988     87.5657   6.1741160309e+01   3.3507009438e+01    0.3643638    0.2354943 -66.70  0.001052349    2.200    0.545
        80  -8.3971    193.3258    170.2866   7.3834727809e+01   8.9580717575e+00    0.1474541    0.1080413   0.56 0.0004572365    1.607    0.378
        81 -10.4612    240.0711    169.2975   6.4875782213e+01   1.0393024210e+00    0.1823629    0.1584313  -6.97 0.0004562844    1.079    0.073
        82  -8.8906     74.8443     84.6826   8.3876127711e+01   5.0923859154e+01    0.1902951    0.1786977  23.50 0.0003710842    1.128    0.114
        83  -8.7694    158.0102     83.0210   5.9929753306e+01   3.3772683291e+01    0.2358335    0.1864968  14.01 0.0005994195    1.608    0.378
        84  -8.3121    184.6853     76.7212   5.3016112261e+01   2.8544244165e+01    0.1413041    0.1141648  22.76 0.0002701515    1.569    0.363
        85  -8.6575     58.5209     67.4935   8.4488106733e+01   5.7009039233e+01    0.1391412     0.121813 -19.22 0.0002529534    1.005    0.005
        86 -12.8012    187.2141     51.0343   4.5835297054e+01   3.1905877875e+01    0.8764619    0.7876049  18.19 0.0008610298    1.377    0.274
        87 -11.1126    192.3010    205.2041   8.0934367514e+01   2.7278207033e+00    0.3391799    0.1695874  23.62  0.001121758    2.405    0.584
        88  -9.9934     31.9885     36.0440   8.4428606852e+01   6.6246182483e+01    0.1668852    0.1585686  72.90 0.0009248084    1.694    0.410
        89 -11.4860     23.9073     34.4576   8.7708245628e+01   6.7381496955e+01    0.4145881    0.2229122  38.64  0.001698561    2.437    0.590
        90  -9.0570    158.3876    235.2308   9.3008679717e+01   3.0212899493e+00    0.1603244    0.1273212 -58.72 0.0009476265    1.612    0.380
        91  -9.0854    198.1398     23.3714   3.7434703449e+01   3.2850416525e+01     0.197664    0.1766502 -25.03 0.0006321521    1.351    0.260
        92 -10.4001     18.5008     41.0107   9.2829491377e+01   6.6707055307e+01    0.1883412    0.1020449 -47.63  0.001037105    1.602    0.376
        93 -10.8229    106.1785    244.5816   1.0512855783e+02   9.3841833992e+00     0.467179    0.1921125 -45.69  0.002016227    3.307    0.698
        94 -10.9714    185.5286    211.0338   8.3380541351e+01   2.8273324447e+00    0.3479055    0.2398192 -29.53  0.001870348    1.488    0.328
        95  -9.0516    189.5104     14.9267   3.6278426386e+01   3.5783513423e+01    0.1769409    0.1221817 -34.90 0.0007537786    1.540    0.351
        96 -11.0299    104.1145    209.7049   1.0118101933e+02   1.6631121323e+01      0.47919    0.2363272 -48.37   0.00211584    2.281    0.562
        97  -9.5299     89.1672    211.1785   1.0480326759e+02   1.8600469971e+01    0.2248999    0.1826446 -84.85 0.0004674486    1.271    0.213
        98 -11.2734    112.0340    197.1433   9.7464477679e+01   1.8082499011e+01    0.6932716    0.4118079  -9.40  0.002168353    4.970    0.799
