#   1 NUMBER                 Running object number                                     
#   2 MAG_AUTO               Kron-like elliptical aperture magnitude                    [mag]
#   3 X_IMAGE                Object position along x                                    [pixel]
#   4 Y_IMAGE                Object position along y                                    [pixel]
#   5 X_WORLD                Barycenter position along world x axis                     [deg]
#   6 Y_WORLD                Barycenter position along world y axis                     [deg]
#   7 A_WORLD                Profile RMS along major axis (world units)                 [deg]
#   8 B_WORLD                Profile RMS along minor axis (world units)                 [deg]
#   9 THETA_WORLD            Position angle (CCW/world-x)                               [deg]
#  10 FWHM_WORLD             FWHM assuming a gaussian core                              [deg]
#  11 ELONGATION             A_IMAGE/B_IMAGE                                           
#  12 ELLIPTICITY            1 - B_IMAGE/A_IMAGE                                       
         1 -13.9831    227.5218      5.3115   3.4703331697e+01   2.8368581258e+01     1.718915     1.005203  51.76  0.006969452    2.043    0.511
         2 -13.9725    184.1312     49.1874   5.0986295678e+01   3.3352912845e+01     1.900112     1.252213  25.62  0.001068014    2.165    0.538
         3 -14.0321    195.1341     40.3954   4.6890100190e+01   3.1862140507e+01     1.321459     1.062674 -44.17  0.003517541    1.215    0.177
         4 -14.6056    203.7347     31.2969   4.3352052191e+01   3.0947318249e+01     1.482763     1.280188  23.35   0.00134928    1.454    0.312
         5 -12.5965     42.9952      5.6563   7.2034894989e+01   6.9339276371e+01    0.5574546    0.1605821  32.76  0.002089963    3.992    0.750
         6 -12.1215     59.5600      3.2745   6.3940796562e+01   6.6936218085e+01    0.4359237    0.1719244  36.20  0.002010014    2.334    0.572
         7  -9.9011    164.2951    209.3463   9.3600325637e+01   7.2657742050e+00    0.1368445    0.1008877  -1.40 0.0007032205    1.671    0.401
         8 -11.5589    140.2551    249.7847   1.0428419589e+02   4.2927996917e+00      0.40035     0.223868  41.35  0.002261883    1.453    0.312
         9 -11.8229    140.4038    245.1959   1.0368826830e+02   5.0027592317e+00    0.5087797    0.2287217 -59.34  0.002391858    3.114    0.679
        10 -10.2207    129.3242    250.4250   1.0646321159e+02   5.8293025705e+00    0.2348638    0.1006106  34.89  0.000691997    2.065    0.516
        11 -18.9677     24.7716    212.6533   1.2335295706e+02   2.6671262662e+01     11.29259     5.586363 -85.29   0.06442559    1.808    0.447
        12  -9.4064     93.0911    185.4644   1.0580778577e+02   2.4022512263e+01    0.2017501    0.1281037  39.87 0.0005193799    1.525    0.344
        13 -11.4760    113.0765    205.9899   1.0416649588e+02   1.6477211816e+01    0.3189966    0.2521247  48.86 0.0009379773    1.146    0.127
        14 -10.9969     98.9759    181.0231   1.0374925691e+02   2.4114138964e+01    0.3517325    0.2729289  14.63  0.001842551    1.658    0.397
        15 -11.0703    150.3155    178.5553   9.1188098969e+01   1.5729895924e+01    0.4493813    0.2673989 -68.11  0.001769799    2.659    0.624
        16 -11.7689    143.8294    178.4483   9.2664873052e+01   1.6950313840e+01    0.4259262    0.3476703 -67.92  0.001352803    1.412    0.292
        17 -10.9232    189.0809    178.2845   8.2610030634e+01   8.5354893737e+00    0.6847413      0.39994 -59.25  0.002774857    2.737    0.635
        18 -11.0810     53.4860    163.4902   1.1244029975e+02   3.4566592521e+01    0.2546451    0.1722481 -47.45 0.0007507618    1.649    0.394
        19 -10.0188    151.0504    195.3505   9.4075734598e+01   1.2200117304e+01    0.2926177    0.1246984  32.59  0.001106475    2.524    0.604
        20 -12.4609     47.3812    172.6642   1.1503168371e+02   3.3093614413e+01    0.6345526    0.4970739 -37.08  0.002319098    1.670    0.401
        21 -11.2599    138.4451    170.6856   9.2455408943e+01   1.9611336664e+01    0.4814161    0.2941197  39.15  0.001584353    1.594    0.373
        22 -10.8114    230.3426    167.1519   7.2209949400e+01   3.0341400530e+00    0.2865573    0.1615254 -55.02  0.001161964    2.968    0.663
        23  -9.0998    111.3048    168.6081   9.8684207183e+01   2.4932197125e+01     0.154762    0.1100611  78.83 0.0001084585    1.814    0.449
        24 -10.6891     84.3770    173.9550   1.0622257170e+02   2.7971802342e+01    0.2294486    0.2002349  32.01  0.000367982    1.268    0.212
        25 -12.3128     92.0339    152.7833   1.0078549616e+02   3.1851904711e+01     0.709532    0.5165368 -21.68  0.003349612    1.929    0.482
        26 -10.7694    187.6887    152.1800   7.7313737321e+01   1.3804968497e+01    0.2920398    0.2586541  40.40  0.001188107    1.177    0.150
        27 -11.5990    133.8484    145.0941   8.8283144079e+01   2.6221663548e+01     1.253503     0.334882 -54.57  0.003021487    5.398    0.815
        28  -9.5994    112.5054    150.9019   9.5026229508e+01   2.8863017758e+01      0.22135     0.199014  48.14 0.0004873803    1.122    0.109
        29 -10.6984    174.2651    148.6431   7.9432152646e+01   1.7250289662e+01    0.3635028    0.2877901 -70.54  0.001429689    1.663    0.399
        30 -10.6829    143.9672    146.4244   8.6048694453e+01   2.3914549615e+01    0.4101954      0.22947 -62.16    0.0015268    2.434    0.589
        31 -11.0785    104.5872    138.6847   9.4615516956e+01   3.3175149263e+01    0.5795751    0.3358911 -32.87  0.002285228    2.305    0.566
        32 -12.3941     92.3370    138.5031   9.7964396711e+01   3.5276591864e+01    0.2842577    0.2568334 -38.99 0.0006544591    1.154    0.133
        33 -11.9062    135.6884    128.4695   8.3927011142e+01   2.9642192784e+01     1.090658    0.2324086 -50.02  0.002516725    5.455    0.817
        34 -12.6001    109.3285    201.8628   1.0441840586e+02   1.7926339131e+01    0.6762294     0.539436 -10.78  0.003108001    1.781    0.439
        35 -10.9539    105.9240    130.7990   9.2515492451e+01   3.4834506991e+01    0.3722359    0.3196616 -63.53   0.00114406    1.162    0.139
        36 -11.1902    113.5963    129.4076   9.0065928513e+01   3.3765672778e+01    0.5441237    0.3086205  31.16  0.001977429    2.025    0.506
        37 -10.5704    160.7456    128.0314   7.7613208756e+01   2.4432872687e+01    0.3970344     0.214477 -45.56  0.001564876    1.834    0.455
        38  -9.1145     95.9937    128.0179   9.4703366876e+01   3.7226619538e+01    0.1734158    0.1652224 -58.38            0    1.007    0.007
        39 -11.0971    100.4145    125.5065   9.2866929579e+01   3.7076688217e+01    0.2904311    0.2392153 -21.81 0.0004604538    1.393    0.282
        40 -11.7222    119.3423    123.1758   8.6988153416e+01   3.4133646305e+01      0.64718    0.4305092  -8.48  0.002415269    2.563    0.610
        41 -10.1839    108.9507    118.7499   8.8806798822e+01   3.7149046684e+01    0.2434354    0.2107656 -47.33 0.0003896668    1.105    0.095
        42  -9.8234    168.0263    112.9864   7.2062734351e+01   2.5964062874e+01    0.3718149    0.2584557 -79.58  0.001454134    2.388    0.581
        43 -10.0842    127.3664    193.0259   9.9006646033e+01   1.6802257077e+01    0.2618535    0.1811512 -75.56  0.001274522    1.852    0.460
        44 -12.5797     18.3738    110.4884   1.1492442746e+02   5.0811558320e+01    0.5394824    0.3292957 -67.22  0.002805068    1.305    0.234
        45 -10.4442    134.5935    106.2830   7.8440738000e+01   3.4814611197e+01    0.3774806    0.1496626 -49.23  0.001226656    2.685    0.628
        46 -12.2889    117.8463    108.7777   8.3701535867e+01   3.7740309567e+01    0.7554139    0.6374732 -68.13  0.002857036    1.331    0.249
        47 -10.3658    205.4210    110.2630   6.3684337372e+01   1.8097033542e+01    0.3022451    0.2609365  36.89 0.0008758346    1.237    0.192
        48 -15.5291     71.4584    149.3258   1.0569391527e+02   3.5728574716e+01     3.802197     2.103036  76.60   0.01205254    2.960    0.662
        49 -10.3436     66.4475    104.4937   9.8348334960e+01   4.7422142108e+01    0.2750409    0.1440061  30.62  0.001201846    2.133    0.531
        50  -9.6049    156.6990    190.0316   9.1881380076e+01   1.2237318046e+01    0.1890301    0.1777886 -23.82 0.0003480772    1.108    0.098
        51 -11.0214     39.3354     88.5036   1.0387859203e+02   5.4348303335e+01    0.2354145    0.1865067  -3.23  0.001386509    1.453    0.312
        52  -9.0160    159.7117     87.3153   6.6842556223e+01   3.2974070249e+01    0.1559095    0.1225986 -72.03 0.0004268619    1.589    0.371
        53 -10.0802    157.0319     81.9491   6.5878842553e+01   3.4617998500e+01    0.2362094    0.2293015  -4.30   0.00048482    1.033    0.032
        54  -9.6238    184.5176     76.9851   5.8770871501e+01   2.8887721411e+01    0.2295384    0.1461131 -34.08 0.0005399199    1.549    0.354
        55 -10.4930     62.4609     69.2570   9.0133786985e+01   5.5967744264e+01    0.2357959    0.2234667 -35.57 0.0003327968    1.155    0.134
        56  -8.9561    168.4057    248.4515   9.8693231451e+01   2.2681070758e-01    0.1204346   0.09891747  32.07 3.145903e-05    1.051    0.049
        57 -10.1098    158.0065    236.0252   9.8992746934e+01   3.7503605586e+00    0.1553212    0.1302554  31.97 0.0005675511    1.001    0.001
        58  -9.4404    169.0646    235.1410   9.6672121181e+01   2.1467012197e+00    0.1820061    0.1482494  11.16 0.0004247208    1.217    0.178
        59 -10.4228    150.1008    188.0358   9.2993580961e+01   1.3826907371e+01    0.2658803    0.1857937  40.36  0.001334713    1.347    0.258
        60 -10.2338    134.0056    196.2751   9.8032305356e+01   1.4992878563e+01    0.2399516    0.2069903 -70.71  0.000510264    1.290    0.225
        61 -10.3251     81.2536    194.3712   1.0974190540e+02   2.3776169071e+01    0.3993924    0.2773179  84.94  0.002164962    1.535    0.349
        62  -9.9891    189.7070     15.0035   4.0697981702e+01   3.6199280362e+01    0.2282879    0.1793149  77.32 0.0006584353    1.164    0.141
        63 -11.3503    149.8987     53.5430   5.8690754376e+01   4.1177588719e+01    0.4920147     0.326744 -72.86 0.0007944442    2.276    0.561
        64 -10.7986    107.7223    210.9594   1.0600865399e+02   1.6308669975e+01    0.3228202    0.1771082  39.12  0.001597798    1.655    0.396
