#   1 NUMBER                 Running object number                                     
#   2 MAG_AUTO               Kron-like elliptical aperture magnitude                    [mag]
#   3 X_IMAGE                Object position along x                                    [pixel]
#   4 Y_IMAGE                Object position along y                                    [pixel]
#   5 X_WORLD                Barycenter position along world x axis                     [deg]
#   6 Y_WORLD                Barycenter position along world y axis                     [deg]
#   7 A_WORLD                Profile RMS along major axis (world units)                 [deg]
#   8 B_WORLD                Profile RMS along minor axis (world units)                 [deg]
#   9 THETA_WORLD            Position angle (CCW/world-x)                               [deg]
#  10 FWHM_WORLD             FWHM assuming a gaussian core                              [deg]
#  11 ELONGATION             A_IMAGE/B_IMAGE                                           
#  12 ELLIPTICITY            1 - B_IMAGE/A_IMAGE                                       
         1 -10.9527     47.4801    100.9295   1.2622987008e+02   5.0326158450e+01     1.390549    0.5282111 -51.74  0.006065989    2.128    0.530
         2 -12.8573     85.0342     51.7532   1.0028514176e+02   5.4811859813e+01     2.924928     1.929407   8.10   0.01464391    1.892    0.471
         3 -12.1611     52.1777     37.2422   1.0631658720e+02   6.2036154852e+01     1.732941     1.115929 -47.82   0.01003946    1.842    0.457
         4 -11.4086    107.6586     32.6592   8.7002469386e+01   5.3268080580e+01     1.812406     1.212962 -76.96  0.007719307    3.312    0.698
         5 -11.6483    162.3477     25.4355   7.2999659729e+01   4.1558491678e+01     2.707957     0.520901  60.39  0.008127934    4.012    0.751
         6 -12.3790    163.5112     11.4442   6.8782896801e+01   4.2761831358e+01     1.288037     1.011423  30.38   0.00755022    1.458    0.314
         7 -12.2886     58.1202     69.4126   1.1481652831e+02   5.5676978464e+01     1.711745     1.145795 -70.10  0.006896066    2.314    0.568
         8 -11.8390     40.5707     63.9414   1.1928002946e+02   5.8735526502e+01     2.315951     1.365922  50.01   0.01188047    2.722    0.633
         9 -11.8004    148.7292     15.6213   7.2415920692e+01   4.5916793432e+01     1.024613    0.5135242 -18.37   0.00466065    2.498    0.600
        10 -12.4506    136.0310      5.3127   7.1449377706e+01   4.9864793235e+01     1.512213    0.6878622  70.33  0.006689334    2.278    0.561
        11 -13.0234     71.6615     30.9921   9.7105508858e+01   6.0118254848e+01     2.198721    0.8253835  42.13  0.009761726    2.620    0.618
        12 -12.6307     92.2355     17.0703   8.5456538683e+01   5.8149087133e+01    0.5920794    0.3535905   1.28  0.003063762    2.009    0.502
        13 -11.5878    113.1948      9.1471   7.7308834002e+01   5.4639321215e+01     1.129053    0.6269317  45.30  0.005983948    1.530    0.346
        14 -12.3727    112.3056     21.6542   8.1937730999e+01   5.3586466684e+01    0.7248476    0.6198139 -80.13   0.00291296    1.574    0.365
        15 -11.4607    117.2750     15.7215   7.8698303606e+01   5.3132223983e+01     0.316656    0.2839901 -35.42 0.0005918416    1.297    0.229
        16 -13.4048     99.9645      6.6937   7.9514100511e+01   5.7623554909e+01    0.6876621    0.4009053 -34.34  0.001748717    1.987    0.497
        17 -12.0115     93.2117      8.5219   8.1923752684e+01   5.8804502293e+01    0.6475199    0.3455139  42.52  0.002887147    1.590    0.371
        18 -12.4224    130.3292     20.6486   7.7535264484e+01   4.9709004646e+01     1.229512    0.8228742  58.53  0.004517991    1.361    0.265
        19 -12.3968    122.7408     66.7955   9.4389433092e+01   4.4952847871e+01     1.507143     1.164708 -38.45  0.007812459    1.312    0.238
        20 -11.3024    130.2856     41.6864   8.4456468389e+01   4.7169372500e+01     1.330724    0.5645092 -18.13  0.004355638    4.132    0.758
        21 -12.3428     37.9265     46.7669   1.1497606904e+02   6.2132732790e+01     1.036846    0.7715435  57.15  0.006187894    2.378    0.580
        22 -10.6938     54.4161     17.7193   9.7850524911e+01   6.4428609358e+01    0.4207141    0.2717943   1.54   0.00257532    1.516    0.340
        23 -11.1501     78.3780      7.0959   8.5501720387e+01   6.1715570519e+01    0.6292633    0.4066926   2.52  0.002739078    1.572    0.364
        24 -12.6517     19.1033     40.4380   1.2023840051e+02   6.4919482987e+01    0.9989625    0.5753962 -68.44  0.004968802    3.348    0.701
        25 -13.4579      5.9011     11.9955   1.1578527793e+02   7.0363864408e+01     1.321481    0.6195798 -36.23  0.005244498    1.610    0.379
        26 -12.3965     19.0384     13.6792   1.1050639103e+02   6.9065269570e+01    0.5571696    0.3878191 -18.31  0.003430411    1.074    0.069
        27 -10.3985     26.0659      5.2678   1.0377877232e+02   6.9450727915e+01    0.5771145     0.266865 -19.90  0.003242287    2.157    0.536
        28 -12.4753     28.4780     26.9039   1.1170310258e+02   6.6282121118e+01     1.199326    0.4849818 -30.91  0.006061039    2.324    0.570
        29 -12.3666     10.5664     26.1093   1.1898593359e+02   6.7911801097e+01     1.073766    0.3912485  13.65  0.005260255    3.573    0.720
        30 -12.3500     41.7844     17.2203   1.0244709244e+02   6.6165078835e+01     1.315452    0.5123854 -32.80  0.006699528    2.325    0.570
        31 -11.6175     50.5650     10.9172   9.6399398148e+01   6.5770950790e+01    0.5246142    0.3166883  22.47   0.00307413    1.517    0.341
        32 -11.5351     69.2574      4.3946   8.7170866686e+01   6.3552849452e+01    0.7141721    0.3408042  34.80  0.003846185    1.858    0.462
        33 -11.9063     57.2823      4.1094   9.1019357664e+01   6.5506501157e+01    0.6886265    0.3863855  50.84  0.003946338    2.189    0.543
        34 -10.8319    202.9511     37.8587   7.0172490227e+01   2.9938418756e+01     0.532735    0.4403175  39.75  0.002425109    1.446    0.308
        35 -12.4013     68.0909     20.6600   9.4257158917e+01   6.2009489608e+01     1.140188    0.4315577  31.19   0.00255524    3.124    0.680
        36  99.0000     30.7162     12.7711   1.0507906412e+02   6.8020469357e+01    0.9344147    0.2641884 -29.02  0.003579035    4.396    0.773
        37 -11.6802    123.6022     10.1563   7.5427523497e+01   5.2265300004e+01    0.3671737     0.317834  44.73 0.0005365812    1.011    0.011
        38 -11.2433    224.6828      2.5663   5.9422663508e+01   2.8927013477e+01    0.8741165    0.4676363  76.61   0.00426288    1.620    0.383
        39 -10.6877    186.2214     13.9280   6.6282730531e+01   3.6945581125e+01    0.5108641    0.3773976  23.89  0.001509461    1.844    0.458
        40 -10.8583    190.1246      8.4740   6.4397238681e+01   3.6556605952e+01     1.360204    0.3006598  56.80  0.004690917    3.532    0.717
        41 -11.1872    215.5763     21.8048   6.4683369416e+01   2.8903319562e+01     1.205478    0.7828733   4.16  0.005321095    3.039    0.671
        42 -11.1428    212.2432     13.8910   6.3196840211e+01   3.0623253850e+01    0.8452901     0.516325 -50.93  0.004557571    1.603    0.376
        43 -10.6984    245.1438     19.8532   6.1255333124e+01   2.2280131386e+01    0.4849267    0.3034483  83.74  0.002073624    1.462    0.316
        44 -11.5293    234.4260     12.7016   6.0723167594e+01   2.5560558529e+01     1.157169    0.4862138 -72.07  0.003370724    3.289    0.696
        45 -11.2231    183.7982     27.1425   7.0105299305e+01   3.6051127067e+01    0.8182088    0.4944267  21.94  0.002608661    2.881    0.653
        46 -11.8491    209.3965      3.7501   6.1135620229e+01   3.2391668120e+01     1.035695     0.310011  71.98  0.003985689    2.943    0.660
        47  -9.5250    231.4151     17.1885   6.1978978558e+01   2.5724517654e+01    0.3114567    0.1897544 -56.11  0.001493434    1.518    0.341
        48 -11.0198    202.6440     18.7355   6.5448673202e+01   3.2392632768e+01    0.4847555    0.4235072  44.02  0.002211997    1.360    0.264
        49  -9.0970    241.7734      1.5747   5.7777754818e+01   2.5157108234e+01    0.2133015    0.1269643  88.21 0.0009316769    1.462    0.316
        50 -10.3617    243.2876     12.4511   5.9880232482e+01   2.3587210362e+01    0.3897433    0.2893805 -43.79  0.002347239    1.380    0.275
        51 -10.8735    247.8643      5.8404   5.8154970666e+01   2.3338226383e+01    0.6100773    0.3220388 -59.70   0.00332774    1.693    0.409
        52 -11.3820    204.0729      6.5580   6.2345228512e+01   3.3375298539e+01     0.511959    0.3343655  51.25  0.001113149    1.650    0.394
        53 -10.2746    180.6580      7.7050   6.5374474001e+01   3.8943214825e+01    0.4611164    0.3113397 -23.54  0.001459561    1.784    0.440
        54  -9.8430    173.7255      8.4693   6.6493566757e+01   4.0561418053e+01     0.268986     0.200272 -53.45  0.001123419    1.451    0.311
        55 -10.2593    175.2723      4.4095   6.5196106352e+01   4.0570480521e+01    0.5275234    0.3292211 -88.76  0.002747092    1.684    0.406
        56  -8.2959    238.3115      7.3248   5.9243604452e+01   2.5293961960e+01    0.1152066   0.09135994  48.24 0.0006061306    1.658    0.397
        57 -12.2507     82.9640     81.7731   1.1041550260e+02   4.9668588830e+01     2.657927     1.280619 -60.29            0    3.203    0.688
        58  -8.3703    189.7435      1.3731   6.2659251829e+01   3.7343728546e+01    0.1844171    0.0973882  61.92 0.0009297401    1.622    0.383
        59  -9.2705     95.5749    130.7147   1.1905503119e+02   3.6762740351e+01    0.2904043    0.1295499 -49.95  0.001133382    2.099    0.524
        60  -8.9533    184.2065    250.3921   1.2068945497e+02  -3.9977474010e+00    0.1875853    0.0985157  48.55 0.0009558436    1.750    0.428
        61  -8.9098    173.4924    250.4862   1.2269921767e+02  -2.1887556863e+00    0.1264196    0.1033381  41.06 0.0008104795    1.006    0.006
        62 -10.7298     64.9128    130.2337   1.2718510156e+02   4.1511440984e+01    0.3421076    0.2761357  81.98  0.001956254    1.337    0.252
        63 -10.5084     38.6497    126.9713   1.3364169809e+02   4.5329105384e+01     0.342921    0.2263517 -17.55  0.001797706    2.354    0.575
        64 -10.7159     48.3807    125.4859   1.3077760068e+02   4.4638414028e+01    0.3560409    0.2781517 -79.25   0.00213402    1.221    0.181
        65 -10.9537     67.8186    122.4810   1.2487127532e+02   4.2935646279e+01    0.7882046    0.3285173 -41.68   0.00297633    2.879    0.653
        66 -10.2322     64.8093    114.4135   1.2403745120e+02   4.5202348788e+01    0.6394107    0.2254541  47.00  0.002265574    3.788    0.736
        67  -9.6335     92.2705    120.0592   1.1757100148e+02   3.9798243407e+01    0.4777336    0.1872253 -41.58  0.001638349    2.965    0.663
        68  -9.7091     36.8411     98.3791   1.2890859729e+02   5.1969971952e+01    0.4940343    0.2892693 -15.79  0.002424548    2.608    0.617
        69  -9.8842     17.6502     82.1563   1.3155206196e+02   5.7025739082e+01     0.352814    0.2091369  -9.83  0.002021483    2.244    0.554
        70 -10.7211     18.6657     73.2047   1.2927028664e+02   5.8794161403e+01     0.836621    0.2915084 -43.46  0.003946477    2.361    0.576
        71 -11.3492      5.4921     98.9114   1.3829471836e+02   5.4248274700e+01    0.6484639    0.4669635 -46.75  0.004504047    1.266    0.210
        72 -10.3686     22.9452    108.8206   1.3493574711e+02   5.0865976833e+01    0.4389331    0.2887099 -18.04  0.002557467    2.074    0.518
        73  -9.4626    234.7834    248.5217   1.1116235031e+02  -1.1934894575e+01    0.2350154    0.1860767 -84.78  0.001298885    3.059    0.673
        74 -11.0662      3.1825     89.4882   1.3743884131e+02   5.6388895827e+01    0.5272667    0.2138842 -54.64  0.002729857    1.755    0.430
        75 -11.7230     12.6488     88.2492   1.3433024441e+02   5.6082772947e+01    0.4809844    0.3452963  60.58  0.002688049    1.882    0.469
        76 -11.4732      4.3292     80.9269   1.3556863359e+02   5.8113874055e+01    0.6277193    0.2983577 -58.09  0.002948589    1.521    0.342
        77 -11.3437     35.2539     91.2253   1.2788454432e+02   5.3674404382e+01    0.6992851    0.5246966  30.79  0.004431932    1.593    0.372
        78 -11.9598     27.3580     84.2704   1.2887510418e+02   5.5843513491e+01    0.8110172    0.5430107 -43.93   0.00393107    1.252    0.201
        79 -10.7987     51.6147     88.6747   1.2213063166e+02   5.2532724797e+01    0.6902292    0.4093889 -58.38  0.002837929    1.569    0.363
        80 -10.9900     56.7334     85.6353   1.1973770803e+02   5.2571504901e+01    0.3962903    0.3526568  -6.78  0.002041538    1.192    0.161
        81 -12.2363     15.8463    103.4892   1.3606442333e+02   5.2579078023e+01    0.8987886     0.614883 -46.91  0.005638417    1.315    0.239
        82 -11.1973     21.7044     96.5114   1.3311385200e+02   5.3671091219e+01    0.4204715    0.3146065 -24.99  0.001942286    1.511    0.338
        83 -10.4541    105.5963    117.4539   1.1330562939e+02   3.8056309291e+01    0.5128988    0.4630747  81.13  0.002785665    1.194    0.163
        84  -9.9449     41.4973    118.5141   1.3142325403e+02   4.6984696569e+01    0.2456736    0.2105631 -76.68    0.0010874    1.109    0.099
        85  -9.4239     39.0583    115.3354   1.3153244498e+02   4.7957110104e+01    0.2118752    0.1514376 -71.81 0.0003987919    1.271    0.213
        86  -8.9143    118.6027    115.7875   1.0940218902e+02   3.5939444192e+01    0.2161751    0.1417077 -57.68 0.0009445224    1.601    0.375
        87  -9.7403     97.8309    114.8897   1.1481445431e+02   4.0031954615e+01    0.3195894    0.2895377   1.42  0.001171636    1.260    0.206
        88  -9.9294    132.7464    111.7248   1.0467790024e+02   3.3907600234e+01    0.5092034    0.4445757 -62.59  0.002143818    1.178    0.151
        89  -9.8464    133.7140    103.5892   1.0226934419e+02   3.5441706123e+01    0.5901192    0.2528973 -46.12   0.00211144    2.319    0.569
        90 -10.7237     42.1027     87.2154   1.2480974134e+02   5.3868850226e+01     1.291778    0.3557644 -53.22  0.005042251    2.783    0.641
        91  -8.9939     93.1827    111.4108   1.1526751224e+02   4.1619563247e+01    0.3885476    0.2410899  20.64  0.001664007    2.287    0.563
        92  -9.7364    105.8534    109.4477   1.1124243552e+02   3.9809470684e+01    0.3732684    0.3038929  30.82  0.001923586    1.340    0.254
        93  -9.2116     75.9605    102.6627   1.1809965439e+02   4.6305518464e+01     0.292364    0.2194465 -52.27  0.001486165    1.209    0.173
        94  -9.3331     81.5016    102.1580   1.1634081037e+02   4.5580742318e+01    0.3032595    0.2139612  37.72  0.001022068    1.545    0.353
        95 -10.6746     67.3629    108.0969   1.2191035195e+02   4.6300564823e+01    0.7060329    0.3900706 -27.76  0.002899579    2.789    0.641
        96 -10.3534     73.8897    108.1663   1.2002191315e+02   4.5374880352e+01    0.3397269    0.2969245  26.32 0.0007808646    1.286    0.223
        97  -9.4616     34.0964    109.6055   1.3189818296e+02   4.9729864942e+01    0.2644436    0.2245953  -1.21  0.001747984    1.465    0.318
        98  -9.4984    120.4914    108.8646   1.0712401439e+02   3.7090897538e+01    0.2691672    0.2243182  43.58 0.0008825473    1.235    0.191
        99  -8.8250     53.4571    105.2282   1.2537114568e+02   4.8694983597e+01      0.32919    0.1191702 -60.20  0.001287472    2.570    0.611
       100 -10.3772     27.9902    101.9612   1.3226034331e+02   5.1973064517e+01    0.4117985    0.3322298 -89.36  0.001933733    1.372    0.271
       101 -10.5273    116.6334     99.6750   1.0570437044e+02   3.9850090619e+01    0.5050621    0.4079382   2.53  0.002451272    1.539    0.350
       102  -9.6739    114.6768     96.3091   1.0531204868e+02   4.0951235466e+01    0.2909057    0.2441971  55.76 0.0009442831    1.285    0.222
       103  -8.9408     11.3272    248.6749   1.5085809872e+02   2.2146369317e+01    0.1143848    0.0526054  68.86 0.0007049634    1.696    0.410
       104 -11.4568     26.6233     52.0742   1.2090138888e+02   6.2253169890e+01    0.5263865    0.2400712 -28.97  0.002613465    2.374    0.579
       105  -8.6167     34.3183    246.6714   1.4715431166e+02   1.9913190534e+01    0.1195821   0.05929011  69.45 0.0007046852    1.683    0.406
       106  -9.7984    141.9685    243.6338   1.2769251458e+02   4.3445780020e+00    0.2843208    0.1869633  33.17  0.000772096    1.599    0.375
       107  -9.3236    210.9264    241.1406   1.1428208003e+02  -7.1641241564e+00     0.179457    0.1593725  40.93  0.000699718    1.238    0.192
       108  -9.1622      3.4816    246.0292   1.5189853525e+02   2.3442245089e+01    0.1300905   0.06514645 -61.12  0.000810027    2.534    0.605
       109 -10.0825     13.0476    238.3186   1.5001887143e+02   2.3874019432e+01    0.2240347    0.1191104 -66.75  0.001466855    1.949    0.487
       110  -9.8602     12.3103    232.4899   1.4979453218e+02   2.5055507666e+01    0.2397622    0.1136645  74.35  0.001454563    1.753    0.429
       111 -12.2998     16.5622     61.9206   1.2729970606e+02   6.1175936964e+01     1.366283    0.8017209  20.79   0.00820633    2.022    0.505
       112 -11.0233     13.4111     56.6474   1.2709795315e+02   6.2397759152e+01    0.5187609    0.3570321  69.93  0.001958055    2.837    0.648
       113  -8.2604    226.6441    231.6734   1.0978872959e+02  -8.4272448693e+00    0.1337965    0.0860034  10.21 9.483301e-05    1.775    0.436
       114  -9.4456    137.0000    224.9757   1.2609303991e+02   8.5445504362e+00    0.1979886   0.07650305 -53.73 0.0008004261    2.929    0.659
       115  -8.2331    109.6847    225.3210   1.3155951123e+02   1.3208452434e+01    0.1370125   0.08752049  71.14 0.0007040654    1.658    0.397
       116 -10.2487    123.9914    206.0066   1.2596435437e+02   1.4610020709e+01    0.1972129    0.1737737  65.45            0    1.007    0.007
       117  -8.2040    244.5269    204.5006   1.0156119832e+02  -7.4375862070e+00     0.130987    0.1103634   3.23 0.0008098496    1.033    0.032
       118  -8.8869    234.0000    201.4785   1.0289203957e+02  -5.1865948761e+00    0.2801059   0.07220443 -38.57 0.0009322432    3.915    0.745
       119 -10.6723     26.6529    191.6692   1.4426846641e+02   3.1874591897e+01     0.392123    0.2446661 -79.81  0.001826921    1.289    0.224
       120 -11.3826     17.9226    186.2010   1.4549036470e+02   3.3942744208e+01    0.3535159    0.3189197 -58.57  0.001378409    1.495    0.331
       121 -10.8508      6.0016    185.7453   1.4774239790e+02   3.5144874435e+01    0.4272551    0.1587351  56.67  0.002153741    2.677    0.626
       122  -9.0355    140.8806    101.5559   9.9911373508e+01   3.4282597605e+01    0.2760503    0.2149852 -31.71  0.001305495    1.363    0.266
       123  -9.1607    151.1139     99.8930   9.6968983203e+01   3.2285848809e+01    0.2484808    0.2164615 -72.59  0.001232859    1.254    0.202
       124  -9.6539     38.6854    176.8944   1.4034615504e+02   3.3827442160e+01    0.3870963     0.123462 -66.10  0.001654034    2.552    0.608
       125  -9.8458    159.2767     96.8449   9.4232838565e+01   3.0978590798e+01    0.3785432    0.3422472  19.18  0.001274273    1.230    0.187
       126  -9.6140    187.8915     92.8153   8.7072799259e+01   2.4818056303e+01    0.4898895     0.200915 -46.24  0.001695345    2.500    0.600
       127  -9.9648     89.7598     78.1377   1.0727211239e+02   4.9265529241e+01    0.5051855    0.2635872  38.50  0.002192449    2.017    0.504
       128 -11.6356    119.8178     86.4371   1.0110692317e+02   4.1917936495e+01    0.9110445    0.8271161  22.13  0.003076211    1.135    0.119
       129 -10.5994    114.6539     51.3161   9.1538094676e+01   4.9202742234e+01    0.9924005    0.8668424  54.46  0.005715744    1.220    0.180
       130 -11.5350     96.9635     62.2449   1.0014215011e+02   5.0922502780e+01     1.014724    0.6739802 -10.87  0.003752183    1.920    0.479
       131 -10.9719    105.7432     53.7077   9.4777592517e+01   5.0653399995e+01    0.6275396    0.2932154  37.27  0.002597937    2.273    0.560
       132  -9.5696      1.6146    177.7696   1.4796698146e+02   3.7220739752e+01    0.2049889    0.1090395 -86.53  0.001022414    1.467    0.318
       133  -9.3491     63.0293    167.9624   1.3382420249e+02   3.2883850443e+01    0.2123787    0.1746055 -88.09 0.0006575694    1.048    0.046
       134 -10.8973    135.1527     34.1670   8.0919320962e+01   4.7034999161e+01    0.3390696    0.2790997  46.09 0.0004231706    1.106    0.096
       135 -10.7466    102.3386     70.7666   1.0127779344e+02   4.8392789805e+01    0.6380062    0.4124028 -56.61  0.002414905    1.962    0.490
       136 -11.4501    109.5142     66.5071   9.7886884677e+01   4.7757007311e+01     1.263635    0.7074189 -17.56  0.004888317    2.772    0.639
       137 -11.5721    141.2139     40.5373   8.1640304516e+01   4.4792256547e+01     0.796964    0.5884702  56.06  0.004212407    1.262    0.208
       138 -10.8772    148.1438     35.1024   7.8510476878e+01   4.3849114391e+01      1.19154    0.2233265  56.60  0.003442751    4.191    0.761
       139 -11.8258    106.4205     86.6335   1.0487565351e+02   4.4555005346e+01     1.067716    0.8619274   1.31   0.00549716    1.456    0.313
       140 -11.7469    100.3097     78.9565   1.0437546964e+02   4.7226121371e+01    0.8447007    0.7200672 -76.86  0.004562368    1.501    0.334
       141  -9.0293     27.4857    167.3539   1.4170970804e+02   3.7166730333e+01    0.3331156   0.09158859 -67.70  0.001359072    2.816    0.645
       142 -11.6652      5.0013    116.2708   1.4094190328e+02   5.0493998995e+01    0.7304255    0.2394678 -64.34  0.003519914    2.128    0.530
       143  -9.5732    162.1056     88.0925   9.1181139567e+01   3.1997253310e+01    0.2328578    0.2214239 -80.71 0.0004709451    1.065    0.061
       144  -9.9835    161.1001     82.2419   8.9763690810e+01   3.3332077577e+01    0.6303169    0.4621709 -71.17  0.002836124    1.726    0.421
       145  -9.9251    152.9454     87.3642   9.3056192606e+01   3.4326005178e+01    0.3543479    0.2777991  39.88 0.0008231969    1.319    0.242
       146  -9.3075    237.9786     86.5230   7.6986837860e+01   1.4056781318e+01    0.2136113    0.1399857  61.15  0.001039196    1.612    0.380
       147  -9.7028    217.6106     79.9790   7.8521690765e+01   1.9891482281e+01     0.698445    0.3450698 -19.29  0.002119254    4.436    0.775
       148  -8.6942    140.5971     83.2443   9.4821063994e+01   3.7987873591e+01    0.2138742    0.1464366 -28.60 0.0009500762    1.615    0.381
       149 -10.8013    134.5659     80.9773   9.5656026431e+01   3.9783203641e+01    0.8218447    0.6209239   1.83  0.003802623    1.757    0.431
       150 -10.6786    149.8825     75.4669   9.0342858339e+01   3.7252420726e+01    0.8568755     0.611987   5.86  0.003707866    2.062    0.515
       151 -10.5919    152.3154     67.0555   8.7317212439e+01   3.8129334888e+01    0.7943884    0.2989226  47.24  0.002526302    2.605    0.616
       152 -11.6612    140.8361     68.5894   9.0416731777e+01   4.0583615575e+01     1.115596    0.6962036 -47.43  0.004238272    1.730    0.422
       153  -9.9218    132.4978     68.4667   9.2411998109e+01   4.2512152010e+01    0.5084301    0.3338749  70.14  0.002201713    2.053    0.513
       154 -10.1501     36.8068     75.8082   1.2376893233e+02   5.6760856681e+01    0.2598403    0.1811513 -38.36 0.0004974511    1.231    0.188
       155  -8.8050     24.3593     75.2358   1.2781905436e+02   5.7955448257e+01    0.2280464    0.1025394 -22.54 0.0009463424    3.660    0.727
       156  -8.8838    192.8506     74.0847   8.1194495301e+01   2.6939414319e+01    0.2420778    0.1986153 -69.25 0.0009375332    1.266    0.210
       157  -9.0617    206.4926     91.4829   8.3259392740e+01   2.0540291205e+01    0.3230692    0.1445562 -38.93 0.0009062135    2.170    0.539
       158  -9.5010    214.9700     71.7714   7.6908362473e+01   2.1900431409e+01    0.3663475    0.2117186 -33.22  0.001310151    1.826    0.452
       159 -10.4376    250.2331     67.1294   7.0932065414e+01   1.4495055363e+01    0.5790284    0.1874647 -33.77  0.002019079    3.325    0.699
       160  -8.9630    194.2188     90.0717   8.5138689697e+01   2.3777551818e+01    0.2359597    0.2143822   7.91 0.0009575156    1.302    0.232
       161  -8.3371    202.4986     68.5071   7.8079510137e+01   2.5481570959e+01    0.1486379    0.1372748 -81.46 0.0008106288    1.011    0.011
       162 -10.3753    187.6383     51.1080   7.5954087665e+01   3.1890010213e+01    0.8604432    0.5379808  10.31  0.003247606    3.296    0.697
       163 -12.0105    175.6289     57.0511   7.9690719449e+01   3.4001555697e+01     1.208711    0.7859487 -45.54  0.002390455    1.589    0.371
       164 -11.8032    164.2841     62.7091   8.3501376280e+01   3.5928009672e+01    0.7313771    0.6692185  17.77  0.003991903    1.214    0.176
       165 -10.3159    164.7683     57.1287   8.1790667424e+01   3.6689852433e+01     0.421144    0.3482977 -17.37  0.001471214    1.389    0.280
       166  -9.2797    188.8803     64.8646   7.9442962411e+01   2.9456250553e+01     0.264223    0.2122859  83.47  0.000669557    1.285    0.222
       167  -8.7533    135.5194     63.0984   9.0015128868e+01   4.2736370797e+01    0.2176737    0.1444009 -36.00 0.0007726262    1.548    0.354
       168  -9.2331    219.0239     60.9760   7.3646865127e+01   2.2652283418e+01    0.2418125    0.2151951 -79.80 0.0004136928    1.025    0.024
       169 -10.1063    222.4529     57.4875   7.2320689728e+01   2.2367591381e+01    0.4234806    0.3543595 -54.64  0.001509182    1.129    0.114
       170  -9.2545    149.2286     59.1311   8.5631841209e+01   4.0164405997e+01    0.4725325    0.2372374 -51.89  0.001798524    2.567    0.610
       171 -11.6782    140.5267     51.6468   8.5278625807e+01   4.3380097404e+01     1.110626    0.4302668  44.74  0.003984076    2.590    0.614
       172 -10.2680    157.7982     50.3696   8.1199728588e+01   3.9422437012e+01    0.4614693    0.4192196 -46.25  0.001958555    1.161    0.139
       173  -9.7494    152.8207     56.3675   8.4021838947e+01   3.9731854051e+01    0.3357031    0.2886464 -17.39  0.001298928    1.282    0.220
       174 -10.4719    150.1121     51.8289   8.3229157410e+01   4.1073970163e+01    0.5449525    0.3810194   9.48  0.002056469    2.016    0.504
       175 -10.4369    201.2066     57.5149   7.5453320478e+01   2.7544264520e+01    0.5138284     0.405867  13.26  0.002567528    1.796    0.443
       176  -9.6432    158.4974     58.5564   8.3478933292e+01   3.8009930204e+01    0.3907041    0.2830498  12.00  0.001669309    1.919    0.479
       177  -8.6544    192.9733     53.9921   7.5848711606e+01   3.0127749483e+01       0.2328    0.1633476 -75.91    0.0004653    1.642    0.391
       178  -9.0985    237.4636     51.0371   6.8878991528e+01   1.9810700022e+01    0.3833952    0.1431398 -51.63  0.001444767    2.776    0.640
       179  -8.8756    213.1255     50.5666   7.1929542203e+01   2.5655613124e+01    0.2637266    0.1538212  52.13 0.0008301378    1.795    0.443
       180 -10.0213    170.0649     55.7054   8.0353324038e+01   3.5594799928e+01    0.4515229    0.3325185  77.84  0.001515635    1.470    0.320
       181  -8.9402      9.0617    167.5036   1.4562041903e+02   3.8827501747e+01    0.1738537    0.1192399  23.97 0.0009246314    2.059    0.514
       182  -9.4140     13.4692    165.1931   1.4448537972e+02   3.8959486117e+01      0.21759     0.186546  39.18  0.001255062    1.503    0.334
       183 -10.3909      2.5055    159.6480   1.4627663389e+02   4.1078031332e+01    0.5601619    0.1881348 -77.24  0.002626186    2.407    0.585
       184 -11.0530     11.6366     41.4433   1.2353222476e+02   6.5284645508e+01    0.3300975    0.2317922 -14.19 0.0006402783    1.355    0.262
       185 -10.2408     17.0534    158.6613   1.4305864465e+02   4.0102363668e+01     0.406335    0.2490093 -44.48  0.002375833    2.054    0.513
       186 -11.8423     19.6269    147.7426   1.4126833223e+02   4.2340305722e+01    0.6917669    0.4884227 -59.00  0.002987762    1.318    0.241
       187  -8.6711     10.1900    157.9236   1.4447792813e+02   4.0850294874e+01     0.191537   0.09537983 -55.64 0.0007236745    1.918    0.479
       188  -8.3031     33.6387    155.7144   1.3898578164e+02   3.9195073962e+01    0.1199278   0.08625073 -43.77 0.0007021308    1.684    0.406
       189  -8.6905     83.2189    154.5945   1.2689453450e+02   3.3118520876e+01    0.1768098    0.1388062  26.45 0.0005080311    1.585    0.369
       190 -10.6404     34.8817    150.3846   1.3801498979e+02   4.0295048539e+01    0.3746532     0.273003  65.73   0.00231294    1.416    0.294
       191  -8.6675     52.9195    151.5323   1.3383940362e+02   3.8015336337e+01    0.1741038    0.1286066  40.53 0.0005813214    1.523    0.343
       192 -10.1697     67.1713    148.7711   1.2988770446e+02   3.6831617041e+01    0.3192807    0.2274538  80.99  0.001278053    1.538    0.350
       193 -10.0071     61.4479    146.8142   1.3099765569e+02   3.8055786231e+01    0.4341913    0.1852787 -42.68  0.001635534    3.243    0.692
       194 -10.3537    221.2067     45.4044   6.9592287923e+01   2.4447838734e+01    0.4533941    0.3458535 -75.14  0.002495714    1.257    0.205
       195 -10.1374    194.6569     30.7562   6.9508047961e+01   3.2912204504e+01    0.4515091    0.3395886  50.84  0.001274604    1.385    0.278
       196 -10.0010    206.9693     44.5535   7.1297279688e+01   2.8028124667e+01    0.6243821    0.3793289 -86.56  0.002813064    1.979    0.495
       197 -10.7410    210.3638     33.1388   6.8019697748e+01   2.8744125906e+01    0.5845004    0.4660712  34.58  0.002177603    1.633    0.388
       198  -9.9289    193.5003     36.8852   7.1264124832e+01   3.2409798135e+01    0.3971709     0.283732  88.76   0.00204821    1.435    0.303
       199  -9.8297      1.3225    143.9187   1.4503851923e+02   4.4625893549e+01    0.4730979   0.07268748 -70.62  0.001629298    4.285    0.767
       200 -10.2568    200.8502     32.5637   6.9121814587e+01   3.1151419526e+01    0.4966805    0.3150532 -77.45  0.001810575    1.782    0.439
       201  -9.2617    200.1559     45.1766   7.2435165022e+01   2.9623086832e+01    0.2387382    0.1851826 -53.94  0.000431459    1.278    0.217
       202  -9.1695    196.7011     42.0664   7.2142149900e+01   3.0914805149e+01    0.2348554    0.1809351  84.93 0.0004787106    1.260    0.206
       203  -9.1704    152.7538     45.5394   8.0771845492e+01   4.1344419054e+01    0.2531364    0.1977285 -35.10 0.0007154612    1.362    0.266
       204  -9.8448    231.5040     44.3135   6.8059537896e+01   2.2163534166e+01    0.3988612    0.2268243  38.19  0.001689805    2.892    0.654
       205  -9.1063    249.4450     42.8981   6.5724612079e+01   1.8273433430e+01    0.3618422    0.1727612 -24.92  0.001460913    3.175    0.685
       206  -8.7020    156.3683     44.2705   7.9666100066e+01   4.0641357921e+01    0.1504701    0.1020649  34.53 0.0006997847    1.667    0.400
       207  -8.1673      1.5727     44.4249   1.2836340644e+02   6.5355919546e+01    0.1118537   0.07664187 -38.78 0.0001266888    1.083    0.076
       208 -10.4934    161.7852     39.1877   7.7124108437e+01   3.9999715083e+01    0.5143257    0.2648593 -26.58  0.002103383    2.243    0.554
       209  -8.7481    215.2998     41.9089   6.9517316779e+01   2.6363641667e+01    0.2617351    0.2064373  29.47  0.001394237    1.747    0.428
       210  -9.6865     77.1703     41.4364   9.9169273709e+01   5.7738574367e+01    0.2514981    0.2233864  41.07  0.001009404    1.333    0.250
       211  -9.6864      4.9512    147.3240   1.4456883266e+02   4.3612054691e+01    0.2232952    0.1377138 -58.29  0.001297539    1.475    0.322
       212 -10.0179      6.9920    142.7449   1.4362618947e+02   4.4479076453e+01    0.3688995    0.2373787  78.57  0.002106724    1.522    0.343
       213 -10.0090    180.5903     38.7009   7.3734462920e+01   3.5390111996e+01    0.4403151     0.287342 -66.97  0.001715909    1.829    0.453
       214  -8.9818    234.7461     39.3643   6.6556254405e+01   2.2100297449e+01    0.2404984    0.1557779  61.54  0.001271969    1.557    0.358
       215  -8.8441    173.4888     38.8169   7.4943310208e+01   3.7146859316e+01    0.3261069    0.2082726  82.30  0.001506159    1.794    0.442
       216  -9.4335    168.6564     36.4566   7.5102127899e+01   3.8656998517e+01    0.3339155    0.2652588 -57.56  0.001527101    1.357    0.263
       217 -10.0946    124.7687     37.3452   8.4325954624e+01   4.8991000464e+01     0.325743    0.2869644 -13.02  0.001064261    1.185    0.156
       218  -9.6953    125.2121     32.8016   8.2705674128e+01   4.9470321539e+01    0.2807155     0.207893  16.30 0.0008459481    1.510    0.338
       219  -7.9517    185.2845     38.2722   7.2872624541e+01   3.4274493981e+01    0.1351399    0.1038526  38.11 0.0001857548    1.502    0.334
       220  -8.5147    221.3797     36.2537   6.7402497654e+01   2.5671972129e+01    0.2742743    0.1592963  50.59  0.001315116    1.935    0.483
       221  -9.6447    191.0087     40.4719   7.2578189697e+01   3.2550507722e+01    0.3433844    0.2140258 -20.90   0.00106338    2.061    0.515
       222 -10.1241    246.6640     33.1180   6.3914174998e+01   2.0234543735e+01    0.4206974    0.2368116  56.53  0.001017859    1.950    0.487
       223 -11.0120    237.6824     32.4757   6.4699736905e+01   2.2354214121e+01    0.6420588    0.3393467  65.16  0.003200481    1.810    0.447
       224 -10.8113     39.0760    145.8688   1.3639378238e+02   4.0904910950e+01    0.4771172    0.2969907 -70.95   0.00146974    1.339    0.253
       225  -9.3106     97.5349    140.5146   1.2060567394e+02   3.4123100532e+01    0.2695841    0.1364803 -66.43 0.0007019962    2.336    0.572
       226  -9.6111     48.9983    138.4983   1.3280653774e+02   4.1533313687e+01    0.4808431    0.2560153  58.25  0.002249781    2.372    0.578
       227  -9.6399    241.1300     23.6519   6.2435216734e+01   2.2708597652e+01    0.3416104    0.1810644 -55.47 0.0007034075    1.743    0.426
       228  -9.7383     54.5666    137.7241   1.3124734846e+02   4.1059442217e+01    0.2837119    0.2253895 -77.97  0.001400872    1.136    0.120
       229 -11.4602     55.4546    129.8145   1.2964440939e+02   4.2806752323e+01     1.146257    0.3618833 -62.55  0.004226138    2.861    0.650
       230 -10.1159     21.9835    138.2984   1.3954492433e+02   4.4282865443e+01    0.2919965    0.2144377 -27.39  0.001819186    1.877    0.467
       231  -9.0249     23.6884    133.9134   1.3854159840e+02   4.5134920678e+01    0.1804348    0.1692586 -29.93  0.001300684    1.354    0.261
       232 -10.1814     12.9036    117.4084   1.3901915718e+02   4.9709646554e+01    0.4041708    0.2818015  19.41   0.00264248    1.891    0.471
       233 -11.0540    177.2487     29.6458   7.1774498510e+01   3.7376058155e+01    0.5021719    0.4344057 -35.33  0.001657029    1.278    0.217
       234  -8.8929     27.8738    115.8840   1.3473776819e+02   4.8871690579e+01     0.183096     0.131267 -54.04 0.0002930723    1.198    0.165
       235  -9.4642     28.1392    120.7934   1.3545858344e+02   4.7736115650e+01    0.3997568     0.159053 -69.31  0.001219685    2.232    0.552
       236  -8.8827     37.7452     33.0948   1.1028470913e+02   6.4385808361e+01    0.2176757    0.1270054   7.79 0.0006652023    1.935    0.483
       237 -10.5983    226.6343     28.6427   6.5033139328e+01   2.5423472121e+01    0.5915901    0.2786134 -51.84  0.002704125    2.067    0.516
       238  -8.5804     42.8228     32.0000   1.0789882199e+02   6.3980161183e+01    0.1639035   0.06255685  32.62 0.0006463043    2.745    0.636
       239  -8.7002    125.8165     27.9165   8.0932809056e+01   4.9922539272e+01     0.167835    0.1499602 -52.32 0.0002924412    1.314    0.239
       240  -8.6961    201.1463     25.8108   6.7386066478e+01   3.1922661492e+01    0.1700722    0.1529608  48.92 0.0004478368    1.273    0.215
       241  -9.0494    193.5911     24.3377   6.8001047391e+01   3.3960028839e+01    0.2407857    0.1627928  33.43 0.0009784505    1.989    0.497
       242  -9.7968     97.9779     22.2445   8.5825260309e+01   5.6465731176e+01    0.2348683    0.1949707  36.15 0.0005029273    1.094    0.086
       243  -9.5226    231.3900     20.8302   6.2781132554e+01   2.5290466818e+01    0.4974102    0.2904806  86.00  0.002289079    1.645    0.392
       244  -9.6605     17.4855    122.9164   1.3859773007e+02   4.8135803820e+01    0.3064724    0.1725245 -81.26 0.0009305829    1.692    0.409
       245  -9.0196     19.7679    119.6631   1.3752477322e+02   4.8689580287e+01    0.2736307    0.1585664 -64.11 0.0007179942    1.338    0.253
       246  -9.3136    197.8623     16.8614   6.5564074333e+01   3.3772306412e+01    0.2329556    0.1990617  81.95 0.0007183624    1.024    0.023
       247  -9.5873    177.8079     19.9671   6.9040934884e+01   3.8363501609e+01    0.2733554     0.243714 -63.14  0.001340137    1.170    0.146
       248 -11.4105     37.4391     27.4285   1.0827126781e+02   6.5270727572e+01    0.3145487    0.2322921  16.53 0.0006645782    1.331    0.248
       249  -9.0056    178.6453     14.9451   6.7565879522e+01   3.8700086033e+01    0.2229696    0.1587909  57.46 0.0004509198    1.285    0.221
       250 -10.4183     26.3488    128.1270   1.3704746173e+02   4.6223083255e+01    0.3884928    0.3240047 -48.45  0.002636746    1.265    0.209
       251  -9.7927     22.0012    128.0092   1.3815047279e+02   4.6621805215e+01    0.3387931    0.2026837  77.57  0.001834295    2.014    0.504
       252 -10.3274      3.6498    135.2808   1.4358874929e+02   4.6376649203e+01    0.3672755    0.2791436  80.43   0.00174981    1.274    0.215
       253  -9.8145      9.1028    134.8326   1.4223770577e+02   4.6090398792e+01    0.1932038    0.1821753 -61.35 0.0006831152    1.294    0.227
       254 -11.6250     13.7009    129.9955   1.4051697161e+02   4.6832889872e+01    0.6891201    0.4050854 -88.73  0.003539351    1.680    0.405
       255  -9.0006     98.5178    135.4875   1.1930191064e+02   3.5138243025e+01    0.1470569    0.1364578 -71.57 0.0002023763    1.001    0.001
       256  -9.1810     45.9076    132.4452   1.3262415415e+02   4.3294300278e+01    0.2789154    0.1330769 -51.06  0.001133245    1.909    0.476
       257 -10.5863     72.4829    128.8516   1.2487561817e+02   4.0799361858e+01    0.4687347     0.286392 -56.62  0.001680341    1.454    0.312
       258 -10.0048     74.5703    124.8703   1.2349935686e+02   4.1433796548e+01    0.5457685    0.2911584  55.93    0.0023068    2.496    0.599
