#   1 NUMBER                 Running object number                                     
#   2 MAG_AUTO               Kron-like elliptical aperture magnitude                    [mag]
#   3 X_IMAGE                Object position along x                                    [pixel]
#   4 Y_IMAGE                Object position along y                                    [pixel]
#   5 X_WORLD                Barycenter position along world x axis                     [deg]
#   6 Y_WORLD                Barycenter position along world y axis                     [deg]
#   7 A_WORLD                Profile RMS along major axis (world units)                 [deg]
#   8 B_WORLD                Profile RMS along minor axis (world units)                 [deg]
#   9 THETA_WORLD            Position angle (CCW/world-x)                               [deg]
#  10 FWHM_WORLD             FWHM assuming a gaussian core                              [deg]
#  11 ELONGATION             A_IMAGE/B_IMAGE                                           
#  12 ELLIPTICITY            1 - B_IMAGE/A_IMAGE                                       
         1 -14.6544    245.4534     99.1937   1.8250571819e+01   1.2204487843e+01     2.127883    0.6848814 -43.08  0.008520568    2.761    0.638
         2 -10.2820     92.3492     48.7775   3.4111560703e+01   5.4928018477e+01    0.6604372     0.111706 -41.49  0.001591839    5.949    0.832
         3 -10.7067     41.0361     13.8462   3.9015819404e+01   7.0440316280e+01    0.2192867    0.1808649  15.82 0.0002555876    1.079    0.073
         4  -9.4887     97.5052     12.4812   1.7420592537e+01   5.8748095119e+01    0.2353062    0.1334424  -3.67  0.001030472    2.377    0.579
         5  -9.2756     67.5050      1.3065   2.0516918736e+01   6.6780750543e+01    0.2023899    0.1061875  56.06 1.659157e-05    1.714    0.417
         6 -10.3649     73.5902    244.2944   7.7932745754e+01   1.5043451025e+01    0.2266017    0.1895648  22.71 0.0009775552    1.339    0.253
         7 -10.1785     53.5626    249.5613   8.2338651260e+01   1.6512924583e+01    0.2127516    0.1587868  49.76 0.0006733427    1.006    0.006
         8 -10.4032     19.9746    249.3654   8.8834846681e+01   2.0130819818e+01    0.2252394    0.1362396  60.22  0.001565247    1.275    0.216
         9 -11.5930    161.7160    243.2901   5.9932911778e+01   3.3846382503e+00    0.2950305    0.1886896  43.59   0.00179564    1.598    0.374
        10  -9.8691      3.9539    249.3615   9.1814064073e+01   2.1645154056e+01    0.1768925      0.10527  62.03 0.0007270612    1.255    0.203
        11 -11.0049    167.2083    242.1417   5.8715560533e+01   2.7998195253e+00    0.2107743    0.1618612  18.25 0.0008479143    1.056    0.053
        12  -9.0073      7.6612    242.3224   9.0906665764e+01   2.2563676193e+01    0.1210127   0.05184978  55.80 0.0004698059    1.718    0.418
        13  -9.5467     98.2579    241.2999   7.2574291988e+01   1.2385166537e+01    0.2319503    0.1273914  25.60  0.001243802    1.797    0.444
        14  -9.4012     16.5074    237.4904   8.9027895892e+01   2.2617644877e+01    0.1135487   0.08127093  56.99 7.873971e-05    1.030    0.029
        15 -10.9076     90.8690    230.9171   7.3119416065e+01   1.5198466683e+01    0.2536409    0.2066519 -42.57  0.001665275    1.567    0.362
        16 -11.1468     87.3454    227.7000   7.3564429162e+01   1.6260373571e+01    0.4094046    0.1679488  38.27   0.00185606    1.914    0.478
        17  -9.6816    231.1001    233.9292   4.5953538708e+01  -4.3551964008e+00    0.1876616    0.1370705 -14.70  0.001370555    1.244    0.196
        18  -9.5115    237.8349    229.8285   4.4207529539e+01  -4.6718448840e+00    0.1817074    0.1185912   1.65 0.0006521858    1.253    0.202
        19 -11.5137     98.5167    225.6547   7.0918607331e+01   1.5115226560e+01    0.3760192    0.3108261  40.74  0.001719758    1.011    0.011
        20 -11.0724    162.3098    225.4381   5.7375013625e+01   5.9429242894e+00    0.3752458     0.255085  13.16    0.0022029    1.466    0.318
        21 -10.0212    116.9841    227.2981   6.7101988206e+01   1.2216941293e+01    0.1821544    0.1413469  35.91 0.0004419153    1.060    0.056
        22 -11.0946    126.3298    221.0160   6.4306413903e+01   1.1960357151e+01    0.2899032     0.228089  59.88 0.0007868449    1.454    0.312
        23  -8.9183    174.4847    222.5138   5.4515436026e+01   4.6279952861e+00    0.1246492    0.1017865  18.27 0.0002558224    1.023    0.023
        24  -9.1897    157.8155    221.1794   5.7675726513e+01   7.2676808658e+00    0.1760102    0.1322137   8.55 0.0006254255    1.325    0.245
        25 -10.0892    114.8460    221.1243   6.6822171403e+01   1.3621541589e+01    0.1712959    0.1445511   3.75 0.0007271188    1.349    0.258
        26 -11.1605     95.6479    217.8290   7.0696267598e+01   1.6979790932e+01    0.4541844    0.3157368  42.10  0.001450257    1.203    0.168
        27  -9.7474     99.8670    217.1386   6.9671643538e+01   1.6515224410e+01     0.251921    0.1984563  46.01 0.0005938797    1.098    0.089
        28  -9.6522     74.7635    219.1714   7.5517359052e+01   1.9550106019e+01    0.2331233    0.1364563  44.93 0.0008485044    1.409    0.291
        29  -9.3149    143.8006    216.8687   5.9988083650e+01   1.0070192144e+01    0.1956993    0.1597399  11.90  0.001050028    1.195    0.163
        30  -9.8743    189.7932    215.3452   5.0427013470e+01   3.4864802221e+00    0.2811238    0.1618482  -0.73  0.001370842    2.359    0.576
        31 -10.1765    170.5025    215.2407   5.4203277887e+01   6.3251712192e+00     0.240393    0.1913338  17.78 0.0008060604    1.062    0.058
        32  -9.4934    152.1818    216.0431   5.8096423900e+01   8.9446797605e+00    0.2721081    0.1466376  14.26  0.001180686    2.643    0.622
        33  -9.4868    131.2491    214.3881   6.2351149128e+01   1.2398653710e+01    0.2164435    0.1537011 -35.82 0.0008280543    1.665    0.400
        34 -10.1525     76.9215    211.7448   7.4302321697e+01   2.0742812797e+01    0.2789263    0.2180188 -60.13  0.001620752    1.473    0.321
        35  -9.8989    212.9933    207.5055   4.4838237533e+01   1.3257692921e+00     0.270034    0.1042121  41.08  0.001219988    2.762    0.638
        36 -10.4019    164.8038    202.5020   5.3352388616e+01   9.2668791726e+00     0.355552    0.2805296 -67.34  0.002027502    1.888    0.470
        37 -11.4065    166.5649    197.8919   5.2222138088e+01   9.7687386650e+00    0.4294342    0.2503617 -45.68  0.001818113    1.922    0.480
        38 -10.6757    162.8555    194.1174   5.2368319078e+01   1.1017209705e+01     0.325636    0.2775152 -85.75  0.001589796    1.751    0.429
        39 -12.2729    178.3040    197.2798   4.9702632076e+01   8.0108302412e+00    0.6122011    0.4554431   6.39   0.00355562    1.337    0.252
        40 -12.0682    172.8944    195.6459   5.0526970352e+01   9.1385185152e+00    0.5830336    0.2950704 -39.59  0.002679616    2.095    0.523
        41  -9.2712    148.5139    198.0366   5.6118522790e+01   1.2641961761e+01    0.1772875    0.1226216 -80.82 0.0008097226    2.718    0.632
        42 -10.7180    125.7670    197.1657   6.1110817239e+01   1.6458766684e+01    0.3612525    0.2348767  25.46  0.001247503    1.532    0.347
        43  -9.4562    112.6575    197.8187   6.4262982215e+01   1.8391004478e+01    0.3244917    0.1690427  58.49  0.001328269    2.692    0.629
        44  -9.0840    113.1516    194.1877   6.3628255827e+01   1.9046007745e+01    0.2218054    0.1892569 -15.39 0.0003119724    1.391    0.281
        45  -9.2937    105.0675    197.9173   6.6071051659e+01   1.9536444500e+01    0.2041141    0.1606981 -10.53 0.0009805859    1.665    0.399
        46 -11.5843     14.7017    194.8968   8.7433186140e+01   3.1384232383e+01    0.5548897    0.3146486 -34.74   0.00271338    3.180    0.686
        47  -8.7505    132.2920    195.3158   5.9327676701e+01   1.5769982913e+01    0.1337372    0.1022218  -3.83 0.0005467083    1.597    0.374
        48  -9.6113     66.8366    194.7780   7.4940527096e+01   2.5639753749e+01    0.2612206    0.1485668  70.77  0.001237317    2.085    0.520
        49  -9.4070     36.5553    195.2397   8.2318869516e+01   2.9147205375e+01    0.1683468    0.1070414 -64.35 0.0009501739    1.676    0.403
        50 -10.0676    212.4005    202.2240   4.4045897090e+01   2.1482108989e+00     0.161788     0.109497 -41.02 0.0009547949    1.721    0.419
        51 -11.0634    204.8381    187.6021   4.2838994384e+01   5.4158728223e+00     0.372435    0.3060058 -48.66  0.002295857    1.608    0.378
        52  -9.4388    104.0500    189.0000   6.5076167643e+01   2.1541853521e+01    0.2676618    0.1766854  28.65  0.001097379    1.490    0.329
        53 -11.3349     97.8162    188.0637   6.6476286906e+01   2.2700999436e+01    0.5282864    0.2858761  50.46  0.001448021    1.857    0.462
        54 -10.9596     94.3347    182.2024   6.6522383878e+01   2.4505432912e+01     0.430555       0.3698  81.90  0.001687985    1.233    0.189
        55  -9.8094    138.7877    188.3459   5.6719710034e+01   1.6048421440e+01    0.4015588    0.1609492 -49.36  0.001607951    2.731    0.634
        56  -9.5683     87.3143    189.6391   6.9287934686e+01   2.3928181865e+01    0.1462065   0.09407521  64.20 0.0007042243    1.755    0.430
        57  -8.9627    129.3296    188.6486   5.8961734201e+01   1.7555035105e+01    0.1422379     0.104102  66.35 0.0007047621    1.771    0.435
        58 -11.8242     10.9402    187.2391   8.7903579753e+01   3.3402190411e+01    0.3831684    0.2584575  16.60  0.001481695    1.835    0.455
        59 -12.1008     12.3754    179.9845   8.7154679352e+01   3.4911881173e+01    0.5030344    0.3375732 -70.98  0.002271376    1.475    0.322
        60  -9.5028    165.6731    186.5745   5.0458697247e+01   1.1883779133e+01    0.2097645    0.1750525 -73.12  0.000879393    1.726    0.421
        61 -10.2153    109.4857    185.0130   6.3157511806e+01   2.1527292033e+01    0.3980214    0.2775908  43.66   0.00199769    1.310    0.237
        62  -9.6414    228.6466    184.6816   3.8098330782e+01   2.3206635497e+00    0.1307211   0.08174032   0.73 0.0007046756    1.745    0.427
        63 -11.0323    174.5445    183.0447   4.7955583959e+01   1.1024121550e+01    0.3569788    0.2849737 -73.27  0.001917927    1.974    0.493
        64 -10.4602     45.2841    180.1562   7.8878471390e+01   3.1583567460e+01    0.6330792    0.1350004 -66.15  0.002144989    4.012    0.751
        65  -9.6039    197.1907    182.1952   4.3283042479e+01   7.4590723251e+00     0.163059    0.1601068 -25.35 0.0007337723    1.341    0.254
        66  -9.9531    147.6594    179.6826   5.3201126352e+01   1.6220166770e+01    0.2692566    0.2013124  73.74  0.001315589    2.028    0.507
        67 -10.5571    148.3848    175.0874   5.2204811572e+01   1.6986664975e+01    0.3019215    0.2133391   8.81   0.00116437    1.737    0.424
        68  -9.7179    138.8767    179.7592   5.5239576671e+01   1.7715928406e+01    0.2562492    0.1911314  84.11  0.001235092    2.077    0.519
        69 -10.1106      1.5090    177.9950   8.9695496670e+01   3.6241264430e+01    0.2185941    0.1171909 -66.20 0.0005647814    1.864    0.463
        70 -11.6647      4.7168    177.1336   8.8874114003e+01   3.6188929438e+01    0.7233527    0.2427412  81.93  0.002908084    3.191    0.687
        71 -10.0345     88.3993    175.6908   6.7113787602e+01   2.6862702021e+01     0.461573    0.2094994 -77.80  0.001543376    3.943    0.746
        72 -10.4775     77.6667    175.8756   6.9945769267e+01   2.8400129251e+01    0.3342924    0.1881707  54.16  0.001531557    1.828    0.453
        73  -9.7484    183.2036    175.1958   4.4713554290e+01   1.0926469202e+01    0.1747843    0.1679969 -83.39 0.0009444877    1.386    0.278
        74  -8.6206    159.3087    175.6430   4.9851891273e+01   1.4968064868e+01    0.1357221    0.1122848  78.36 0.0007042231    1.730    0.422
        75  -9.7295    105.5490    174.8401   6.2563275924e+01   2.4357639087e+01    0.2741058    0.1644333  63.42  0.001149184    2.241    0.554
        76  -9.9471     24.0808    174.1161   8.3823717579e+01   3.5211711613e+01    0.2215505    0.1190967  61.02  0.001127146    1.736    0.424
        77  -9.8314    135.1477    171.2848   5.4612440508e+01   2.0078050021e+01    0.2582992    0.1932184  88.18  0.001209751    2.005    0.501
        78 -10.3732    177.2955    169.2910   4.4783303627e+01   1.2982074835e+01    0.4610458    0.3070877 -52.57  0.002292551    1.834    0.455
        79 -10.9458    206.7847    168.7114   3.8911691402e+01   8.0693082716e+00     0.333777    0.1619671 -40.12  0.001528948    2.026    0.506
        80 -10.6949    121.7803    168.3370   5.7358772798e+01   2.3041436178e+01    0.5568331    0.3242577 -65.55   0.00238184    2.239    0.553
        81  -9.9360     68.7538    169.8802   7.1526173334e+01   3.1044866716e+01    0.2612494    0.1779152  81.55  0.001155813    1.645    0.392
        82  -9.0495     55.3417    169.6528   7.5122845300e+01   3.2850088959e+01    0.1516246   0.08916163  62.68 0.0007045694    1.793    0.442
        83  -9.7357     28.9294    169.5032   8.2192036787e+01   3.5829737165e+01    0.1837235    0.1207612  31.61 0.0008236587    1.539    0.350
        84  -8.9633    199.8365    167.0889   3.9884118888e+01   9.4845647469e+00    0.1846843    0.1393541  -8.68 0.0004352789    1.324    0.245
        85 -11.6598    218.7972    164.8956   3.6024677229e+01   6.7297221155e+00    0.3908628    0.3116053  39.43  0.002402673    1.416    0.294
        86 -10.2909    139.1818    164.8951   5.2453814367e+01   2.0674901297e+01    0.3770795    0.2660903 -77.58   0.00156388    2.174    0.540
        87 -10.5270     93.4325    160.4084   6.3403160476e+01   2.9600581445e+01    0.5851199    0.3071294  66.03  0.002034242    3.320    0.699
        88  -9.0928     19.4499    166.5368   8.4466848373e+01   3.7424103512e+01    0.1280776    0.1067691  74.26 7.544157e-05    1.010    0.010
        89 -10.2863    149.7868    163.7925   4.9741128208e+01   1.8968592597e+01    0.3989158    0.2976506 -10.22  0.001968425    1.644    0.392
        90  -9.8633     80.5187    164.3669   6.7556529084e+01   3.0668916795e+01    0.3938585    0.2123209  76.51  0.001420201    3.246    0.692
        91  -9.3597     37.4379    163.7611   7.9371299809e+01   3.6333664317e+01    0.3125458    0.1413702  65.55  0.001265777    2.653    0.623
        92 -10.3698     20.1136    181.3963   8.5336314720e+01   3.3901110754e+01    0.3445073    0.1654892 -80.16  0.001736366    1.946    0.486
        93  -9.5799    177.7289    160.3252   4.2903691967e+01   1.4523553529e+01    0.3112945    0.1862699 -54.90  0.001214067    2.202    0.546
        94 -10.2143     99.3655    160.4937   6.1810279592e+01   2.8612629462e+01    0.2669921    0.1759442 -54.08 0.0006077767    1.578    0.366
        95 -10.0746      9.3355    161.0228   8.6768859147e+01   3.9581338412e+01      0.28995    0.1105929  73.59  0.001168619    2.903    0.656
        96 -13.0749    248.2094    134.7693   2.5348112361e+01   6.5775711206e+00    0.9750674    0.2387731 -40.14  0.003506884    3.593    0.722
        97 -11.9882    249.4697    156.1865   2.9419539854e+01   3.3388546162e+00    0.6172782     0.273036 -26.01  0.002944153    2.190    0.543
        98  -9.5607     24.2159    160.1162   8.2670617313e+01   3.8531964605e+01    0.3964743    0.1220995  39.02  0.001614677    2.720    0.632
        99 -12.5680    205.6844    153.7446   3.6101384780e+01   1.0693239078e+01    0.5594794    0.4093561 -39.69  0.002116347    1.363    0.266
       100 -10.2699    142.6196    158.6585   5.0413317172e+01   2.1333565346e+01    0.7547702    0.1429538  42.42  0.001926822    5.048    0.802
       101 -10.4752    196.7028    156.7628   3.8396039750e+01   1.1756398554e+01    0.3865288    0.2228703 -54.35  0.001696104    2.467    0.595
       102 -10.4469    188.5300    156.6379   3.9956433050e+01   1.3232796011e+01    0.3520721    0.2228835 -42.96  0.001187801    1.612    0.379
       103 -11.9466    188.9016    147.9421   3.8053915979e+01   1.4703822001e+01    0.8478376    0.3883402 -47.79  0.003403287    2.469    0.595
       104  -9.9908    168.0420    157.6149   4.4403353159e+01   1.6804267935e+01    0.2699188    0.2039067 -60.04  0.001357618    1.676    0.403
       105  -9.9019    105.2839    157.6095   5.9711483609e+01   2.8282263606e+01    0.3120981    0.2250382  70.57  0.000923747    1.723    0.419
       106  -9.3721    119.2415    154.4905   5.5434582174e+01   2.6531739684e+01    0.3390366    0.2171184  85.74  0.001212464    2.963    0.663
       107 -10.1875     81.7920    154.2482   6.5621239008e+01   3.2894039883e+01    0.3357314    0.2212411  85.04 0.0009724495    1.964    0.491
       108 -10.9459     68.3604    153.5622   6.9357418463e+01   3.5028629396e+01    0.4922414    0.3117025  80.39  0.001722365    1.958    0.489
       109 -10.4347    133.5200    153.0623   5.1510037778e+01   2.4212131024e+01    0.4972448    0.3213562  73.54  0.001926575    2.773    0.639
       110 -10.2101     49.6543    154.8569   7.4937557881e+01   3.7133286339e+01    0.4015052    0.1960285  58.12  0.001673602    2.323    0.569
       111 -10.0257    182.8175    150.2574   3.9762184249e+01   1.5419407245e+01     0.363627    0.2417133 -55.83  0.001717011    1.926    0.481
       112  -8.9948    162.4213    150.2001   4.4085675767e+01   1.9293710400e+01    0.2054012    0.1378885 -54.71 0.0009481814    1.744    0.427
       113  -9.7938     27.8625    148.1733   8.0529175883e+01   4.1123390992e+01    0.3510132    0.1400386  75.04  0.001189995    3.804    0.737
       114  -9.7724    224.3458    147.7880   3.1643014740e+01   8.4793148998e+00    0.2875096    0.1477367  35.51  0.001382049    2.145    0.534
       115  -9.0468    142.4179    148.2216   4.8317175707e+01   2.3549466019e+01    0.2088527    0.1433424 -59.70 0.0009471679    1.728    0.421
       116 -10.5020     39.4665    147.2294   7.6995589847e+01   4.0187145864e+01     0.461332    0.2049545  65.52  0.001712501    3.082    0.676
       117 -10.1806    107.2334    145.0432   5.6799417512e+01   3.0852447084e+01    0.5884877     0.351433  74.82  0.002057149    3.238    0.691
       118 -10.6586     56.4172    145.5859   7.1701588194e+01   3.8605078258e+01    0.5455323    0.2468533  56.34  0.002053426    2.753    0.637
       119 -10.9565    148.7947    142.9405   4.5647865228e+01   2.3407921413e+01    0.8740625    0.3713945 -51.43  0.003136365    2.682    0.627
       120  -9.2499     13.4761    145.9984   8.4528234466e+01   4.2901513964e+01    0.1894054   0.08552441  72.12 0.0006207428    2.401    0.584
       121 -10.1633    207.8915    143.0226   3.3451204368e+01   1.2084103451e+01     0.329601    0.1677551 -54.76  0.001259814    3.231    0.690
       122  -9.4869    165.9324    143.9808   4.1965073334e+01   1.9828306297e+01    0.2262297    0.1856699  88.22  0.001126096    1.716    0.417
       123  -8.7958    138.3044    144.6358   4.8560407987e+01   2.5106152521e+01    0.1525101    0.1202301  85.25  0.000703171    1.737    0.424
       124 -10.3857    125.0332    142.5837   5.1500510851e+01   2.8115115011e+01    0.4647168    0.2989705 -83.34  0.001737367    2.867    0.651
       125  -9.8481     87.8933    143.4160   6.1980518908e+01   3.4554123369e+01    0.2864132    0.1963377  85.40 0.0009070784    1.926    0.481
       126  -9.5708    182.1190    141.2483   3.7951258268e+01   1.7197524574e+01      0.27613    0.1862716 -62.90  0.001233799    2.177    0.541
       127  -9.4516      2.8306    141.8487   8.7303297373e+01   4.4684229359e+01    0.3193327    0.1016889  71.93  0.001067165    4.180    0.761
       128 -10.3274     69.1665    139.7231   6.6915067112e+01   3.8343653253e+01    0.4535912    0.2290825 -88.89  0.001482742    3.691    0.729
       129 -11.0660    188.0505    134.7726   3.5329570239e+01   1.7225775842e+01    0.6549833      0.23599 -44.97   0.00232322    2.875    0.652
       130 -10.4984    188.4728    122.7121   3.2476223458e+01   1.9313597647e+01    0.4393457     0.216935 -29.59  0.001746407    2.261    0.558
       131  -9.6161    172.4310    137.7768   3.9183077777e+01   1.9743734840e+01    0.3595039    0.2315348 -66.47  0.001465638    2.559    0.609
       132 -10.0056     81.5902    138.0064   6.2841299514e+01   3.6891708411e+01    0.3361051    0.1409959 -59.04  0.001247748    2.373    0.579
       133 -10.2101     23.3965    137.9925   8.0827793700e+01   4.4077455510e+01    0.4648727    0.2006558  69.61  0.001784039    3.008    0.668
       134  -9.4036     22.3816    131.7593   8.0480499785e+01   4.5738915115e+01    0.2952531   0.08941293 -65.53  0.001121421    2.677    0.626
       135 -11.4258    197.6709    136.5193   3.3891125145e+01   1.5070190504e+01    0.4011227    0.2845578 -29.55  0.001661149    1.341    0.254
       136 -10.8084    202.8107    136.1044   3.2860333072e+01   1.4177096184e+01    0.2876973    0.2450204  52.60 0.0004594064    1.363    0.266
       137  -9.8435    162.4897    135.5003   4.0826799594e+01   2.2177956234e+01    0.2672389     0.137908 -52.89  0.001032248    2.318    0.569
       138 -10.8177     39.9898    135.8704   7.5406008086e+01   4.2997114204e+01      0.34432    0.2374551  12.46  0.001752412    1.788    0.441
       139 -10.6904     41.5625    130.3119   7.4133941185e+01   4.4242716218e+01     0.322645    0.2620291  82.72  0.001096934    1.199    0.166
       140  -9.6168    179.7851    133.1181   3.6598844275e+01   1.9158121016e+01    0.3847047    0.1821999 -48.59  0.001503645    2.342    0.573
       141 -10.6514    132.2560    130.5610   4.6946142014e+01   2.9357191656e+01    0.6695535    0.3519995 -60.30  0.002452483    2.561    0.610
       142 -11.4682    111.5153    130.0393   5.2427844513e+01   3.3560936986e+01    0.7313221    0.4685473 -46.67  0.002890318    1.589    0.371
       143 -10.8409    117.0612    123.2230   4.9295900535e+01   3.4052871593e+01    0.8152149    0.4202562 -52.45   0.00311132    2.014    0.503
       144 -10.8025     83.5755    131.5139   6.0984397647e+01   3.8174176593e+01    0.5233163     0.353748  74.45  0.001551008    1.969    0.492
       145  -9.7141    143.0216    131.0688   4.4355172848e+01   2.7056050834e+01    0.4027327    0.2059473 -50.42  0.001377837    2.081    0.519
       146 -12.0960    241.5003    127.0871   2.4709796787e+01   8.7819835383e+00    0.2971263    0.2253085  59.51   0.00179301    1.746    0.427
       147 -10.0632    192.6440    129.5003   3.3255159730e+01   1.7270043623e+01    0.2868431    0.1658837 -40.25  0.001219318    1.643    0.391
       148  -9.7073    168.6809    128.8959   3.7941880133e+01   2.2209047388e+01    0.4019986    0.1751269 -45.53  0.001508849    2.333    0.571
       149 -10.1103    152.8176    127.7631   4.1230334136e+01   2.5721102307e+01    0.5567457    0.2010661 -49.23  0.001796964    3.099    0.677
       150 -10.9202     98.8787    127.3046   5.5474877820e+01   3.6560020378e+01    0.7064346    0.4453263 -85.71  0.002563433    2.658    0.624
       151 -10.4160     98.0078    120.9766   5.4307040950e+01   3.8234831340e+01    0.4159957    0.2997396 -15.00  0.001797287    1.990    0.497
       152  -9.9876     72.9099    128.6443   6.3747938604e+01   4.0567315667e+01    0.3059176    0.1971888 -85.63  0.001309677    1.983    0.496
       153  -9.9885    222.4849    127.0275   2.7544595428e+01   1.2069089732e+01    0.1922513    0.1010134 -52.86 0.0008088399    2.571    0.611
       154 -10.5985     59.6043    123.8544   6.7159582778e+01   4.3686052409e+01    0.6663125    0.3514739  79.10   0.00224174    3.576    0.720
       155 -11.7149    167.0860    247.6826   5.9466180915e+01   2.0502082603e+00    0.5238513    0.2005131  28.31  0.002473838    2.325    0.570
       156  -9.3847    172.5719    120.3689   3.5086214586e+01   2.3035459837e+01    0.2968353    0.1367501 -44.72  0.001141416    2.165    0.538
       157 -10.4491    185.9949    114.6484   3.1027759094e+01   2.1274364229e+01    0.3957849    0.1987591 -41.23  0.001391825    1.891    0.471
       158 -11.2881    108.9052    112.8983   4.9100732986e+01   3.8049195753e+01    0.8220686    0.3837455 -59.06  0.002831349    2.697    0.629
       159  -9.5446     22.5244    110.4774   7.7817037226e+01   5.1152240908e+01    0.2497354    0.1500345  81.16  0.001084246    1.841    0.457
       160  -9.8631    192.8629    113.7012   2.9522707449e+01   2.0016207802e+01     0.263138    0.1847305 -28.33 0.0009504444    1.415    0.293
       161 -10.9075     43.5594    121.8791   7.2193216347e+01   4.6179892350e+01    0.7578756    0.3713974  81.81  0.002640182    3.429    0.708
       162 -10.6733     92.7172    112.1145   5.3839685114e+01   4.1329465467e+01    0.6480935    0.3538904 -68.51  0.002219883    2.565    0.610
       163 -10.8078     79.2431    112.4190   5.8270974516e+01   4.3606272408e+01    0.6015345    0.3645485 -88.03  0.002155086    2.863    0.651
       164 -10.2599    121.8597    111.5225   4.5060306959e+01   3.5711678345e+01     0.531955    0.2168863 -51.64  0.001788448    2.668    0.625
       165 -10.7949     14.4049    111.4591   8.0830846003e+01   5.1518830820e+01    0.4584337    0.2066669  85.61  0.001865671    2.626    0.619
       166 -11.1323     16.7937    105.4717   7.9214734569e+01   5.2871069579e+01    0.4777502    0.3426734 -42.26  0.002679755    1.449    0.310
       167  -9.7096    174.5442    110.2808   3.2197938484e+01   2.4512908636e+01    0.4480486    0.1371645 -41.04  0.001426654    3.112    0.679
       168  -9.4171    159.1624    110.9238   3.5624503060e+01   2.7748990424e+01    0.2920534    0.1722328 -48.05  0.001231884    1.744    0.427
       169 -10.8484     66.1705    109.1135   6.1962482872e+01   4.6484377307e+01    0.5710745    0.2727611 -71.78  0.002019344    2.837    0.647
       170  -9.4672    182.6909    108.5061   3.0153826765e+01   2.3081479756e+01    0.2695916    0.1276225 -38.57  0.001073674    2.007    0.502
       171  -9.5914    189.2413    106.2817   2.8381112512e+01   2.2078012831e+01    0.2773979    0.1684097 -33.89  0.001267974    1.590    0.371
       172  -9.9694    139.6762    102.8520   3.8084295731e+01   3.3702132348e+01    0.5820056    0.2302005 -46.30  0.001978936    2.580    0.612
       173  -9.7911    133.5202    108.4441   4.1139838000e+01   3.3888356401e+01    0.4487785    0.2155919 -49.48   0.00166279    2.185    0.542
       174 -11.1039     45.5241    101.7194   6.7855475090e+01   5.1106455372e+01    0.8442238    0.4101129  66.87  0.002660671    4.346    0.770
       175 -10.9052     23.0217    101.7383   7.6357201781e+01   5.3341859328e+01    0.7649627    0.3340084  67.12  0.002609078    3.989    0.749
       176  -9.9772     21.1590     92.6964   7.5625733006e+01   5.5783351610e+01    0.5295773    0.1498388 -42.36  0.001636359    4.449    0.775
       177  -9.4940    166.6355    102.7317   3.1895406226e+01   2.7669086555e+01    0.4257564    0.1419481 -37.69  0.001363531    3.015    0.668
       178 -10.1053    149.9461    101.5994   3.5276748345e+01   3.1646652564e+01    0.6804061      0.19247 -45.46  0.001954525    3.664    0.727
       179  -9.5724    158.7338    120.9426   3.8226156429e+01   2.5855259656e+01    0.2847844    0.2088972 -59.20 0.0009593448    1.587    0.370
       180  -9.5738    175.5647    100.7411   2.9570589907e+01   2.6045602484e+01    0.2944222     0.142738 -34.03   0.00114564    2.107    0.525
       181  -8.9815    159.5303    100.0481   3.2703874127e+01   2.9779123450e+01    0.2422385    0.1461112 -41.71  0.001037392    1.622    0.384
       182 -10.7159    108.7648     98.3730   4.5292648148e+01   4.1380484844e+01    0.5908908    0.4359201  82.85  0.002134178    1.936    0.484
       183  -9.3018    107.3404     92.3293   4.4004253497e+01   4.3016040910e+01    0.3006911    0.2128817  14.43  0.001263851    1.975    0.494
       184 -10.0992     82.0291     98.6346   5.3936758336e+01   4.6480133350e+01    0.6342362    0.2732241 -57.40  0.002258172    2.494    0.599
       185 -10.8534     63.8876     95.7892   5.9659233029e+01   5.0132422318e+01    0.5458003    0.3341675  86.69  0.001950085    2.922    0.658
       186  -9.5518      6.6173    102.7959   8.2622148676e+01   5.4210496329e+01    0.1872076    0.1078132 -89.65 0.0005961311    1.666    0.400
       187 -10.4165     94.9350     95.1918   4.8704889902e+01   4.4889541871e+01    0.6141831    0.2234651 -48.88  0.002040102    2.720    0.632
       188  -9.5630    176.7007     92.4627   2.7193490171e+01   2.7276458839e+01    0.2757909    0.1294668 -36.97  0.001076784    2.055    0.513
       189  -9.7575    138.7166     90.7208   3.4941673335e+01   3.6375202907e+01    0.4979456     0.192553 -46.48  0.001658723    2.698    0.629
       190 -10.1658     44.6028     91.8393   6.6100806138e+01   5.3701127315e+01    0.3374504    0.1981389   2.52  0.001418074    2.491    0.599
       191 -10.4546      4.7644     90.7785   8.1880492251e+01   5.7329185858e+01    0.4055365    0.1555017  82.39  0.001403599    3.920    0.745
       192 -10.5285    124.4465     88.9869   3.8122346512e+01   3.9988930686e+01    0.7070365    0.2931859 -42.56  0.002475935    2.420    0.587
       193 -10.4175     34.5702     88.6722   6.9439934009e+01   5.5594465853e+01     0.633009    0.2552714 -73.69   0.00226681    3.030    0.670
       194 -10.5210     86.3644     86.0500   4.8931316683e+01   4.8621548843e+01    0.4336021    0.2988759 -83.88  0.001383363    2.330    0.571
       195 -10.3703    128.4827    100.2180   4.0241682020e+01   3.6740440530e+01    0.5694687    0.2921757 -41.85  0.002206527    1.969    0.492
       196 -10.2540     48.0580     83.7004   6.2766027749e+01   5.5284574842e+01    0.4282272    0.2806621  72.26  0.001687207    2.282    0.562
       197 -10.1450     49.1211     77.2022   6.0604926425e+01   5.6711121160e+01     0.427545    0.2443664 -19.97  0.001684755    2.735    0.634
       198 -10.6560    104.5694     81.5165   4.1604023207e+01   4.5932984314e+01    0.7732903    0.3218665 -50.19  0.002659004    2.629    0.620
       199 -10.4822     24.4252     79.8620   7.1864756924e+01   5.8724987201e+01    0.5175172    0.2367341 -79.18  0.002043899    2.720    0.632
       200  -9.0799    150.3518     79.5414   2.8981637393e+01   3.5762632132e+01    0.3135045    0.1140127 -48.86 0.0009560036    3.319    0.699
       201  -9.6664     74.6277     79.9196   5.1286479837e+01   5.2153236189e+01    0.2962387    0.1911114 -65.77  0.001278597    1.917    0.478
       202  -9.6697      8.7576     80.6034   7.8779722863e+01   5.9643695606e+01    0.1701807     0.115041  33.28 0.0009468578    1.667    0.400
       203 -10.8813    180.5679    122.0177   3.3852802737e+01   2.1058356296e+01    0.6565337     0.270797 -32.02  0.002302612    2.816    0.645
       204  -9.6286    180.3647     78.2616   2.2736437084e+01   2.8871088027e+01    0.2109769    0.1262509 -44.14 0.0008367103    1.600    0.375
       205  -9.3028    175.0000     77.4317   2.3462037732e+01   3.0263666409e+01    0.3338461   0.08127408 -35.45 0.0009402711    3.979    0.749
       206 -10.6430    141.4808    117.9599   4.1567843969e+01   3.0152779678e+01    0.7924365    0.2985305 -51.16   0.00252075    3.108    0.678
       207  -9.9637     70.8917    119.5553   6.2591329766e+01   4.3154908817e+01    0.3024268    0.1984704 -84.81    0.0010084    1.945    0.486
       208  -8.6013    189.3103     75.3563   2.0465328437e+01   2.7280178088e+01    0.1447587    0.1123642  12.46 0.0007043224    1.732    0.423
       209  -9.9405    140.5511     81.2801   3.1737401815e+01   3.7775308492e+01    0.3829701    0.1527264 -37.06  0.001305923    2.593    0.614
       210  -9.9401    128.0053     72.7294   3.2206766605e+01   4.2363206650e+01    0.6728131    0.2636621 -35.09  0.002251723    2.800    0.643
       211  -9.3271    140.4742     73.6799   2.9458778997e+01   3.9201447461e+01    0.3236669    0.1540031 -32.76  0.001191992    2.306    0.566
       212 -10.0100     82.5043     65.9788   4.3855873199e+01   5.3717585207e+01    0.3700849    0.2273892 -17.34  0.001425143    2.589    0.614
       213  -8.6092     13.6631     74.2761   7.5517137012e+01   6.0901961664e+01    0.1274332   0.09375817  60.71 0.0002406767    1.610    0.379
       214  -9.6921     10.0848     74.2211   7.7120046085e+01   6.1137146830e+01    0.1907638    0.1503363 -45.06 0.0003093198    1.168    0.144
       215  -9.1743    115.5944     71.8398   3.5255597559e+01   4.5436367313e+01    0.2235753    0.1420666 -51.38 0.0009499314    1.717    0.417
       216  -9.6295    158.5156     81.4434   2.7785445437e+01   3.3471970182e+01    0.3284343     0.147623 -36.77  0.001223144    2.213    0.548
       217  -9.8457     94.8640     70.1674   4.1025843602e+01   5.0347668530e+01    0.4980522    0.2068139 -53.44  0.001618231    3.178    0.685
       218 -10.2485     27.1122     71.6385   6.8828606474e+01   6.0495859898e+01    0.3877042    0.1714879 -20.89  0.001277119    4.356    0.770
       219  -9.6930    116.8018     83.1850   3.8499520267e+01   4.2901685517e+01    0.3009009    0.2015606 -26.65 0.0006728188    1.793    0.442
       220  -9.9143    130.4476    117.6163   4.4297844440e+01   3.2565957508e+01    0.4352596    0.2546637 -65.53  0.001600427    2.563    0.610
       221  -9.3096    163.0000     70.0498   2.3609356687e+01   3.4366688395e+01    0.2491975   0.08335318 -35.20 0.0008045619    2.957    0.662
       222 -10.4061     51.2579     68.5886   5.7177835302e+01   5.8430208797e+01    0.4937994    0.2539422 -70.25  0.001810988    3.103    0.678
       223  -9.5507     16.4856     69.5274   7.3263254814e+01   6.1864475546e+01     0.239177     0.120941 -82.06  0.001032774    2.402    0.584
       224  -9.4510    146.6797     66.7185   2.5926696600e+01   3.8915890556e+01    0.4233102    0.1430837 -33.96  0.001347077    3.137    0.681
       225  -9.3334    203.5709     66.2230   1.5985346847e+01   2.5460485286e+01    0.2826759    0.1167817 -37.79  0.001153096    2.136    0.532
       226 -11.1140     27.3189    123.1187   7.7844779246e+01   4.7506898558e+01    0.5713604    0.4721403 -54.78  0.003169835    1.212    0.175
       227 -10.6995     82.3114     71.8841   4.5924808116e+01   5.2516451137e+01    0.5315112    0.2799981 -63.22  0.001857014    3.064    0.674
       228  -8.9690    121.3588     65.6688   3.1646716914e+01   4.5244868364e+01    0.1608067    0.1205843 -80.53 0.0007042116    1.796    0.443
       229  -9.5581     37.1744     63.5168   6.1980630704e+01   6.1382248409e+01    0.2498599    0.1640095 -85.12  0.001139169    2.284    0.562
       230 -10.0435     12.7801    128.9273   8.3239251819e+01   4.7210296103e+01    0.4235033    0.1800431  73.91  0.001678607    2.878    0.652
       231  -9.4455    109.9033     62.6376   3.3790641442e+01   4.8484131485e+01    0.3168025     0.196009 -55.40  0.001322645    1.964    0.491
       232 -10.0902      2.8373    116.1357   8.5297518374e+01   5.1068789949e+01    0.5593273    0.1960053  76.37  0.001913495    3.997    0.750
       233  -9.8465     18.0633     61.7778   7.0732242440e+01   6.3598822798e+01    0.2475462    0.1327846 -49.50 0.0006537698    1.582    0.368
       234  -9.8474    100.0155     59.5005   3.5658821861e+01   5.1307136883e+01    0.3325027    0.1814531 -55.80  0.001263029    2.474    0.596
       235 -10.0102     73.3414     59.1577   4.4856343622e+01   5.6859581420e+01    0.4061267    0.2398184 -58.23  0.001214275    2.162    0.537
       236 -10.5657    105.0493    123.6818   5.2836546052e+01   3.6278501877e+01    0.3119438    0.2466735  16.32 0.0008544801    1.493    0.330
       237 -11.2004      7.4338     54.9144   7.4505936769e+01   6.5902278377e+01    0.6553457    0.1586895 -68.54  0.002251048    3.736    0.732
       238  -9.6673    119.4652     55.9425   2.8836377820e+01   4.7407750874e+01    0.2170811    0.1212965 -57.65 0.0008085977    2.494    0.599
       239 -11.6235     45.3981     49.4112   5.3321078738e+01   6.3435201883e+01    0.4570948    0.2333411 -40.46  0.002060504    1.886    0.470
       240  -9.7137     53.9985     53.2990   5.0776114558e+01   6.1362214000e+01    0.3004091     0.181584 -65.87   0.00127694    2.457    0.593
       241  -9.2732    105.4887     51.8856   3.1232446848e+01   5.1414231436e+01    0.2974085    0.1492168 -33.90  0.001182748    2.107    0.525
       242  -8.6881    247.7350    247.4041   4.5278552110e+01  -7.6992153480e+00   0.08639142   0.07651249 -11.78 0.0005689822    1.739    0.425
       243 -10.2399     63.1451     48.4551   4.4910701882e+01   6.0817513195e+01    0.4733034    0.2180907 -30.18  0.001732882    2.923    0.658
       244  -9.8105     16.5059     42.7431   6.6197641200e+01   6.8044662139e+01    0.5279096    0.1076856 -52.63  0.001887849    3.294    0.696
       245  -9.4361    113.9705     41.3269   2.4976660749e+01   5.1073567343e+01    0.2488846    0.1978635  14.36 0.0002112717    1.490    0.329
       246  -9.5154     82.0076     46.3373   3.6685745825e+01   5.7571364514e+01    0.3352821    0.1464895 -38.76  0.001279249    2.329    0.571
       247 -10.0491      4.8189     40.4574   7.2309278481e+01   6.9328073052e+01    0.3913185    0.1633616 -76.86  0.001587852    3.224    0.690
       248  -9.5320    123.2214     40.6526   2.2476229300e+01   4.8884889434e+01    0.2719267    0.1876241  11.63   0.00104985    2.055    0.513
       249  -8.6609      1.3559     46.2464   7.5790863799e+01   6.8200079868e+01    0.1290951   0.07390452 -35.22  0.000282428    1.595    0.373
       250  -9.2676     84.0442     39.7926   3.3287032994e+01   5.8243686802e+01      0.24769    0.1552203  24.58  0.001081518    2.002    0.500
       251  -8.8703    111.3012     58.3571   3.1897046184e+01   4.8932279049e+01    0.1561756    0.1181823  11.23  0.000429557    1.711    0.416
       252  -9.4434    105.7122     37.6288   2.5739181590e+01   5.3620634165e+01    0.2384518    0.1647881  25.22  0.001104263    1.746    0.427
       253  -9.2334     26.4125     36.2674   5.8179363195e+01   6.8483092564e+01    0.1768337    0.1201286 -61.54 0.0009516321    1.690    0.408
       254  -9.6682     95.5074     36.2922   2.8130049363e+01   5.6223577691e+01    0.3796401    0.1464121 -30.77   0.00137202    2.838    0.648
       255  -9.1582    119.3675     33.1620   2.0607979259e+01   5.0890480964e+01     0.205961    0.1276956 -41.96 0.0008375472    1.706    0.414
       256  -9.5829      6.5018     33.5279   6.9185941669e+01   7.0736684852e+01    0.1236752    0.1030068 -38.43 0.0001240219    1.019    0.018
       257  -9.0742     60.6519     32.3507   3.9068387211e+01   6.4152718714e+01    0.1336173    0.1119172 -85.64 0.0007038472    1.822    0.451
       258  -9.5062     44.3446     25.1785   4.3310980855e+01   6.8142173217e+01    0.2060681    0.1600199  14.06 0.0003897377    1.237    0.191
       259  -8.7737    110.4717     24.4889   1.9321669924e+01   5.4214949745e+01    0.1433972    0.1295887  45.77 0.0002375099    1.052    0.050
       260  -9.4604     31.0171     51.0612   6.1078698258e+01   6.4864547793e+01    0.2018576    0.1632262  73.00 0.0009723729    1.716    0.417
       261  -9.8796     13.0337     21.0182   6.0033178456e+01   7.2791836446e+01    0.2245581    0.1588482  11.18 0.0007469838    1.413    0.292
       262  -9.2443     50.6773     15.6261   3.5188379204e+01   6.8521511683e+01    0.1414252   0.09211663   8.97 0.0001227833    1.815    0.449
       263 -10.1011     13.3212    250.2475   9.0114185372e+01   2.0619925088e+01    0.2266735   0.09604447  43.12  0.001148021    1.642    0.391
       264  -9.5789    107.4421    247.7245   7.1316949113e+01   1.0096125447e+01    0.1902734    0.1203243 -70.70  0.001141868    2.161    0.537
