#   1 NUMBER                 Running object number                                     
#   2 MAG_AUTO               Kron-like elliptical aperture magnitude                    [mag]
#   3 X_IMAGE                Object position along x                                    [pixel]
#   4 Y_IMAGE                Object position along y                                    [pixel]
#   5 X_WORLD                Barycenter position along world x axis                     [deg]
#   6 Y_WORLD                Barycenter position along world y axis                     [deg]
#   7 A_WORLD                Profile RMS along major axis (world units)                 [deg]
#   8 B_WORLD                Profile RMS along minor axis (world units)                 [deg]
#   9 THETA_WORLD            Position angle (CCW/world-x)                               [deg]
#  10 FWHM_WORLD             FWHM assuming a gaussian core                              [deg]
#  11 ELONGATION             A_IMAGE/B_IMAGE                                           
#  12 ELLIPTICITY            1 - B_IMAGE/A_IMAGE                                       
         1 -14.1555    188.9789     24.9353   6.8654675861e+01   3.4567984517e+01     2.145709     1.488689  -5.68  0.006649721    1.513    0.339
         2 -13.8797    196.3754     18.3281   6.5433007282e+01   3.3303006732e+01     1.311507     1.103617 -78.93  0.004303539    1.354    0.261
         3 -13.9481    201.7916     10.3142   6.2184790393e+01   3.2645824471e+01     1.839429    0.8231562  47.93  0.001375158    2.182    0.542
         4 -11.2472     13.3978     24.1319   1.2440421528e+02   6.8556376473e+01    0.1956202    0.1742443  20.86  0.001046749    1.446    0.309
         5 -12.1104    247.7781    249.9973   1.0968096829e+02  -4.1781268767e+00    0.4604853    0.2309978  39.70  0.003129359    1.639    0.390
         6 -14.4486    102.7054    246.1863   1.3225676615e+02   1.5949979015e+01     4.371832     2.094571  25.15    0.0148254    4.087    0.755
         7 -12.5026     35.4336    229.1104   1.4186958401e+02   2.5829784170e+01    0.4461163    0.2974863  82.47  0.001496371    1.339    0.253
         8 -14.7430      3.4483     16.6265   1.2715914853e+02   7.0626154634e+01     13.42492    0.8969635 -64.96     0.028059   12.007    0.917
         9 -13.9739     48.9269    228.7095   1.3972242488e+02   2.4540951543e+01    0.8004729    0.4764243  68.38  0.002903094    1.392    0.282
        10 -16.1414     50.2561    205.8836   1.3818345162e+02   2.7946935451e+01     7.974915     2.748995  65.78   0.03655547    3.909    0.744
        11 -15.1090      8.0680    241.2801   1.4637905240e+02   2.6544894517e+01     1.606032    0.6871501 -72.97   0.01232835    2.518    0.603
        12 -10.3958    229.7933    207.3603   1.0624252801e+02   2.0437904853e+00    0.1951945    0.1675563  18.52 0.0006092945    1.319    0.242
        13 -11.5001    174.2704    220.1294   1.1757006950e+02   9.2408804452e+00    0.3401828    0.2029266  38.22  0.002189852    1.263    0.208
        14 -10.6840    192.8198    194.5447   1.1058451948e+02   9.4085598437e+00    0.6461773     0.355242 -59.83  0.002338856    6.456    0.845
        15 -11.8477     72.1640    193.4190   1.3328743778e+02   2.7574607061e+01    0.3163487    0.2194559 -42.79  0.002103637    2.166    0.538
        16 -11.8640     76.7230    186.5548   1.3179813470e+02   2.8205690844e+01    0.2288223    0.2025266 -51.92 0.0009350792    1.462    0.316
        17  -8.8922    181.4931    192.4497   1.1232215854e+02   1.1558764431e+01    0.1250269   0.09784508  28.97 3.352551e-05    1.037    0.036
        18 -11.5589     84.9929    174.5694   1.2892172695e+02   2.9293873439e+01    0.2287102    0.2083857 -67.27 0.0003773566    1.262    0.207
        19 -13.4347     72.8227    172.0037   1.3115214112e+02   3.1299465514e+01    0.3881707    0.2428862 -45.67  0.002319921    2.153    0.535
        20 -12.8435     90.5291    166.3429   1.2680465907e+02   3.0070915094e+01     2.095341    0.4447598  47.17  0.006926917    4.778    0.791
        21 -13.6788     68.0097    145.1610   1.2919201697e+02   3.7101269247e+01     1.371911    0.6742322  78.36  0.005772653    3.417    0.707
        22 -10.8742    126.1613    173.5618   1.2028886736e+02   2.3522220676e+01    0.3173207    0.1089461  38.35   0.00131245    2.651    0.623
        23  -9.9578    138.3240    171.3313   1.1744849748e+02   2.1934585510e+01    0.1246408   0.09522043   6.95            0    1.703    0.413
        24 -14.2871     11.6708    206.8634   1.4473083848e+02   3.1415593771e+01    0.9474297    0.6739552  49.85  0.003547399    1.274    0.215
        25 -10.1543    102.8814    149.8651   1.2182093458e+02   3.1444572211e+01    0.2670743    0.2206438 -47.84 0.0008564763    1.341    0.254
        26  -9.3301    105.4785    145.5432   1.2054978380e+02   3.1892938641e+01    0.2826506    0.1817486 -33.82  0.001223621    2.139    0.532
        27 -12.4485     46.3477    147.0235   1.3433732140e+02   3.9114487416e+01    0.5562046    0.2372336 -81.94  0.002720806    2.535    0.605
        28 -12.2003     91.7769    149.2156   1.2425942708e+02   3.3185659488e+01    0.2300743    0.2252187 -15.17 0.0004689226    1.221    0.181
        29 -11.7666     56.1936    144.8036   1.3187239008e+02   3.8529907399e+01    0.3283193     0.236274  44.97  0.002161357    1.362    0.266
        30  -9.7076    133.6870    143.8645   1.1379803473e+02   2.7560560796e+01    0.3240274    0.1212821 -57.61   0.00107946    4.228    0.763
        31  -9.9257    112.6535    135.6241   1.1717477245e+02   3.2713783866e+01    0.2681759    0.2077481 -13.00 0.0009700282    1.780    0.438
        32 -10.8889    100.2498    132.7322   1.1965775314e+02   3.5256459577e+01    0.2459755    0.2122539 -23.58 0.0003931193    1.404    0.288
        33 -11.5501     36.1667    133.0826   1.3531313289e+02   4.2958036646e+01    0.2164569    0.1672805 -52.72  0.001498261    1.463    0.317
        34 -13.1816     58.2789    131.7497   1.2982612094e+02   4.1009457319e+01     2.302965    0.7307118 -78.04  0.006210596    7.577    0.868
        35 -11.1790     44.8734    129.8319   1.3287422360e+02   4.2820097037e+01    0.1772246    0.1514004 -56.93  0.001248377    1.287    0.223
        36 -11.4468     41.4028    127.4210   1.3345392874e+02   4.3666488363e+01    0.2656058    0.1578849 -45.13  0.001514976    2.054    0.513
        37 -13.0014     13.9998    152.9911   1.4176710502e+02   4.0784045559e+01    0.9014528    0.2745194  38.82  0.001550979    2.757    0.637
        38  -9.4036    108.8560    122.9436   1.1571424012e+02   3.5896747824e+01     0.184662    0.1728025  -8.47 0.0003292113    1.185    0.156
        39 -11.0340    168.2496    113.0873   9.9297666694e+01   2.6397061113e+01    0.3447379    0.3006089  87.98   0.00096377    1.555    0.357
        40  -9.6104    205.0518    110.4023   9.1056390387e+01   1.8851870067e+01    0.3874586    0.1963569  31.06  0.001538974    2.206    0.547
        41 -10.6256     19.9639    111.2845   1.3717093809e+02   4.8918820595e+01    0.1506342     0.131853  88.25 0.0004986113    1.112    0.101
        42 -13.2863     73.1216    226.7284   1.3566476749e+02   2.2188902595e+01    0.5818684    0.2141285  60.05  0.003038398    3.008    0.668
        43  -9.5634    154.6135     76.1850   9.2277731106e+01   3.5924540094e+01    0.2179979    0.1438597 -20.51 0.0003987651    1.639    0.390
        44 -14.1509     33.6603    246.4208   1.4286297095e+02   2.3530117518e+01     1.822154    0.4942911  40.35   0.01127241    2.521    0.603
        45 -10.5513    127.0105     53.7654   9.1923760219e+01   4.6155287739e+01    0.3395832    0.2662151  78.86 0.0005219297    1.849    0.459
        46  -9.9719    164.2056    250.4014   1.2277640975e+02   7.2973556284e+00    0.1536222   0.07042641  45.75 0.0009498472    1.687    0.407
        47 -11.7337    125.5148    250.2373   1.2894873291e+02   1.2537598568e+01    0.2916406    0.1197484  39.65  0.001791341    1.786    0.440
        48 -12.4207    139.6017    248.1836   1.2650796893e+02   1.0910194504e+01    0.3351407    0.3024793 -89.69  0.003014107    1.482    0.325
