#   1 NUMBER                 Running object number                                     
#   2 MAG_AUTO               Kron-like elliptical aperture magnitude                    [mag]
#   3 X_IMAGE                Object position along x                                    [pixel]
#   4 Y_IMAGE                Object position along y                                    [pixel]
#   5 X_WORLD                Barycenter position along world x axis                     [deg]
#   6 Y_WORLD                Barycenter position along world y axis                     [deg]
#   7 A_WORLD                Profile RMS along major axis (world units)                 [deg]
#   8 B_WORLD                Profile RMS along minor axis (world units)                 [deg]
#   9 THETA_WORLD            Position angle (CCW/world-x)                               [deg]
#  10 FWHM_WORLD             FWHM assuming a gaussian core                              [deg]
#  11 ELONGATION             A_IMAGE/B_IMAGE                                           
#  12 ELLIPTICITY            1 - B_IMAGE/A_IMAGE                                       
         1 -13.5055    202.6853     41.8031   4.1301164217e+01   2.9724493940e+01     1.338361     1.106416 -23.86  0.005767669    1.510    0.338
         2 -13.5535    214.1562     30.9102   3.7537965256e+01   2.8564715459e+01    0.9477692    0.8612859   6.10   0.00265822    1.592    0.372
         3 -11.4911      2.8434      4.0147   8.5671765900e+01   7.3970748389e+01    0.4959625    0.2937472 -28.10  0.003376044    1.379    0.275
         4 -12.3433      3.7907     25.0396   9.4148830673e+01   7.0626527563e+01    0.6757687    0.4369591 -43.58  0.004527143    1.339    0.253
         5 -12.7180    239.8978      5.7252   3.0207809431e+01   2.6060818083e+01    0.7863578    0.5446686 -86.79  0.005035396    1.215    0.177
         6 -10.3436     56.3418      6.1013   6.0275641021e+01   6.6590648121e+01    0.2744921    0.1963686  54.24  0.001499332    1.581    0.367
         7  -9.4399     99.3810    180.8677   9.6496509732e+01   2.3880612791e+01    0.2622833    0.2105172  28.49 0.0006289746    1.330    0.248
         8 -10.0064    140.2751    249.7586   9.7159906683e+01   3.1284507411e+00    0.2263255    0.1803227  51.13  0.001422257    1.266    0.210
         9  -9.9866    102.2199    250.1963   1.0506676300e+02   8.7285342761e+00    0.2296211    0.1516677  45.05 0.0006339313    1.251    0.201
        10 -12.4046     68.5150    170.2994   1.0290398297e+02   3.1181617642e+01     1.273772    0.6073812 -33.54  0.002969817    4.770    0.790
        11 -14.7522     70.7551    151.1362   9.9227959374e+01   3.5639482424e+01     6.684316     3.311056  71.48  0.008085853    4.882    0.795
        12  -9.0256     82.3528    195.0444   1.0286669513e+02   2.3224040930e+01    0.2340147    0.1962173  25.07  0.001311036    1.345    0.257
        13  -9.4885    147.2141    186.4565   8.5773625145e+01   1.4198198384e+01    0.3219211    0.2053429 -44.15  0.001488379    1.637    0.389
        14 -10.8392    239.9838    169.7004   6.3801786337e+01   1.1225517936e+00    0.2443801    0.1947233 -16.71  0.001038774    1.162    0.139
        15  -8.2346    193.2978    170.6135   7.2571632178e+01   8.9192911187e+00    0.1416865    0.1141253 -78.93 0.0007016128    1.779    0.438
        16  -8.0851     64.6680    162.7051   1.0280722490e+02   3.3598923038e+01    0.1403096    0.1083188 -30.17 0.0006981222    1.638    0.389
        17  -9.3631     35.9741    162.0113   1.1052048209e+02   3.7254244262e+01    0.2410001     0.179078  89.72 0.0005002338    1.251    0.201
        18 -10.2865     32.4998    156.0685   1.1074264883e+02   3.9087696026e+01    0.4091673     0.322938  58.29  0.001590919    1.275    0.215
        19 -11.6528     86.9353    152.7847   9.4937131916e+01   3.2752153186e+01    0.6419691    0.4673915 -19.25  0.002933747    1.937    0.484
        20 -10.4915    133.6391    144.8912   8.0674660649e+01   2.6103216034e+01     1.147059     0.302324 -54.73  0.002727332    5.464    0.817
        21  -8.3164    112.4202    150.5208   8.7464442167e+01   2.8876939292e+01    0.1515105    0.1465525 -87.12 0.0001502345    1.022    0.021
        22 -10.5705     55.1464    147.1572   1.0306966635e+02   3.8752341728e+01    0.5544527    0.4837583 -15.74  0.003148021    1.385    0.278
        23  -9.4700    174.5080    149.0169   7.1935980904e+01   1.6878891080e+01    0.2682947    0.2601481  86.75 0.0007868361    1.110    0.099
        24 -13.6032     18.7096    218.6764   1.1966618238e+02   2.5820698072e+01    0.7528957    0.5962192 -30.31  0.004852057    1.996    0.499
        25 -10.4188    101.4927    138.5574   8.7958979607e+01   3.3766755115e+01    0.5836347    0.3743261 -22.02  0.002272073    2.482    0.597
        26 -11.6504     88.5143    138.2313   9.1630450854e+01   3.6098437155e+01    0.3031354    0.2734635 -34.49 0.0004230415    1.179    0.152
        27 -10.2305     81.9187    182.8964   1.0126333049e+02   2.6158329925e+01    0.6759052    0.3593814  60.64  0.002360974    2.339    0.572
        28  -9.5557    110.5518    129.5062   8.3362059033e+01   3.4254667962e+01    0.3324296    0.2608836  12.52  0.001106292    1.585    0.369
        29 -10.0314    105.8917    130.9020   8.5004317958e+01   3.4805379541e+01    0.4794961    0.3501601 -68.66  0.002201745    1.543    0.352
        30 -10.2127    134.7250    128.6985   7.6653311919e+01   2.9578640526e+01    0.4572579    0.3221854  61.63  0.002012423    1.663    0.399
        31 -10.5057     68.0052    128.5020   9.5822922673e+01   4.1699010605e+01    0.2987697    0.2303752  80.37  0.001492842    1.535    0.349
        32  -9.8516    187.0111    175.5840   7.4865737286e+01   9.1054725352e+00    0.3234628    0.2760009 -46.86  0.001139426    1.227    0.185
        33 -10.4819     97.8425    125.4236   8.6073914399e+01   3.7598260730e+01    0.3218089    0.2700802  -5.16 0.0009783407    1.436    0.304
        34 -15.3468     43.2631    193.4914   1.1215347281e+02   2.8816556635e+01     5.672858     2.529136  64.09    0.0116709    2.740    0.635
        35  -9.6611    116.7297    123.9574   8.0314775181e+01   3.4346108468e+01    0.3137602     0.202592  11.50  0.001159657    2.656    0.624
        36  -9.3681     89.2043    210.8652   1.0330940588e+02   1.8614258041e+01    0.2413712    0.1760612 -88.17 0.0005460188    1.503    0.335
        37  -9.3214    134.8257    119.3882   7.4343145227e+01   3.1638099859e+01    0.2969572    0.1157072 -48.65 0.0009136217    2.609    0.617
        38  -9.1145    107.2036    118.6030   8.1701714595e+01   3.7459675791e+01    0.2335419    0.2025345 -61.37 0.0004782362    1.177    0.150
        39  -8.9803     83.8702    118.1116   8.8604352727e+01   4.1782579668e+01    0.2287079    0.2005759  81.05 0.0006272447    1.279    0.218
        40 -10.0740    231.2323    113.7215   5.3674411616e+01   1.2282500948e+01     0.271479    0.2400154 -47.78 0.0007903317    1.012    0.011
        41 -15.0023      4.9290    163.1103   1.1871441293e+02   3.9791751536e+01     7.280937    0.5760135 -73.03   0.01867022    6.906    0.855
        42  -9.3883    205.4228    110.1946   5.7019719375e+01   1.8086696227e+01    0.2950128    0.2059521  43.36  0.001046211    1.606    0.377
        43 -10.3715     32.9064    108.4797   1.0339134562e+02   5.0833953532e+01    0.3651811    0.2343718 -78.95  0.001596347    1.691    0.409
        44 -11.1984    248.7106    107.3388   4.9885879130e+01   1.0116615553e+01    0.3527952     0.236422 -45.50   0.00200407    1.258    0.205
        45 -16.8837     15.4750    242.7632   1.2171924554e+02   2.1178618891e+01     6.284197     2.150479  26.59   0.02696453    3.995    0.750
        46  -9.7222     42.0262    103.4673   9.9220308728e+01   5.1105285683e+01    0.3104129    0.2069149  55.92  0.001034391    1.908    0.476
        47  -9.0144    114.8045    108.7671   7.7018548468e+01   3.8189615923e+01    0.3530028    0.1110001 -41.58  0.001021936    3.546    0.718
        48  -9.6852     36.2647    101.0548   1.0075172592e+02   5.2283239690e+01    0.2139819     0.198643  10.13 0.0007606822    1.189    0.159
        49  -9.6850    120.9730     99.0048   7.2673856529e+01   3.9020074473e+01    0.1875787     0.181801  44.90 0.0006128747    1.029    0.028
        50  -9.6142     16.7283     94.5786   1.0653580104e+02   5.5491760609e+01     0.159707    0.1167793  35.39 0.0004995408    1.592    0.372
        51 -10.5544    243.3026     91.4362   4.7286745556e+01   1.3695114171e+01    0.2505503    0.1336107 -54.49  0.001214833    1.833    0.454
        52  -9.3280     53.1484     90.8334   9.2287028995e+01   5.2731040390e+01     0.196454    0.1517933 -27.07 0.0004669039    1.320    0.242
        53 -10.5650    184.5950    213.3159   8.2407620810e+01   2.4950199409e+00    0.2326852    0.2075472  16.37  0.001017684    1.044    0.042
        54  -8.4826     73.3919     84.1085   8.3208502543e+01   5.1266592119e+01    0.1888514     0.133507 -61.10 0.0004392384    1.629    0.386
        55  -9.1956    159.8261     82.8864   5.8826882872e+01   3.3363754854e+01    0.2291963    0.2076793  16.34 0.0008705251    1.291    0.225
        56  -7.8953     69.3463     81.6764   8.3926135977e+01   5.2430095353e+01    0.1401544    0.1132371  76.78 0.0007049933    1.740    0.425
        57  -7.9292     95.3913     68.6933   7.1145724755e+01   5.0348813825e+01     0.145967    0.1154648  83.58 0.0007011273    1.818    0.450
        58  -9.5583     51.9880     64.3939   8.5185732424e+01   5.8509018427e+01    0.3345828    0.2015709  51.49  0.001559939    2.401    0.584
        59 -10.4303     13.4683     59.8725   1.0022415364e+02   6.3387580607e+01    0.2418348    0.1954295 -52.28 0.0004134084    1.166    0.142
        60 -12.9239    192.8911     48.6205   4.4201828630e+01   3.1041175324e+01     1.022891    0.7735335  42.31  0.001175099    1.634    0.388
        61 -10.8632    119.6978    245.2105   1.0086022203e+02   7.0457245468e+00    0.2741256    0.2263541 -65.79  0.001340114    1.426    0.299
        62 -14.7756      9.5767    207.3513   1.2083936497e+02   2.9179003052e+01     1.224371      1.10201 -46.70   0.00650422    1.516    0.340
        63 -10.6505    192.7665    194.3430   7.7319191437e+01   4.5491830085e+00     0.645416     0.357402 -66.32  0.002042458    5.291    0.811
        64  -8.0741    234.2960     45.2875   3.8617826169e+01   2.2382476377e+01    0.1072299   0.09832944  34.35 0.0002573201    1.550    0.355
        65  -8.9671     78.4420     57.5012   7.2986069721e+01   5.5585008735e+01    0.2614749    0.1304393  41.62 0.0008996588    1.960    0.490
        66 -11.1375     95.1043    242.0030   1.0566223038e+02   1.1306456402e+01     0.444609    0.2134085 -62.87  0.002179031    2.372    0.578
        67 -10.2521    110.9167    203.1265   9.7139687673e+01   1.6895260966e+01    0.2241161    0.1777231  65.84 0.0007122483    1.322    0.243
        68  -9.2362    198.1055     23.6138   3.7546384058e+01   3.3054610621e+01    0.2174386    0.1828283 -34.07 0.0006642179    1.392    0.282
        69  -8.7489    189.5043     14.9584   3.6407335149e+01   3.6006116607e+01    0.1728463    0.1211383 -36.58 0.0007515644    1.545    0.353
        70  -9.7064    121.8517    198.1833   9.3780020752e+01   1.6146701857e+01    0.3559676    0.2135272 -65.67  0.001601359    1.990    0.497
