#   1 NUMBER                 Running object number                                     
#   2 MAG_AUTO               Kron-like elliptical aperture magnitude                    [mag]
#   3 X_IMAGE                Object position along x                                    [pixel]
#   4 Y_IMAGE                Object position along y                                    [pixel]
#   5 X_WORLD                Barycenter position along world x axis                     [deg]
#   6 Y_WORLD                Barycenter position along world y axis                     [deg]
#   7 A_WORLD                Profile RMS along major axis (world units)                 [deg]
#   8 B_WORLD                Profile RMS along minor axis (world units)                 [deg]
#   9 THETA_WORLD            Position angle (CCW/world-x)                               [deg]
#  10 FWHM_WORLD             FWHM assuming a gaussian core                              [deg]
#  11 ELONGATION             A_IMAGE/B_IMAGE                                           
#  12 ELLIPTICITY            1 - B_IMAGE/A_IMAGE                                       
         1 -14.1805    205.5782      5.3930   5.0850678884e+01   3.2438507732e+01     1.612898     1.291425  20.71  0.005383078    1.394    0.282
         2 -13.9236    170.6461     47.8576   6.9664793114e+01   3.6648015025e+01     1.155007    0.8860796   3.78 0.0009448955    1.489    0.328
         3 -15.0506    184.8032     32.6073   6.2203345279e+01   3.5002145934e+01     2.589599     1.467339   7.40  0.009678688    2.649    0.623
         4 -12.3335     51.6971      5.0379   8.5515028040e+01   6.8318897663e+01    0.3036628    0.1935299  44.27  0.001347036    1.893    0.472
         5 -10.8355    159.4563    236.2452   1.1129446907e+02   9.1228931883e+00    0.1239056    0.1018399 -83.32 0.0009514074    1.692    0.409
         6 -19.6692     30.2519    158.1269   1.2727065744e+02   3.9270372339e+01     16.13188     4.750198 -78.82   0.07175924    3.338    0.700
         7 -11.3129    139.8423    200.9022   1.1045255129e+02   1.6925982258e+01    0.1783742     0.149563  33.37  0.001249338    1.254    0.203
         8 -10.5780    210.0666    199.8632   9.7986964531e+01   5.3357958311e+00    0.1678168    0.1422484  43.01 0.0003946776    1.254    0.202
         9 -11.4556    121.7629    199.2934   1.1354993527e+02   2.0014457827e+01    0.2086207    0.1591723 -49.03  0.001417342    1.663    0.399
        10 -10.8437    204.4186    199.1944   9.8830660384e+01   6.3644260992e+00    0.1434171    0.1141008 -45.64 0.0009526129    1.698    0.411
        11 -10.0900    193.6706    220.6594   1.0377386761e+02   5.6341788346e+00    0.1161049   0.07360107  20.60 0.0007051572    1.741    0.426
        12 -10.3633    153.9915    196.0042   1.0723023047e+02   1.5337596723e+01    0.1888444    0.1552537  47.57  0.001042463    1.020    0.020
        13 -14.0534    113.5550    197.1071   1.1480586618e+02   2.1612110757e+01    0.6348084    0.5338042 -58.16  0.004607339    1.451    0.311
        14 -13.5114    105.0320    199.2607   1.1661276392e+02   2.2520531861e+01    0.7103778    0.3549018 -58.22  0.004096788    2.302    0.566
        15  -9.4773    180.4740    192.4877   1.0193931921e+02   1.1320949791e+01    0.1227411    0.1012127  41.35 2.032012e-05    1.052    0.049
        16 -12.8249    110.3717    189.3491   1.1449746603e+02   2.3375830104e+01    0.3775661    0.3314918 -32.15  0.002657654    1.620    0.383
        17 -10.9399    167.5903    188.7149   1.0368528012e+02   1.4084922342e+01    0.2254616    0.2174423 -79.58  0.001329488    1.253    0.202
        18 -10.0551     90.2745    183.8891   1.1772652548e+02   2.7250418263e+01    0.2115269    0.1259679  63.74 0.0007661607    1.601    0.375
        19 -11.8140    206.9881    179.9893   9.5200598285e+01   8.2894717531e+00    0.6484677    0.2783507  35.17    0.0026918    2.236    0.553
        20 -10.6133    144.5986    179.2136   1.0656637298e+02   1.9523246807e+01    0.1540309    0.1194714 -36.13 0.0006396722    1.610    0.379
        21 -12.7414    116.0703    211.2050   1.1590093105e+02   1.9023590881e+01    0.4748778    0.2806938  73.75  0.002779373    2.141    0.533
        22 -11.4568     72.3113    174.6423   1.2026940019e+02   3.1352579084e+01    0.3802902    0.1402711  52.96  0.001765244    2.541    0.606
        23 -13.1885    109.5416    212.0136   1.1713130301e+02   1.9849589478e+01    0.7306721    0.2737741  53.43  0.003602754    2.457    0.593
        24  -9.7610    195.6964    174.3231   9.6198211533e+01   1.1086907536e+01    0.2162526    0.1556932  60.43  0.001164848    1.688    0.408
        25 -11.4555    195.8725    170.1731   9.5422675546e+01   1.1628062333e+01    0.3469226    0.3229896  35.12  0.001653655    1.146    0.127
        26 -10.8955    193.7982    164.9523   9.4841735303e+01   1.2754004871e+01    0.3578541    0.2813615  51.72  0.001592279    1.299    0.230
        27 -11.9301    144.5446    173.4507   1.0569698646e+02   2.0477335712e+01    0.3714758    0.2463123 -80.52  0.001903632    2.341    0.573
        28 -10.9984    146.1045    168.3864   1.0458508343e+02   2.1048168470e+01    0.2320586    0.1938657 -39.71  0.000755201    1.403    0.287
        29 -11.2997     99.3897    180.7187   1.1559155252e+02   2.6506848332e+01     0.240784    0.1929299  42.16 0.0005620744    1.287    0.223
        30  -9.5389    223.3271    163.6404   8.9374755121e+01   7.3936340414e+00    0.1179562    0.1039893 -83.16 0.0007042779    1.786    0.440
        31 -11.9067    106.9666    206.7123   1.1704625838e+02   2.1044523448e+01    0.2839264     0.236599  36.38  0.002099958    1.381    0.276
        32 -10.1951    237.6710    159.3242   8.6141437702e+01   5.2943059112e+00    0.1131809    0.1039156 -78.23 0.0006722725    1.698    0.411
        33 -11.0035    141.8609    158.1479   1.0373811653e+02   2.3570607606e+01    0.3024391     0.251277  20.03 0.0008931856    1.424    0.298
        34  -9.5959    128.2575    155.8232   1.0617942658e+02   2.6402538168e+01    0.2175099    0.1320793  78.43 0.0009465165    2.738    0.635
        35  -9.7806    119.6451    155.7021   1.0798368320e+02   2.7898823516e+01    0.2357307    0.1407746  59.73  0.001191833    1.772    0.436
        36 -10.8990    164.7216    153.3254   9.8228248252e+01   2.0124055772e+01    0.1783287    0.1699904  75.90 0.0002925553    1.149    0.130
        37 -10.7677    151.9762    151.3270   1.0044090297e+02   2.2897296222e+01      0.24116    0.1891713 -87.12  0.001321403    1.654    0.395
        38 -10.8807    129.5037    140.4544   1.0321438836e+02   2.9061932963e+01    0.3613199    0.2540852  18.38  0.001514327    2.088    0.521
        39 -12.0876    133.7717    143.7586   1.0289201675e+02   2.7659054184e+01    0.6787104    0.2364104 -55.74  0.002388304    3.709    0.730
        40 -10.9194     97.0997    213.2798   1.1942638905e+02   2.1404089584e+01    0.2562851    0.1552304  40.90  0.001687949    1.502    0.334
        41 -10.4436    174.7835    148.9196   9.5380403510e+01   1.8885250822e+01    0.2349112     0.192808 -66.76  0.000693462    1.555    0.357
        42 -14.2510     11.7318    206.8384   1.3341937589e+02   3.2203505455e+01    0.5712063    0.3021278  34.18  0.004127577    2.153    0.535
        43 -12.1039    145.3412    146.3192   1.0089132749e+02   2.5038394401e+01    0.4280165     0.297186  65.66  0.002204075    1.671    0.402
        44 -12.4405    109.6495    140.1715   1.0760976539e+02   3.2572835034e+01    0.4753801    0.3269136 -34.89  0.002480424    1.977    0.494
        45 -12.4706     98.6159    140.1252   1.1011744955e+02   3.4361916594e+01    0.2489778    0.2246605  52.26 0.0003822428    1.146    0.127
        46 -10.2785     84.1588    134.5178   1.1258622437e+02   3.7686423231e+01    0.1797684    0.1172097  45.64  0.001000484    1.508    0.337
        47 -11.4587    106.1126    130.8824   1.0678545891e+02   3.5032494509e+01    0.3135694    0.2816707 -88.60  0.001096621    1.059    0.056
        48 -11.4038    104.3652    126.7459   1.0643794964e+02   3.6170609235e+01    0.2865715    0.2280814 -53.26 0.0007778441    1.285    0.222
        49 -12.4971    135.7683    124.4394   9.8615373733e+01   3.0970110588e+01    0.9720945    0.2181336 -48.03  0.002807288    4.705    0.787
        50 -12.7158    117.0659    129.8694   1.0403084160e+02   3.3362466347e+01    0.6298916    0.4483261 -22.17  0.003088014    2.185    0.542
        51 -11.1375    160.9171    128.0047   9.3858403964e+01   2.5258164898e+01    0.3769693    0.2872678 -82.38  0.001863794    1.848    0.459
        52 -10.8782    159.0486    205.5230   1.0762100140e+02   1.3143777792e+01    0.3233858    0.1835902  63.84  0.001374825    2.448    0.591
        53 -10.7202    111.4101    119.2602   1.0327147593e+02   3.6512548518e+01    0.2396356    0.2250444  67.44 0.0003070163    1.043    0.041
        54 -10.6864    167.9074    112.7083   8.8845198125e+01   2.6493832354e+01    0.3702116    0.2765635  88.95  0.001637289    1.978    0.495
        55 -11.0278    138.5588    124.5168   9.7998295634e+01   3.0411627692e+01    0.3579069    0.2831806 -30.02 0.0006409984    1.462    0.316
        56 -12.6410    126.5479    208.1718   1.1371490794e+02   1.7912964466e+01    0.3958158    0.2844318   5.22  0.002262259    2.750    0.636
        57 -10.5307    205.3183    110.2511   8.0895627305e+01   1.8583974392e+01    0.3604849    0.2050909  36.90  0.001134049    1.822    0.451
        58 -10.8637    121.7191    111.0255   9.8981236224e+01   3.6321582111e+01    0.2044781    0.1815171 -54.41 0.0008497901    1.124    0.110
        59 -10.6406    173.6456    231.1186   1.0839643447e+02   7.5695125609e+00    0.1753699    0.1032239 -55.25  0.001096282    2.584    0.613
        60 -11.5201     93.8648    205.2844   1.1924449342e+02   2.3119114899e+01    0.2728857    0.2330539 -35.29  0.001358887    1.842    0.457
        61 -12.1279     89.7213    204.1720   1.1988011923e+02   2.3866225828e+01    0.4202421    0.1991122  52.67  0.002452216    1.731    0.422
        62 -12.3821    173.3506     72.1888   7.6740571457e+01   3.2201603346e+01     0.637904    0.4126838 -79.58  0.001121739    2.817    0.645
        63 -10.2551    163.8896    204.8295   1.0667431304e+02   1.2444037138e+01    0.1712538    0.1618746  45.22 0.0004451997    1.185    0.156
        64  -9.3940    168.3560    248.1441   1.1118011093e+02   6.4461934801e+00     0.109894   0.09630114 -86.35 0.0001127525    1.615    0.381
        65 -10.2705    158.3173    242.0082   1.1210483865e+02   8.6129598278e+00     0.137936   0.08171961 -18.41 0.0007044835    4.238    0.764
        66 -12.5800    193.7672    193.3825   9.9738823009e+01   8.9020884942e+00     0.712077    0.4465104 -51.52  0.003342034    2.295    0.564
