#   1 NUMBER                 Running object number                                     
#   2 MAG_AUTO               Kron-like elliptical aperture magnitude                    [mag]
#   3 X_IMAGE                Object position along x                                    [pixel]
#   4 Y_IMAGE                Object position along y                                    [pixel]
#   5 X_WORLD                Barycenter position along world x axis                     [deg]
#   6 Y_WORLD                Barycenter position along world y axis                     [deg]
#   7 A_WORLD                Profile RMS along major axis (world units)                 [deg]
#   8 B_WORLD                Profile RMS along minor axis (world units)                 [deg]
#   9 THETA_WORLD            Position angle (CCW/world-x)                               [deg]
#  10 FWHM_WORLD             FWHM assuming a gaussian core                              [deg]
#  11 ELONGATION             A_IMAGE/B_IMAGE                                           
#  12 ELLIPTICITY            1 - B_IMAGE/A_IMAGE                                       
         1 -13.4671     56.7196    126.5761   6.3416602210e+01   4.3745820598e+01     3.706705     1.666991 -85.35  0.009934985    4.825    0.793
         2 -12.4349    247.2077     21.6474   3.5607210129e+02   2.2569055091e+01    0.5647166    0.4879527 -71.99  0.003590827    1.237    0.192
         3 -10.3988      1.8023     12.3694   5.6634760934e+01   7.6954902901e+01    0.2483057    0.1399067 -47.93 0.0005415929    1.605    0.377
         4 -10.0568      2.1163      3.2197   5.0386865110e+01   7.8507039109e+01    0.4290372   0.09728187 -46.05  0.001652588    3.823    0.738
         5 -14.7984     10.1509    206.1706   8.5465873640e+01   2.8312103783e+01    0.8219322    0.6150221  24.81  0.002838243    1.510    0.338
         6  -9.8734     74.8529    249.5778   7.3836158009e+01   1.2068593154e+01    0.2522485    0.1703548 -39.12  0.001067698    2.108    0.526
         7 -14.8576     55.5898    235.4911   7.6914216999e+01   1.7124248348e+01     5.866276     2.605387 -48.47   0.02638545    3.292    0.696
         8 -10.1671     67.3983    240.5775   7.4709721058e+01   1.4683316329e+01    0.3037559    0.1788639 -73.70  0.001713548    1.975    0.494
         9  -9.5331    103.4724    238.2237   6.6529115180e+01   1.0417973323e+01    0.2269306    0.1645698 -31.16  0.001065308    1.781    0.438
        10 -10.3772     72.8914    232.7446   7.2813235205e+01   1.5524671119e+01    0.2550179    0.2093435  77.82 0.0007709912    1.277    0.217
        11 -12.1769    133.4646    229.5229   5.8866611131e+01   7.8039247483e+00    0.5600306    0.2727152  24.07  0.002578364    2.071    0.517
        12 -11.7635     97.5775    223.7126   6.6221403341e+01   1.4006018824e+01    0.5865957    0.3444974 -58.48  0.001841631    1.943    0.485
        13  -9.6732     90.2630    217.5445   6.7220726911e+01   1.6289236389e+01    0.2526429    0.2475097  65.15  0.001061494    1.137    0.120
        14 -11.9538     82.1283    221.2059   6.9549543768e+01   1.6651210979e+01    0.7865185    0.3364369  43.75  0.002820529    2.006    0.502
        15 -10.3767     90.8058    226.1946   6.8066373865e+01   1.4450990086e+01    0.3174998    0.2501782  16.32  0.001097625    1.367    0.268
        16 -11.1684     89.0157    222.0124   6.8021216962e+01   1.5541835255e+01     0.415102    0.2524647  57.84  0.001876915    1.769    0.435
        17 -11.5605    106.1777    228.0976   6.4766545247e+01   1.1940679881e+01    0.3779044    0.2151854  39.49  0.001372473    1.490    0.329
        18 -10.7685     72.5154    225.6353   7.2239412529e+01   1.7012855394e+01    0.2748134    0.2227023  65.86 0.0005391295    1.195    0.163
        19  -9.4794    164.6497    226.3212   5.1782950956e+01   3.9356733364e+00    0.1206642   0.09575027  54.04 0.0007048369    1.745    0.427
        20 -10.3154    174.7353    223.0150   4.9220550327e+01   3.0659078866e+00    0.1757942    0.1474055  -7.57 0.0004661054    1.107    0.096
        21 -14.0551     43.3465    244.1595   8.0158418613e+01   1.6839650009e+01     1.842971     1.136608  27.82   0.01018939    1.575    0.365
        22 -10.4857     95.6297    210.2152   6.5047460850e+01   1.7065454476e+01    0.2626955    0.1457317 -70.90   0.00120159    2.252    0.556
        23  -8.8070    102.0466    211.0081   6.3601162179e+01   1.5959169600e+01    0.1592482    0.1454448  40.91            0    1.032    0.031
        24  -9.9634    105.8047    209.1789   6.2455493801e+01   1.5784718897e+01    0.2068246    0.1693621  50.59 0.0004714509    1.186    0.157
        25 -15.5758      6.2497    138.9345   8.2359855824e+01   4.5485080031e+01      11.3704     2.096885 -83.09   0.02686558    6.736    0.852
        26  -9.5311    210.9806    198.8295   3.8173697640e+01   1.8577164727e+00    0.1883459    0.1538531  -2.97 0.0005268191    1.042    0.040
        27  -9.5258    193.4782    194.9890   4.0747131130e+01   4.9643816907e+00    0.1710438    0.1151014 -61.23 0.0008101761    2.638    0.621
        28 -11.3490     68.0530    191.9201   6.9774342968e+01   2.5118383760e+01    0.5222704    0.2868831  82.24  0.001545875    2.476    0.596
        29  -9.5861     55.8258    194.1733   7.3224707265e+01   2.6184452871e+01    0.2167393    0.1708623  63.93 0.0008327438    1.158    0.136
        30 -10.7309     74.3196    190.7056   6.7976492276e+01   2.4539940688e+01    0.3240207    0.2343091 -71.91  0.001017632    1.446    0.308
        31 -10.8968    128.7359    191.6172   5.4258585493e+01   1.5891124275e+01    0.3427902    0.1797563  20.86  0.001351069    2.432    0.589
        32 -11.2476    107.8520    189.4646   5.9086575611e+01   1.9752408927e+01    0.3501662    0.2698148 -17.71  0.001763363    1.633    0.388
        33  -9.4836     52.7206    189.9886   7.3609020964e+01   2.7583665380e+01    0.1912208    0.1610104  79.41 0.0002073094    1.109    0.098
        34  -9.1586    208.5326    188.9774   3.6815812314e+01   3.7518643262e+00    0.1820986   0.09502266 -18.39 0.0004096037    2.367    0.578
        35  -9.8372     64.0965    182.1395   6.9657995662e+01   2.8037446263e+01    0.4083194    0.2115409 -75.81  0.001735703    2.113    0.527
        36 -15.6504      4.4945    234.3027   8.7839575514e+01   2.2782929329e+01     1.672011    0.6475325 -88.98  0.008451797    2.510    0.602
        37  -9.2786    116.0058    181.4836   5.5704412854e+01   2.0220278989e+01    0.2230444    0.1381016  35.26  0.000382191    1.528    0.345
        38  -9.5916     99.9823    181.0890   5.9805451580e+01   2.2945875690e+01    0.2145966    0.2008212  48.34 0.0002777005    1.010    0.010
        39 -11.2488    172.3027    175.3934   4.1323515915e+01   1.1832316925e+01    0.4070793    0.2749185  18.41  0.001529799    1.630    0.387
        40  -9.7383    101.3407    167.7540   5.7198451547e+01   2.5921391167e+01    0.4113089    0.2035069 -42.57  0.001275596    2.362    0.577
        41 -10.2125     78.7201    168.2269   6.3627711169e+01   2.9438807155e+01    0.3487523    0.2326941  86.42 0.0009625134    1.836    0.455
        42 -10.6513    179.6975    166.1446   3.7914833896e+01   1.2328471995e+01     0.432309    0.2841177 -63.30  0.001912609    2.386    0.581
        43  -9.6559    110.8637    167.3121   5.4533633454e+01   2.4395296597e+01    0.2727158    0.2119803 -81.02 0.0006752653    1.545    0.353
        44  -9.4931    233.6601    166.3087   2.8204559107e+01   3.7361189717e+00    0.1145729   0.09586167 -56.56 0.0007043781    1.687    0.407
        45 -10.5878     90.3261    165.6523   5.9904875657e+01   2.8265429797e+01    0.3243451    0.2274789  67.04 0.0007258474    1.674    0.403
        46 -11.2553     66.7736    125.8940   5.9784349278e+01   4.2466419864e+01     0.616518    0.4475002 -69.79  0.002340378    1.371    0.270
        47  -8.7136    125.2271    249.0049   6.3066633798e+01   5.6158717332e+00    0.1349048    0.1033407 -51.06 0.0004353642    1.609    0.378
        48 -10.7880     81.9945    140.3211   5.7719229979e+01   3.6173713546e+01    0.3842842    0.3019091  62.73 0.0003680115    1.365    0.268
        49 -12.0923     75.8719    150.8377   6.1596733156e+01   3.4382270128e+01    0.9927648    0.4857403 -56.60 0.0004721223    1.971    0.493
        50 -11.5850     61.3955    161.9039   6.7746199469e+01   3.3578452256e+01     0.446626    0.3769106  -9.87   0.00151014    1.493    0.330
        51 -11.7769     66.4893    157.8695   6.5616979618e+01   3.3927199011e+01    0.6494032    0.4066274  31.01  0.001900378    1.631    0.387
        52 -12.9232     63.2234    145.9075   6.4704560639e+01   3.7581507554e+01    0.7314946     0.492255  10.08  0.001086668    1.977    0.494
        53 -12.7011     70.3724    145.2172   6.2313798655e+01   3.6717484719e+01    0.7456219    0.5773092  84.72  0.003492954    1.396    0.284
        54  -9.8240     95.8397    160.9118   5.7507536574e+01   2.8540784865e+01    0.4830286    0.2833062 -89.45  0.001695809    3.003    0.667
        55 -10.8744     91.1156    153.3424   5.7472929696e+01   3.1255718282e+01    0.5600914    0.3538375 -83.33  0.001707874    2.158    0.537
        56 -10.5693     84.7557    158.4679   6.0271343054e+01   3.0989489697e+01    0.5080054    0.2320013 -51.69  0.001921243    2.199    0.545
        57 -10.1209    238.9962    161.5018   2.6440127846e+01   3.7213941059e+00    0.1649635    0.1212782  33.20 0.0006484825    1.581    0.367
        58  -8.4404     56.3551    159.2583   6.8886410488e+01   3.4952765459e+01    0.1431246    0.1134294 -24.80 0.0003653494    1.614    0.380
        59 -10.7832     34.8115    158.5056   7.5321603358e+01   3.7725151816e+01    0.3889078    0.2426252 -50.60  0.001407804    1.741    0.426
        60  -9.6393    126.4709    156.9594   4.8370916751e+01   2.4020886265e+01    0.3198496    0.2402977 -88.94  0.001421343    1.867    0.465
        61  -9.7609     43.3457    156.0771   7.2433645126e+01   3.7418428331e+01     0.462197    0.2150151  56.99   0.00177581    2.443    0.591
        62 -10.5743     29.8566    152.8181   7.6218243053e+01   3.9758848773e+01    0.2791966    0.1913178 -76.18 0.0003218614    1.326    0.246
        63 -10.6852    133.6714    145.4931   4.4033819474e+01   2.5299146779e+01     1.174819    0.2691767 -53.51  0.002508541    6.659    0.850
        64  -9.3165    122.4691    148.6887   4.7677678495e+01   2.6725261977e+01    0.2757747    0.1545261 -56.36  0.001088285    1.900    0.474
        65  -9.0182    114.2838    146.8544   4.9515376086e+01   2.8724182027e+01    0.2135386      0.19115 -53.60 0.0005793738    1.117    0.105
        66 -10.3474    109.0266    145.3391   5.0667013009e+01   3.0084838782e+01    0.2926285    0.2771196  50.00 0.0006416439    1.055    0.052
        67 -10.3149     36.8844    142.3379   7.2717894998e+01   4.1863882350e+01    0.3070679    0.2140303 -76.89 0.0008312362    1.323    0.244
        68 -14.0557     44.7454    174.6435   7.4173655594e+01   3.2387053800e+01      5.27054    0.5055566  37.67  0.004567346    4.776    0.791
        69 -10.1143     48.0824    139.8482   6.8658205591e+01   4.1244381394e+01    0.3575566    0.1993554 -69.93 0.0006540282    1.696    0.410
        70  -9.5446     43.0850    140.0503   7.0349828477e+01   4.1790383522e+01    0.4458732    0.1654241  45.06  0.001573646    2.769    0.639
        71  -9.5646    114.8349    136.5515   4.7063374110e+01   3.1137378467e+01     0.274676    0.2151206 -55.21 0.0006103185    1.277    0.217
        72 -10.1245     76.9626    134.2461   5.8098068817e+01   3.8613156000e+01    0.3063917    0.2242809 -70.54 0.0005535036    1.397    0.284
        73 -10.5316     99.3795    133.7998   5.0951755146e+01   3.4791843945e+01    0.6802438    0.4247648   3.89  0.002297538    3.156    0.683
        74 -10.3886    105.5136    130.7319   4.8402801374e+01   3.4398280131e+01    0.4219142    0.3636524 -40.45  0.001534518    1.188    0.158
        75 -16.6523      5.9372    218.5538   8.6957296031e+01   2.5947882961e+01     3.326998     1.527489  63.75   0.01738609    1.820    0.450
        76 -11.4697     86.1027    132.2589   5.4733408709e+01   3.7594062329e+01    0.2963633    0.2832317 -50.56 0.0004471004    1.064    0.060
        77  -9.0365     50.9933    163.9411   7.1115959541e+01   3.4405573595e+01    0.1768549    0.1600406  76.68 0.0005100116    1.002    0.002
        78  -8.9482     32.9407    133.5075   7.2850404247e+01   4.4699409023e+01    0.2141381   0.09430499  49.69 0.0007524337    2.473    0.596
        79  -9.7259     44.4685    130.4919   6.8400995493e+01   4.4249944137e+01    0.3132939     0.137254 -67.14  0.001189762    2.101    0.524
        80  -9.7248    109.5926    126.0854   4.6078591301e+01   3.4750025919e+01     0.289641    0.2424237  27.26 0.0007222879    1.290    0.225
        81  -9.9110     31.9479    125.9513   7.2121230355e+01   4.6879395420e+01    0.2517841    0.2196032 -35.17 0.0003579931    1.277    0.217
        82 -10.1601     96.3932    121.5424   4.8973521524e+01   3.8477711481e+01    0.3011057    0.2714705 -11.19 0.0006575744    1.254    0.203
        83  -8.9360     43.8975    120.0000   6.6796408066e+01   4.7202833810e+01    0.2274845   0.08680463  26.00 0.0006598182    2.839    0.648
        84  -9.5754     26.9130    116.6394   7.2573149496e+01   4.9927704873e+01    0.1962192    0.1808866  71.89 0.0006285078    1.111    0.100
        85  -9.2894    106.3405    116.0959   4.4512021403e+01   3.7866977340e+01    0.2250214    0.1981054 -53.00 0.0003489405    1.113    0.101
        86 -10.1080     46.8696    115.2752   6.4795793174e+01   4.8133109061e+01    0.2537746    0.2233223  80.45 0.0003388712    1.161    0.138
        87 -10.1177     32.9062    108.9269   6.8971960978e+01   5.1458480992e+01    0.4760177    0.1521001 -52.43  0.001632654    2.729    0.634
        88  -9.7318     28.6629    108.0960   7.0504050766e+01   5.2104066835e+01    0.2632309    0.1834559  45.67 0.0004289881    1.548    0.354
        89 -10.8293     23.8566    104.7280   7.1855984157e+01   5.3458311310e+01    0.3984755    0.2973581  44.64  0.001742797    1.455    0.313
        90 -11.2136     82.8408    145.9221   5.8552117565e+01   3.4560518970e+01    0.7228755    0.4534781  10.19  0.002421823    2.418    0.586
        91  -9.4350     20.0389    108.5055   7.3988563890e+01   5.2748517444e+01    0.1968944    0.1416641  23.83 0.0006030183    1.555    0.357
        92 -10.4696    133.6620    104.1568   3.3587467013e+01   3.4707284699e+01    0.4806238    0.2746459 -64.87  0.001668738    2.648    0.622
        93  -9.7058    112.7703    102.6012   3.8875887998e+01   3.9730955851e+01    0.2303431    0.1528176  55.05 0.0009511541    1.646    0.392
        94 -10.5045     50.0911     97.9489   5.9714689600e+01   5.2376878628e+01    0.4635988    0.2561944  61.12  0.001445189    2.765    0.638
        95  -8.7517     58.2991     98.6246   5.6595404619e+01   5.1026511477e+01    0.1605522    0.1181594  77.63 0.0007027125    1.753    0.429
        96 -10.0420     83.0799     96.4569   4.6682929701e+01   4.7331509342e+01    0.3693818     0.248509  72.09  0.001444869    2.241    0.554
        97 -10.3405     48.8849     88.2051   5.7698783179e+01   5.5077231708e+01    0.2872764    0.2152839 -60.25 0.0004447263    1.272    0.214
        98 -10.8282     42.3261     92.8510   6.1697234073e+01   5.4722681872e+01     0.328819    0.2463729  48.96 0.0005267516    1.489    0.329
        99 -10.8127     46.1920     91.3940   5.9688607231e+01   5.4614035286e+01    0.3712263    0.2467139  42.57  0.001120187    1.636    0.389
       100  -9.7729     23.1779     92.8927   6.9998411955e+01   5.6705994947e+01    0.3470187    0.1956552  11.31  0.001408147    2.117    0.528
       101 -15.4715     32.7940    186.9358   7.8599563456e+01   3.0640711344e+01     5.400296     2.017483  87.06   0.01799797    3.606    0.723
       102  -9.8470    115.6881     78.3892   3.0554415612e+01   4.4359633228e+01    0.4237369    0.2776301 -82.44  0.001552442    2.635    0.620
       103  -8.7837    102.0261     76.9878   3.4121871263e+01   4.7815002937e+01    0.1839266    0.1820913  58.61 0.0003592437    1.014    0.014
       104  -9.9926     38.1950     75.8646   5.9029729224e+01   5.9576456701e+01    0.4462623    0.1365719  43.43  0.001321493    4.447    0.775
       105  -8.6322    130.5351     75.5036   2.5733199782e+01   4.1354697709e+01    0.1590893    0.1467428 -74.67 0.0008080343    1.090    0.083
       106  -9.9579    170.0786     73.3321   1.6936321389e+01   3.2104821391e+01    0.2538868    0.1939012 -48.03 0.0002976397    1.213    0.175
       107 -10.0999     30.1139     71.6218   6.1722570285e+01   6.1544621411e+01    0.2683643    0.1143018  34.40  0.001076779    2.480    0.597
       108 -10.8435    139.7229     66.5325   2.0737553829e+01   4.0725477265e+01     0.591927    0.3275887 -69.11  0.001755116    3.120    0.679
       109  -8.5077    124.3788     68.6985   2.5021989847e+01   4.4143883252e+01    0.1644559    0.1203347 -80.78 0.0007025292    1.768    0.434
       110  -9.8517     23.2070     68.2177   6.4268079037e+01   6.3066192600e+01    0.1818214    0.1611082  71.53  0.000536023    1.341    0.254
       111 -11.7169    196.4473     61.5595   9.8187487266e+00   2.7860436413e+01    0.5264143    0.3719319  58.23  0.001356997    1.569    0.363
       112 -12.7431    208.4716     54.0114   6.4953288178e+00   2.6305053324e+01    0.8590858      0.75215 -53.60   0.00320353    1.079    0.073
       113 -13.2994    219.3706     46.3689   3.5593164645e+00   2.5035044758e+01    0.7796848    0.6876985  30.91  0.001413746    1.590    0.371
       114  -9.3048     64.0391     63.5339   4.3117769305e+01   5.8525215257e+01    0.2168428    0.1451267  38.80  0.000455225    1.519    0.342
       115  -9.0339    147.0035    242.9556   5.7779040866e+01   3.6776267372e+00    0.1511307    0.1213877  20.66 0.0004653409    1.007    0.007
       116 -11.4232     13.5960     59.8840   6.7145319778e+01   6.5891955177e+01     0.302011    0.2124018 -54.09 0.0007590251    1.216    0.178
       117  -9.1923    134.6733     59.7229   1.9606439423e+01   4.3158293034e+01    0.3412069    0.1883067  62.24  0.001401159    1.847    0.459
       118 -10.5252     20.3012     32.8906   5.3211419237e+01   7.1298751238e+01    0.2168002    0.1671907  27.94 0.0005684429    1.399    0.285
       119 -11.0202    249.5024     28.0249   3.5725423270e+02   2.1398045564e+01    0.3951115    0.2226151 -27.50  0.002268326    1.893    0.472
       120 -11.5206    245.2923     27.0036   3.5729495946e+02   2.2306445647e+01    0.4349878    0.2086229 -42.82  0.001884401    1.545    0.353
       121  -9.6745    220.1072    246.8130   4.4426601304e+01  -5.8870663881e+00    0.1547142    0.1220512   4.32 0.0004480793    1.200    0.167
       122 -10.4414      2.7989     22.4738   6.1063457721e+01   7.4947379870e+01    0.2266374    0.1559948 -47.29  0.001385661    1.277    0.217
       123  -9.4208     60.7042     21.1524   2.5035594875e+01   6.6562284266e+01    0.2234312    0.1785694  56.77 0.0007074991    1.333    0.250
       124  -9.0418     83.1142    245.5943   7.1717990178e+01   1.1754017399e+01    0.1712894    0.1408035 -63.68 0.0005417627    1.470    0.320
