#   1 NUMBER                 Running object number                                     
#   2 MAG_AUTO               Kron-like elliptical aperture magnitude                    [mag]
#   3 X_IMAGE                Object position along x                                    [pixel]
#   4 Y_IMAGE                Object position along y                                    [pixel]
#   5 X_WORLD                Barycenter position along world x axis                     [deg]
#   6 Y_WORLD                Barycenter position along world y axis                     [deg]
#   7 A_WORLD                Profile RMS along major axis (world units)                 [deg]
#   8 B_WORLD                Profile RMS along minor axis (world units)                 [deg]
#   9 THETA_WORLD            Position angle (CCW/world-x)                               [deg]
#  10 FWHM_WORLD             FWHM assuming a gaussian core                              [deg]
#  11 ELONGATION             A_IMAGE/B_IMAGE                                           
#  12 ELLIPTICITY            1 - B_IMAGE/A_IMAGE                                       
         1 -11.9754     87.7861     53.5215   8.6716964439e+01   5.3324640579e+01    0.5652751     0.396346  33.70  0.002332851    1.377    0.274
         2 -11.4130     75.1897     21.8407   8.0045379451e+01   5.9653792453e+01    0.5828053    0.2670066 -20.03  0.002823952    2.618    0.618
         3 -11.8550     40.2637      9.2913   8.7288599497e+01   6.5911985895e+01    0.3892719    0.1694245 -23.85  0.002161497    2.292    0.564
         4 -11.6765     30.0907      7.2319   9.0392351991e+01   6.7284487606e+01    0.3052349    0.2316002  16.85  0.001747658    1.292    0.226
         5 -11.6409     34.7735     12.9789   9.0775408575e+01   6.6111892751e+01    0.3105138    0.2209316 -36.83  0.001090816    1.667    0.400
         6 -10.8902     42.4604     17.9599   8.9739035713e+01   6.4639840807e+01    0.4232726    0.2183395 -20.48  0.002483209    1.912    0.477
         7 -11.5425     93.0543      8.3472   7.0260116001e+01   5.7992524951e+01    0.3932005    0.2782499  25.41  0.001271776    1.265    0.210
         8 -10.9877     90.6488      2.3674   6.8827333908e+01   5.8954907578e+01    0.3518281     0.219355  42.76  0.001545289    1.309    0.236
         9 -10.8075     88.5631     12.8381   7.3001317246e+01   5.8369655352e+01    0.3639794    0.2854111  62.03  0.002213264    1.627    0.386
        10 -10.2070     48.6923     15.3909   8.6520384559e+01   6.4184680186e+01     0.254007    0.1836613 -46.68  0.001404269    2.153    0.536
        11 -10.4168    155.3212     14.6585   5.9091046010e+01   4.4529195962e+01    0.3069797    0.1767554  48.08  0.001291127    1.588    0.370
        12 -10.6952    203.1299     12.0534   5.1698475430e+01   3.3898541534e+01    0.1819263    0.1491862  62.47 0.0003798143    1.237    0.192
        13  -9.8535    118.9782     12.0477   6.5300698566e+01   5.2629427930e+01     0.149013    0.1230197  44.43  0.000360247    1.021    0.020
        14 -10.8843     15.0376      8.8223   9.7129605073e+01   6.8524328585e+01    0.2723618    0.1273672 -21.74  0.000388741    1.982    0.495
        15 -10.7875      4.1491     10.0026   1.0219219615e+02   6.9204196815e+01    0.1909191    0.1282364 -16.08 0.0003594706    1.079    0.073
        16 -10.2941      2.4633      6.4805   1.0163717524e+02   6.9775612838e+01    0.3316425    0.1206905   9.86  0.001681431    3.661    0.727
        17 -10.7644     11.0305      6.5063   9.7945841031e+01   6.9139044118e+01    0.2204989     0.191767 -37.23  0.001531045    1.792    0.442
        18 -10.4170     10.0339      2.0360   9.6647335559e+01   6.9758568953e+01    0.2362854    0.1447822  -7.31  0.001520419    1.300    0.231
        19 -11.7456     55.5569      7.1999   8.1033833079e+01   6.4159479776e+01    0.3330673     0.281268 -12.51  0.001428268    1.317    0.241
        20 -11.3755     57.9012      2.0495   7.8276759029e+01   6.4327233916e+01     0.260162    0.1899827  -6.17 0.0003289135    1.242    0.195
        21 -11.5887    151.8605      8.4217   5.7994429804e+01   4.5911910294e+01     0.315201    0.2659588  89.37  0.002075523    1.247    0.198
        22 -11.1197     70.3542      5.4184   7.5605396516e+01   6.2128289037e+01    0.3045762    0.2307438 -26.33  0.001359082    1.507    0.336
        23 -10.1729     67.1910      1.4311   7.5087095640e+01   6.2987869085e+01    0.1618683    0.1170456  26.58 0.0003639226    1.102    0.092
        24 -10.0809     65.0004      7.0549   7.7877992751e+01   6.2800560654e+01      0.17072     0.133741  14.08 0.0004751719    1.014    0.014
        25 -11.4070    130.9907      4.3500   6.0544178868e+01   5.0819240639e+01    0.3732657     0.222364 -63.40  0.001854932    2.790    0.642
        26 -11.4502    107.2558      4.6851   6.5581186943e+01   5.5635674925e+01    0.3926566    0.2193883  67.88  0.002049369    2.222    0.550
        27 -10.5192     16.5479      3.4840   9.4438257270e+01   6.9034915921e+01    0.2029702     0.152883 -35.73   0.00160622    1.687    0.407
        28 -11.0202     20.1495      2.1742   9.2415669638e+01   6.8853256308e+01    0.2426414    0.1545562  18.25  0.001509449    1.402    0.287
        29 -10.1028    176.4133      1.8072   5.2679845823e+01   4.1005045595e+01    0.2013415    0.1277267  34.61  0.001109711    2.059    0.514
        30 -10.6102    160.6886      2.8966   5.5153781654e+01   4.4447208404e+01     0.180618    0.1497004  26.50 0.0009599963    1.436    0.304
        31  -9.7622    235.6444      4.6847   4.6829308392e+01   2.7527971718e+01    0.1129143   0.08284196  51.64 0.0007045153    1.743    0.426
        32  -9.5423     38.0000      2.8718   8.5626195225e+01   6.6870257673e+01    0.1545671   0.05199436 -31.50 0.0006232648    2.840    0.648
        33 -10.5526    210.7559      7.6034   4.9877814703e+01   3.2663656866e+01    0.1788302   0.09904662  82.32 0.0008653425    1.651    0.394
        34 -11.3711     80.1216      1.7468   7.1422989308e+01   6.0852971339e+01    0.3065033    0.1359788  47.01  0.001498713    1.897    0.473
        35 -10.5237    199.0054      4.0098   5.0413195609e+01   3.5680963268e+01    0.1497818    0.1268029  89.83  0.001013454    1.070    0.066
        36  -9.3689      1.8683      2.6642   1.0046722184e+02   7.0296260979e+01    0.1237638   0.07597179  22.09 0.0009456141    1.760    0.432
        37  -9.5325    120.9747      3.9861   6.2401475856e+01   5.2942901288e+01    0.1446839    0.1196154  45.78 0.0003874942    1.007    0.007
        38  -9.6308    187.1253      1.2664   5.1198446822e+01   3.8633978131e+01    0.1716318   0.09071224  77.00 0.0008907783    1.696    0.410
        39 -10.6255     22.4241      9.5428   9.4353782626e+01   6.7778619019e+01      0.25072    0.1493027   4.07  0.001566034    1.518    0.341
        40  -9.8494     28.0158      1.1911   8.8822637331e+01   6.8169884638e+01    0.1253456   0.06682624  27.54 0.0003763673    1.704    0.413
        41  -9.7949     35.2384    130.8180   1.2089937650e+02   4.4401292426e+01    0.1747084    0.1211257 -47.90 0.0004795631    1.346    0.257
        42 -12.5253      4.8872    240.7697   1.3805971884e+02   2.3438818412e+01    0.4681044    0.2815061  62.43  0.003347264    1.348    0.258
        43 -11.4465      1.7904    248.3141   1.3896544727e+02   2.2313830392e+01    0.3956426    0.2625274  66.04  0.003040024    1.202    0.168
        44 -12.4319     11.1087    244.3475   1.3730558437e+02   2.2111046179e+01    0.4387148    0.3374748   0.66  0.002794145    3.304    0.697
        45 -12.0050      4.1532    232.5268   1.3767557894e+02   2.5117731689e+01    0.2542065    0.1569534  71.01 0.0002795703    1.257    0.205
        46 -13.0864      9.8914    228.6428   1.3649496296e+02   2.5317913402e+01    0.6488005    0.3318276 -85.53  0.002014661    1.553    0.356
        47 -10.8688     11.7300    129.3282   1.2666346569e+02   4.6673898725e+01    0.3198538    0.1794918  70.99  0.001689358    2.431    0.589
        48  -9.5139     20.4645    125.4274   1.2389671189e+02   4.6885423042e+01     0.120223   0.09706846 -68.49 -6.335076e-05    1.044    0.042
        49 -11.8555     22.9066    120.6320   1.2252281558e+02   4.7754120682e+01    0.5370972    0.3015847  75.74  0.002200593    2.847    0.649
        50  -9.2150     17.3962    122.2801   1.2422381077e+02   4.7814856832e+01    0.1229322   0.07374875 -39.11 0.0006994575    1.757    0.431
        51  -9.9550      8.1104    121.1341   1.2645590169e+02   4.8714336851e+01    0.1547502    0.1178867 -87.94 0.0005035354    1.318    0.241
        52 -10.5522     72.2086    112.9781   1.0736319903e+02   4.4199740089e+01    0.1960622    0.1929266 -20.70 0.0003125216    1.103    0.093
        53 -10.8152     65.2605    110.6582   1.0884012662e+02   4.5628985972e+01    0.3450677    0.1914337 -56.99 0.0006596372    1.647    0.393
        54 -10.4991     20.0383    112.3692   1.2196635799e+02   4.9783810721e+01    0.1511677    0.1365956 -53.36 0.0002409991    1.141    0.124
        55 -11.4910      3.4871    109.0318   1.2593358144e+02   5.1596903220e+01    0.2769527    0.2145954  50.39   0.00197786    1.636    0.389
        56 -10.7922     57.5540    107.9588   1.1048107103e+02   4.7165939206e+01    0.2442955    0.1796642  -2.70  0.001139557    1.716    0.417
        57  -9.1939     40.0000    105.9784   1.1516858547e+02   4.9470654449e+01    0.2159685   0.06102681 -59.07 0.0008065774    2.971    0.663
        58 -10.1075     89.7128    104.9554   1.0049955036e+02   4.3371086788e+01    0.2013034     0.176317 -44.82 0.0004809393    1.066    0.062
        59 -10.3862     17.9287    105.0260   1.2131879676e+02   5.1516475170e+01    0.1920267    0.1120859 -37.74  0.001119696    1.691    0.409
        60  -9.4475    187.1459    103.3604   7.6034166412e+01   2.3639223576e+01    0.2080649    0.1401463  64.82 0.0005882532    1.618    0.382
        61 -10.4752     57.4360    102.0991   1.0923346860e+02   4.8448280071e+01    0.2541826    0.1659983  50.15  0.001339256    1.961    0.490
        62  -9.8787    113.5209    102.5116   9.3261750439e+01   3.9752135889e+01    0.1446174    0.1393922 -26.88 0.0001086175    1.014    0.014
        63  -9.9156    100.8394     96.2917   9.5150568618e+01   4.3339082741e+01    0.3062741    0.2036673 -61.36  0.001438935    1.802    0.445
        64 -11.9603     11.2168     90.1941   1.2062887404e+02   5.5056362590e+01    0.8614809    0.1417251 -62.10  0.002915682    4.565    0.781
        65 -10.2102     78.8405     94.7836   1.0112940477e+02   4.7174104631e+01    0.1979383      0.16756 -21.87 0.0002654042    1.175    0.149
        66 -11.1184     18.3821     94.9178   1.1937445131e+02   5.3610155106e+01    0.1957449    0.1556982  45.33   0.00104449    1.615    0.381
        67 -10.0809     43.9802     92.5242   1.1114378051e+02   5.1931046268e+01    0.2910989    0.1088505 -42.69  0.001188471    2.445    0.591
        68 -10.8555     57.9191     91.8379   1.0671207489e+02   5.0548266510e+01    0.2396147    0.1870788 -19.87 0.0007504738    1.325    0.245
        69  -9.7631     29.3249     92.0297   1.1551716332e+02   5.3372326234e+01    0.1891254    0.1701509  -9.02 0.0008356846    1.238    0.192
        70 -10.5877     24.7743     89.5917   1.1640506268e+02   5.4236298721e+01    0.2767587    0.2184004  81.89  0.001539891    1.725    0.420
        71 -11.2006     76.4601     89.2669   1.0042990347e+02   4.8644805919e+01    0.2471054    0.2268583 -21.06 0.0005697872    1.035    0.034
        72 -10.4759      3.6485     95.3239   1.2374486572e+02   5.4450575901e+01    0.2100797    0.1451183 -47.24 0.0005868808    1.188    0.159
        73 -10.6187     33.1460     88.2776   1.1354579757e+02   5.3817927667e+01    0.1904134    0.1300684 -45.00 0.0003439903    1.196    0.164
        74  -9.3345      1.6277     89.2268   1.2330289405e+02   5.5802055731e+01    0.1655927   0.07306503 -55.20 0.0007915029    1.610    0.379
        75  -9.5137    123.8260     87.1404   8.6431911211e+01   4.0831066787e+01    0.2049807    0.1733486   1.60  0.001078849    1.341    0.254
        76  -9.7521    113.8949     85.7126   8.8688757295e+01   4.3055216881e+01    0.2068363    0.1789508   1.13  0.001132624    1.242    0.195
        77 -11.3584     54.9313     84.7777   1.0591187429e+02   5.2328537873e+01    0.2854203    0.2099714 -56.09 0.0008766316    1.357    0.263
        78 -11.2398     18.4434     87.2912   1.1788099273e+02   5.5169346573e+01    0.3706541    0.2390894 -59.70  0.001498133    1.311    0.237
        79 -10.1848    107.6606     89.2907   9.1378678030e+01   4.3527791867e+01    0.1388294    0.1140719  83.82 0.0006929096    1.645    0.392
        80  -9.9635     42.5846     82.3955   1.0923063339e+02   5.4124120328e+01    0.2794447    0.1522539 -57.93  0.001458396    1.778    0.438
        81 -10.6472      3.8777     82.5500   1.2143401668e+02   5.7018934551e+01    0.3185936    0.1560388 -66.67  0.001512389    1.834    0.455
        82  -9.6066    146.0239     83.5029   7.9916104999e+01   3.6814471662e+01    0.2125565    0.1420825  50.55 0.0003370767    1.465    0.318
        83  -9.8739    100.1468     83.1167   9.1803098449e+01   4.6073184434e+01    0.2098741    0.1808384 -10.04  0.000416463    1.185    0.156
        84 -11.0821     64.4857     79.4503   1.0153589949e+02   5.2210754996e+01    0.4856655    0.2173397 -50.72  0.001975629    2.124    0.529
        85 -10.1896     89.3561     80.5550   9.4230134168e+01   4.8381896916e+01    0.2453625    0.1952516 -69.50 0.0006794569    1.671    0.402
        86  -9.3119    250.3345     80.7198   6.0396350779e+01   1.3639880717e+01    0.1388635   0.09304569 -74.64 0.0005417378    1.613    0.380
        87  -9.7527    124.5048     79.0362   8.4015152875e+01   4.2208639580e+01    0.1932805    0.1236878 -64.81 0.0008069526    2.367    0.577
        88  -9.3735     85.4335     79.4948   9.5104012756e+01   4.9208767828e+01    0.1354863     0.120106 -17.55 4.104292e-05    1.049    0.047
        89 -10.7355     16.6093     76.2467   1.1616186042e+02   5.7487384550e+01    0.3494386    0.2212203  50.58  0.002073408    2.450    0.592
        90 -10.3718    176.9636     77.0073   7.1502103363e+01   3.0892453269e+01    0.2340065    0.2179127  78.69  0.001301698    1.020    0.020
        91 -10.3713     28.0944     77.0519   1.1262661202e+02   5.6478552812e+01    0.1721004    0.1391055 -40.01 0.0003578819    1.015    0.015
        92 -11.0048     56.1125     74.9738   1.0300726486e+02   5.4099207496e+01    0.3594948    0.2910031   8.92  0.001446992    1.282    0.220
        93  -9.0349    160.7022     75.3288   7.4416016996e+01   3.4962944199e+01     0.148366    0.1130125 -78.52 0.0001910387    1.637    0.389
        94  -9.2126     74.2073     75.3749   9.7382941908e+01   5.1666055271e+01    0.1791872    0.1189773  43.52 0.0009535485    1.731    0.422
        95  -9.6659     70.3063     75.3428   9.8591672952e+01   5.2218132335e+01     0.136268   0.09162477 -17.20 0.0003358905    1.688    0.408
        96 -11.5744     32.1813     73.0160   1.1032895786e+02   5.6914025858e+01    0.4366249    0.2350796  45.18 0.0002533529    2.787    0.641
        97 -11.0004     36.3064     72.2960   1.0878774303e+02   5.6683035059e+01    0.3596328    0.2032216 -32.59  0.001066263    1.652    0.395
        98  -8.8361    224.3257     74.2974   6.2685956429e+01   2.0357673453e+01    0.1308388     0.111265  26.04 0.0003632746    1.629    0.386
        99  -9.2667    136.5444     74.4666   7.9711473688e+01   4.0503427997e+01    0.1426181    0.1357383  25.56 0.0001116083    1.041    0.040
       100 -10.4999     92.7024     72.7081   9.1018515746e+01   4.9281665569e+01    0.3204809    0.2873262 -84.28  0.001677823    1.486    0.327
       101  -9.5831     81.4831     72.9872   9.4465846898e+01   5.1031333174e+01    0.2709342    0.1679018 -73.37 0.0009914616    4.293    0.767
       102 -10.1158     79.5899     69.0030   9.3898572893e+01   5.2037411555e+01    0.2433441    0.1659938  16.63   0.00130362    1.633    0.388
       103 -10.0164    105.8793     71.8466   8.6984578862e+01   4.7113368195e+01    0.2023137    0.1743562  10.75 0.0004179411    1.167    0.143
       104 -11.0621      6.4127     75.4053   1.1925677193e+02   5.8279955483e+01    0.2751018    0.1391655 -44.81  0.001676689    1.509    0.337
       105  -9.9647     46.5719     69.4485   1.0464638169e+02   5.6202128520e+01    0.2189987    0.1169305  24.94   0.00117183    2.063    0.515
       106 -13.6776     19.8806     57.4386   1.1059465770e+02   6.0763007808e+01    0.4148846    0.2563396 -48.15  0.001235074    1.342    0.255
       107 -11.5525     14.0589     64.0430   1.1424651147e+02   5.9968435886e+01    0.4552256    0.2125789 -47.53  0.001576549    1.601    0.375
       108 -12.2539      9.8140     60.6913   1.1490775751e+02   6.0848741169e+01    0.7686473    0.2615423 -48.91  0.003022812    2.065    0.516
       109 -10.6937     34.6485     64.8133   1.0741730452e+02   5.8226616928e+01     0.307317    0.2235934 -47.76  0.001834013    1.256    0.204
       110 -10.6934     39.5960     62.4123   1.0508414875e+02   5.8193975645e+01    0.4072501    0.1461435 -37.11  0.001475435    2.698    0.629
       111 -10.2245    133.1989     65.5964   7.8024747760e+01   4.2723606327e+01    0.2073305    0.1232732  39.43  0.000500533    1.703    0.413
       112 -11.0208     75.5598     64.7677   9.3910493910e+01   5.3382386879e+01    0.2821825    0.1856459  42.19 0.0009391029    1.690    0.408
       113  -9.2207    131.3590     63.2969   7.7814914950e+01   4.3489012673e+01    0.1460291     0.105036  19.58 0.0005209974    1.705    0.414
       114 -11.1269     64.8501     61.5580   9.6384782151e+01   5.5434148171e+01    0.4198772    0.2610765  17.67  0.001719555    1.785    0.440
       115 -10.2154    100.8431     61.8236   8.5445952232e+01   4.9737753907e+01      0.21661    0.1917348 -46.08 0.0004006129    1.273    0.214
       116 -11.1877     27.0314     43.7519   1.0418481904e+02   6.2521060461e+01    0.4727301    0.3039246  43.02  0.002928653    2.383    0.580
       117 -11.5596     18.6350     32.3103   1.0382583274e+02   6.4996838853e+01    0.6989186    0.2986501  -3.41  0.002975948    4.398    0.773
       118 -10.5958     25.8830     29.6152   1.0014293228e+02   6.4789520870e+01    0.1792254    0.1288707 -35.93 0.0003669953    1.312    0.238
       119 -13.6161      6.0446     50.5962   1.1377001894e+02   6.2864738332e+01    0.5416808     0.278408 -31.60 0.0008934026    1.646    0.392
       120 -11.2539     18.5085     44.9689   1.0769231766e+02   6.3002527989e+01    0.6203579    0.4088851  50.04   0.00373531    2.857    0.650
       121 -10.5911     22.9163     38.4908   1.0412027210e+02   6.3702714896e+01    0.1655296    0.1256321  26.67 0.0004637665    1.601    0.376
       122 -11.1097     26.6412     35.1289   1.0165463509e+02   6.3904595062e+01    0.3693228    0.2031011 -14.53  0.001308456    1.904    0.475
       123 -11.1140     83.6273     56.9016   8.9027210674e+01   5.3464874402e+01    0.2175658    0.2044964 -39.36 0.0004372001    1.264    0.209
       124 -11.5923     17.8572    249.0531   1.3654290759e+02   2.0486080488e+01    0.1973603    0.1880689  13.77  0.001593076    1.928    0.481
       125 -10.7188     34.0363     54.3167   1.0474951877e+02   6.0140342203e+01    0.3803931    0.1486408 -37.61   0.00181261    2.247    0.555
       126  -9.1669    157.6822     56.3153   6.9943742322e+01   3.8743949602e+01    0.1419102    0.1075149 -80.29 0.0007038203    1.651    0.394
       127  -9.3643     71.5265     56.5195   9.2703281267e+01   5.5359565043e+01    0.1255719    0.1093569  -9.24 0.0001249857    1.021    0.021
       128 -11.2355    114.9192     53.9621   7.9222761818e+01   4.8315431253e+01    0.2905267    0.2706033  19.68 0.0008296971    1.022    0.021
       129 -10.0999     96.8231     55.1731   8.4570790139e+01   5.1519667527e+01     0.179492    0.1416361   7.76 0.0003311082    1.296    0.228
       130  -9.5146     54.0786     55.3531   9.8108180167e+01   5.7845442315e+01    0.1572941    0.1348547  -5.97 0.0003666595    1.079    0.073
       131 -12.1985     65.9395     52.6589   9.3320881878e+01   5.6768022761e+01    0.4591627    0.2078123  32.53  0.001790802    2.265    0.559
       132  -9.1534    163.5255     54.0000   6.8147821896e+01   3.7743166478e+01    0.3126734   0.07452501  56.38 0.0009286968    3.886    0.743
       133  -9.7736    106.0547     53.2593   8.1384861861e+01   5.0130259035e+01    0.1910392     0.158236  39.18 0.0005804346    1.164    0.141
       134  -9.3240    231.5203     51.5362   5.6736425547e+01   2.2341574246e+01    0.1329353    0.1144861 -82.32 0.0008090552    1.028    0.027
       135 -10.3481     76.1532     49.0210   8.8880181999e+01   5.5864958970e+01    0.3319916    0.2014013 -15.89  0.001721952    1.921    0.479
       136 -10.1520     79.0098     45.9669   8.7003715823e+01   5.5883875550e+01    0.1729992     0.159894   6.87 0.0003081875    1.160    0.138
       137  -9.6220     53.3354     47.9858   9.6093358698e+01   5.9134068410e+01    0.1709519    0.1333412 -21.24 0.0006872878    1.087    0.080
       138  -9.4441    154.5685     47.5357   6.8181708078e+01   4.0736080115e+01    0.1358467    0.1254177  63.15  7.92413e-05    1.024    0.024
       139 -10.0813    104.5190     46.5192   7.9716751132e+01   5.1409559728e+01      0.12996    0.1171192  18.61 -1.897703e-05    1.015    0.015
       140 -10.3928    181.1889     41.6310   6.1756624698e+01   3.5370902306e+01    0.3375017    0.3264527 -72.14  0.001208833    1.136    0.120
       141 -10.9368      3.8343     41.6328   1.1224358720e+02   6.4509965180e+01    0.3501022     0.177925 -21.06  0.002191941    1.913    0.477
       142  -9.9943     69.7943     41.7200   8.8551052592e+01   5.7894052337e+01    0.2412858    0.1635703   5.14 0.0009047102    1.556    0.357
       143 -10.2793     34.4830     41.6083   1.0078649391e+02   6.2183257971e+01    0.3609482     0.124822  27.17   0.00172895    3.070    0.674
       144 -10.7297    139.7709     40.3324   6.9243641240e+01   4.5027825337e+01    0.3366131    0.2630754 -55.93  0.001394706    1.523    0.343
       145  -9.6301     51.4610     39.9389   9.4155423043e+01   6.0594189382e+01    0.1687322     0.101143 -35.71  0.001006808    1.522    0.343
       146  -9.4854     42.8380     40.6314   9.7442062452e+01   6.1478004005e+01    0.1390493    0.1000441  31.83  0.000451232    1.585    0.369
       147  -9.9148    131.5143     38.5098   7.0533080341e+01   4.7053804208e+01    0.2179935    0.1885192  41.91   0.00133318    1.042    0.041
       148 -12.0726    121.6785     37.3964   7.2487313531e+01   4.9260459781e+01    0.4235027    0.3631304  51.87   0.00140343    1.141    0.124
       149  -9.9639    127.9684     38.5600   7.1358009962e+01   4.7800351440e+01     0.229699    0.1731589  51.72 0.0004065278    1.221    0.181
       150 -11.0461      3.8268     34.9991   1.1039848686e+02   6.5587061591e+01    0.3335799    0.1843996 -23.12  0.001715489    1.569    0.362
       151 -10.0040     39.4007     35.4160   9.6985233690e+01   6.2626553909e+01    0.2574423    0.1006344  24.17  0.001248568    2.844    0.648
       152 -10.7452    134.4013     34.1061   6.8595798426e+01   4.6987930759e+01    0.2185663    0.1534836  41.41 0.0003501706    1.322    0.244
       153  -9.3460     48.4779     58.0664   1.0081806447e+02   5.8030195592e+01    0.1725576    0.1033552 -42.35 0.0004325911    1.479    0.324
       154  -9.2487    145.0412     33.0273   6.6059041922e+01   4.4786552098e+01    0.1541296    0.1377195  52.24 0.0003124781    1.007    0.007
       155  -9.3223     50.3217     33.2323   9.2310423933e+01   6.1699028924e+01    0.1445281   0.09525925 -39.67 0.0002889777    1.591    0.371
       156 -12.1221     41.6775     29.4537   9.4131739739e+01   6.3230579373e+01    0.6371006    0.3359122   8.06  0.003433688    2.343    0.573
       157 -10.5152    166.2965     31.0147   6.1551836685e+01   4.0203392372e+01      0.21147    0.1704567  67.61 0.0004045488    1.107    0.097
       158  -9.3800    129.3977     30.8176   6.8720567080e+01   4.8456684127e+01    0.1643455    0.1221393  -6.46 0.0007432233    1.598    0.374
       159  -9.0843    126.2958     31.3211   6.9567180280e+01   4.9051508921e+01    0.1324748   0.09097693  25.19 0.0005835289    1.616    0.381
       160 -10.5440      8.0931     28.6547   1.0681985641e+02   6.6307017676e+01    0.2023264    0.1884241  20.88  0.001720708    1.622    0.383
       161 -10.1330     69.9425     28.5264   8.4037872435e+01   5.9658118085e+01    0.1805281    0.1403479 -16.11 0.0004969254    1.201    0.167
       162  -9.9792    147.0089     26.4044   6.3807450329e+01   4.5129314961e+01    0.1745121    0.1680385  46.81  8.50873e-05    1.102    0.093
       163 -10.5586     82.2018     17.5797   7.6447434059e+01   5.8979278871e+01    0.3288856    0.1120268  39.97 0.0004279758    2.617    0.618
       164 -10.8685     77.3447     26.4881   8.1002109311e+01   5.8762971285e+01    0.3291298    0.1711094 -11.14  0.001563641    2.661    0.624
       165  -9.8863    229.6529    248.0143   9.7310611824e+01  -1.1881606771e+01    0.1652404    0.1416386  -9.93 0.0005806792    1.149    0.130
       166 -10.7569     78.5054     21.5638   7.8936467880e+01   5.9152440464e+01     0.272472    0.1562345 -30.31  0.001269189    1.807    0.447
       167  -9.5020    243.6268     26.3066   5.0225955237e+01   2.3209028580e+01    0.1355855   0.07705516 -73.87 0.0007031751    1.767    0.434
       168  -9.5384    229.3245     26.3459   5.1741141216e+01   2.6313555762e+01    0.1725875    0.1400564  41.75 0.0008825519    1.705    0.414
       169  -9.4093    140.0235     26.7756   6.5286967833e+01   4.6632091723e+01    0.1776918   0.09550574  57.48 0.0006557434    1.644    0.392
       170  -9.8360    101.8534     26.3562   7.3977637382e+01   5.4505254162e+01    0.1908473     0.152975  62.48  0.001181146    1.500    0.333
       171  -9.3471     18.3145     26.3249   1.0200436786e+02   6.5906326878e+01    0.1132372   0.06217021 -18.99 0.0007042531    1.666    0.400
       172  -9.4607    201.2713     25.7077   5.4981255636e+01   3.2740615528e+01    0.1282759   0.08759534 -74.53 0.0001806437    1.514    0.340
       173  -9.7174    153.5940     25.5364   6.2336651021e+01   4.3749829215e+01    0.2309869    0.1183042  71.92  0.001021731    2.241    0.554
       174 -10.2393    114.1169     24.7867   7.0394327034e+01   5.2302239287e+01    0.2463726    0.1778292  29.87  0.001458163    1.322    0.244
       175 -10.2606     58.9317     24.3415   8.6210390878e+01   6.1760186622e+01    0.3003696    0.1531444  20.01  0.001570667    2.223    0.550
       176 -10.0952    172.4743     23.4671   5.8590922768e+01   3.9667501174e+01    0.1305643    0.1122924  68.48   6.8924e-05    1.017    0.017
       177 -10.3696      1.9144     21.8732   1.0717753251e+02   6.7701606743e+01    0.1995957    0.1181362 -44.66 0.0008164023    1.494    0.331
       178 -10.7464     30.7676     20.8070   9.5204962940e+01   6.5547945745e+01    0.2115763     0.145432 -24.50 0.0006615116    1.211    0.174
       179 -11.1162     14.0197     21.2181   1.0200418683e+02   6.6968505650e+01    0.2334698    0.1855273  22.63  0.001761463    1.597    0.374
       180  -9.6537     84.9201     21.0969   7.6879139585e+01   5.8135744004e+01    0.1924868    0.1189757  21.86 0.0006311405    1.630    0.387
       181  -9.2794     35.4722     21.5880   9.3680535662e+01   6.4961372256e+01    0.1555421   0.08503006 -25.29 3.142994e-05    1.614    0.380
       182  -9.8277    225.1246    246.5983   9.7918180983e+01  -1.0981382857e+01    0.1769402    0.1009037  26.37 0.0009300146    1.705    0.413
       183  -9.6082    136.4896    245.5740   1.1495239019e+02   4.1040265369e+00    0.1322104    0.1091613  57.93 6.655742e-05    1.055    0.052
       184  -9.2380     36.4977     18.4992   9.2170493871e+01   6.5247293172e+01    0.1106402   0.08320582  -5.47 0.0001596291    1.010    0.010
       185  -9.5087    202.4344    240.3056   1.0119852407e+02  -6.3501105225e+00    0.2148244    0.1236407 -37.23 0.0008411771    1.929    0.481
       186  -9.6566    174.9783     20.7476   5.7519400188e+01   3.9397396407e+01    0.1741698   0.09649161  63.94 0.0004682243    1.549    0.354
       187  -9.2928    131.9918     20.5142   6.5102682638e+01   4.9058978585e+01    0.1805282   0.08353057  39.15 0.0005833833    2.261    0.558
       188 -10.2020    100.2589     19.1575   7.2027122799e+01   5.5597136901e+01     0.249314    0.1823524 -63.11  0.001403779    2.308    0.567
       189  -9.9529     60.9211    240.8805   1.2867870239e+02   1.6804809138e+01    0.2028276    0.1254721  39.90 0.0009079884    1.754    0.430
       190  -9.7134     58.3211     18.9978   8.4493031920e+01   6.2488347600e+01    0.1625443   0.08367176 -49.93 0.0007046039    4.254    0.765
       191  -9.8243      6.5538     19.3723   1.0443979678e+02   6.7764911092e+01    0.1575382   0.08507543  15.31 0.0007500181    1.864    0.464
       192  -9.7590    199.5215     17.0608   5.3250585290e+01   3.4161547363e+01    0.1711488    0.1223231 -40.76 0.0006430956    1.547    0.354
       193 -11.6786    108.5347     16.2873   6.9027862295e+01   5.4306676741e+01    0.2057388    0.1711414  37.03 0.0002897317    1.018    0.017
       194  -9.6806     26.7464     16.7742   9.5318770439e+01   6.6466361581e+01    0.1270743    0.1077547  -6.30 0.0004980362    1.303    0.233
       195  -9.5949     20.0613     16.8458   9.8019738481e+01   6.7069037100e+01    0.2261509    0.1287128  27.86 0.0009589895    1.881    0.468
       196 -10.8124     14.0389     16.0628   1.0019929207e+02   6.7672461722e+01    0.2728252    0.1411182  22.44  0.001234387    1.944    0.486
       197  -9.8295     95.0071     13.2833   7.1428406800e+01   5.7167392219e+01     0.163315    0.1332567  30.54 0.0007447368    1.016    0.016
       198  -9.9601     50.1686    241.1755   1.3060548339e+02   1.8169715409e+01    0.1765659    0.1089046  76.80  0.001078117    1.398    0.285
       199  -9.5509    148.7592    239.0002   1.1161362096e+02   3.1943014469e+00    0.1637793    0.1130477 -55.00 0.0008902006    1.634    0.388
       200  -9.8900     90.4791     16.4651   7.3723143045e+01   5.7663904183e+01    0.1205361   0.09871503  24.61 5.997498e-05    1.011    0.011
       201 -11.2315     14.2741    238.8059   1.3645252705e+02   2.2851806838e+01    0.2080146    0.1162734  76.71 0.0004225338    1.428    0.300
       202 -12.3475     25.9920    235.8753   1.3432504036e+02   2.2151083394e+01    0.3654288    0.3152484  63.85  0.002823297    1.373    0.272
       203 -11.1181    234.3304     14.9021   4.8926557944e+01   2.6631263020e+01    0.3230452    0.1539231  79.66  0.001074279    1.986    0.497
       204 -10.1649    175.6875     14.9116   5.5965825787e+01   3.9869310229e+01    0.2366106    0.1605342  73.31 0.0002465784    1.303    0.233
       205  -9.9489    249.2004    234.0882   9.1329903169e+01  -1.2799219685e+01    0.1825912    0.1413288   1.12 0.0004359937    1.170    0.145
       206 -10.2539    190.6139     13.8277   5.3650624247e+01   3.6560463707e+01    0.2089522    0.1500966  63.96 0.0008026718    1.218    0.179
       207  -9.9798    162.1816     13.1790   5.7579823648e+01   4.3129846826e+01    0.1912212    0.1461936  51.91  0.000457048    1.201    0.168
       208  -9.1584    209.5170    229.4947   9.7988478297e+01  -5.7813877847e+00    0.1304106    0.1173932  21.73 0.0002671263    1.031    0.030
       209 -10.1116    140.4651    228.2296   1.1171123909e+02   6.7110588940e+00    0.2479913     0.131474 -50.46  0.001155308    2.087    0.521
       210  -9.2279      9.3282     10.2615   1.0007325742e+02   6.8797708849e+01    0.1031918   0.05758798 -12.70 0.0005056476    1.565    0.361
       211 -10.2635     28.9885    128.6907   1.2218651919e+02   4.5450505316e+01    0.2965803    0.1524627 -75.21 0.0009370291    1.948    0.487
       212  -9.8351     33.6535    225.4354   1.3218897638e+02   2.3397422892e+01    0.2328629   0.05947136  50.09 0.0009600679    3.418    0.707
       213 -11.5691      8.1260    218.4437   1.3609367223e+02   2.7559043598e+01    0.2607175     0.214711   7.88  0.001875241    2.221    0.550
       214 -10.4693      7.4111    215.1857   1.3598647233e+02   2.8297479619e+01    0.2222648    0.1095863 -81.61 0.0009114763    1.595    0.373
       215 -10.3076     16.2020    213.0134   1.3429007665e+02   2.7883830781e+01    0.1930795    0.1466282 -20.28  0.001200902    2.703    0.630
       216  -9.3616    209.6775    211.3179   9.4698591916e+01  -2.6810990370e+00    0.1311765    0.1097519  80.58 0.0007043513    1.668    0.400
       217 -10.1662     20.4308    209.8876   1.3328107350e+02   2.8110550071e+01    0.1873939     0.126572  66.09 0.0003524797    1.301    0.232
       218  -9.3598    197.0000    203.9994   9.5888279896e+01   9.8142528540e-01    0.2181314   0.07975911 -44.97 0.0005685349    2.841    0.648
       219 -11.1093      9.4763    203.6154   1.3476392492e+02   3.0519239917e+01    0.1850152    0.1380353  41.73 0.0009904261    1.619    0.382
       220 -10.3298     23.0183    197.4810   1.3172677509e+02   3.0513613150e+01    0.2095219    0.1327171 -64.98  0.000359861    1.451    0.311
       221 -10.4740     13.8893    193.0791   1.3308142387e+02   3.2363517036e+01    0.1803726    0.1209587  81.19 0.0005026587    1.249    0.199
       222 -10.0091      6.1946    191.5958   1.3441020032e+02   3.3381146617e+01    0.1941598    0.1202124 -88.92 0.0007066274    1.265    0.209
       223  -9.5651     15.3832    185.5368   1.3211836331e+02   3.3870882619e+01    0.2401395   0.08729883 -86.42 0.0009516247    3.353    0.702
       224  -9.2664     22.6453    179.7065   1.3009070170e+02   3.4477552905e+01    0.1145642   0.08150618 -48.13 0.0004106996    1.687    0.407
       225  -9.9437    249.6825    169.3285   7.8919613817e+01  -2.2316173381e+00    0.1328943    0.1063599 -72.53 0.0003079072    1.681    0.405
       226 -10.9075      5.4823    167.6633   1.3243624953e+02   3.8652243147e+01    0.2376428     0.151727  88.93  0.001251658    1.338    0.252
       227  -9.4931    226.5855    164.1715   8.2050760282e+01   2.9980297364e+00    0.2012584    0.1299993 -31.28 0.0006470871    1.619    0.382
       228  -9.2442     41.3396    157.7155   1.2336476423e+02   3.7600800224e+01    0.1289772   0.08661776  73.87 0.0003545617    1.632    0.387
       229  -9.8236    247.4844    155.4967   7.6475491165e+01   6.8769914678e-01    0.1386458    0.1252752 -32.89 4.308736e-05    1.022    0.022
       230 -10.8386      3.0806    153.8358   1.3157067343e+02   4.1877715527e+01    0.1837253    0.1326157  83.06  0.001254134    1.288    0.224
       231 -10.5865     23.9156    150.8345   1.2653445616e+02   4.0882755761e+01    0.1847684    0.1404173 -55.15 0.0005063008    1.270    0.212
       232 -10.4275     22.5115    142.9879   1.2585197241e+02   4.2782311490e+01    0.1940579   0.09728593 -67.03  0.001026701    1.578    0.366
       233 -10.1954     11.9978    141.2723   1.2813418578e+02   4.4007185341e+01    0.1587508    0.1293365 -73.04 0.0003805981    1.055    0.052
       234 -10.7972      8.9880    135.5135   1.2813558628e+02   4.5502915454e+01    0.2121818    0.1338747 -83.01 0.0003509853    1.440    0.305
       235 -10.3877    213.6496    134.4551   7.8083621618e+01   1.1508459677e+01    0.4697315    0.2572792  67.13  0.001733945    2.809    0.644
       236 -10.3565      2.7172    133.1068   1.2933964245e+02   4.6454177597e+01    0.2397202     0.144693  47.30  0.001501271    1.996    0.499
