#   1 NUMBER                 Running object number                                     
#   2 MAG_AUTO               Kron-like elliptical aperture magnitude                    [mag]
#   3 X_IMAGE                Object position along x                                    [pixel]
#   4 Y_IMAGE                Object position along y                                    [pixel]
#   5 X_WORLD                Barycenter position along world x axis                     [deg]
#   6 Y_WORLD                Barycenter position along world y axis                     [deg]
#   7 A_WORLD                Profile RMS along major axis (world units)                 [deg]
#   8 B_WORLD                Profile RMS along minor axis (world units)                 [deg]
#   9 THETA_WORLD            Position angle (CCW/world-x)                               [deg]
#  10 FWHM_WORLD             FWHM assuming a gaussian core                              [deg]
#  11 ELONGATION             A_IMAGE/B_IMAGE                                           
#  12 ELLIPTICITY            1 - B_IMAGE/A_IMAGE                                       
         1 -16.5826      9.7005    197.3693   8.7204296819e+01   3.1253594746e+01     3.748182     2.158138  75.82   0.02060623    1.575    0.365
         2 -15.1342    245.2913    103.0332   1.6001651129e+01   1.1788571915e+01     4.417089    0.9641638 -34.05   0.01466058    4.092    0.756
         3 -14.3861      3.5410    102.3970   8.2159030544e+01   5.4689488421e+01     1.901657    0.7111707 -85.37  0.007455914    2.806    0.644
         4 -14.9256    220.9464     48.7972   6.8551641302e+00   2.3955748582e+01     2.955817    0.7979656 -45.08   0.01106174    3.163    0.684
         5 -14.0404      7.0992     39.7421   6.8932435869e+01   6.9542192281e+01      1.17207    0.5547849 -61.26  0.004345893    1.915    0.478
         6 -12.1228      1.6842     19.2574   6.5540418085e+01   7.4108729359e+01    0.5455511    0.2221746 -66.47  0.002395162    3.087    0.676
         7 -14.2400      5.0905      5.8226   5.6340741863e+01   7.6349832310e+01     1.355758    0.7494984  13.78  0.007826271    1.723    0.420
         8 -10.3572     17.3179     66.9490   7.0363345602e+01   6.2660547425e+01      0.19723    0.1533157 -51.69 0.0007973153    1.132    0.116
         9 -13.6837    227.7976    246.1251   4.5011294132e+01  -5.4250633928e+00    0.5777922    0.4792074 -15.93  0.004526193    1.486    0.327
        10 -13.4740    208.7901    248.0435   4.8627913532e+01  -3.4530598906e+00    0.7271784    0.3558929  17.84  0.004104679    1.849    0.459
        11 -14.1970    181.6283    247.8699   5.3670751126e+01  -6.3504007796e-02     1.524427    0.4378394  33.34   0.00658178    2.786    0.641
        12 -14.3556    158.6567    243.0162   5.7567008102e+01   3.6567486288e+00     1.537197      1.13889  30.74   0.01007984    1.170    0.145
        13 -14.4937    171.2409    230.8508   5.3305046984e+01   3.7223547339e+00     1.493953     1.311192 -22.65   0.00883952    1.327    0.246
        14 -12.7824    136.5421    247.0008   6.2639835851e+01   6.0708024761e+00    0.8492965    0.4697892  42.53  0.004721463    1.666    0.400
        15 -12.8355    125.2572    242.4065   6.4480154805e+01   8.3443042141e+00    0.7509851     0.575054  48.15  0.004237676    1.357    0.263
        16 -13.3021    125.4890    233.5569   6.3365244612e+01   9.7810923744e+00     1.229015    0.6303434  51.72  0.005769444    2.422    0.587
        17 -10.4591     69.0906    249.8906   7.7231899839e+01   1.4418497787e+01    0.2574835    0.1418336  29.55  0.001068315    1.553    0.356
        18 -12.4914      3.9451    248.5097   9.0391004328e+01   2.1556940314e+01    0.4752731    0.1949345  57.43  0.002698211    1.851    0.460
        19 -14.9508     57.2784    208.1776   7.6469902971e+01   2.3952546851e+01     4.283139     1.957488  73.47   0.01695975    3.361    0.702
        20 -14.7959     10.4633    163.6688   8.5093240370e+01   3.8949013356e+01      1.62913    0.5997053  45.41  0.007201561    2.397    0.583
        21 -14.3147      5.7384    224.3550   8.9232781872e+01   2.5964512467e+01     0.995342    0.3569647  50.64  0.004677084    2.065    0.516
        22  -9.2741     95.0000    248.9420   7.1650090561e+01   1.1322730876e+01    0.1612979   0.07093396 -62.17 0.0007375912    2.911    0.656
        23 -14.4299     14.0516    175.1692   8.4872282993e+01   3.5926252597e+01     1.175798    0.3339805  38.81  0.004879066    2.734    0.634
        24 -10.3168     10.7096    246.3615   8.9006487951e+01   2.1331463221e+01    0.2224462     0.115465  59.65 0.0009595257    1.524    0.344
        25 -12.9560    108.0010    232.4019   6.7097646280e+01   1.2442522598e+01     1.081545    0.6020383 -51.65  0.005020104    2.167    0.539
        26 -11.2899    102.8706    218.1950   6.6607780598e+01   1.5794418000e+01    0.4254099    0.2816786  19.85  0.001699438    1.557    0.358
        27 -14.2737    198.0898    228.4927   4.7681193975e+01   4.0697150479e-01    0.8216553    0.6174222 -18.42  0.005290146    1.292    0.226
        28 -14.3616    209.4641    225.3970   4.5078986934e+01  -6.5916732960e-01     1.385129    0.9448115  44.53  0.008357208    2.067    0.516
        29 -12.4001    129.1525    221.0099   6.0928091805e+01   1.1428073217e+01     0.729617     0.531705  43.48  0.003365165    1.309    0.236
        30 -12.7280    143.5903    231.5221   5.9176138258e+01   7.5368738054e+00    0.5820502    0.4538529 -73.21  0.003502971    2.007    0.502
        31 -11.7113    140.6579    223.9118   5.8769838727e+01   9.2253937871e+00    0.4454399    0.2919608  40.30  0.002139194    1.396    0.284
        32 -11.2979    109.8829    210.0485   6.3921799354e+01   1.6345729302e+01    0.3638598    0.3613202 -26.50  0.002141408    1.175    0.149
        33 -12.5097    112.1133    201.4859   6.2212328611e+01   1.7705656562e+01    0.8501816    0.5782934  74.77  0.004091854    2.204    0.546
        34 -14.3564     65.3196    188.8744   7.2488614657e+01   2.7185251336e+01      2.07991    0.7702524  42.74   0.00836306    2.336    0.572
        35 -10.7657     99.0406    198.7763   6.5060429538e+01   2.0250303245e+01    0.3690766    0.1942994  49.44  0.001541783    1.932    0.482
        36 -14.2713    247.4896    155.9964   2.6334955277e+01   3.8215989488e+00     2.390383    0.5427604 -35.82  0.008671083    3.742    0.733
        37 -10.9221     87.0367    245.8619   7.3071904074e+01   1.2880626301e+01    0.3643848    0.2699796  69.79  0.002169687    1.546    0.353
        38 -14.3575     27.3887    170.1302   8.0892995639e+01   3.5929489444e+01     1.199464    0.8862098 -77.71   0.00699888    1.301    0.232
        39 -11.1125     42.9130    158.5842   7.5292305959e+01   3.7150782106e+01    0.2301725    0.2154547 -38.61  0.000515136    1.218    0.179
        40 -10.8798     29.1171    156.5279   7.9166634329e+01   3.9089128452e+01    0.2666742    0.2409824  44.89 0.0008812654    1.122    0.109
        41 -12.6305     93.5702    152.2741   5.9240813582e+01   3.1617158590e+01    0.6289319    0.5569524  51.16   0.00337458    1.103    0.094
        42 -13.3319     67.7208    144.9192   6.5780425077e+01   3.7436214365e+01     1.353258    0.9512832  15.28  0.006445396    1.657    0.396
        43 -13.1893     41.2553    145.4255   7.4207930051e+01   4.0638549218e+01    0.7040125    0.6428106 -74.26  0.002992713    1.079    0.073
        44 -14.6147     51.2655    131.6694   6.8954955019e+01   4.2992824743e+01     2.228156     1.364522  57.02   0.01007368    1.843    0.457
        45 -14.5712     25.5696    125.8309   7.6906348355e+01   4.7194179569e+01     2.061023     1.165321  71.18  0.008429033    2.079    0.519
        46 -14.3412      7.4221    141.6504   8.4412074777e+01   4.4566186344e+01     1.464967    0.9414105  75.99  0.008030504    1.475    0.322
        47 -10.1476     28.0493    249.1565   8.5669609470e+01   1.9139081063e+01    0.2237485   0.09609801  46.47 0.0003208329    1.678    0.404
        48 -14.5811     21.7214    137.6880   7.9549945755e+01   4.4489198503e+01     1.222836     0.832375  84.16  0.004366267    1.443    0.307
        49 -14.8425      8.5836    122.6271   8.2401894833e+01   4.9279318442e+01     1.838617    0.8196276  65.68  0.007631353    2.688    0.628
        50 -14.3845     84.5136    132.9198   5.8259100007e+01   3.7838711828e+01      1.15162    0.9615316  74.44  0.005274573    1.345    0.256
        51 -12.7085     72.1348    132.6329   6.2187091582e+01   3.9878055756e+01    0.3846181    0.3004132 -51.18 0.0003764574    1.298    0.230
        52 -11.0666    105.6421    130.5902   5.1259658363e+01   3.4638876045e+01     0.304545    0.2805622  76.65  0.001441738    1.177    0.151
        53 -11.6230    101.1654    127.5010   5.1908423400e+01   3.6210149916e+01    0.3773757    0.2573928  10.17  0.001442663    2.040    0.510
        54 -12.0402     87.5886    122.8063   5.5111522995e+01   3.9799519393e+01    0.4437017    0.3448605 -85.36 0.0009413069    1.583    0.368
        55 -13.3534     40.7633    109.7877   6.8947600798e+01   4.9843907758e+01     0.759478    0.6196428  83.58  0.004037665    1.321    0.243
        56 -14.1349     63.6158    119.1234   6.2416317489e+01   4.4552095956e+01     1.134136    0.8083012  69.08  0.005265622    1.725    0.420
        57 -14.3720     52.1970    111.7538   6.5044299320e+01   4.7981198992e+01     1.291042    0.8275112  57.09  0.005577149    1.855    0.461
        58 -13.5539     51.1039    101.1465   6.3235675738e+01   5.0809524458e+01    0.7919716    0.6816868 -68.90  0.003424443    1.170    0.145
        59 -10.3402    101.1530    116.1759   4.9235194859e+01   3.8890900925e+01    0.2302146    0.2099458  -5.09 0.0004277035    1.180    0.152
        60 -11.2323     70.9352    113.1260   5.8560661696e+01   4.4960602144e+01    0.3420019    0.2161669 -52.29  0.001528918    1.556    0.357
        61 -12.8130     83.9381    100.1669   5.0805139375e+01   4.5912156512e+01    0.7054801    0.6630448 -40.66  0.002406605    1.070    0.065
        62 -14.0621     36.7675     86.1311   6.5742303021e+01   5.6250345019e+01     1.786083     1.085052  30.58  0.008643145    1.701    0.412
        63 -13.1500     28.0319     63.3031   6.4060484606e+01   6.2613926437e+01    0.8161294     0.737984  65.00  0.003009571    1.342    0.255
        64 -12.5436     42.3500     66.2143   5.7925151450e+01   6.0347234889e+01    0.9984376    0.5486639  28.35  0.004472066    1.845    0.458
        65  -8.3041     40.9970    245.1427   8.2811406640e+01   1.8506096424e+01     0.371394    0.2907827  14.84  0.002096859    1.564    0.360
        66 -14.7193     81.3485    207.6549   7.0533840098e+01   2.0937472027e+01     2.655608     1.769485 -65.86    0.0112779    1.706    0.414
        67 -12.1943      4.5985     62.6386   7.5890208563e+01   6.4445814636e+01    0.6294139    0.3780214 -27.55  0.003392796    1.656    0.396
        68 -12.3349      2.5837     53.3910   7.5070604756e+01   6.6704859622e+01    0.9561008    0.3018247 -74.02  0.003546306    3.460    0.711
        69 -13.0964    242.5686     51.7916   5.4606562621e+00   1.9255839254e+01    0.8437192    0.5865803  47.28  0.005161542    1.867    0.464
        70 -13.9948     72.8382    172.6754   6.8436248253e+01   2.9924868186e+01     1.509058     1.082032 -71.31  0.007003988    1.485    0.327
        71 -12.7913     60.8416    235.2153   7.7891743960e+01   1.8086538042e+01     2.868823    0.8879286  49.13   0.01187518    2.902    0.655
