#   1 NUMBER                 Running object number                                     
#   2 MAG_AUTO               Kron-like elliptical aperture magnitude                    [mag]
#   3 X_IMAGE                Object position along x                                    [pixel]
#   4 Y_IMAGE                Object position along y                                    [pixel]
#   5 X_WORLD                Barycenter position along world x axis                     [deg]
#   6 Y_WORLD                Barycenter position along world y axis                     [deg]
#   7 A_WORLD                Profile RMS along major axis (world units)                 [deg]
#   8 B_WORLD                Profile RMS along minor axis (world units)                 [deg]
#   9 THETA_WORLD            Position angle (CCW/world-x)                               [deg]
#  10 FWHM_WORLD             FWHM assuming a gaussian core                              [deg]
#  11 ELONGATION             A_IMAGE/B_IMAGE                                           
#  12 ELLIPTICITY            1 - B_IMAGE/A_IMAGE                                       
         1 -15.0745     15.2924    164.5858   1.4478962070e+02   3.9051614863e+01     6.180264     1.791791 -84.72   0.02294601    4.121    0.757
         2 -12.8326     10.9115     11.9081   1.1638053798e+02   7.1711912324e+01    0.6850018    0.5850471  12.95  0.005356888    1.424    0.298
         3 -12.4857      2.1759     39.9358   1.3045140398e+02   6.7173935620e+01     2.671426          nan -61.69  0.005182417   14.684    0.932
         4 -10.7198      2.1979      4.0883   1.1755465824e+02   7.3607945709e+01    0.3781439    0.1683449 -49.26  0.002203173    1.975    0.494
         5 -13.6540    205.9482     11.0295   6.3523841279e+01   3.1984190860e+01     1.521609     1.096724  30.45    0.0080581    1.794    0.442
         6 -11.6303      2.1869     12.9014   1.2142964042e+02   7.2164506931e+01    0.6435296    0.1756614 -55.07   0.00277033    3.467    0.712
         7 -13.2406    192.5938     29.4009   7.0214952625e+01   3.3304270557e+01     1.310711     1.200162 -56.22  0.007626117    1.080    0.074
         8  -9.7360     23.7204    238.3337   1.4796092569e+02   2.3813949573e+01    0.2399009    0.1670459  26.19  0.001128645    2.286    0.563
         9 -11.2364    248.3654    249.0190   1.1041052421e+02  -1.0052817710e+01    0.3338782    0.2311554  37.16  0.002384563    1.438    0.305
        10 -11.1706    138.6817    249.5196   1.2922811366e+02   6.5227893009e+00     0.307115    0.2021104  34.49  0.001961365    1.431    0.301
        11 -11.1823    124.1290    249.8595   1.3181818856e+02   8.7016034512e+00     0.453449    0.1222917  40.05  0.001864146    3.128    0.680
        12 -10.8640     97.8528    248.9013   1.3629407511e+02   1.2722728263e+01    0.3023619    0.2034379  48.64  0.001420459    1.178    0.151
        13 -10.6156    101.1693    246.1612   1.3546695684e+02   1.2681663759e+01    0.1981817    0.1520726  82.99 0.0006214487    1.327    0.247
        14 -11.5351     34.0065    245.9321   1.4671986237e+02   2.1394748851e+01    0.5507674    0.4392751 -49.81  0.004257747    2.168    0.539
        15 -12.0965     11.3876    239.8645   1.4998046870e+02   2.4817568355e+01    0.5734749    0.2638405 -85.15  0.003858979    1.876    0.467
        16 -11.7842      5.3420    227.1521   1.5037512240e+02   2.7625344870e+01     0.496994    0.4173746 -74.28  0.003795362    1.598    0.374
        17 -11.0548      1.8416    239.5971   1.5143722649e+02   2.5787988797e+01    0.5265642    0.1505819 -81.11  0.002854321    3.052    0.672
        18 -10.7528      2.0097    248.8432   1.5176058513e+02   2.4223693683e+01    0.3740162    0.2069315 -68.23  0.002798959    2.115    0.527
        19 -10.9191      5.8377    248.8085   1.5119249239e+02   2.3860385611e+01    0.3814974    0.1559168  56.57  0.002045152    1.692    0.409
        20 -10.1964    234.0885    237.6364   1.1098193611e+02  -6.8346061928e+00    0.1717018    0.1492048 -12.41  0.000958376    1.356    0.263
        21 -11.7308     56.7474    225.9989   1.4158380217e+02   2.2193810920e+01    0.6846377    0.4508286 -43.30  0.004086906    2.742    0.635
        22 -14.0948      9.6179    206.6677   1.4865833548e+02   3.1006448515e+01     3.966098     1.757436  51.02   0.01150378    1.829    0.453
        23 -10.7817    107.5718    248.0793   1.3453208617e+02   1.1444737836e+01    0.2577931    0.1526834  71.96  0.001395732    1.942    0.485
        24 -12.4573     39.7788    231.9144   1.4494641284e+02   2.3166582488e+01    0.2767119    0.2177297 -77.32 0.0007746718    1.439    0.305
        25  -9.9691    192.8234    194.6188   1.1112342440e+02   5.7159403203e+00    0.5257361     0.284556 -64.87  0.001593568    6.517    0.847
        26 -11.3150     65.2593    197.6305   1.3746431022e+02   2.6544345215e+01    0.3270645    0.2323073 -48.69  0.001393213    1.893    0.472
        27  -9.0160     51.0847    197.0142   1.4022911644e+02   2.8467114551e+01    0.1765509    0.1350563  75.01 0.0003740881    1.040    0.039
        28 -11.5271     70.8309    189.9026   1.3550420047e+02   2.7374633249e+01    0.2586289    0.2160072 -64.51 0.0006661917    1.343    0.256
        29 -10.1520    228.5463    228.0290   1.1038192822e+02  -4.9002819982e+00    0.2706773    0.2054261 -56.29  0.001448482    2.347    0.574
        30  -8.5981    101.8202    178.1208   1.2730883699e+02   2.5200902771e+01    0.2018846    0.1551417  72.68 0.0005074668    1.281    0.220
        31 -10.6726     80.2922    177.3139   1.3195247019e+02   2.8691189689e+01    0.2294204    0.2044311 -78.62 0.0003785786    1.156    0.135
        32 -12.9764     67.2801    175.3539   1.3457277524e+02   3.0934299130e+01    0.4462377    0.2659622 -47.11   0.00141448    2.152    0.535
        33 -11.6333     87.3649    168.0218   1.2907330291e+02   2.9648041199e+01    0.6362441    0.5129882  60.42  0.003793781    1.154    0.133
        34  -9.3531    238.3563    157.3181   9.5392761033e+01   3.0364323241e+00    0.1437907   0.09634534   9.39 0.0007045403    1.752    0.429
        35 -14.2271     55.0553    211.9494   1.4076332928e+02   2.5032587699e+01     7.429887          nan  46.45   0.01934127    8.476    0.882
        36  -9.7062     99.5887    151.8672   1.2357743557e+02   3.1273161839e+01    0.2842729    0.2547406  47.17 0.0007611676    1.165    0.142
        37  -9.0689    102.2071    147.8492   1.2221250766e+02   3.1731515916e+01    0.2131704    0.1729939 -21.48  0.000477248    1.684    0.406
        38 -11.8547     88.2801    151.1950   1.2621497966e+02   3.3251348068e+01     0.271872    0.2415095 -44.92 0.0006273658    1.296    0.229
        39 -12.2987     67.3004    143.9782   1.3024650037e+02   3.7955077128e+01    0.7237263    0.4717841  73.99  0.003493617    1.738    0.425
        40 -13.8304     45.8604    223.6414   1.4333908062e+02   2.3952762428e+01    0.9486977    0.6127979  58.71  0.004432663    1.213    0.175
        41  -8.4022    192.2402    144.0155   1.0097945537e+02   1.4490547555e+01    0.1786493    0.1225598 -36.82 0.0003324859    1.470    0.320
        42  -9.4723    110.4478    137.3140   1.1810765145e+02   3.2648201888e+01    0.3101341    0.2254366 -20.67  0.001298048    2.048    0.512
        43  -8.6933    152.5422    212.9697   1.2194744821e+02   9.9397778578e+00    0.1598773    0.1284521 -52.86 0.0003112559    1.462    0.316
        44  -9.5241    107.4038    123.8940   1.1600296696e+02   3.6224997863e+01      0.21297    0.1924157  66.40 0.0003400435    1.127    0.113
        45 -11.0918     57.1307    128.6381   1.3041721745e+02   4.2822479402e+01    0.3586267    0.1892014 -82.99  0.001559563    2.387    0.581
        46 -10.3072     98.0047    134.3014   1.2066371636e+02   3.5513936425e+01    0.2574812    0.2229228 -27.12 0.0006549855    1.396    0.284
        47 -10.4406    168.0365    113.0360   9.8551230103e+01   2.5764789096e+01    0.3551493    0.2867302 -79.28  0.000677161    1.554    0.356
        48  -8.9862    203.4704    111.5307   9.1001746739e+01   1.7853983528e+01    0.1493086    0.1430314 -11.54 0.0001096418    1.021    0.020
        49  -9.1225     69.3574    234.3208   1.4001056899e+02   1.9086244612e+01    0.1747495    0.1511571  57.91 0.0006146661    1.278    0.217
        50  -8.2198     29.6979     61.3136   1.2501998067e+02   6.0901932205e+01    0.1136891   0.09215181  87.60 0.0003594376    1.613    0.380
        51  -9.3341     88.6048    249.2023   1.3790778252e+02   1.3977712190e+01     0.128205    0.1001604 -64.19 0.0001125623    1.606    0.377
        52 -10.6854     81.4318    248.2785   1.3905335352e+02   1.5112579903e+01    0.2945741    0.1453513  61.93  0.001717586    1.853    0.460
        53 -10.4930     23.3967    246.1482   1.4840261633e+02   2.2516141521e+01    0.2843672   0.08142552  48.80  0.001588629    2.361    0.576
        54  -9.4579     85.5087    246.5009   1.3820992764e+02   1.4843523490e+01    0.1135513   0.08416013  60.42  0.000810593    1.014    0.014
        55  -9.8305    185.5021    238.9573   1.1957163137e+02   5.4939824857e-01    0.1527525    0.1187952 -36.58 0.0005242582    1.580    0.367
