#   1 NUMBER                 Running object number                                     
#   2 MAG_AUTO               Kron-like elliptical aperture magnitude                    [mag]
#   3 X_IMAGE                Object position along x                                    [pixel]
#   4 Y_IMAGE                Object position along y                                    [pixel]
#   5 X_WORLD                Barycenter position along world x axis                     [deg]
#   6 Y_WORLD                Barycenter position along world y axis                     [deg]
#   7 A_WORLD                Profile RMS along major axis (world units)                 [deg]
#   8 B_WORLD                Profile RMS along minor axis (world units)                 [deg]
#   9 THETA_WORLD            Position angle (CCW/world-x)                               [deg]
#  10 FWHM_WORLD             FWHM assuming a gaussian core                              [deg]
#  11 ELONGATION             A_IMAGE/B_IMAGE                                           
#  12 ELLIPTICITY            1 - B_IMAGE/A_IMAGE                                       
         1 -10.6886     36.5237     10.1670   1.0385668302e+02   6.9977154353e+01    0.9542014    0.5275617 -41.43  0.002542702    1.541    0.351
         2 -10.0368     10.0911     18.9146   1.2207855513e+02   7.0395626114e+01     1.074383    0.2613808 -31.65  0.003201887    6.731    0.851
         3 -11.0651     23.9050     32.2079   1.1910808706e+02   6.6773011293e+01     1.599694    0.3463452 -47.90  0.003492385    3.085    0.676
         4 -10.4943      6.7798     30.0994   1.2692722313e+02   6.8180671790e+01    0.6572552    0.3157243 -59.52  0.002020794    1.532    0.347
         5 -10.5640     35.8737     37.9888   1.1527093811e+02   6.4580181498e+01    0.6614262     0.322367 -30.57 0.0003919563    2.278    0.561
         6 -10.2326     74.2800     55.3917   1.0504191012e+02   5.6248614554e+01     1.474328    0.5478963 -35.73   0.00493418    3.403    0.706
         7 -10.0244     60.7898     31.5189   1.0170006618e+02   6.2989892133e+01     1.075982    0.5002936 -29.60  0.003808494    2.463    0.594
         8 -10.2642     69.3896     40.2871   1.0158190121e+02   6.0041116756e+01     1.481239    0.4129523 -42.81  0.005009595    3.247    0.692
         9 -10.0183     63.6106      3.0941   8.6801587608e+01   6.7199437513e+01      0.70745    0.3734173 -37.09  0.003447155    1.970    0.492
        10  -9.4944     63.2049     21.4672   9.6283334020e+01   6.4444841740e+01    0.4288191    0.3746203 -74.43  0.001273969    1.816    0.449
        11  -9.9164     64.3549     13.5357   9.1972598231e+01   6.5558024338e+01    0.4684347    0.3121004 -13.17 0.0008908433    1.473    0.321
        12 -10.1588     79.6510     23.8752   9.0661891813e+01   6.1258987509e+01    0.7359429    0.3557846  25.17  0.002498019    2.880    0.653
        13  -8.8021    104.0033     15.5120   7.8515149274e+01   5.7452656580e+01    0.4392187    0.1970135  -9.06  0.001443778    3.560    0.719
        14  -9.4913    100.8184     32.4630   8.6913008619e+01   5.5708381459e+01    0.6344886    0.3045249 -32.84  0.001772009    2.029    0.507
        15  -9.3948    103.0507     22.1665   8.1785158590e+01   5.6775287683e+01    0.5742895    0.2744035 -30.05   0.00146321    2.050    0.512
        16 -10.2493     50.5221     15.4994   9.9290230994e+01   6.7315043809e+01     1.202696    0.5868583 -13.18  0.004190937    4.208    0.762
        17 -10.2029     46.1959     29.5336   1.0746786048e+02   6.5254058591e+01    0.5524424    0.2910968 -59.00  0.001055139    2.350    0.574
        18 -10.5163    131.4504     16.8604   7.1871566120e+01   5.0672820778e+01    0.6097254    0.4341577  36.60  0.002882299    1.320    0.243
        19  -8.7931    125.0285     13.0968   7.1819869351e+01   5.2716110385e+01    0.3460073    0.2329894  50.83  0.001030731    1.369    0.270
        20  -8.9221    126.6344      8.9572   6.9697561801e+01   5.2755977319e+01    0.3684076    0.1781905  40.49 0.0009030013    1.974    0.493
        21  -9.6803    118.8078     21.5690   7.6972224407e+01   5.3221634469e+01    0.3633967    0.2753041 -26.67  0.001077164    1.341    0.254
        22  -9.0660    119.9892     16.5232   7.4523431928e+01   5.3564890109e+01    0.4501152       0.2577  11.32  0.001813798    2.272    0.560
        23 -10.2604    132.2212      5.3702   6.6982737701e+01   5.1682867924e+01    0.8334639    0.3951132 -14.54   0.00335106    2.301    0.565
        24  -7.8908    136.4931      1.4689   6.4531803375e+01   5.0927669317e+01     0.210441    0.1386248  77.31 0.0005247331    1.711    0.415
        25  -8.7126    112.2838     15.7124   7.6224935697e+01   5.5512454644e+01    0.3376181    0.2112076 -26.89  0.001060461    1.605    0.377
        26  -8.4973     72.0438      8.5325   8.6203681998e+01   6.4953763446e+01    0.2404412    0.1708858 -19.59 0.0006039976    1.283    0.221
        27 -10.0919     73.6451     17.4522   9.0018183396e+01   6.3358464316e+01     1.029631     0.266948 -34.52  0.003364599    3.684    0.729
        28  -8.6584     76.9771      6.6547   8.3303540794e+01   6.4275220143e+01    0.3214749    0.2095727 -22.43  0.001183853    1.440    0.305
        29  -8.5208     78.6450      3.0519   8.0789939023e+01   6.4397309105e+01    0.2800499    0.2297771 -30.99 0.0008739096    1.375    0.273
        30  -9.5086    230.7144     18.3363   5.7129026426e+01   2.4715271340e+01     0.395173    0.2455363 -29.80  0.001111518    1.509    0.337
        31  -8.5042     96.2480     13.1254   7.9807441418e+01   5.9478258380e+01    0.3951029     0.211341  10.54  0.001503503    2.770    0.639
        32  -9.4860      2.2630     14.3833   1.2505541092e+02   7.1674057334e+01    0.4949073    0.2490093 -79.07  0.002160438    2.533    0.605
        33 -10.0731      6.0031      5.1154   1.1960735193e+02   7.3380775061e+01    0.4220302    0.2591952 -31.87  0.001157865    1.347    0.257
        34  -9.1154      2.6047      3.2149   1.2103322841e+02   7.3911033395e+01    0.3149124    0.1287727 -49.72   0.00173612    1.681    0.405
        35  -9.5582     85.1652     13.0391   8.3508958505e+01   6.1812163470e+01    0.4605165    0.2766809 -48.76  0.001785771    2.405    0.584
        36  -9.1455     87.5650      4.0188   7.8175459095e+01   6.2448888587e+01    0.6715243    0.3794043  27.10  0.002655283    1.822    0.451
        37  -9.2514    141.2213     12.4628   6.7996712861e+01   4.8636770328e+01     0.336148    0.1873382 -32.14  0.001086058    1.867    0.465
        38  -8.7293    137.6282      8.7933   6.7267612820e+01   4.9948094315e+01     0.256085    0.1894799  -8.11  0.001277292    1.408    0.290
        39  -7.8914     80.4389     12.6593   8.5046785388e+01   6.2798236014e+01      0.25728    0.1197716 -35.77  0.001105247    2.144    0.534
        40  -8.4506     25.9853     11.0000   1.1010058577e+02   7.0876462566e+01    0.2283309    0.1447736  17.10  0.001369992    1.727    0.421
        41  -9.6609     19.7661      9.8576   1.1318848244e+02   7.1601733074e+01    0.5203955    0.3532349  38.68  0.001678388    2.045    0.511
        42  -9.7722     17.8420      3.8140   1.1162157434e+02   7.2885580583e+01    0.3840287    0.3021823  41.33  0.001469322    1.865    0.464
        43  -9.1674    110.5281      6.5909   7.2601845086e+01   5.6971506338e+01    0.4376054    0.2333617  -7.53  0.001720601    2.136    0.532
        44  -9.0920    114.3068      9.8126   7.3066976183e+01   5.5715543099e+01    0.3874282    0.2231767  36.65 0.0006070547    1.656    0.396
        45  -9.1000    115.3702      4.1985   7.0283273020e+01   5.6043538692e+01    0.3776898      0.23219 -30.88  0.001139653    1.725    0.420
        46  -8.8477    102.0764      8.4638   7.5822787605e+01   5.8742118693e+01     0.290826    0.2182324 -43.03 0.0007264625    1.622    0.384
        47  -8.5735    104.1707      2.7813   7.2534013202e+01   5.8871163742e+01    0.3875808    0.2027657  18.20  0.001575356    2.347    0.574
        48  -8.5716    121.1741      6.3681   6.9849172187e+01   5.4391667978e+01    0.3081967    0.2440059  74.88   0.00103544    1.478    0.323
        49  -8.9401    125.5372      5.0426   6.8279967455e+01   5.3424693697e+01    0.3412296    0.2046441  28.15  0.001075322    1.721    0.419
        50  -8.1896    143.0800      5.1982   6.4781133666e+01   4.8861732931e+01    0.2806453    0.1675918 -48.58 0.0006930555    2.076    0.518
        51  -8.5190     97.6557      5.6994   7.5813134692e+01   6.0055352773e+01    0.2817341    0.1707149  33.27 0.0006124185    1.559    0.359
        52  -8.4122     95.9864      3.0024   7.4994880255e+01   6.0724376618e+01    0.2694668    0.1920995  -5.91 0.0008434418    1.364    0.267
        53  -7.8728    175.0965      5.0503   5.9624836990e+01   4.0299824446e+01    0.2153432    0.1798149  33.72 0.0003467039    1.199    0.166
        54 -10.2423     78.0428    113.0638   1.1821869211e+02   4.2889147083e+01    0.4790294    0.3082379 -88.37   0.00165996    2.098    0.523
        55  -9.7619    218.9637    249.7074   1.0937308380e+02  -1.6052640205e+00    0.3104429    0.1298313  39.17  0.001815168    1.810    0.447
        56 -10.2488    198.5231    248.7776   1.1265104093e+02   1.3247594804e+00    0.3095132    0.2036307  31.33  0.001515971    1.060    0.057
        57 -10.7942    190.5379    247.6734   1.1386388220e+02   2.5653128694e+00    0.4236273    0.2749713  44.46  0.002958587    1.481    0.325
        58  -7.0238    167.3180    114.2589   9.4899532039e+01   2.6215387442e+01    0.1521854     0.111163  15.84 0.0002083642    1.541    0.351
        59 -10.6235     62.9488     95.7329   1.1944796813e+02   4.8781673771e+01     1.013004    0.5474916 -88.93  0.002854858    3.396    0.706
        60  -8.9303     63.6501     86.8822   1.1737388916e+02   5.0727529400e+01    0.6456178     0.369052 -10.48  0.002524815    3.478    0.712
        61 -10.2422     65.6378    110.8892   1.2143820209e+02   4.4987142949e+01    0.6820793     0.440265 -88.90  0.001202312    1.892    0.471
        62  -9.1925     59.0160    109.3633   1.2312804615e+02   4.6114301956e+01    0.4916901    0.2540738 -82.77  0.001494252    2.581    0.612
        63  -9.7302     14.2095    111.7788   1.3629366678e+02   4.9480656040e+01    0.3992878    0.1921868  72.42  0.001615413    2.260    0.558
        64  -9.2912     14.1013    105.1677   1.3570565641e+02   5.0960750477e+01     0.227429    0.1706933 -37.66 0.0008332742    1.579    0.367
        65  -8.9851    158.7625    111.7925   9.6276367953e+01   2.8510933850e+01    0.2781392     0.208287 -47.83 0.0006245785    1.494    0.331
        66  -9.2086     35.8394    111.9867   1.3025669939e+02   4.7822994599e+01    0.2063557    0.1867501 -39.00  0.000992607    1.281    0.219
        67 -10.3210      4.6594     90.1330   1.3703475862e+02   5.4846723291e+01     0.688728    0.3209266  76.46  0.002265919    2.374    0.579
        68  -9.5182      6.5255     78.3618   1.3519312890e+02   5.7413683228e+01    0.7116132    0.2675885 -30.65  0.003038958    3.982    0.749
        69  -9.8671     15.7624     70.8957   1.3100368753e+02   5.8646266890e+01    0.5334986    0.2310085 -74.19  0.002519596    1.988    0.497
        70  -8.7562    163.3989    248.8061   1.1864132650e+02   6.2881467360e+00    0.1279765   0.09801718 -14.74 0.0009574814    1.743    0.426
        71 -10.5523     32.8014     63.2280   1.2323751962e+02   5.9261064867e+01     1.331405    0.5130238 -37.36  0.004096754    3.110    0.678
        72  -9.6756     16.8840     60.7798   1.2891690200e+02   6.0887423671e+01     0.688098    0.2460432 -64.00  0.003235113    2.079    0.519
        73  -8.1443    151.6706    250.3405   1.2082242915e+02   7.7528384424e+00    0.1069339    0.0678926  55.54 0.0007051585    1.741    0.425
        74 -10.7269     21.3666    102.0327   1.3326955032e+02   5.1196377533e+01    0.9252622    0.3908591  78.13  0.003817893    3.421    0.708
        75 -10.3368     25.7493     78.0987   1.2861470835e+02   5.6373935604e+01    0.6659855    0.3391508  69.58   0.00183169    2.963    0.663
        76 -10.7999     21.8332     53.6260   1.2554057552e+02   6.2211821665e+01    0.7652677    0.3883375  83.91   0.00307332    3.647    0.726
        77  -7.7357    110.4476    246.9526   1.2760694720e+02   1.3757642375e+01    0.1213294    0.1025757 -76.37 0.0004479133    1.533    0.348
        78 -10.0224     34.5507     91.0059   1.2772043361e+02   5.2734611968e+01    0.5729567    0.2546305 -85.93  0.001739508    3.081    0.675
        79 -10.1855     36.7487     81.0705   1.2532210318e+02   5.4845249245e+01    0.7783691     0.368117 -25.10  0.003111159    3.726    0.732
        80 -10.2733     12.0383     45.8160   1.2802772466e+02   6.4502809717e+01    0.8077332    0.3832489  -9.31  0.004065139    2.852    0.649
        81  -9.8979      4.6500     41.8827   1.3047039772e+02   6.5690168699e+01     0.527378    0.2717666 -68.55  0.001915505    1.529    0.346
        82  -9.6841    159.7060    248.1443   1.1920545100e+02   6.8853854508e+00    0.2715658     0.181925  -7.77   0.00177491    2.331    0.571
        83 -10.4173     19.0536     86.6655   1.3211048193e+02   5.4847458224e+01     1.241605     0.229525 -61.69  0.004480163    3.276    0.695
        84  -8.5618    149.6964    110.0730   9.8035426627e+01   3.0768078824e+01    0.2321366    0.1880163 -54.55 0.0006670354    1.430    0.301
        85 -10.8936     44.4405    102.3273   1.2637432175e+02   4.9250132475e+01    0.8142294    0.3898252  67.24  0.003021619    3.473    0.712
        86 -10.0293    139.5850    103.4700   9.8899437487e+01   3.4180678480e+01    0.8774811    0.4039123 -46.26  0.001798385    2.306    0.566
        87  -9.3959    138.7386     92.7312   9.6240116912e+01   3.6475883670e+01    0.4059036    0.3640458 -74.20 0.0008569974    1.360    0.264
        88  -8.1562    139.4654     87.5282   9.4580387784e+01   3.7330137164e+01     0.333296     0.213939  30.93 0.0009974749    1.689    0.408
        89  -7.9165     78.0228    105.3354   1.1672559549e+02   4.4638106612e+01    0.3479264    0.2174102  -6.30  0.001441726    2.979    0.664
        90  -9.5348     81.4753    100.3449   1.1464139485e+02   4.5278293092e+01    0.4008971    0.2706891 -80.53 0.0009151914    1.913    0.477
        91  -8.1807     82.9015     93.8145   1.1273725712e+02   4.6541560205e+01    0.4023568     0.243574  -2.29  0.001535404    3.298    0.697
        92  -9.5242      6.3113    103.7775   1.3778516406e+02   5.1717598859e+01    0.3720203    0.1780288  73.52  0.001579684    2.198    0.545
        93  -8.2295      1.7121    105.1869   1.3917883564e+02   5.1643116731e+01    0.2691177    0.0757415 -75.65  0.001201864    2.684    0.627
        94  -9.6139    149.6423    103.3490   9.6323259116e+01   3.2068971460e+01    0.4226068    0.3228256 -61.00 0.0009474853    1.674    0.403
        95  -8.4836    165.9175    103.7231   9.2524539699e+01   2.8423636354e+01    0.2789903    0.2158042 -41.16 0.0005141489    1.375    0.273
        96  -7.8572     73.6787    102.5331   1.1747295496e+02   4.5865429302e+01    0.2355918    0.1170404 -58.84 0.0004655823    1.891    0.471
        97  -8.9519    159.0481    101.2502   9.3480910017e+01   3.0403802078e+01     0.301103    0.2135874 -41.49 0.0005987536    1.479    0.324
        98  -7.4415    198.4140    100.2105   8.4655503669e+01   2.1667619340e+01    0.1926291    0.1385209 -37.94 0.0003065956    1.461    0.315
        99  -9.3006    164.8708     95.3106   9.0502009621e+01   3.0172685452e+01    0.6547223    0.3118577 -51.04  0.002231682    3.003    0.667
       100  -9.9487    163.7105     87.3523   8.8536173785e+01   3.1857790971e+01     0.563545    0.3105876 -45.35  0.001686339    2.034    0.508
       101  -8.8130     96.0769     90.9387   1.0794801183e+02   4.5097056571e+01      0.50737    0.3099931 -13.66  0.001915419    3.055    0.673
       102  -8.3871    150.0021     96.9730   9.4530362909e+01   3.3205717605e+01    0.2515797    0.1836846   5.64 0.0007959555    1.712    0.416
       103  -8.8186    239.5798     95.6143   7.6264453894e+01   1.3317112646e+01    0.2863696    0.1242158 -12.97 0.0009591653    3.415    0.707
       104  -7.1854    149.3062     93.3167   9.3697176643e+01   3.4051967488e+01    0.1590895    0.1181953   7.80 0.0003179912    1.629    0.386
       105  -9.3576    157.5452     90.3624   9.0849155010e+01   3.2742027535e+01    0.5271625    0.2692282 -25.69  0.001667876    2.390    0.582
       106  -9.6810    111.4020     89.7609   1.0302828186e+02   4.2619064400e+01    0.7466031    0.3846782  27.35  0.002808234    2.579    0.612
       107  -9.4607     94.2989     97.2872   1.1005392623e+02   4.3992336008e+01     0.324863    0.2939109  79.87 0.0005696348    1.234    0.189
       108  -9.0845    150.4730     89.0252   9.2196921589e+01   3.4596438943e+01    0.3125795    0.2634574 -45.76 0.0008218695    1.286    0.223
       109  -7.6206     78.3668     90.1104   1.1330753911e+02   4.8037504860e+01    0.2048129     0.126406 -67.33 0.0009458183    1.832    0.454
       110 -10.4855     48.1755     83.3238   1.2183494573e+02   5.3270376964e+01     1.084923    0.4008912 -58.56  0.002936975    2.230    0.552
       111  -9.0211     53.3201     38.4397   1.0761455821e+02   6.2621915488e+01    0.5715804    0.2014635 -43.08  0.002281632    2.468    0.595
       112 -10.5518     55.3027     71.0509   1.1659887939e+02   5.5321224686e+01    0.6173348    0.3640928  56.00  0.001449589    2.427    0.588
       113 -10.6376     60.3196     61.3616   1.1215680228e+02   5.6891283622e+01     1.174797    0.4347678  22.28  0.001934785    4.130    0.758
       114 -10.1735     55.1627     44.1370   1.0883307215e+02   6.1223168760e+01     1.486713    0.7028763 -16.35  0.003826328    7.667    0.870
       115 -10.0251     43.1867     50.8142   1.1595439835e+02   6.1121687967e+01    0.6065544    0.3972211  89.10  0.002894193    2.587    0.613
       116 -10.0008     37.7746     42.1697   1.1572304476e+02   6.3514216584e+01    0.4273452    0.2961638 -89.44  0.001377161    2.289    0.563
       117  -9.5101    188.3291    233.9846   1.1250734050e+02   4.3681319241e+00    0.2158326      0.18081   7.07 0.0008083637    1.273    0.215
       118  -8.0003    174.5753     88.7810   8.6491568500e+01   2.9062929173e+01    0.2138872    0.1433095 -42.92 0.0005065204    1.614    0.380
       119 -10.2165     85.2810     86.6125   1.1023872687e+02   4.7793236745e+01    0.4654738    0.3575417  84.82 0.0008708848    1.772    0.436
       120  -9.5052     87.4481     78.5910   1.0741861436e+02   4.9221284222e+01    0.6345099     0.369898  15.67  0.001890997    2.596    0.615
       121 -10.2656    103.7799     82.5113   1.0331753541e+02   4.5568358188e+01     0.539002    0.3138226 -56.59 0.0009562767    1.974    0.493
       122  -9.8236    104.7007     72.0296   9.9940997234e+01   4.7587720792e+01    0.8150513    0.4706314 -27.50  0.003346543    2.105    0.525
       123  -9.6352    109.7236     63.8214   9.5746238058e+01   4.8250515171e+01    0.5403295     0.288983 -49.62  0.002176922    2.103    0.524
       124  -9.0686    110.5361     58.2947   9.3623757544e+01   4.9147014562e+01    0.4396369    0.3093159   6.96  0.001227801    1.805    0.446
       125  -8.7820     40.0158    107.1466   1.2840642712e+02   4.8556037571e+01    0.1905133    0.1478016  78.14 0.0005766484    1.291    0.225
       126  -8.5312    170.2974     83.8227   8.6020355185e+01   3.0919929309e+01    0.2390651    0.1912559 -53.90  0.000805417    1.502    0.334
       127  -9.1133    157.8419     83.0383   8.8665318964e+01   3.3995732302e+01    0.4452341    0.2419736 -34.69  0.001303875    1.859    0.462
       128  -8.7148    156.9209     76.1851   8.6835118249e+01   3.5425209816e+01    0.4023022    0.2524754 -39.49   0.00107404    1.638    0.389
       129  -8.7426    140.4656     83.1411   9.3041118759e+01   3.7950325185e+01    0.3378313    0.2661736 -58.24 0.0006649187    1.545    0.353
       130  -8.0962    140.3663     79.3219   9.1926853108e+01   3.8694769222e+01    0.2833412    0.1869366  26.36   0.00120429    1.743    0.426
       131  -9.2106    139.9739     75.8978   9.0984955946e+01   3.9423530143e+01    0.6411704    0.3964106 -39.01  0.001882235    1.632    0.387
       132  -8.7989    119.0555     80.5663   9.8185298206e+01   4.3025164723e+01    0.3429246    0.2541667 -73.26  0.000953687    1.998    0.499
       133  -8.1720    119.9536     76.0339   9.6562101100e+01   4.3750686254e+01    0.3236665    0.2369638  -8.32 0.0009736136    1.686    0.407
       134  -7.8711     63.2350     82.1649   1.1645271749e+02   5.1856767377e+01    0.1794715    0.1526252  86.68 0.0005500186    1.341    0.254
       135  -9.3385    150.0625     79.6423   8.9550184015e+01   3.6419432868e+01    0.6131001    0.2554908 -32.98  0.001710787    2.545    0.607
       136  -9.1069     74.1973     79.7096   1.1213671377e+02   5.0970313116e+01     0.554286    0.2444512 -57.23  0.001118438    2.234    0.552
       137  -7.9442     68.7584     79.5572   1.1394754301e+02   5.1745232034e+01    0.3030085    0.1315059 -46.27  0.001257178    2.150    0.535
       138  -9.2177    183.3763     78.0529   8.1551245395e+01   2.8729501598e+01    0.2828995    0.2344408  46.72  0.000103511    1.202    0.168
       139  -8.9330    166.1281     78.7373   8.5464536292e+01   3.2783847798e+01    0.2634595    0.2103532 -41.83 0.0006279755    1.338    0.253
       140  -8.5442    130.0019     57.9642   8.7822434564e+01   4.4956224290e+01    0.3393109    0.2250687 -54.70 0.0004607069    1.970    0.493
       141  -8.1069    130.2227     53.9960   8.6381988466e+01   4.5594366608e+01    0.3050815    0.1850966  25.46  0.001208243    2.040    0.510
       142  -9.7604    127.6696     73.8738   9.3691954902e+01   4.2538862030e+01    0.8482115    0.4131384 -35.54  0.002045553    2.103    0.524
       143  -8.8787    130.4167     64.2793   8.9840700388e+01   4.3730125176e+01    0.5137182    0.2641771 -43.04  0.002015046    2.035    0.509
       144  -9.8894     81.5614     72.2531   1.0761375981e+02   5.1533633887e+01    0.4624798    0.3081717 -70.80  0.001098516    2.057    0.514
       145  -9.1099     83.5512     64.3669   1.0457048100e+02   5.2911397611e+01    0.4873973    0.3155802 -14.46  0.002152252    2.146    0.534
       146  -8.7274    162.5630     72.9706   8.4534653535e+01   3.4623539523e+01    0.3091359    0.2395569 -60.36 0.0006604613    1.666    0.400
       147  -8.9338    115.0277     72.9065   9.7049197340e+01   4.5382857229e+01      0.35866    0.2494908 -43.35 0.0005543728    1.437    0.304
       148  -7.8260    116.4747     68.5381   9.5234928771e+01   4.5948914256e+01    0.2408555    0.1840941   2.46  0.001135045    1.538    0.350
       149  -8.5187    169.4162     71.5056   8.2551618376e+01   3.3196513071e+01     0.412416     0.149483 -32.57  0.001200047    2.759    0.638
       150  -9.2719    146.9359     69.3255   8.7139720335e+01   3.9000166452e+01    0.3880776    0.2815219 -56.80 0.0009383505    1.765    0.433
       151 -10.0986    238.5515     67.2456   6.9201754919e+01   1.7245707025e+01    0.3284514    0.2615555 -15.47 0.0003222887    1.166    0.143
       152  -8.8832    156.7738     69.5796   8.4828202860e+01   3.6601075366e+01    0.4150846    0.2085279 -27.21  0.001451564    2.163    0.538
       153  -8.0662     95.1153     53.1716   9.6831275702e+01   5.3163837971e+01    0.5176619    0.2352605 -43.59   0.00204993    2.148    0.534
       154  -9.8506     94.6230     68.1836   1.0199596727e+02   5.0232336238e+01    0.5113658    0.2661412 -51.67 0.0009527761    2.033    0.508
       155  -8.0942     95.4453     61.4785   9.9569790960e+01   5.1460050868e+01    0.2733923    0.2022724 -35.72 0.0006141447    1.286    0.222
       156  -8.6640     98.3492     57.1578   9.7141174425e+01   5.1779273735e+01     0.489072     0.307509  -1.06   0.00193183    2.570    0.611
       157  -7.8647     23.2658     69.0295   1.2797161850e+02   5.8621711040e+01    0.1724712    0.1285822 -65.91  0.000324904    1.106    0.095
       158  -9.2201    138.0941     65.3086   8.8112696484e+01   4.1785596983e+01    0.6277013    0.2723627 -31.77  0.001270352    2.437    0.590
       159  -9.1318    139.0527     57.0634   8.5102258965e+01   4.2993910409e+01    0.4429666    0.3053465 -53.85  0.000717534    1.841    0.457
       160  -9.2601    141.2245     49.5570   8.1943294858e+01   4.3702757190e+01     0.621785    0.3633854  14.69  0.001556905    2.678    0.627
       161  -9.0989    121.1124     66.1542   9.3094640009e+01   4.5430151767e+01    0.4084982    0.2771927 -52.06 0.0007637206    1.724    0.420
       162  -8.5519    121.8514     61.4009   9.1296318961e+01   4.6161833044e+01     0.366782    0.2490958  18.83 0.0009871689    1.799    0.444
       163 -10.0045     50.0137     54.6520   1.1426005953e+02   5.9570148866e+01    0.5315113    0.3458135 -78.29  0.002427237    2.182    0.542
       164  -8.3266    170.7952     65.1122   8.0281388996e+01   3.3885157641e+01    0.2316542    0.2162078 -57.00 0.0004741669    1.225    0.184
       165  -8.8849    157.3877     63.0546   8.2608036609e+01   3.7542494320e+01    0.2959551    0.2650344 -55.12 0.0007175768    1.290    0.225
       166 -10.5495    152.1320     41.8012   7.6623269540e+01   4.2146022708e+01    0.7302366    0.4408196  60.39   0.00194158    1.735    0.424
       167  -9.4949    146.9393     56.6610   8.2983260298e+01   4.1157068132e+01    0.8726941    0.3015752 -26.67  0.002553361    3.630    0.724
       168  -9.0755    149.7701     47.9358   7.9312900814e+01   4.1836686826e+01    0.3416758    0.2519518 -42.43 0.0007577467    1.473    0.321
       169  -8.0954    164.2058     60.4532   8.0232310101e+01   3.6267690256e+01    0.2497101    0.1838744 -35.45  0.001156892    1.385    0.278
       170  -8.0244    152.5781     60.7623   8.2990327199e+01   3.9101880028e+01    0.2076832     0.145254 -41.32 0.0004125657    1.515    0.340
       171  -8.4238     20.2492    232.9900   1.4189456411e+02   2.5886455810e+01    0.1458035    0.1022803  54.23 0.0004948864    1.113    0.102
       172  -8.7076     87.3567     58.3314   1.0128989308e+02   5.3530190828e+01    0.3233623    0.2587644 -80.28  0.001354577    1.830    0.454
       173  -8.1929     89.2925     52.9413   9.8759908706e+01   5.4272069164e+01    0.4435612    0.2692338   2.34  0.001705981    2.845    0.649
       174 -10.1952     85.0957     48.0479   9.8496532713e+01   5.5967590240e+01    0.4131404    0.3364416 -74.76   0.00104866    1.795    0.443
       175 -10.3081     88.9220     38.3372   9.3391885741e+01   5.7083383660e+01    0.9286786    0.3654505  33.44  0.003239021    3.148    0.682
       176  -8.2293      9.8181     59.8918   1.3149240084e+02   6.1447356099e+01    0.1921497    0.1273947 -50.86  0.001102252    1.286    0.222
       177  -8.0665    247.2341     57.0025   6.5429592802e+01   1.6593252896e+01    0.1817016    0.1048954 -25.02 0.0003005005    1.575    0.365
       178  -9.2519    118.2028     55.4533   9.0310412191e+01   4.8045866333e+01    0.3527658    0.2971877 -87.55 0.0007660194    1.671    0.402
       179  -8.9870    239.8112     56.3783   6.6200910852e+01   1.8316419870e+01    0.2576033    0.1717143  48.35  0.001309023    1.560    0.359
       180  -8.7408    232.8120     56.3711   6.7119098644e+01   1.9912537368e+01    0.2065976    0.1805679 -77.01 0.0003537346    1.356    0.263
       181  -7.4342    168.6846     55.7008   7.7740064526e+01   3.5871475375e+01    0.1633253    0.1144371  22.67 0.0002281235    1.611    0.379
       182 -10.0268    162.7783     53.1667   7.8167757973e+01   3.7754546974e+01    0.5772388    0.2784426 -20.95  0.001777811    2.424    0.588
       183  -8.9956    243.1804     62.7876   6.7426487064e+01   1.6779516502e+01    0.2543907    0.1987572  15.84 0.0006088366    1.355    0.262
       184 -10.0291    157.6191     49.6408   7.8115712771e+01   3.9596354633e+01    0.4855053    0.2932852 -44.37  0.002023573    1.859    0.462
       185  -8.4105    224.1789     49.3511   6.6382642532e+01   2.2810372651e+01    0.2006477    0.1377303  76.42 0.0009561192    1.751    0.429
       186  -9.5132    130.2463     46.6406   8.3738794585e+01   4.6815054033e+01    0.6950318    0.2693226 -27.00  0.001792653    2.969    0.663
       187  -9.5467    137.9305     40.0616   7.9334139641e+01   4.5974837008e+01     0.738354    0.3764702  64.17  0.002718678    2.487    0.598
       188  -8.9866    135.9897     26.4964   7.4650276689e+01   4.8345734381e+01    0.4914566    0.2189951 -25.06  0.001477003    2.302    0.566
       189  -8.7115    132.8430     35.8345   7.9023189544e+01   4.7849344956e+01    0.2906624    0.2150953 -31.43 0.0005523442    1.377    0.274
       190 -10.4630    133.9012     31.1008   7.6941164849e+01   4.8256336104e+01      0.28305     0.253462  21.68            0    1.034    0.032
       191  -9.5600    121.6002     45.4244   8.5682642612e+01   4.9026736490e+01    0.7972223    0.3512351 -21.91  0.001467778    3.149    0.682
       192  -8.6939    111.9700     46.8720   8.9071224277e+01   5.0921091198e+01    0.2709405    0.2308706 -40.38 0.0005224986    1.253    0.202
       193  -8.5237    113.1922     42.2161   8.6933531780e+01   5.1447995179e+01    0.3672587    0.2013153  11.89  0.001162718    3.723    0.731
       194  -9.1522    105.2493     51.9135   9.3033813463e+01   5.1423376908e+01    0.5872695    0.3065323 -39.10  0.001720999    1.867    0.464
       195  -8.2986    250.6315    230.6247   1.0150065040e+02  -4.2241605256e+00    0.2047816   0.09333169 -24.55  0.001226458    2.384    0.581
       196  -8.5115     10.6118    223.7678   1.4313340193e+02   2.8173968253e+01    0.1560477    0.1055453 -17.17 0.0009653446    4.168    0.760
       197  -7.4372    131.7838    220.0099   1.2113051859e+02   1.4590519266e+01    0.1210429   0.09621315 -56.95 0.0003918834    1.619    0.382
       198  -9.9861     76.2756     31.8332   9.5451955093e+01   6.0506193691e+01     0.436592    0.3457134  73.16  0.001232566    2.141    0.533
       199  -7.1678     18.0000    219.8936   1.4178149952e+02   2.8155210292e+01    0.1364967   0.04646975 -81.11 0.0007381031    2.842    0.648
       200 -10.1199    166.4283    210.2898   1.1330709851e+02   1.0678813724e+01    0.2173934    0.1672417  34.10 0.0002401073    1.022    0.022
       201  -7.7080     40.7118    211.0096   1.3741818644e+02   2.7480867815e+01    0.1382022     0.106491  67.07 0.0004371413    1.058    0.055
       202  -8.9781     84.7750     21.7940   8.7793966992e+01   6.0621616439e+01    0.2796268    0.2437572 -37.75 0.0008041367    1.322    0.243
       203  -7.8619    142.3383     44.4223   7.9840787788e+01   4.4227266225e+01    0.2995346    0.1373684  48.95  0.001118913    2.056    0.514
       204  -9.3040    110.2042     32.1166   8.3822764213e+01   5.3726768906e+01    0.7225857     0.237415 -36.41   0.00156951    2.979    0.664
       205  -8.9438    104.8851     41.2094   8.9124827031e+01   5.3406067602e+01    0.4003094    0.2415886 -45.56    0.0011743    1.858    0.462
       206  -8.4176    106.0359     36.4656   8.6877849889e+01   5.3953322530e+01     0.353144    0.2185111  29.43  0.001082084    1.741    0.426
       207  -8.2404    147.2504     64.0244   8.5352861854e+01   3.9846591023e+01    0.3482911    0.2267923  13.03   0.00120412    2.096    0.523
       208  -9.1012    144.2141     36.5569   7.6534973206e+01   4.4906218386e+01    0.2899667    0.2285272 -58.48 0.0003933556    1.592    0.372
       209  -8.7652    118.9072     34.7186   8.2327168257e+01   5.1347620293e+01    0.3098179    0.2061869 -28.09 0.0006355888    1.491    0.329
       210  -9.9511     10.2653    207.2758   1.4262889598e+02   3.0906244983e+01    0.4187367     0.239702  27.01  0.003011706    2.080    0.519
       211  -9.0819    192.0485    194.3753   1.0598204135e+02   8.6551818275e+00    0.6116277    0.3520929 -61.36  0.002269598    5.686    0.824
       212  -8.2213     97.2263     32.7583   8.8224767537e+01   5.6405975881e+01    0.4251963    0.1866804 -27.76  0.001602422    2.454    0.592
       213  -7.4669    167.5720    195.9299   1.1098522660e+02   1.2523797484e+01    0.1571377    0.1235461 -32.33 0.0004633761    1.512    0.339
       214  -8.9725    153.4400     34.3515   7.3685481132e+01   4.2839319657e+01    0.2693923    0.1520763 -20.35  0.000920477    1.884    0.469
       215  -9.8030    100.9984    175.9962   1.2212918723e+02   2.6454261229e+01    0.1746552    0.1511526  53.49  0.001154767    1.006    0.006
       216  -7.8428    230.4095    168.6474   9.4192434272e+01   5.4261005968e+00    0.2392908     0.114421 -34.37  0.001147319    2.274    0.560
       217  -8.2384     42.0163     28.0152   1.0885307774e+02   6.6020957695e+01    0.1783869    0.1280531 -23.60            0    1.285    0.222
       218  -7.5462     45.2088     15.8149   1.0205198962e+02   6.7950635519e+01     0.217373    0.1331306 -16.97  0.001131812    1.724    0.420
       219  -8.0061    147.5972     28.7567   7.2893170149e+01   4.5083175326e+01    0.2068214    0.1395304 -34.45 0.0004750756    1.544    0.352
       220  -9.0429     91.4604     26.3164   8.7438009684e+01   5.8603771424e+01    0.3523773    0.2449459 -49.43 0.0009759233    1.837    0.456
       221  -8.6870     91.8523     21.1384   8.4985002475e+01   5.9308697661e+01    0.3571985     0.234628  14.52  0.001175335    1.711    0.416
       222  -8.3190    156.1064     27.0368   7.0503279817e+01   4.3074514888e+01    0.2416757    0.1804799 -61.73  0.001118111    1.698    0.411
       223  -8.9214    128.4215     25.8592   7.6240009507e+01   5.0320316680e+01    0.3380772    0.2396364 -48.41 0.0006882029    1.721    0.419
       224  -8.9695    129.6372     21.6822   7.4257315996e+01   5.0552608274e+01    0.3431222     0.163012  35.32  0.001277081    2.334    0.572
       225  -8.9962    144.0113     25.7756   7.2552876232e+01   4.6386372405e+01    0.2636364    0.2130955 -16.07 0.0007678791    1.257    0.205
       226  -7.1094     42.5074    169.5656   1.3431277485e+02   3.4896494799e+01    0.1101796   0.09312613  72.60 0.0008064769    1.048    0.046
       227  -7.3071    183.2609    160.3179   1.0160339119e+02   1.5159372230e+01    0.1362931   0.09753712   7.39 0.0003048665    1.544    0.352
       228  -8.8076    113.8334    154.0631   1.1600465088e+02   2.8723859536e+01    0.2041976    0.1724299  42.67 0.0002936577    1.088    0.081
       229  -7.8441    134.0000    149.0249   1.1033911139e+02   2.6273934490e+01     0.301246    0.1355726 -52.14   0.00121701    2.532    0.605
       230  -7.8480    133.6032    144.8170   1.0964230539e+02   2.7155252470e+01     0.248473    0.1448339 -55.02  0.001144948    1.986    0.497
       231  -8.2259    179.1252    147.5278   9.9882369033e+01   1.8009423359e+01     0.198207    0.1736838  15.43 0.0003445725    1.037    0.035
       232  -9.4812     66.8689    144.2162   1.2606551595e+02   3.7450453979e+01    0.4686776    0.2646348  62.43  0.002379543    1.997    0.499
       233  -8.1723    140.4873     22.5480   7.2090051527e+01   4.7691245631e+01    0.1527444    0.1385572  29.64 -4.698762e-05    1.009    0.009
       234  -8.1670    111.5177     21.2559   7.8859116521e+01   5.4983066498e+01    0.3241449    0.1805014 -23.99  0.001413347    1.805    0.446
       235 -10.2831    225.6717    141.4129   8.9392341958e+01   9.8518419522e+00    0.2622282    0.2154093  26.60 0.0005453975    1.139    0.122
       236  -8.4840    112.0108    133.8204   1.1289292074e+02   3.3142737946e+01    0.3001838    0.1945244  64.13  0.001200155    2.009    0.502
       237  -9.6388    134.8230    131.6975   1.0671678511e+02   2.9502714798e+01    0.4698431     0.394921   5.71   0.00254295    1.331    0.249
       238  -9.6681     98.8914    128.8588   1.1538499685e+02   3.6329051518e+01    0.6793271    0.3558195  63.36  0.002546236    3.255    0.693
       239  -7.8094    160.7194    129.5886   1.0005889369e+02   2.4813856669e+01    0.2476075    0.1895142 -63.97  0.001200903    1.793    0.442
       240  -8.7117     40.9326     20.5526   1.0632845532e+02   6.7584980243e+01    0.2361733    0.1572755 -40.96 0.0004613193    1.275    0.216
       241 -10.4302     70.4321    126.3715   1.2262345201e+02   4.0906942243e+01    0.5914137    0.5492619  24.82  0.001721394    1.210    0.174
       242  -7.2985    151.2733     20.6621   6.9122380225e+01   4.5100312890e+01    0.1499812    0.1137273 -56.40 0.0006993611    1.606    0.377
       243  -8.3585     95.8578     16.8343   8.1666924328e+01   5.9074833843e+01    0.2448563     0.189913 -19.51 0.0003865745    1.240    0.193
       244 -10.0529     58.2158    124.6599   1.2569868130e+02   4.2743863701e+01     0.572844    0.2967655  70.27  0.002321118    2.806    0.644
       245  -9.7339    117.4974    125.7270   1.0986865887e+02   3.3886315941e+01    0.6204622    0.4136131  81.64  0.001912416    2.591    0.614
       246 -10.1267    128.5352    100.5719   1.0106631376e+02   3.7028381853e+01    0.9764441    0.4983214 -27.34   0.00222742    2.945    0.660
       247 -10.5023    123.7728     90.1575   9.9584671525e+01   4.0117837609e+01     1.078223    0.5454602 -30.53  0.002659452    2.503    0.600
       248  -7.1269    189.4826     15.5077   6.1090169548e+01   3.5467636108e+01    0.1442991    0.1373131  46.11 -3.53232e-05    1.021    0.021
       249 -10.0948    108.5303    114.4556   1.0987322819e+02   3.7846673067e+01    0.7120657    0.4635789 -88.68  0.001421803    2.772    0.639
       250 -11.1546    121.2697    108.5532   1.0502918682e+02   3.6793862414e+01     1.604329    0.6601894 -45.64  0.006003544    2.461    0.594
       251  -7.5327    203.0542     12.9760   5.8604542159e+01   3.2162951034e+01    0.1600748    0.1584204  87.97            0    1.011    0.011
       252 -10.7123    108.7904    100.9586   1.0667419257e+02   4.0709077761e+01     1.019684    0.7471984 -74.77   0.00430565    1.814    0.449
       253  -7.6880    172.5594    125.0139   9.6318217618e+01   2.3183767159e+01    0.2043313    0.1443685 -35.16 0.0002144727    1.477    0.323
       254 -10.4488    133.7151    109.6720   1.0198733137e+02   3.4139161069e+01    0.8313292    0.3847001 -49.78  0.002788458    2.387    0.581
       255  -9.5719    135.0136    122.2438   1.0461086297e+02   3.1350867978e+01    0.4481012    0.2854216 -51.94  0.001799893    1.732    0.422
       256 -10.2246    130.2125    117.8147   1.0483163424e+02   3.3172782185e+01     0.635256    0.3066787 -49.11  0.001487988    2.200    0.545
       257  -9.6823     27.2179    122.8938   1.3384433920e+02   4.6091449690e+01     0.472506    0.2140366  67.70  0.001896436    2.670    0.625
       258  -9.2487     41.1831    121.6473   1.2995363744e+02   4.5167763375e+01     0.442858    0.1872539 -82.62  0.001533981    2.733    0.634
       259  -9.3910    243.9178    122.9172   8.2090735151e+01   8.8397648625e+00    0.2600202    0.1902492  27.74  0.001451718    1.278    0.218
       260  -8.1471    230.0668    122.7986   8.4395923684e+01   1.1559311549e+01    0.2029714    0.1939895 -41.32  0.001221468    1.381    0.276
       261  -9.7912    140.6041    118.2893   1.0229391409e+02   3.1037060115e+01    0.5121138    0.3500442 -70.84  0.001192227    2.307    0.567
       262  -9.3685    142.7552    110.5656   9.9888680956e+01   3.2122527893e+01     0.781719    0.4287548  21.04  0.002725003    3.044    0.672
       263  -7.6898    101.2973    118.3045   1.1268103117e+02   3.8229049374e+01    0.1373142    0.1088769 -16.03 0.0003942598    1.585    0.369
       264  -8.0546    153.1548    115.8157   9.8612977403e+01   2.8944307744e+01    0.2079854    0.1724695   1.73 0.0003990895    1.303    0.232
       265  -7.7396      1.0000    115.5587   1.4010689812e+02   4.9417301387e+01    0.2383997   0.05067045 -79.00  0.000911217    3.747    0.733
       266 -10.1542     91.8613    112.9423   1.1422740972e+02   4.0904846511e+01    0.5774452    0.3941559  83.60  0.001548194    2.124    0.529
       267  -8.9037     93.0639    103.6345   1.1188864243e+02   4.2783511756e+01    0.6769711    0.3684288  11.40  0.002242782    4.215    0.763
