#   1 NUMBER                 Running object number                                     
#   2 MAG_AUTO               Kron-like elliptical aperture magnitude                    [mag]
#   3 X_IMAGE                Object position along x                                    [pixel]
#   4 Y_IMAGE                Object position along y                                    [pixel]
#   5 X_WORLD                Barycenter position along world x axis                     [deg]
#   6 Y_WORLD                Barycenter position along world y axis                     [deg]
#   7 A_WORLD                Profile RMS along major axis (world units)                 [deg]
#   8 B_WORLD                Profile RMS along minor axis (world units)                 [deg]
#   9 THETA_WORLD            Position angle (CCW/world-x)                               [deg]
#  10 FWHM_WORLD             FWHM assuming a gaussian core                              [deg]
#  11 ELONGATION             A_IMAGE/B_IMAGE                                           
#  12 ELLIPTICITY            1 - B_IMAGE/A_IMAGE                                       
         1 -16.7820     16.4173    105.6872   1.1772975990e+02   5.1859675241e+01      2.42731      1.84184 -89.63   0.01084685    1.265    0.210
         2 -14.1743     53.5112     70.6007   9.7626764880e+01   5.6545289213e+01     1.542627    0.7433187 -42.42  0.004479459    1.853    0.460
         3 -12.6102    214.0364     24.5721   4.3526809027e+01   2.8440416080e+01    0.8822309    0.5513119  30.27  0.003443467    2.471    0.595
         4 -13.4316    179.6501      5.1333   4.2201051111e+01   3.9174708623e+01     2.036588    0.8440034  61.77  0.008749329    2.057    0.514
         5 -14.7008    188.2277     41.4906   5.1533342794e+01   3.2762792771e+01     2.830443     1.414878  44.37   0.01132406    2.291    0.563
         6 -14.5203    180.6888     25.1721   4.7903389138e+01   3.6784687258e+01     1.706346     1.137654  54.15   0.00554229    1.446    0.308
         7 -14.1477    168.2163     18.6923   4.7784977665e+01   4.0738491151e+01     1.351085     1.054848  33.99  0.004973879    1.420    0.296
         8 -14.2638     52.0680     25.3262   8.1749094338e+01   6.5278149492e+01     2.849069     2.149742 -65.70   0.01469703    2.608    0.617
         9 -14.8066      4.4389     28.6546   1.0571797930e+02   6.9324017123e+01     2.380345    0.4977929 -57.06  0.009447983    3.518    0.716
        10 -14.5093     18.6074     21.7013   9.5945833744e+01   6.9631135325e+01     1.662918    0.9922015 -38.91  0.005941883    1.316    0.240
        11 -14.8556    126.0168     15.7033   5.4350423565e+01   5.1720574194e+01      1.72233     1.108909 -29.90  0.006178701    1.666    0.400
        12 -12.9119    222.8605     14.9760   4.0226255635e+01   2.7426255060e+01    0.7470195    0.6366181 -68.62  0.002693818    1.034    0.033
        13 -10.8121    248.7160      5.3127   3.5892625293e+01   2.2587217224e+01    0.6030588    0.1787982 -47.77  0.002523972    2.755    0.637
        14 -13.1774    207.8502    182.3981   8.3346223140e+01   3.6778311370e+00    0.8407818    0.7558362 -31.61  0.004023301    1.231    0.187
        15 -16.9450      9.3861    227.1222   1.2934192249e+02   2.5844313404e+01     2.536666     1.115051 -81.52   0.01354198    1.952    0.488
        16 -15.1074     86.3650    168.9510   1.0820005913e+02   2.8762403706e+01     2.479692     2.182322 -49.71   0.01466022    1.293    0.227
        17 -15.5965    110.0692    187.5082   1.0543448860e+02   2.0816302686e+01     1.789346     1.705476   7.13  0.008299478    1.275    0.215
        18 -15.6428    118.2164    164.3902   9.9689734445e+01   2.4463074599e+01     2.235963     1.450027 -51.40  0.007642392    1.588    0.370
        19 -16.6878     57.8510    229.4589   1.2091836146e+02   1.9985937518e+01     2.253333    0.9864621  65.70   0.01124254    2.391    0.582
        20 -12.9873    226.4790    168.5632   7.6935143124e+01   2.5174894587e+00     1.210506    0.6044825 -32.72  0.003878409    1.949    0.487
        21 -11.4020    193.5354    194.7089   8.8580031885e+01   4.2548494499e+00    0.6976153    0.3730639 -54.89  0.002911817    2.920    0.657
        22 -10.8276      1.9709    191.4775   1.2887435234e+02   3.3545686058e+01     0.418537     0.145772 -74.80  0.002184992    2.300    0.565
        23 -12.2522      7.3887    185.1585   1.2746071880e+02   3.4409253898e+01    0.5820791    0.3822913  88.88  0.001750714    1.170    0.145
        24 -10.5778     31.9857    187.3069   1.2262077822e+02   3.1600005654e+01    0.4537674    0.2208036  73.70  0.002318538    2.082    0.520
        25 -11.2890    173.7932    180.1628   8.9920056575e+01   1.0550275724e+01    0.8604828    0.4604715 -22.15  0.003107556    3.303    0.697
        26 -10.6874    167.2830    184.2681   9.2106411141e+01   1.1030040651e+01    0.3461528    0.3023642 -24.67  0.001954965    1.231    0.188
        27 -15.1631     24.2551    168.1136   1.2266160557e+02   3.6622116922e+01     1.081934    0.7454385  57.32  0.004024518    1.366    0.268
        28 -10.2177    195.5055    161.4904   8.1487166816e+01   9.7273845242e+00    0.3028449    0.2361128  12.87  0.001523972    1.380    0.275
        29 -11.5148    190.9361    171.6805   8.4589703480e+01   8.7702750267e+00    0.6928106    0.4317882 -31.15  0.002891232    1.715    0.417
        30 -11.2383    194.1695    166.9007   8.2920291543e+01   9.0028659551e+00    0.5725611    0.3357868 -53.03  0.002104867    2.198    0.545
        31  -9.3223     60.9850    168.1471   1.1418385237e+02   3.2526407839e+01    0.2231141    0.1680678 -75.36 0.0005874087    1.202    0.168
        32 -14.3758     17.8888    161.6410   1.2353007061e+02   3.8664490876e+01    0.7567303    0.3751021 -80.58  0.002838262    1.672    0.402
        33 -12.5496     65.2113    161.4513   1.1228384533e+02   3.3536642465e+01    0.4704712    0.2641105 -46.80  0.001505014    2.106    0.525
        34 -12.9214    160.6254    166.6651   9.0140436089e+01   1.5788332898e+01     1.201877    0.7547699 -17.70  0.003619474    2.570    0.611
        35  -9.5858     45.3420    161.7725   1.1714806407e+02   3.5897658711e+01    0.2223264    0.1610717 -48.59 0.0007426591    1.616    0.381
        36 -10.8712     90.7381    149.1172   1.0385338422e+02   3.2730683976e+01    0.4794329    0.3603645 -42.28  0.001775176    1.492    0.330
        37 -10.1786    133.9391    146.2402   9.2192606029e+01   2.5553109978e+01    0.6995074    0.2005705 -54.87  0.001826936    4.711    0.788
        38 -12.3916    168.2987    141.5676   8.2910301838e+01   1.9350396342e+01    0.9895354    0.6420065 -41.11  0.002950961    1.559    0.359
        39 -13.7765    155.4654    132.5189   8.3761965733e+01   2.4058506877e+01     1.497586     0.971812 -51.74  0.004276255    1.633    0.388
        40 -10.4096     99.9134    142.5399   1.0020389398e+02   3.2775591684e+01    0.4508936    0.3184893 -38.41  0.002149019    1.630    0.387
        41 -12.4817     88.1856     78.3376   8.7809814935e+01   4.9734792159e+01     1.423516    0.6292177 -38.76  0.004466886    2.306    0.566
        42 -14.2358     94.4057     97.3721   9.1327382152e+01   4.4423295141e+01     1.470866     1.100993  63.92  0.004654291    1.692    0.409
        43 -11.3898     87.0175    142.4987   1.0363506304e+02   3.4906352429e+01    0.2593522    0.1934493 -51.02 0.0004146904    1.338    0.252
        44 -14.6913     94.6802    127.8094   9.8604699420e+01   3.7193256276e+01     2.104368     1.239404 -53.66  0.006526919    1.607    0.378
        45 -11.5664     26.1343    133.9052   1.1868702249e+02   4.4405159873e+01    0.5223992    0.3178502  55.71  0.002559732    1.762    0.432
        46 -11.2820     32.7089    141.0612   1.1783684033e+02   4.2102637506e+01    0.3302366    0.2474278 -85.02  0.001115322    1.136    0.120
        47 -12.0394     32.3530    134.9234   1.1716461789e+02   4.3600305038e+01    0.5248078    0.3216424 -80.68   0.00150994    1.448    0.310
        48  -9.6979     15.7240    134.9485   1.2151666144e+02   4.5010147790e+01    0.2868176    0.1787706  20.28  0.001685489    2.106    0.525
        49 -12.5577    235.0434    122.6936   6.5138445645e+01   8.5278176734e+00     0.961333    0.6229396 -22.83   0.00367122    1.580    0.367
        50 -13.5425    244.5585    119.5121   6.2850591639e+01   7.1454881918e+00     1.954554    0.9630716 -24.92  0.008004811    2.247    0.555
        51 -14.8609      6.4510     69.8014   1.1516164387e+02   6.0690459402e+01     1.755241     1.210206  35.34  0.008026292    1.850    0.460
        52 -15.5035     12.5225    114.5021   1.2004435023e+02   5.0048315099e+01     1.142839    0.8446111  57.28  0.004917728    1.505    0.336
        53 -12.1797    226.6967    238.4258   8.9870623639e+01  -7.4639269697e+00    0.6440511    0.3796733  11.35  0.002192745    1.768    0.434
        54 -12.5462     59.9236    111.7932   1.0545573545e+02   4.6207539626e+01      1.26745    0.8344066 -27.93  0.005579432    1.979    0.495
        55 -11.6160     61.0648    123.0566   1.0729071912e+02   4.3328319171e+01    0.7529679    0.5332271  11.37  0.003856101    1.924    0.480
        56 -10.5140     68.0611    118.6573   1.0438736993e+02   4.3479954616e+01    0.3946122    0.3059399 -28.95  0.001343367    1.531    0.347
        57 -12.4589     94.9200    109.3458   9.4273324402e+01   4.1552734762e+01    0.6784623    0.5127441 -42.69  0.002368893    1.291    0.226
        58 -11.8823     68.4981    144.2395   1.0888022324e+02   3.7202016346e+01    0.6817741    0.4088295  67.36  0.002906235    2.056    0.514
        59  -9.0415    205.2800    110.5273   6.7456730800e+01   1.7124934336e+01     0.210331    0.1433075  38.02 0.0009428118    1.595    0.373
        60 -10.9382    219.8867    103.5798   6.3073580094e+01   1.5057532349e+01    0.5624194    0.3662633 -58.96  0.002060713    1.909    0.476
        61 -13.1121    231.1726     96.9921   5.9589597014e+01   1.3678967472e+01      1.11979    0.7323674 -22.73  0.004462208    1.645    0.392
        62 -12.0530    223.8223     97.4999   6.0894116983e+01   1.5222334811e+01    0.9246429    0.5077898 -34.89  0.002819814    1.695    0.410
        63 -10.6777    134.5837    103.9390   8.1633999771e+01   3.4886716263e+01    0.4848931    0.1497289 -46.62  0.001411319    3.298    0.697
        64 -11.0574    249.7339     88.4059   5.4816030351e+01   1.1105684266e+01    0.3518279     0.231893 -39.60  0.001329524    1.326    0.246
        65 -11.0679    234.1523    233.5081   8.7743814432e+01  -7.9663292999e+00    0.3287981    0.2280563   5.52  0.001549676    1.281    0.220
        66 -11.3417     62.8895     54.7450   8.9007624004e+01   5.8584851982e+01    0.7176907    0.3418401 -52.84  0.002849658    2.349    0.574
        67 -12.1466    248.4007     75.1759   5.1878267052e+01   1.3432508942e+01    0.6759614    0.4813744 -32.73  0.002336683    1.299    0.230
        68 -11.5093    243.6297     68.0817   5.0797865964e+01   1.5536942851e+01    0.6174603    0.4051349  86.99  0.002722403    1.926    0.481
        69 -10.8557    135.2481     70.2305   7.1340411303e+01   4.1555736066e+01    0.3388773    0.2708587  13.93  0.001610466    1.449    0.310
        70 -12.0899    248.7500     56.2286   4.7386692378e+01   1.6155211142e+01    0.8315678    0.4607003 -29.83  0.003385148    1.786    0.440
        71 -14.1703    214.6547    172.5543   8.0011046190e+01   4.0531815600e+00     2.342846     1.216451 -32.89  0.008528465    1.941    0.485
        72 -11.7719    200.8152    233.4829   9.3810891440e+01  -2.8541657855e+00    0.5211761    0.3036265  34.66  0.002873527    1.410    0.291
        73 -13.2977    106.8024    215.3367   1.0991017720e+02   1.5707993869e+01    0.8396785    0.4950281 -53.87  0.002601019    1.949    0.487
        74 -16.9632    138.9348    238.4602   1.0636640528e+02   6.4631808537e+00     5.098877     2.172465  43.48   0.02472863    1.886    0.470
        75 -10.9430     27.5032    214.2419   1.2544590955e+02   2.6485116190e+01    0.3613191    0.1782946  74.79   0.00107917    1.824    0.452
        76 -10.2754     65.7091     44.3978   8.4119489302e+01   6.0096687488e+01    0.3982718    0.2554368 -13.33  0.001853907    1.797    0.443
        77 -12.0355    180.1800    216.2289   9.5025497141e+01   3.1169152104e+00    0.5259248     0.394271   7.44  0.003013877    1.492    0.330
        78 -12.7508    186.4087    211.3844   9.2979257785e+01   2.8060788068e+00     1.092186     0.576872 -19.65  0.004423159    3.288    0.696
        79 -11.9380    149.5534    202.8701   9.9154429869e+01   1.0829076384e+01    0.5639128    0.4157452  43.50  0.001778295    1.201    0.167
        80 -16.8638     61.0938    213.5891   1.1897565021e+02   2.2654805251e+01     2.256129     1.215648  81.60  0.009541198    2.003    0.501
        81 -14.6462     87.3654    221.6942   1.1455686090e+02   1.7439768696e+01     1.983732     1.371429 -74.68   0.01223261    1.526    0.345
        82 -10.6787    139.2619     45.1002   6.1956827241e+01   4.4767921926e+01    0.3459149    0.2618653 -79.70  0.001119809    1.778    0.438
