#   1 NUMBER                 Running object number                                     
#   2 MAG_AUTO               Kron-like elliptical aperture magnitude                    [mag]
#   3 X_IMAGE                Object position along x                                    [pixel]
#   4 Y_IMAGE                Object position along y                                    [pixel]
#   5 X_WORLD                Barycenter position along world x axis                     [deg]
#   6 Y_WORLD                Barycenter position along world y axis                     [deg]
#   7 A_WORLD                Profile RMS along major axis (world units)                 [deg]
#   8 B_WORLD                Profile RMS along minor axis (world units)                 [deg]
#   9 THETA_WORLD            Position angle (CCW/world-x)                               [deg]
#  10 FWHM_WORLD             FWHM assuming a gaussian core                              [deg]
#  11 ELONGATION             A_IMAGE/B_IMAGE                                           
#  12 ELLIPTICITY            1 - B_IMAGE/A_IMAGE                                       
         1 -16.1993    188.2363     98.5323   6.9257426370e+01   2.3497752215e+01     3.430356     2.149858  86.61   0.01215124    2.986    0.665
         2 -17.0683    216.3679    127.2175   7.1164660302e+01   1.1784858007e+01     3.683174     2.461589 -41.81    0.0148085    1.456    0.313
         3 -19.6028    171.0714    146.0327   8.4795211561e+01   1.8011718088e+01     8.768365      8.63293 -27.85   0.04884569    1.035    0.034
         4 -12.0181    239.1217     16.0180   4.0360062967e+01   2.3649151341e+01    0.4285435    0.2384389 -65.68   0.00213885    1.792    0.442
         5 -10.5729    162.0557     13.4364   4.8425884879e+01   4.3139307035e+01    0.2286442    0.1905743  15.31 0.0003063399    1.383    0.277
         6 -10.7139    156.8511      7.6028   4.7313470924e+01   4.5048177977e+01    0.2673055    0.1715781  25.67  0.001076538    1.921    0.480
         7 -10.7761     26.7491      6.9592   8.5822611173e+01   7.1271836735e+01    0.1807498    0.1407266   2.61 0.0004123115    1.169    0.145
         8 -10.9153    178.5315      5.8982   4.3862639423e+01   3.9648044602e+01    0.2334451    0.1765737 -76.60 0.0009998672    1.331    0.248
         9 -10.4176      7.4741      4.8072   9.5255882064e+01   7.3372247743e+01    0.1813287    0.1280042   4.53 0.0007839752    1.401    0.286
        10 -10.5960    107.9527      4.0906   5.5097579668e+01   5.7327608741e+01    0.2165786    0.1327018  31.48 0.0004800785    1.607    0.378
        11 -11.1874    158.1708      2.3213   4.5404316858e+01   4.5189729822e+01    0.2411002    0.2182401  35.06 0.0003127367    1.174    0.149
        12  -9.7616     39.4977      2.4804   7.7212336814e+01   7.0295447227e+01    0.1190241   0.09288156  -3.13 5.168115e-05    1.022    0.021
        13 -10.6437     65.8128    165.4181   1.1345152117e+02   3.2698652584e+01    0.2505396    0.1711299 -64.20  0.000769986    1.385    0.278
        14  -9.7715    234.3163    250.3370   9.1847799797e+01  -9.5072252378e+00    0.1181757   0.06957249  11.51 0.0007048071    1.698    0.411
        15 -11.7949    220.2427    250.1350   9.4217330964e+01  -7.4717897501e+00    0.2518131     0.133754  38.57 0.0005991056    1.560    0.359
        16 -13.9144    192.9255    249.0139   9.8845676389e+01  -3.2298653907e+00    0.4316196    0.2422803  35.08  0.000949761    1.409    0.290
        17 -10.3552    183.0351    248.4768   1.0054114654e+02  -1.6239791571e+00    0.2209596    0.1383664  35.91 0.0008291301    1.258    0.205
        18 -12.4389    135.2048    250.1679   1.0940826571e+02   5.6441603568e+00    0.3536707    0.1850376  54.93 0.0008186675    1.834    0.455
        19 -11.1927    125.7292    248.7984   1.1097262907e+02   7.3149267828e+00    0.2349296    0.1938065 -67.52 0.0009574339    1.483    0.326
        20 -11.7307    122.1883    244.4059   1.1114416260e+02   8.5519752467e+00    0.4300974    0.1765914  44.37  0.001865223    1.902    0.474
        21 -12.7533    193.6072    237.3758   9.7046789016e+01  -1.8225918785e+00     0.292692    0.2545041   7.29 0.0002960856    1.174    0.148
        22 -11.1326    189.7860    231.2237   9.6826967940e+01  -3.6183324119e-01    0.3776804    0.2125199  35.08  0.002080906    1.487    0.328
        23 -11.4506     68.7883    236.6262   1.2011339762e+02   1.7609655355e+01    0.2444932    0.1635852 -83.47 0.0004710635    1.481    0.325
        24 -12.0249    231.7304    237.2546   9.0251806276e+01  -7.6722087368e+00    0.3640716     0.224047  24.20   0.00160117    1.349    0.259
        25 -11.6577    104.1633    236.5373   1.1364306054e+02   1.2606707814e+01    0.4384668    0.2763599  71.16  0.002595452    1.684    0.406
        26 -10.4411    245.0517    237.9502   8.8096145549e+01  -9.6635789957e+00    0.1837537    0.1369896  13.39 0.0009962312    1.014    0.014
        27 -12.1215    125.3949    234.9032   1.0948030054e+02   9.6036525242e+00    0.2876403    0.2214617  69.31  0.001681507    1.315    0.239
        28 -11.9050    118.3601    235.3737   1.1086120485e+02   1.0630603737e+01    0.2908899    0.2515787  53.08 0.0007148725    1.104    0.095
        29 -10.6725     42.9983    235.7401   1.2457213817e+02   2.1006626480e+01    0.1750152    0.1252802  84.70 0.0005747201    1.202    0.168
        30 -11.3425    215.9881    233.3325   9.2386808371e+01  -4.8219614000e+00    0.4002796    0.2229493 -14.23  0.002081275    2.417    0.586
        31 -12.7060    155.5514    229.8788   1.0309487807e+02   5.5100491785e+00    0.8073888    0.4374736 -22.52  0.003078035    4.818    0.792
        32 -13.0570    164.4414    230.7800   1.0152502255e+02   3.8914883116e+00    0.3442173    0.2813408  53.05 0.0006172056    1.222    0.182
        33 -12.4568    166.0510    223.9462   1.0023239620e+02   4.6827631567e+00    0.5467839    0.2909751  36.56   0.00166614    1.642    0.391
        34 -11.5007    161.4916    222.4927   1.0090247260e+02   5.6887972933e+00    0.2052799    0.1716321  22.43 0.0006386521    1.220    0.180
        35 -11.0682    133.4238    233.8083   1.0782811827e+02   8.5026763847e+00    0.3453959    0.1992142 -54.66  0.001910048    2.093    0.522
        36 -10.4112     26.5511    234.6735   1.2729328849e+02   2.3063322043e+01    0.2114492   0.09950374  46.20  0.001335465    1.728    0.421
        37 -11.5392    201.4388    233.1928   9.4986235914e+01  -2.5143365671e+00    0.2597677     0.206333  47.98 0.0004348786    1.409    0.290
        38 -15.3445    237.0893    143.4052   7.1236568994e+01   4.8004525405e+00     1.299706    0.9085912  47.52  0.004629653    1.569    0.363
        39 -16.4784    195.1546    194.0646   8.9573405273e+01   4.3629508384e+00     2.904159     1.841662 -45.29   0.01373144    1.804    0.446
        40 -11.8018    175.6836    244.9465   1.0139163774e+02   8.6093383320e-03    0.4914542    0.1833734  37.06   0.00144474    2.249    0.555
        41 -10.8811    167.5081    248.9747   1.0340903106e+02   7.4898336619e-01    0.2256234    0.1389389  29.49 0.0007672505    1.520    0.342
        42 -16.1016    137.4754    156.4197   9.4730851066e+01   2.2757428792e+01     2.759922     1.220892  32.45  0.009456391    3.016    0.668
        43 -16.6866    148.8548    125.1569   8.5001891680e+01   2.7233011354e+01     4.272427     2.570095  77.37   0.01370486    3.612    0.723
        44 -17.1414    187.4833    175.1273   8.7481308816e+01   9.0645410884e+00     2.975169     1.713101 -22.20   0.01243308    2.435    0.589
        45 -10.3682    170.9570    248.5018   1.0272329604e+02   2.7011612772e-01    0.1681805     0.122361  38.17 -0.0001089009    1.077    0.072
        46  -9.7235     42.3099    162.4434   1.1859528709e+02   3.6258862765e+01    0.2200927   0.09920297 -72.33 0.0009573037    1.932    0.482
        47 -10.6583    175.4938    224.7858   9.8543980237e+01   2.9549444714e+00    0.2303799     0.153915  40.53 0.0008307524    1.258    0.205
        48 -11.0947     81.1385    161.0264   1.0916706118e+02   3.1549066500e+01     0.379667    0.2283645  85.22  0.001726196    2.087    0.521
        49 -10.5140     98.7534    160.8578   1.0486468171e+02   2.8815655419e+01    0.2436793    0.1911126  33.58  0.001301665    1.422    0.297
        50 -12.1230    183.9044    221.6434   9.6455479985e+01   2.0079777870e+00    0.5697881    0.2961797  49.64  0.001719229    1.982    0.495
        51 -12.3463     14.8263    155.8525   1.2425323433e+02   4.0441312967e+01    0.5782771    0.2238362  89.10  0.002550105    2.712    0.631
        52 -11.5695     76.6768    157.0389   1.0965515174e+02   3.3133813964e+01     0.422261    0.1842039 -53.46  0.001786272    2.272    0.560
        53 -10.3369     56.9380    158.5248   1.1467243172e+02   3.5444544895e+01    0.2023554    0.1546002 -68.52  0.001200355    1.212    0.175
        54 -10.0972     15.1812    223.8629   1.2863922518e+02   2.6247765014e+01    0.1681917    0.1017149  67.34  0.000571178    1.210    0.174
        55 -10.6732    156.0152    222.9785   1.0203873289e+02   6.5404711924e+00    0.1940231    0.1659513  38.78 0.0004862484    1.038    0.037
        56 -11.6696     73.8031    220.1694   1.1777229189e+02   1.9983141841e+01    0.3324997    0.2223116 -54.11  0.002028245    1.912    0.477
        57 -10.2613     62.3805    148.8523   1.1200467479e+02   3.7029879451e+01    0.2049727    0.1666299  70.44 0.0004253314    1.179    0.152
        58 -11.4896    230.4657    220.0429   8.7622834757e+01  -5.3803346022e+00    0.3108312    0.1881809  47.26  0.001391015    1.925    0.481
        59 -11.3154     59.9970    142.5352   1.1167805097e+02   3.8841562339e+01    0.2415624    0.1876533 -73.60 0.0003256492    1.128    0.113
        60 -10.2213     30.7155    143.5453   1.1926703444e+02   4.1849418614e+01    0.1901689    0.1286596  21.03 0.0009795002    1.987    0.497
        61  -9.7391     36.6644    141.1001   1.1748105573e+02   4.1839831385e+01    0.1760651    0.1349935 -77.58 0.0004158851    1.077    0.072
        62 -10.9829    108.1502    219.7093   1.1103750762e+02   1.5000569976e+01    0.2004953    0.1743531 -70.91 0.0004955603    1.300    0.231
        63 -10.2523     15.5449    136.7657   1.2230786309e+02   4.4754836518e+01    0.1716072   0.09439729 -87.40 0.0003348935    1.580    0.367
        64  -9.9120     94.5931    135.7702   1.0135501861e+02   3.5390249515e+01     0.201512    0.1333572 -70.02 0.0005856655    1.579    0.367
        65 -12.5189     78.3487    130.1020   1.0464744164e+02   3.9312377985e+01    0.6210745    0.4064158 -85.19  0.002144364    1.824    0.452
        66 -11.8512    174.2922    231.1326   9.9711349156e+01   2.2032012926e+00    0.4615485    0.3629263  37.30  0.002348228    1.047    0.045
        67  -9.6837     47.2390    133.5822   1.1370456620e+02   4.2508419105e+01    0.1536482     0.131727  10.01 0.0006244772    1.552    0.356
        68 -12.6154     62.8457    128.7232   1.0867387705e+02   4.1801074735e+01    0.2987613    0.2575747  88.22 0.0004987208    1.109    0.098
        69 -11.3424     81.0583    123.6370   1.0261959885e+02   4.0461832402e+01    0.3961906    0.2337709  23.35  0.001588826    2.324    0.570
        70 -10.1016     47.7289    123.0978   1.1194809706e+02   4.4975545322e+01    0.1856487    0.1469823 -66.62 0.0001841732    1.086    0.079
        71  -9.7069     23.8523    219.1217   1.2688716282e+02   2.6255225069e+01    0.1325532      0.10901  87.88 0.0004110371    1.278    0.217
        72 -11.1999     12.2518    122.8318   1.2166971061e+02   4.8243296547e+01    0.2110244    0.1638202  82.43 0.0004722209    1.190    0.160
        73 -10.7354     67.5251    119.3530   1.0562183591e+02   4.3445669834e+01    0.2212787    0.1748862  -8.83  0.001171377    1.742    0.426
        74 -11.2239     89.3586    109.1671   9.7027865496e+01   4.2595039943e+01    0.4064303    0.2543162  28.16  0.001827306    1.938    0.484
        75 -10.4186     84.2140    108.7569   9.8448786403e+01   4.3528513398e+01    0.2503585    0.2321707 -49.60 0.0003696577    1.061    0.057
        76 -11.5997     93.0958    114.6724   9.7240762129e+01   4.0666425073e+01    0.5207028     0.258977 -55.20  0.001201429    1.900    0.474
        77 -11.2689     95.5900    110.3209   9.5490385173e+01   4.1264301963e+01    0.3915995    0.2716415 -21.32  0.001723684    2.056    0.514
        78 -12.0072      5.9857    114.7731   1.2246220795e+02   5.0534231791e+01    0.2870588    0.1803317  74.62  0.001470241    1.621    0.383
        79 -10.7506     90.4973    217.0958   1.1422640245e+02   1.8187490871e+01    0.1723926    0.1155831 -70.93   0.00102701    1.572    0.364
        80  -9.3064     31.3317    115.2963   1.1539678898e+02   4.8489974326e+01     0.128262   0.08407209 -43.59 0.0006164742    1.640    0.390
        81 -10.7999     18.1529    112.1386   1.1873129417e+02   5.0318160831e+01    0.1637966    0.1246831  82.76  0.000284963    1.281    0.219
        82 -11.6078     73.0720    109.8554   1.0202050912e+02   4.4954659223e+01    0.5070229    0.2013345 -53.41  0.001986045    2.205    0.547
        83  -9.8934     79.1716    115.8694   1.0153038607e+02   4.2614881860e+01    0.1910359     0.156579 -38.63            0    1.303    0.233
        84 -11.4545     60.6938    216.0403   1.1990733635e+02   2.2534700765e+01    0.4180504    0.2129992  31.82  0.002177359    2.403    0.584
        85 -11.9643     92.9390    105.0157   9.4957809776e+01   4.2964067874e+01    0.3854595    0.2793713 -85.49   0.00133118    1.840    0.457
        86  -9.9081     46.1403    106.2074   1.0945178463e+02   4.9205558244e+01    0.1913676    0.1565673 -48.24  0.000511781    1.192    0.161
        87 -10.3922    241.2404    104.3521   6.1488227894e+01   1.0396890816e+01    0.2615571    0.1753518 -41.27 0.0006625258    1.361    0.265
        88 -14.0506    248.3403     88.1471   5.6589853647e+01   1.1502080474e+01    0.3904884    0.3453016 -31.47  0.001037432    1.064    0.060
        89 -12.0693    236.2812    100.1281   6.1228087159e+01   1.2146108328e+01    0.6771283     0.556537  28.98  0.002248001    1.390    0.281
        90 -13.5376    246.2458     96.3353   5.8834362199e+01   1.0644433635e+01    0.3563105    0.3506821  19.25 0.0007784747    1.131    0.116
        91 -11.1294     66.8658    103.6520   1.0253068543e+02   4.7300666833e+01    0.2787186     0.188576 -64.60 0.0007202834    1.391    0.281
        92 -10.6275     12.9900    216.2196   1.2862388509e+02   2.7916903414e+01    0.1751099    0.1165441  84.30 0.0003059152    1.152    0.132
        93 -10.3534     56.5132    233.5074   1.2206052366e+02   1.9763163828e+01       0.1136   0.08620836  67.25 -9.23665e-06    1.036    0.034
        94 -11.8655     85.6991     96.7317   9.5024776100e+01   4.6101544451e+01    0.9566849    0.2663756 -45.71  0.002932655    3.486    0.713
        95 -11.5322     89.9902     87.1206   9.1069026300e+01   4.7554969779e+01    0.3815967     0.287266 -28.61 0.0008078824    1.429    0.300
        96 -11.2401     78.9075    100.4565   9.8060471949e+01   4.6313821363e+01    0.2568978    0.2473959 -65.46 0.0002991727    1.063    0.060
        97 -10.7388    229.4843    209.5620   8.5961828911e+01  -3.8494922778e+00    0.1987625    0.1770051 -50.88 0.0007193362    1.648    0.393
        98 -10.2994    182.8450    230.8879   9.8069433645e+01   8.2529666282e-01    0.2831944    0.1603989 -30.37   0.00149843    2.271    0.560
        99 -11.7883     72.5721     96.7644   9.9128012883e+01   4.8122579714e+01    0.5063188      0.28826 -44.50  0.002162024    1.668    0.400
       100 -10.9731     97.0611    230.9695   1.1440489014e+02   1.4644774822e+01    0.2826075    0.1739336  38.98 0.0009315993    1.536    0.349
       101  -9.9086    115.9299    210.2500   1.0830956842e+02   1.5530238249e+01    0.1791076    0.1425168  50.71 0.0003375912    1.088    0.081
       102 -11.7666     92.5692     93.2333   9.1981388199e+01   4.5736567302e+01     0.355996    0.2640924   5.22  0.001269846    1.842    0.457
       103 -11.3100     97.0817    206.5215   1.1170820796e+02   1.9255767596e+01    0.3247511    0.1722765 -69.32 0.0005398492    2.078    0.519
       104 -10.3060     44.1434    209.1553   1.2250081997e+02   2.5950748296e+01    0.1587533    0.1344803  84.37 0.0003548999    1.203    0.168
       105 -12.4439    104.1821     91.6972   8.8061007040e+01   4.3954207620e+01    0.4342475    0.2844266  24.29  0.001432046    1.960    0.490
       106 -10.0982     66.9287     91.6998   9.9676921378e+01   5.0096985939e+01    0.3141862    0.1661983 -53.99  0.001063377    1.664    0.399
       107 -11.2907    227.8492     90.6175   6.0181926500e+01   1.5583775520e+01    0.3890711    0.2697501  73.60  0.001349498    1.779    0.438
       108 -10.6055     52.2048     90.9617   1.0432882083e+02   5.2132941395e+01    0.1996621    0.1960988  -8.87  0.000418393    1.166    0.143
       109  -9.8514     11.4997    208.4376   1.2847574399e+02   2.9575525273e+01    0.1088602   0.07978225  77.46 9.941722e-05    1.049    0.047
       110 -12.1648     14.4876     85.9384   1.1589599123e+02   5.6666903689e+01    0.2143983     0.184515 -72.99  0.001497889    1.120    0.107
       111  -9.9614    239.9156     86.1315   5.7277041281e+01   1.3630909811e+01    0.2145966    0.1774134 -61.01 0.0005061725    1.251    0.200
       112 -10.4063    234.6715    205.2203   8.4256321742e+01  -4.0963569484e+00    0.2774406    0.1733982 -14.61  0.001263603    1.679    0.405
       113 -12.3647     57.3454    205.0217   1.1959076627e+02   2.5169737822e+01     0.307315    0.1910205  54.47 0.0009371537    1.367    0.269
       114 -10.8604     70.3540     82.8572   9.6221307941e+01   5.1629418106e+01    0.2898125    0.2162261 -39.85 0.0007343115    1.248    0.199
       115 -11.1315     97.9043     82.1987   8.7169846660e+01   4.7208583894e+01    0.2718172    0.2096873 -32.05 0.0008040723    1.301    0.231
       116 -11.1319    239.2638     81.6558   5.6273924943e+01   1.4485170758e+01    0.2489651    0.2163858 -39.13 0.0003651392    1.043    0.041
       117 -10.0812      2.8522     80.8320   1.1894318779e+02   5.8488658148e+01    0.1774662    0.1225616 -57.76 0.0003819673    1.144    0.126
       118  -9.9666    248.0968     78.1637   5.4238221164e+01   1.3105914353e+01    0.1983225    0.1835896 -12.95  0.000519054    1.185    0.156
       119 -10.3786     92.2416     77.1290   8.7388986533e+01   4.9325484992e+01    0.2556503    0.1907775 -60.59 0.0003663342    1.506    0.336
       120 -11.5572     81.2740    230.6992   1.1733261361e+02   1.6975434065e+01    0.4473023    0.1845738  31.90  0.001942224    3.271    0.694
       121  -9.7028     19.4855    205.5099   1.2686477896e+02   2.9374705523e+01    0.1145529   0.08124007  75.12 5.581074e-05    1.033    0.032
       122 -11.2512     88.0253     74.5753   8.7944633545e+01   5.0611410874e+01    0.2570816    0.2230049  41.42  0.001353557    1.252    0.201
       123  -9.3179     73.3158     75.7158   9.3175201310e+01   5.2766193612e+01     0.132641    0.1109128  86.04 0.0002749822    1.582    0.368
       124 -10.5295     77.8091     74.1241   9.1176460084e+01   5.2411409139e+01    0.2229444     0.199482  -6.11 0.0003576149    1.160    0.138
       125 -10.7486    222.3078     70.2742   5.5825607778e+01   2.0169998797e+01    0.3409761    0.1902129  64.69  0.001483494    1.954    0.488
       126 -10.6864     69.4880    230.1491   1.1945811350e+02   1.8693119369e+01    0.2019793    0.1427526  46.03 0.0003420073    1.317    0.240
       127 -11.8670     11.7830    202.5146   1.2809951617e+02   3.0726051647e+01    0.3971559    0.1528587  75.69  0.001989553    2.521    0.603
       128 -14.4610    243.6616    221.5799   8.5595938785e+01  -7.5711073153e+00    0.4738142    0.3826442  16.91  0.001250059    1.116    0.104
       129 -12.0738    215.0439     66.5457   5.5922236344e+01   2.2498155415e+01    0.3200345    0.2842105 -40.03 0.0003512731    1.083    0.077
       130 -10.6210     69.4982    203.0075   1.1696140246e+02   2.3981728368e+01    0.2229246    0.1519741  77.25 0.0006814952    1.339    0.253
       131 -10.4211     66.6039    198.8271   1.1712906373e+02   2.5238787958e+01    0.3209914    0.1556001 -84.57  0.001414527    2.370    0.578
       132  -9.9171    177.1174     48.7277   5.7015437698e+01   3.4797138266e+01    0.2730576    0.2123768  14.95  0.001307862    1.626    0.385
       133 -11.4644    177.3619     57.0733   5.9494083723e+01   3.3460542490e+01    0.4216107    0.2922775 -56.82 0.0007715927    1.596    0.373
       134 -10.2423    177.4817     52.5291   5.8102130999e+01   3.4133038574e+01    0.2464498    0.1514576 -16.53 0.0006457667    2.075    0.518
       135 -11.8516    181.3089     61.3847   6.0057306292e+01   3.1763930057e+01    0.5480131    0.4019804  88.19 0.0005667558    1.636    0.389
       136 -11.7314    186.2910     60.7400   5.8975313269e+01   3.0596053947e+01    0.6659762    0.2931288 -30.59  0.002439507    2.367    0.578
       137 -11.3153    106.9302     64.1569   7.8623730082e+01   4.9095583238e+01    0.5077323    0.2335036  46.47  0.001325363    2.245    0.555
       138 -12.5920    193.7092     61.0288   5.7785277940e+01   2.8665365120e+01    0.7902548    0.4176876 -49.04  0.002716193    1.993    0.498
       139  -9.6098    244.7617    199.2168   8.1384563228e+01  -4.8951300760e+00    0.1679896    0.1199733   4.80 0.0003578061    1.291    0.225
       140 -10.2120     92.1466    196.0812   1.1146676955e+02   2.2138010228e+01    0.1863979     0.169993 -84.72  0.001206362    1.173    0.147
       141 -10.2511     46.5176    195.4800   1.2091045593e+02   2.8483294681e+01    0.2165902   0.08515736 -60.42  0.001030056    2.554    0.608
       142 -11.3707     29.6816     61.9994   1.0523258127e+02   6.0895632612e+01    0.2316379    0.2052055  87.01  0.000623477    1.414    0.293
       143 -10.5730    233.9899    226.7848   8.8147981369e+01  -6.7600102128e+00    0.1902763    0.1490442  -1.57 0.0004512703    1.157    0.136
       144  -9.5482     63.4764     62.5474   9.2549164652e+01   5.6982922711e+01    0.1359177    0.1201189 -34.21 0.0001482613    1.031    0.030
       145 -10.9312     37.3571     61.3017   1.0204956527e+02   6.0343771707e+01    0.2196916    0.1906756 -50.22 0.0003048829    1.110    0.099
       146  -9.7080    235.4968     60.4983   5.1546302367e+01   1.8585471732e+01     0.142726    0.1257591 -55.34 -0.0001335656    1.026    0.025
       147 -12.7486    138.0233     58.1912   6.8184195640e+01   4.3168390575e+01    0.5888364    0.4126616  15.96  0.000509227    1.900    0.474
       148 -10.4153    112.6645     56.0418   7.4129286967e+01   4.9365258649e+01    0.4778115    0.2779823  66.85  0.001271667    2.717    0.632
       149 -10.1429     89.3658     56.1877   8.1340409942e+01   5.4023108144e+01    0.2654679    0.2291025 -51.74  0.001476129    1.291    0.225
       150  -9.7058    240.9375     56.3297   4.9851708464e+01   1.7955028586e+01    0.1863513    0.1698026 -66.86 0.0006434758    1.057    0.054
       151  -9.3137     49.6441     56.3236   9.5740592774e+01   6.0050719994e+01    0.1237168    0.1032457  84.25 0.0007045792    1.766    0.434
       152 -10.8111    210.7548     54.5134   5.3330852435e+01   2.5390752936e+01      0.26582    0.2338502  55.69 0.0003813286    1.203    0.169
       153 -12.3229    200.5636     52.3573   5.4243299880e+01   2.8258657345e+01    0.5325843    0.3549777  47.11  0.002498093    1.623    0.384
       154 -11.7323    123.4728     52.3424   6.9853083714e+01   4.7580563217e+01    0.3691849    0.3010441  40.71            0    1.207    0.172
       155  -9.7270     84.5946     53.7127   8.2038421926e+01   5.5346361787e+01    0.1823491    0.1276148 -46.60 0.0002922509    1.470    0.320
       156 -10.8794     73.3422     52.1994   8.5409051043e+01   5.7536782265e+01    0.4399042    0.2159436 -51.25  0.001858667    2.315    0.568
       157 -10.2366    249.2816     53.3114   4.8169976486e+01   1.6524032231e+01    0.1906196    0.1544931 -57.13 0.0002736559    1.106    0.096
       158 -11.4546    250.1545     49.9896   4.7290713858e+01   1.6798144985e+01     0.224635    0.1689996 -39.01 0.0003729556    1.201    0.167
       159 -10.5146     36.2957    194.5511   1.2288416019e+02   2.9851737713e+01     0.202878    0.1428114  80.73  0.000261199    1.133    0.118
       160 -10.3494     60.2650     53.0073   9.0532601164e+01   5.9342020210e+01    0.2594796    0.1704939  61.34  0.001190879    2.763    0.638
       161 -12.7284     31.3450     52.0006   1.0171507605e+02   6.2851925241e+01     0.278614    0.2468558 -81.67 0.0005042031    1.450    0.310
       162  -9.9763    222.6822     51.9194   5.1014201221e+01   2.2859759597e+01    0.2220246    0.1806537  -4.68  0.001166311    1.542    0.351
       163 -11.2073    184.9585     51.5081   5.6497770370e+01   3.2364107807e+01     0.315196    0.2350244 -73.44  0.001257183    1.534    0.348
       164 -12.3540     18.4298     49.1503   1.0627890721e+02   6.4474912191e+01    0.2401283    0.1979562 -36.30 0.0003151076    1.095    0.086
       165 -12.3614     18.3761     43.2985   1.0458376388e+02   6.5667184413e+01    0.3399786    0.1865964 -52.99 0.0005644995    1.447    0.309
       166 -11.4966    127.5223    227.9939   1.0824667344e+02   1.0431664048e+01    0.3671393    0.2517608  81.03  0.002082828    1.862    0.463
       167  -9.8382    172.0365     49.4929   5.8160636125e+01   3.5993597366e+01    0.2282968    0.1454452  60.88  0.001014963    1.537    0.349
       168 -10.4244     36.0384     49.0347   9.8837055357e+01   6.3008697502e+01    0.1891833    0.1531163 -35.11 0.0003173229    1.012    0.012
       169 -11.1192    161.2162     48.0339   5.9754804599e+01   3.8992930947e+01    0.4457514     0.215055  62.18  0.001719706    2.109    0.526
       170 -12.3468    245.9801    191.5428   7.9718019502e+01  -4.0502703126e+00    0.5291972    0.2858635  40.25  0.001370108    1.837    0.456
       171 -10.6475    115.3455     47.5249   7.0313391490e+01   5.0209808598e+01    0.2923592     0.228103  28.17 0.0008641836    1.318    0.241
       172 -11.3126    118.9650     44.7023   6.8301340489e+01   4.9840049739e+01    0.2446448    0.2048175 -24.84 0.0003218338    1.194    0.163
       173  -9.9352    219.3006     43.9907   4.9384752772e+01   2.4802382141e+01    0.1983634    0.1683324 -46.66 0.0002990589    1.110    0.099
       174  -9.8726    138.6308     44.2676   6.3290199939e+01   4.5236966454e+01    0.1496077    0.1163115 -79.95 0.0006992439    1.662    0.398
       175 -10.4198    124.9817     43.3064   6.6232846239e+01   4.8661881393e+01    0.2893991    0.2012506 -30.30 0.0005607274    1.456    0.313
       176 -11.1354    123.5364     39.9474   6.5373232610e+01   4.9499978137e+01    0.3192997    0.2444293  -1.18 0.0009342053    1.472    0.321
       177 -10.1803     87.5019     44.4529   7.7593005804e+01   5.6449342061e+01    0.1415838    0.1245909  -2.72 2.954274e-05    1.051    0.048
       178 -11.4196     66.2343     41.0571   8.3813805632e+01   6.0674692658e+01    0.4514685    0.2576984  41.68  0.001465876    1.944    0.486
       179  -9.8390    160.0000     53.8814   6.1868560597e+01   3.8406126667e+01    0.2491293   0.08673804 -32.36 0.0007993309    2.921    0.658
       180 -11.1212    135.4048     41.0744   6.2914456943e+01   4.6495729340e+01    0.2745987    0.2314343 -62.49  0.001138838    1.376    0.273
       181 -11.5182    149.2885     40.1275   5.9556584037e+01   4.3177518837e+01    0.4160623    0.2954094   2.73  0.001912114    1.815    0.449
       182 -11.2711    154.3703     43.6004   5.9677948333e+01   4.1393016595e+01     0.529596    0.1734645 -32.73  0.001757494    3.001    0.667
       183 -11.1360    241.4922    189.4472   8.0089527793e+01  -3.0294219586e+00     0.344858    0.2191554  33.34  0.001531386    1.483    0.326
       184 -10.1497     42.0743     39.6110   9.2992049259e+01   6.4186065691e+01    0.3273589    0.1370792 -32.71  0.001292945    2.557    0.609
       185  -9.7674    231.4298     40.5058   4.7050424685e+01   2.2370545907e+01    0.1384667    0.1221438 -60.67 0.0001088382    1.010    0.010
       186 -10.9966    175.3268     39.6969   5.4566262536e+01   3.6547122562e+01    0.3476461    0.1443869  51.86  0.001297175    2.314    0.568
       187 -10.6627    177.7408     37.5894   5.3523388621e+01   3.6207982127e+01    0.2456536    0.2274905  67.88 0.0006158034    1.047    0.045
       188 -10.9201     91.2277     39.3290   7.4370658236e+01   5.6572611565e+01    0.2904038      0.21308  39.88  0.001153497    1.360    0.264
       189 -10.6007    165.1712     38.4933   5.5956886541e+01   3.9339248896e+01    0.4231305    0.2727641  89.30  0.001817055    2.013    0.503
       190 -10.3576    140.9571     38.1582   6.0646351662e+01   4.5541904602e+01    0.2327606    0.2052556 -73.80  0.001244948    1.286    0.222
       191 -11.6545     55.1760     37.2623   8.6631992903e+01   6.2956995093e+01    0.2907694    0.2344965 -20.52  0.000502841    1.056    0.053
       192 -11.0154    134.4554     37.0188   6.1692896249e+01   4.7302363025e+01    0.2244899    0.1919625  50.03 0.0003917039    1.119    0.106
       193  -9.8935     76.1484     37.1758   7.8611992110e+01   5.9698762875e+01    0.1696656    0.1509071 -42.45 0.0002830094    1.306    0.234
       194  -9.7783    108.9451     36.4972   6.7942673197e+01   5.3317852149e+01     0.208174     0.137266  52.09 0.0007556088    1.526    0.345
       195 -10.5256     53.2696    191.6630   1.1917721359e+02   2.8474449686e+01    0.1867937    0.1377948  74.49 0.0003887394    1.127    0.113
       196 -10.6087    121.9592     34.0110   6.3566239411e+01   5.0709640172e+01    0.2246265     0.176877 -69.25  0.001127653    1.681    0.405
       197 -10.2383    200.0639     32.6659   4.8811086353e+01   3.1114108941e+01    0.2030927    0.1740085  77.07 0.0005552844    1.119    0.107
       198 -11.6435     56.0076    188.8050   1.1832384494e+02   2.8746368576e+01    0.2383347    0.1921081  59.23 0.0003713687    1.164    0.141
       199 -10.2561    140.0006     31.4958   5.8515458923e+01   4.6673323990e+01    0.2184384    0.1956872 -17.99 0.0005288099    1.166    0.143
       200 -10.7591    141.6280     27.3952   5.6733991275e+01   4.6782668891e+01    0.3648978    0.2344944 -33.86  0.001083123    1.617    0.382
       201 -10.6706     97.5447     32.2226   6.9553783496e+01   5.6367693923e+01    0.4091147     0.140735  46.65  0.001516363    2.752    0.637
       202 -10.4193     85.0836     31.6441   7.3254052784e+01   5.8929333589e+01    0.2184866    0.1748717 -33.17 0.0006435019    1.280    0.219
       203 -10.3096     58.9630     31.3154   8.2657092023e+01   6.3415426967e+01    0.2267744    0.1539554 -13.18 0.0002658832    1.490    0.329
       204 -10.5907    125.9676     30.5458   6.1301331945e+01   5.0223338859e+01    0.2021858    0.1817137  45.87 0.0003230504    1.062    0.058
       205 -11.0321    126.2097     27.1500   5.9977511207e+01   5.0597491785e+01    0.2721236    0.2099036  19.63 0.0006128161    1.386    0.278
       206 -10.2710    165.4997     31.0623   5.3527372541e+01   4.0230918294e+01    0.2779801    0.1813676  48.65 0.0005488057    1.509    0.338
       207 -10.5317     49.7935     28.8683   8.5382561174e+01   6.5109890351e+01    0.1935245    0.1618067   4.50 0.0004258858    1.142    0.124
       208 -10.8470      9.3652     28.6713   1.0402876506e+02   6.9110806407e+01    0.2137386    0.1818146  26.20  0.001592365    1.544    0.352
       209 -10.3499    203.0657     28.5008   4.7273755311e+01   3.0880563810e+01    0.2189764    0.1324119  69.76   0.00103471    1.595    0.373
       210 -13.6012     82.0179    188.0333   1.1265008700e+02   2.5363796193e+01    0.3265711    0.2836342 -81.31  0.001398625    1.151    0.131
       211 -10.7237     84.2884    180.7137   1.1121196878e+02   2.6621437440e+01    0.2532407    0.2385093   3.82  0.000964044    1.439    0.305
       212  -9.2310    109.6629     26.2884   6.3737421553e+01   5.4549691791e+01    0.1337439    0.1107979 -73.64 0.0005136767    1.635    0.388
       213 -10.8391     33.7611     25.5459   9.1084128525e+01   6.7602342288e+01    0.3451326    0.1841123  39.82  0.001519355    2.458    0.593
       214 -10.4498    209.2210     25.2072   4.5642507676e+01   2.9740160560e+01    0.2285617    0.1719719  62.31 0.0003751184    1.327    0.246
       215 -12.1177     66.7054    185.1781   1.1564635510e+02   2.8140754456e+01    0.2372171     0.198315  74.92 0.0002576872    1.029    0.028
       216  -9.8737     17.5630    184.2480   1.2585291997e+02   3.3957157264e+01    0.1587932   0.08653183 -70.36 0.0009503615    1.629    0.386
       217 -10.5132     89.1147     23.6693   6.8577345779e+01   5.9251562606e+01     0.214174    0.1716382 -28.22 0.0003062719    1.277    0.217
       218 -10.1771    154.0928    245.6716   1.0543470899e+02   3.3442488106e+00    0.1744899    0.1215083  39.73 0.0004384881    1.148    0.129
       219 -10.1535    175.0889     17.0617   4.7665066575e+01   3.9392603144e+01    0.2099084     0.191887 -85.48 0.0003861721    1.052    0.049
       220  -9.8170    248.2375    185.5625   7.8170108876e+01  -3.5878450734e+00    0.1724339    0.1072387  25.62 0.0005948276    1.565    0.361
       221  -9.9542     12.4642     15.9783   9.7580248906e+01   7.1173057367e+01    0.1687927   0.08997197 -46.24 0.0004488256    1.540    0.351
       222 -10.1379    219.9687    225.7961   9.0456216264e+01  -4.4810340270e+00    0.1909984    0.1338533  18.95 0.0004401864    1.250    0.200
       223 -10.0751     50.1264     15.1902   7.8997774600e+01   6.7138870001e+01    0.1871819    0.1407464  -0.99 0.0005514058    1.163    0.140
       224 -11.4087     67.2446    244.6423   1.2100335409e+02   1.6401691773e+01    0.3161283    0.1596892  47.97   0.00192719    1.536    0.349
       225 -10.0965     41.9883    177.4775   1.2020738018e+02   3.2901614661e+01    0.1620615    0.1154073  40.65 0.0003520653    1.517    0.341
       226 -10.7993    185.6943    243.5494   9.9378883712e+01  -1.3903885410e+00    0.2580711    0.1672947 -46.07  0.001565994    1.994    0.498
       227 -10.4177     68.8825    174.9849   1.1395796234e+02   3.0105199196e+01      0.19181       0.1609  82.96  0.001192349    1.013    0.012
       228 -12.8207    182.4715    238.2941   9.9221330270e+01  -1.6055513687e-01    0.3742522     0.251902  29.21 0.0005877239    1.299    0.230
       229 -10.2677     33.4049    243.7455   1.2665309076e+02   2.0686560612e+01    0.1340738   0.08407045 -73.85 0.0009524795    1.675    0.403
       230 -10.5495     55.1226    171.8953   1.1671269353e+02   3.2596719116e+01    0.2112012    0.1642358 -71.98            0    1.217    0.178
       231  -9.3959     22.9706    244.0203   1.2835557243e+02   2.1785122358e+01    0.1258475    0.0855358  66.80            0    1.028    0.027
       232 -10.3241    222.6896    224.3276   8.9726629361e+01  -4.7181014079e+00     0.189826    0.1755934  37.42 0.0009316353    1.411    0.291
       233 -11.2088    201.5821    242.4615   9.6358871574e+01  -3.7409382169e+00     0.230574    0.1667645   5.88  0.001487586    1.464    0.317
       234 -10.0060     35.2270    171.4293   1.2110576604e+02   3.4989347142e+01    0.1664491   0.09495705  52.07 0.0005900281    1.646    0.392
       235 -10.0015     48.3013    243.6700   1.2417437215e+02   1.8958844584e+01    0.1169304   0.05907255  65.82 0.0007032838    1.647    0.393
       236 -11.2888      2.8303    168.6683   1.2779632997e+02   3.8583766883e+01    0.2358357    0.1516627 -89.83 0.0007844632    1.168    0.144
       237 -10.7688     23.9728    166.5947   1.2313902222e+02   3.7204261993e+01    0.2488214    0.1748298 -43.46  0.001525993    1.973    0.493
       238 -10.5203    112.1085    240.9534   1.1262919033e+02   1.0658375988e+01    0.1910536     0.131355  63.24   0.00067148    1.338    0.253
       239 -11.3908    247.9165    166.1178   7.4293927785e+01  -7.2738351303e-01    0.2037472    0.1801787  28.47 0.0003496711    1.234    0.189
