#   1 NUMBER                 Running object number                                     
#   2 MAG_AUTO               Kron-like elliptical aperture magnitude                    [mag]
#   3 X_IMAGE                Object position along x                                    [pixel]
#   4 Y_IMAGE                Object position along y                                    [pixel]
#   5 X_WORLD                Barycenter position along world x axis                     [deg]
#   6 Y_WORLD                Barycenter position along world y axis                     [deg]
#   7 A_WORLD                Profile RMS along major axis (world units)                 [deg]
#   8 B_WORLD                Profile RMS along minor axis (world units)                 [deg]
#   9 THETA_WORLD            Position angle (CCW/world-x)                               [deg]
#  10 FWHM_WORLD             FWHM assuming a gaussian core                              [deg]
#  11 ELONGATION             A_IMAGE/B_IMAGE                                           
#  12 ELLIPTICITY            1 - B_IMAGE/A_IMAGE                                       
         1 -10.0461     74.9939     16.1669   7.7268149352e+01   6.2474523809e+01    0.3374451    0.2183343  -3.66  0.001028368    1.658    0.397
         2 -11.1561     78.5724     21.7842   7.8561426696e+01   6.1071611229e+01    0.6256184    0.2218891 -27.12  0.002326662    3.110    0.678
         3 -11.3659     39.0987     23.5050   9.4409249850e+01   6.6481423133e+01    0.9694172    0.2288061 -36.77  0.003114101    4.820    0.793
         4 -10.7451     42.6468     19.6906   9.1283982924e+01   6.6705912565e+01     0.465229     0.184362 -28.81  0.001954724    2.933    0.659
         5 -10.7788     14.2950     16.0322   1.0254799727e+02   7.0055615713e+01    0.3024781     0.237837  19.30  0.001432967    1.558    0.358
         6 -11.3674    190.9280     14.7474   5.1281626269e+01   3.5334355199e+01    0.5104836    0.2160597 -44.56  0.001964222    2.480    0.597
         7  -9.8730     28.3855      1.3918   8.9003592491e+01   7.1100246027e+01      0.19627    0.1329547  34.44 0.0005363438    1.829    0.453
         8 -11.7216     40.2671      9.1950   8.7469323736e+01   6.8607601712e+01     0.450742    0.2115132 -28.72  0.002049304    1.904    0.475
         9 -12.1401     35.1391     12.7273   9.1418647644e+01   6.8674762624e+01    0.3523752    0.2475847 -39.87  0.001167178    1.355    0.262
        10 -11.8928     30.0625      7.0449   9.1047867997e+01   7.0096174643e+01    0.4024169    0.3209205  14.32  0.002560048    1.352    0.260
        11  -9.4768     88.7593      7.7062   6.8989399293e+01   6.0944453800e+01    0.1881039     0.114174 -31.28 0.0009754208    1.667    0.400
        12 -10.3816     90.6860      2.5385   6.6049552142e+01   6.1100727867e+01    0.3958158    0.2427123  58.53  0.001437263    1.810    0.448
        13 -11.4464     88.6551     13.6954   7.1736556861e+01   6.0268812798e+01    0.4337831    0.4069462  79.80  0.001749099    1.451    0.311
        14 -10.9485     92.9813      8.8671   6.8289179374e+01   5.9968774535e+01     0.353079     0.226966  -1.51  0.001529845    1.631    0.387
        15 -10.0189    174.8165     14.5885   5.3479558436e+01   3.9609076427e+01    0.2930744    0.2073246 -71.93  0.001307666    1.651    0.394
        16 -10.6227    155.2435     14.6015   5.6626740597e+01   4.4730165362e+01     0.377452    0.2269442  40.53  0.001523595    1.685    0.407
        17 -10.5581    162.5231     13.2648   5.4945028260e+01   4.2979396692e+01    0.2613956    0.2203738  48.23 0.0002258478    1.125    0.111
        18  -9.6644    203.0215     11.9609   4.8961250966e+01   3.2457721498e+01    0.1676592    0.1568517 -84.12  0.000389557    1.010    0.010
        19 -10.1987    119.0886     12.1381   6.2959626873e+01   5.3916405114e+01    0.2155875    0.1654122  29.19 0.0003055515    1.236    0.191
        20 -10.9650     22.7228      9.7033   9.5792305097e+01   7.0414649592e+01    0.2825142    0.2186881   1.07   0.00142044    1.296    0.228
        21 -10.0617     10.0351      1.9655   9.8569178829e+01   7.2709556101e+01    0.3888843    0.1833242 -25.18  0.002221755    2.042    0.510
        22 -11.1815      4.1691      9.9974   1.0512337854e+02   7.1782984486e+01    0.2504627    0.1922055  -0.12 0.0003536829    1.435    0.303
        23 -10.4286      2.2630      6.5711   1.0470789715e+02   7.2482984899e+01    0.2883964    0.1444978  -1.16   0.00172938    2.462    0.594
        24 -10.7148     14.9104      8.8332   9.9224617101e+01   7.1226170399e+01     0.201958    0.1567337 -27.31 0.0003466373    1.078    0.073
        25 -10.7515     11.2065      6.9892   1.0027135969e+02   7.1813669412e+01    0.2892003    0.1768962 -49.33   0.00191281    1.516    0.340
        26 -10.9645     55.5051      7.4669   8.0278715454e+01   6.6774432186e+01    0.3756419    0.3098395 -26.54    0.0015893    1.279    0.218
        27 -11.3156     57.7415      2.2404   7.6774439034e+01   6.7085356805e+01    0.3334171    0.2377672  -7.84 0.0002318983    1.201    0.167
        28 -11.6575    151.6535      7.7490   5.4823071166e+01   4.6350430281e+01    0.4722848    0.3589767 -65.14  0.002283993    1.563    0.360
        29 -10.2982    210.4040      7.7763   4.6955308119e+01   3.0981052331e+01    0.1831044    0.1358892  -5.98 0.0009450485    1.634    0.388
        30 -11.0162     71.0984      5.9952   7.3812304674e+01   6.4431898447e+01    0.3552417     0.287802 -18.22  0.002278821    1.186    0.157
        31 -10.7233    145.0224      6.0747   5.5361245434e+01   4.8201507551e+01    0.2199055    0.2011473  -0.46 0.0003429819    1.138    0.121
        32  -9.9957     64.8884      7.0084   7.6503352887e+01   6.5361677406e+01    0.1947501     0.155573  -4.81 0.0005508696    1.038    0.036
        33  -9.9311    235.5143      4.5158   4.3700003387e+01   2.5014484983e+01    0.1319315    0.1201625 -75.24 0.0001019848    1.044    0.042
        34 -10.0450    199.3788      4.1784   4.7128733405e+01   3.4200340250e+01    0.2036279     0.116738 -38.10 0.0009525221    1.729    0.421
        35 -11.1767    130.6107      3.6832   5.7130737288e+01   5.2007960981e+01    0.2702435    0.2196451  75.68  0.001505489    1.344    0.256
        36 -10.2722    120.9782      4.0795   5.9261223830e+01   5.4281743530e+01    0.2079384    0.1788711  30.08 0.0004329323    1.047    0.045
        37 -10.7742    173.1254      3.1667   5.0027035974e+01   4.1188572534e+01    0.2651348    0.1800298  87.95 0.0008051661    1.567    0.362
        38 -10.9644    160.6839      2.1249   5.1438023041e+01   4.4536589156e+01    0.2798351    0.2413166 -10.99  0.001596064    1.256    0.204
        39 -10.6704     20.2157      2.3705   9.3520261112e+01   7.1783599981e+01    0.2292677    0.1560234 -17.62  0.000761828    1.205    0.170
        40  -9.8252      2.2467      2.8495   1.0312258288e+02   7.3105040570e+01    0.1747075    0.1205362  -2.87  0.001160839    1.500    0.333
        41 -10.1782    100.4223      1.9500   6.3167812801e+01   5.9121167182e+01    0.2353669    0.1924849  81.53  0.001216405    1.639    0.390
        42 -11.5917     80.2166      1.7511   6.8771162528e+01   6.3238218928e+01    0.3322347    0.1697135  49.02  0.001069421    1.909    0.476
        43  -9.8145     67.0656      1.6444   7.3056476496e+01   6.5625101234e+01    0.1706152    0.1369695  17.36 0.0004096837    1.104    0.094
        44 -10.0108     50.3807      1.9247   7.9514345644e+01   6.8234330500e+01    0.2430012      0.13451  22.17  0.001307901    1.936    0.483
        45  -9.7509    203.9926      1.4857   4.5864317191e+01   3.3261468700e+01    0.2070224    0.1266678  72.61 0.0003712013    1.517    0.341
        46  -9.2384    186.9801      1.0000   4.7603399398e+01   3.7746167946e+01    0.2199264   0.07413559  70.73 0.0003269693    2.738    0.635
        47 -10.7146    247.9919    129.1806   7.3445889079e+01   4.8906515701e+00    0.2153582    0.1702896 -82.29  0.001092636    2.019    0.505
        48 -10.4571     11.9763    249.5572   1.3376472295e+02   2.3599100166e+01    0.1685254   0.08787618 -65.82  0.001167585    2.410    0.585
        49 -11.4495      1.7838    248.3885   1.3513131325e+02   2.4773236447e+01    0.7262353    0.1217612 -79.30  0.003330556    5.191    0.807
        50 -11.4365      6.0931    241.4313   1.3427983502e+02   2.5463105453e+01    0.2530013    0.1414001  58.91  0.001417289    1.266    0.210
        51 -11.3206      6.2077    247.0411   1.3447302961e+02   2.4560630644e+01    0.3134295     0.132217 -80.96  0.001841724    2.069    0.517
        52 -11.9311     11.0150    244.3619   1.3369607583e+02   2.4513995391e+01    0.2455986    0.1680524  37.64   0.00172346    1.975    0.494
        53 -10.0863     28.9288    128.2740   1.2221772020e+02   4.5267067899e+01    0.1578972    0.1305732  89.36 0.0003704194    1.085    0.078
        54 -11.7626     23.4978    121.4169   1.2272277376e+02   4.7266980547e+01    0.5182399    0.2476459  73.78  0.002094117    2.687    0.628
        55 -11.0054     20.2487    112.9400   1.2249778740e+02   4.9417836197e+01    0.2165929    0.1686168  77.95 0.0005220965    1.251    0.201
        56  -9.2879      8.0050    121.0340   1.2646067827e+02   4.8542690353e+01    0.1370147    0.1020612 -82.08  0.000375283    1.002    0.002
        57  -9.1582    119.3085    115.3536   9.6788790627e+01   3.5478834962e+01    0.1489769    0.1175939 -13.75 0.0007043156    1.721    0.419
        58 -10.8250     65.2607    111.1068   1.1018458809e+02   4.5195748958e+01    0.4504688    0.1321101 -58.67  0.001135777    2.886    0.654
        59 -10.6978     72.2705    113.0102   1.0865292542e+02   4.3825201756e+01    0.2075602    0.1844333  68.88 0.0002946258    1.177    0.151
        60 -11.4987      3.8420    109.0446   1.2624324197e+02   5.1434078397e+01    0.3063233    0.1889614  72.05   0.00197348    1.645    0.392
        61 -10.1614    248.9916    111.9979   6.9246999650e+01   7.2529097650e+00    0.1769953        0.157 -16.96  0.001012586    1.020    0.019
        62 -10.8702     57.6182    107.9252   1.1167944744e+02   4.6873617127e+01    0.2256332    0.1862867  -4.57  0.001355837    1.666    0.400
        63 -10.4586     12.0657    108.5052   1.2406908534e+02   5.1009118012e+01    0.1406139    0.1148472  34.41 0.0006159401    1.563    0.360
        64  -9.8483     39.9871    105.9828   1.1620993789e+02   4.9238630591e+01    0.2319114   0.08542547 -50.99  0.001007933    2.479    0.597
        65  -9.3322    187.1496    103.3796   7.8058309545e+01   2.2827207121e+01    0.2103973    0.1489784  64.25 0.0006679124    1.611    0.379
        66  -9.8184    113.5157    102.5053   9.5134722093e+01   3.9398418330e+01    0.1469557    0.1396903 -59.39 0.0001363866    1.000    0.000
        67  -9.8950     88.0981    101.7941   1.0187934926e+02   4.4019771241e+01    0.2054972    0.1771441 -77.09  0.000618361    1.172    0.147
        68 -10.5657     57.4696    102.0069   1.1058255368e+02   4.8240112222e+01    0.2472605    0.1722647  56.61  0.001381559    1.658    0.397
        69 -10.4552     24.5725    101.8754   1.1982514815e+02   5.1545205992e+01     0.185026    0.1429631  79.70 0.0006207433    1.316    0.240
        70 -10.3528      3.2993     95.4094   1.2481748626e+02   5.4445771576e+01    0.2042797    0.1525711 -83.46 0.0005349956    1.119    0.106
        71 -11.4699     18.2947     95.0104   1.2056393054e+02   5.3558368462e+01    0.2823336    0.1717223  30.69  0.001641789    2.038    0.509
        72  -9.3074     84.3089     94.3430   1.0115750093e+02   4.6283681228e+01    0.1427312    0.1043085 -26.18 0.0007044305    1.695    0.410
        73  -9.3183     78.7962     94.6205   1.0281883775e+02   4.7060281896e+01    0.1712181    0.1283646  51.83  0.000213537    1.503    0.335
        74 -11.1241     10.9953     90.4578   1.2198806273e+02   5.5063907324e+01     0.500319    0.1451319 -64.56  0.002301116    2.348    0.574
        75 -10.3262     10.8356     84.8418   1.2120032895e+02   5.6308054620e+01    0.2263341    0.1365137 -74.34 0.0007305624    1.330    0.248
        76 -10.5618     57.9445     91.8267   1.0832321391e+02   5.0488271878e+01    0.2358728    0.1924284 -34.63 0.0007456021    1.333    0.250
        77 -10.2327     29.1992     92.1548   1.1694504208e+02   5.3341616692e+01    0.2131651    0.1867125  28.00 0.0008794731    1.443    0.307
        78 -10.7491     25.0418     90.0091   1.1780576963e+02   5.4160222389e+01    0.3109362     0.204913  88.23  0.001434025    1.636    0.389
        79 -10.7633     76.5426     89.2814   1.0217396957e+02   4.8581995613e+01    0.2460693    0.2380979   0.45 0.0006742269    1.167    0.143
        80 -10.5526    107.8177     88.9972   9.3084311830e+01   4.3396641265e+01    0.2357169    0.2135967  45.63 0.0003427147    1.171    0.146
        81 -10.2171     99.4870     89.4977   9.5557586501e+01   4.4816321171e+01    0.1446106    0.1341689 -57.19 0.0008102222    1.040    0.038
        82 -10.9042     18.4640     87.3097   1.1931319683e+02   5.5254077397e+01    0.3462431    0.1900331 -59.69  0.002044758    1.398    0.285
        83  -9.2690      1.5261     89.4886   1.2456689066e+02   5.5836287696e+01     0.114734   0.08405161 -71.28 0.0001091811    1.017    0.017
        84  -9.5215    124.3999     86.8067   8.7977515809e+01   4.0547122058e+01    0.2142318    0.1399444 -32.87 0.0003996743    1.625    0.385
        85  -9.6922     72.4905     84.3822   1.0215607370e+02   5.0247235948e+01     0.293764    0.1675135 -32.12  0.001304399    2.238    0.553
        86  -9.7521    146.0293     83.6172   8.1586136857e+01   3.6391125236e+01    0.2106465    0.1933817  47.46  0.000439931    1.106    0.095
        87 -10.9160      3.8570     82.0981   1.2287828383e+02   5.7316406961e+01    0.3973491    0.1529073 -71.31  0.001528773    1.968    0.492
        88 -10.1309    100.3995     83.2586   9.3563389470e+01   4.5989293646e+01    0.2383969    0.1798498  68.68   0.00100393    1.717    0.418
        89  -9.9698     42.3130     82.1419   1.1100318376e+02   5.4373949581e+01    0.2183321    0.1414495 -67.55  0.000868101    1.386    0.279
        90 -11.1621     64.1841     79.7968   1.0355266511e+02   5.2381868190e+01    0.4529349    0.2550515 -58.90  0.002003933    1.637    0.389
        91  -9.8790    250.3861     80.8365   6.1406888146e+01   1.1605394029e+01    0.2015001    0.1287793 -19.62 0.0005898495    1.636    0.389
        92 -10.0304     89.2090     80.4932   9.6055057150e+01   4.8521169200e+01    0.2741085    0.1779417 -64.55 0.0007518466    1.820    0.451
        93  -9.3784    132.4932     79.5017   8.3710112538e+01   4.0269823341e+01    0.1521737    0.1471678 -20.77 0.0008106022    1.016    0.016
        94 -11.6364     54.8284     84.6329   1.0765256164e+02   5.2467385878e+01    0.3383885    0.2236904 -71.99    0.0011512    1.571    0.364
        95  -9.8601     85.1649     78.5808   9.6730437133e+01   4.9590950035e+01    0.2387884    0.1680852 -55.12 0.0007940924    1.361    0.265
        96 -10.3989    176.9662     77.0128   7.2739149559e+01   3.0078268699e+01    0.2446913    0.2439819  -2.64  0.001307831    1.013    0.012
        97  -9.8090     28.2474     77.0311   1.1440546541e+02   5.6776783256e+01    0.1655366    0.1256119 -65.05 0.0002422038    1.083    0.076
        98 -11.0010     56.0384     75.3480   1.0501161087e+02   5.4368724009e+01     0.361468    0.2534436  23.73  0.001104909    1.736    0.424
        99 -10.7617     15.9937     75.7812   1.1809471102e+02   5.7957549006e+01    0.2257165    0.1762949  16.42   0.00158327    1.673    0.402
       100 -11.6818      5.4770     74.3613   1.2119378217e+02   5.8904019553e+01    0.3355018    0.2666628  55.88  0.002461035    1.554    0.356
       101  -9.1202    160.7053     75.3357   7.5697073858e+01   3.4427067178e+01    0.1602639    0.1224154 -68.99 0.0001987644    1.645    0.392
       102  -9.3838     47.3185     75.2896   1.0783044865e+02   5.5366846280e+01    0.1282734   0.08577238 -33.89 0.0004345372    1.598    0.374
       103  -9.8063     37.3089     75.3401   1.1110789891e+02   5.6356598491e+01    0.2121408    0.1721093 -68.48  0.001112011    1.143    0.125
       104 -11.2291     32.0632     73.0330   1.1231729043e+02   5.7331579835e+01    0.2182729    0.1914742  65.63            0    1.381    0.276
       105 -11.0228     35.7013     71.7046   1.1081188402e+02   5.7297928150e+01    0.3578576    0.2357955 -19.90  0.001420695    1.977    0.494
       106  -9.5776    136.5948     74.2462   8.1054655309e+01   4.0363343050e+01    0.2094122    0.1454028 -26.98  0.000411228    1.542    0.351
       107 -10.1745     92.5215     72.6277   9.2753903346e+01   4.9609906039e+01    0.2579418    0.2130712  47.57 0.0003381848    1.346    0.257
       108  -9.4555     81.5007     72.9963   9.6244700348e+01   5.1356126044e+01    0.1908599    0.1184405 -70.41 0.0008089014    2.416    0.586
       109 -10.1191    105.7475     71.6240   8.8541977645e+01   4.7392096441e+01    0.2361177    0.2073434  -6.33 0.0004545991    1.218    0.179
       110  -9.3804     56.3152     69.1161   1.0327288290e+02   5.5678097082e+01    0.2912933    0.1541541 -20.40  0.001092985    3.849    0.740
       111  -9.2329     47.0010     69.2119   1.0641772383e+02   5.6717953854e+01     0.150558    0.1048182  27.54 0.0008727626    1.722    0.419
       112  -9.9784     10.4720     68.1805   1.1849730370e+02   5.9950665953e+01    0.3038855   0.09210792 -67.71  0.001327659    2.629    0.620
       113 -10.5638    134.5306     66.5369   7.9122120386e+01   4.2273759039e+01    0.3532026    0.2400571 -76.02   0.00139933    2.473    0.596
       114 -10.4151     34.6352     64.7359   1.0951030126e+02   5.8895608465e+01    0.2682337    0.1732033 -42.55 0.0008215634    1.367    0.269
       115 -10.4273     38.9258     62.8564   1.0753764130e+02   5.8895068318e+01    0.2442785    0.1538426 -37.45 0.0003382076    1.512    0.339
       116 -10.5339     40.9814     59.2528   1.0584287965e+02   5.9450884071e+01    0.2873863    0.2018662 -45.54  0.001755772    1.167    0.143
       117 -11.2513     14.4321     63.8925   1.1631578066e+02   6.0625003968e+01    0.2354014    0.2203912  -8.63 0.0002657785    1.337    0.252
       118 -10.9594      9.9978     60.0666   1.1707096776e+02   6.1707823584e+01    0.4014599    0.1273505 -50.79 0.0003588847    2.255    0.557
       119 -11.4618      5.3034     63.3038   1.1932908681e+02   6.1282580315e+01    0.2076234    0.1857486 -71.73 0.0007652286    1.208    0.172
       120 -11.1263      2.8233     60.6072   1.1967771804e+02   6.1980918459e+01    0.2267906    0.1630789  89.14  0.001557524    1.522    0.343
       121 -10.3250     62.6812     62.6596   9.9279403381e+01   5.6230611069e+01    0.2752052    0.1443239 -46.48  0.001335749    1.625    0.385
       122 -10.3601     65.9827     60.7184   9.7568026383e+01   5.6184027694e+01    0.2217001     0.197087 -22.83 0.0003701942    1.106    0.095
       123  -9.9704    100.8180     62.0430   8.6889349101e+01   5.0213324127e+01    0.2109441    0.1887247 -60.23 0.0004747039    1.249    0.200
       124 -10.1868     54.5629     61.2061   1.0162678672e+02   5.7552693481e+01    0.3409025    0.1829025  21.50  0.001260262    2.478    0.596
       125 -13.3365     20.1871     57.4298   1.1285279453e+02   6.1606289830e+01    0.4382465    0.2163574 -63.28  0.002397782    1.669    0.401
       126 -10.2834     15.2844     57.9926   1.1474835233e+02   6.1820671920e+01    0.1849208     0.154992 -34.25 0.0004332265    1.248    0.199
       127 -11.3096     83.6669     56.9421   9.0485613604e+01   5.4248050460e+01    0.2612013    0.2475131 -72.19  0.000499428    1.256    0.204
       128 -11.5329     88.4429     53.1016   8.7633123010e+01   5.4160988655e+01     0.463107    0.3868892  31.21   0.00138661    1.271    0.213
       129  -9.1749     48.4383     58.4103   1.0295246916e+02   5.8838589405e+01    0.1263486    0.1058612 -44.63 0.0001494255    1.023    0.022
       130  -9.6071     71.5745     56.7721   9.4415869970e+01   5.6178749297e+01    0.1866631    0.1187632 -54.44 0.0009353214    1.621    0.383
       131 -10.0524    225.5094     54.6868   5.8052217071e+01   2.1293769670e+01    0.3864762    0.2293774  11.62  0.001414493    3.087    0.676
       132  -9.5079    158.4900     56.5245   7.0263138970e+01   3.8214594536e+01     0.154128    0.1482611 -67.13 1.934441e-05    1.098    0.089
       133 -11.2982     25.9468     43.3962   1.0691938824e+02   6.4043181020e+01    0.4099401    0.2645442  46.26  0.002453434    2.216    0.549
       134 -13.4720      5.9449     50.8030   1.1656173325e+02   6.3869113401e+01    0.4634541     0.279369 -32.07 0.0007148943    1.706    0.414
       135 -11.4371     16.9174     44.6376   1.1083554895e+02   6.4467690871e+01    0.5278972    0.3981978  74.38  0.003435105    1.970    0.492
       136 -11.5983     18.7614     32.2102   1.0636791707e+02   6.6775716513e+01     0.769268    0.3407195 -14.12  0.003166182    4.426    0.774
       137 -10.5519     25.8751     29.6367   1.0243967739e+02   6.6690805833e+01      0.20145    0.1364026 -50.86 0.0003686188    1.306    0.235
       138 -10.8711     22.9341     38.5138   1.0663868676e+02   6.5244456644e+01    0.2054247    0.1811793 -65.95 0.0004148591    1.332    0.249
       139 -11.3410     26.6407     35.0049   1.0397708837e+02   6.5618734679e+01    0.3412154    0.1769046 -34.60 0.0008529594    1.744    0.427
       140  -9.2385    174.4155     55.5209   6.6699841439e+01   3.4301603481e+01    0.1512949    0.1495329 -31.66 0.0001150001    1.017    0.017
       141 -11.2924    114.5374     54.1193   8.0222219925e+01   4.8920263638e+01     0.337458    0.2951375 -22.32 0.0008245879    1.093    0.085
       142  -9.2152     54.1959     55.3930   9.9996191011e+01   5.8786832919e+01    0.1438955    0.1225786  43.94 0.0001520063    1.447    0.309
       143 -10.2071     34.3872     53.4812   1.0662426824e+02   6.1276825647e+01    0.2776077    0.1547913 -37.31  0.001268279    1.673    0.402
       144 -11.8114     66.0998     52.7544   9.4953046083e+01   5.7755732525e+01    0.4270512    0.2159824  32.48  0.001386696    2.279    0.561
       145  -9.4232    105.0784     53.0000   8.2522992517e+01   5.1062118344e+01    0.2278002   0.08217394  46.98 0.0007975668    2.909    0.656
       146 -10.2043     60.1225     58.0551   9.8745452239e+01   5.7506740688e+01    0.1990474    0.1660696 -47.73 0.0004685241    1.100    0.091
       147 -11.0004     77.4215     47.3117   8.9172008184e+01   5.7081750410e+01    0.5021023    0.3015443 -16.44  0.002258582    2.255    0.557
       148 -10.1202     45.9952     49.1829   1.0101770762e+02   6.0977356611e+01     0.384483    0.1475174 -35.60  0.001520118    3.057    0.673
       149  -9.7975     53.7083     48.0033   9.7780215761e+01   6.0311446187e+01    0.1991341    0.1459164 -29.99 0.0004247127    1.242    0.195
       150  -9.1825    154.5744     47.5156   6.8123404855e+01   4.0623052240e+01    0.1495493    0.1471346   3.03 5.865849e-05    1.020    0.019
       151  -9.6085    135.5262     46.4165   7.2057873469e+01   4.5474731693e+01    0.1471834    0.1427797  15.28 8.564957e-05    1.029    0.028
       152  -9.4134    104.4607     46.4875   8.0351661139e+01   5.2321125913e+01    0.1430238    0.1318978 -13.30 0.0005306673    1.018    0.018
       153 -10.8796    180.3165     42.1449   6.1408820630e+01   3.4745018525e+01    0.3916821    0.2679369  -4.04  0.001019093    1.852    0.460
       154  -9.1733    110.9252     42.9883   7.7203821998e+01   5.1566649117e+01    0.1677945    0.1557311  11.09  0.000354199    1.040    0.039
       155 -10.0454     95.0857     42.2249   8.1571532211e+01   5.4875341475e+01    0.2060951    0.1730772  -0.74 0.0007060528    1.176    0.150
       156  -9.9503     69.8213     41.6804   8.9713683221e+01   5.9288515083e+01    0.2641062    0.1581523 -21.94  0.001006907    1.894    0.472
       157 -10.1068     36.1758     41.3539   1.0223351761e+02   6.3530744342e+01    0.2128684    0.1347816 -40.44 0.0008296213    1.275    0.216
       158 -10.7918      3.3706     41.6971   1.1543757657e+02   6.5858683793e+01    0.3598495    0.1533145 -33.60  0.001933767    2.421    0.587
       159 -10.7397    139.8639     40.7009   6.9015933065e+01   4.5301261338e+01    0.2756296    0.2488617  85.50 0.0006032094    1.270    0.213
       160  -9.3198     42.9814     40.7517   9.9361909177e+01   6.2945773424e+01    0.1328148    0.1038604  17.49 0.0003977791    1.454    0.312
       161 -11.4654    134.1262     34.4606   6.8085944372e+01   4.7588904198e+01    0.2505291    0.2191495   9.59 0.0003902902    1.145    0.127
       162  -9.9739    128.7426     30.4514   6.7859487765e+01   4.9425630205e+01    0.5021732    0.2054485  44.88  0.001631144    2.399    0.583
       163 -10.2565    127.6944     38.7030   7.1189998940e+01   4.8499390320e+01     0.224755    0.2185385  74.65 0.0003974336    1.154    0.133
       164 -12.1916    121.8923     37.4153   7.2173309027e+01   5.0025150005e+01    0.5145096    0.4910263  70.09  0.001628757    1.195    0.163
       165 -10.4691    123.2210     32.9626   7.0156085331e+01   5.0367092274e+01    0.2029487    0.1953021 -42.11 0.0002964035    1.157    0.135
       166  -9.4169    168.3967     38.4967   6.2373901098e+01   3.8377077174e+01    0.1473992    0.1446613  20.23 9.887919e-05    1.025    0.024
       167 -10.6757      1.4802     36.9992   1.1503080249e+02   6.6889831956e+01    0.5272495   0.01471745 -53.00  0.001979714    3.850    0.740
       168 -10.9889      4.6451     34.6814   1.1310215828e+02   6.7187496736e+01    0.2799567    0.1146113 -61.13  0.001509547    1.910    0.476
       169  -8.9831     55.2875     34.3119   9.2231164090e+01   6.2652863766e+01    0.1292128    0.0858044 -17.47 0.0002442727    1.580    0.367
       170  -9.9771    145.0631     33.0697   6.5148665624e+01   4.5096353431e+01    0.2125812    0.2036137  19.11 0.0003527644    1.014    0.014
       171 -10.5268     89.9867     32.2604   7.9253251831e+01   5.7443250132e+01    0.3661435    0.2471581  67.18 0.0008093843    2.397    0.583
       172 -11.3591     38.7162     30.9936   9.7537256392e+01   6.5211686593e+01    0.2837755    0.1996059 -10.10 0.0007923055    1.503    0.335
       173 -11.6439     43.6167     28.8522   9.4696649830e+01   6.5050070784e+01    0.5178592     0.317684 -26.31   0.00283141    1.523    0.343
       174 -10.6562    166.2375     31.0080   6.0290485969e+01   3.9938859378e+01    0.2493635    0.2281136 -30.31 0.0004315198    1.125    0.111
       175  -9.1968     77.2308     30.9355   8.2903565762e+01   5.9922934853e+01    0.1682343    0.1000926 -35.27 0.0003273081    1.536    0.349
       176 -10.5010    147.6595     27.3810   6.2579591876e+01   4.5186539840e+01    0.5236479    0.2559554 -51.13  0.001920535    2.823    0.646
       177 -12.0163      8.6463     29.2183   1.0978870312e+02   6.8020016564e+01    0.2306175    0.1970374 -74.11  0.001745324    1.450    0.310
       178  -9.2187    187.6258     29.6897   5.6328838929e+01   3.4467101748e+01    0.1610821    0.1057253  34.40 0.0007031513    1.780    0.438
       179  -9.6683     69.8387     28.8278   8.4615342674e+01   6.1466917402e+01    0.2017694    0.1546593 -10.39 0.0004870302    1.225    0.184
       180  -9.2593     96.8180     28.3705   7.5567134399e+01   5.6703904938e+01    0.1764344    0.1199344  34.32 0.0001298595    1.469    0.319
       181 -11.6326     18.1436    248.8079   1.3286723285e+02   2.3091686658e+01    0.1806201    0.1665636  32.26  0.001567939    2.057    0.514
       182  -9.9803    229.7829    247.9530   9.8913611428e+01  -6.9378410817e+00    0.1663684    0.1171983  20.42 0.0006626572    1.186    0.157
       183 -11.3484     75.1713     21.6169   7.9646320120e+01   6.1685300115e+01    0.2749426    0.2379722 -11.75  0.000742798    1.066    0.062
       184  -9.1263     18.4394     26.4299   1.0454030156e+02   6.7882440794e+01    0.1191031   0.08349518 -35.68 0.0008007215    1.117    0.105
       185  -9.6352    153.8149     25.6227   6.0749533902e+01   4.3836338225e+01     0.206152    0.1393431  75.41 0.0007721332    1.670    0.401
       186 -10.3115    113.8256     24.5760   6.9279220385e+01   5.3633926110e+01    0.2776654    0.2254479 -11.36  0.000922513    1.200    0.167
       187 -10.4277     59.0578     24.3948   8.6725237283e+01   6.3798236308e+01    0.2848091    0.1873612   0.38   0.00155277    1.758    0.431
       188  -9.7939    224.7988    246.4473   9.9500946656e+01  -6.0326725520e+00    0.1606517   0.07942981  32.93 0.0009350067    1.606    0.377
       189  -9.4984    187.3062    246.3126   1.0565297078e+02  -1.3953457489e-01     0.112194   0.07475033  22.40 0.0002552821    1.620    0.383
       190 -10.0233     89.5058     23.5265   7.5772999327e+01   5.8818469255e+01    0.2414363    0.1679275 -18.26 0.0006159935    1.370    0.270
       191  -9.2800    238.3645     23.1724   4.8167007781e+01   2.2243132154e+01    0.1929044     0.111708 -40.44 0.0003176754    1.572    0.364
       192 -10.5717    172.3398     23.3302   5.6709758408e+01   3.9281388214e+01    0.2154954    0.1555445   3.36  0.001016598    1.672    0.402
       193 -10.5342      1.9617     21.6690   1.1040673409e+02   6.9814108735e+01    0.2458303    0.1238979 -56.57  0.001159667    1.540    0.351
       194 -11.1870     13.5960     20.8919   1.0473552753e+02   6.9244952750e+01    0.2468969    0.2287018 -75.05  0.001361067    1.524    0.344
       195 -10.2042     20.1253     16.8349   1.0011606687e+02   6.9458862618e+01    0.1731899    0.1404422  -8.92 0.0004168511    1.236    0.191
       196  -9.6031    136.4900    245.5707   1.1408011340e+02   8.0360659920e+00     0.115489   0.08451187  53.96 7.333071e-05    1.067    0.063
       197  -9.7164     84.9737     21.1767   7.6193503097e+01   5.9998536044e+01     0.218855    0.1311502  23.86 0.0007854569    1.883    0.469
       198  -9.9483     30.9480     20.4744   9.6686354685e+01   6.7851249718e+01    0.2288142    0.1217936 -34.00 0.0006750884    1.553    0.356
       199 -10.3059    100.4598     19.2213   7.0688096795e+01   5.7201866402e+01    0.3148839    0.2078485 -53.52  0.001275702    2.187    0.543
       200  -9.4164     68.8785     18.1851   8.0329822573e+01   6.3226477917e+01    0.1568517    0.0954535  42.25  0.000680384    1.770    0.435
       201  -9.7907    199.6877     17.1074   5.0861836629e+01   3.2770428803e+01    0.1946411    0.1836687 -37.34 0.0007109554    1.105    0.095
       202  -9.4152     45.0186    244.2728   1.2870054760e+02   2.0866531258e+01    0.1227786   0.06795829  49.55 0.0004725416    1.454    0.312
       203 -11.4105    108.5173     16.2557   6.7255178553e+01   5.5841051042e+01    0.2282073    0.2037459  17.83 0.0002744421    1.010    0.010
       204  -9.7599     60.5242    241.0142   1.2610223087e+02   1.9519875206e+01    0.2277887    0.1043292  40.62  0.001376279    2.095    0.523
       205  -9.4995    202.4985    240.0560   1.0226755382e+02  -1.8444423386e+00    0.1424876    0.1130569 -24.41 0.0008204012    1.548    0.354
       206 -12.2189     26.4353    235.8798   1.3106147895e+02   2.4307032058e+01    0.3021408    0.1871949 -80.82  0.001988367    1.523    0.343
       207 -11.6520      1.7512    226.2842   1.3432201859e+02   2.8367401746e+01    0.3005813    0.1226407 -85.41  0.001997498    1.988    0.497
       208  -9.9318     26.7215     16.5246   9.6929669790e+01   6.8926228532e+01    0.1726714    0.1471599 -21.70 0.0007573721    1.170    0.145
       209 -13.1973     10.0218    228.7038   1.3319172952e+02   2.7176558704e+01    0.6164949    0.2625845 -85.46  0.002254847    1.955    0.489
       210 -11.8702     14.6434    239.0658   1.3295659875e+02   2.5004470541e+01    0.2804188   0.09138463  60.41  0.001469183    2.250    0.556
       211 -10.0219    249.2209    234.0256   9.3689991568e+01  -8.4816102424e+00    0.1881759    0.1246078  29.98 0.0004513939    1.161    0.139
       212  -9.2187    209.5097    229.5193   9.9551439559e+01  -1.7529200710e+00    0.1198589   0.09316675  31.67 3.725428e-05    1.007    0.007
       213  -9.9392     49.0828     16.0811   8.6983766582e+01   6.6461791534e+01    0.1671921    0.1466072 -54.96 0.0005950212    1.659    0.397
       214 -10.4583    140.2971    227.7144   1.1140040739e+02   1.0036621377e+01    0.2343578    0.1775886 -85.52  0.001345037    1.624    0.384
       215  -9.5096    109.6941    226.6769   1.1668216251e+02   1.5043387594e+01    0.1010244   0.08949673  20.19 0.0007033309    1.642    0.391
       216 -10.2982    231.8085     14.1880   4.6504886144e+01   2.4883335861e+01     0.207402    0.1645478 -63.65 0.0004274033    1.185    0.156
       217 -10.0576     33.5042    225.4315   1.2940455655e+02   2.5305977311e+01    0.2435423    0.0610779  44.84  0.001246072    2.859    0.650
       218  -9.1795     95.2538     13.6459   6.9763811660e+01   5.8958171574e+01    0.1271545    0.1002788 -47.65 0.0006958456    1.604    0.376
       219 -11.8735      4.1432    232.4964   1.3421534200e+02   2.7105680159e+01    0.2424768    0.1283063  63.29 0.0002634706    1.301    0.231
       220 -12.0229      8.0671    217.5833   1.3299530895e+02   2.9272178801e+01    0.2879572    0.1978528  82.72  0.002388981    1.126    0.112
       221  -9.3356    209.6680    211.3287   9.6657577967e+01   4.7638862630e-01    0.1155792    0.0954369  68.64 0.0007051734    1.717    0.417
       222 -10.4614     20.6774    209.9129   1.3059341934e+02   2.9405341074e+01    0.1813975    0.1075692  60.10 0.0003480549    1.305    0.234
       223  -9.4534    247.0000    207.0941   8.9545690916e+01  -5.2908045002e+00    0.1772927   0.06464294 -30.85 0.0008003663    2.928    0.658
       224 -10.2864      2.9426    205.5024   1.3324876597e+02   3.1892408980e+01     0.138598   0.08369209  45.87  0.001047903    1.638    0.390
       225  -9.5039    196.8697    203.8567   9.7708660604e+01   3.7498547689e+00    0.1672428    0.1439269  57.20 0.0006552578    1.324    0.245
       226 -10.9764      9.5613    203.7639   1.3208946901e+02   3.1604270077e+01    0.1746493    0.1183412  56.34 0.0009138392    1.322    0.243
       227  -8.9230    123.3020    198.3488   1.1081306331e+02   1.7734358399e+01    0.1157089    0.1005344   1.57 0.0004928213    1.693    0.409
       228 -10.3431     23.0509    197.3998   1.2944955307e+02   3.1481528065e+01    0.1791743    0.1201361 -73.79 0.0004209217    1.461    0.316
       229  -9.2061     45.6444     10.2404   8.5662765194e+01   6.7775039090e+01   0.09735964   0.09650795 -47.87 0.0004552756    1.585    0.369
       230 -10.4924     13.7342    192.9701   1.3079586318e+02   3.3227366379e+01    0.1483634   0.09944183  84.81 0.0004809401    1.098    0.089
       231  -9.4386      6.4728    191.5219   1.3196502100e+02   3.4165027695e+01     0.107021   0.07140885  77.08 0.0008089604    1.059    0.055
       232  -9.6742     15.4580    185.4400   1.3003529622e+02   3.4513746872e+01    0.1882814   0.07698616  88.93  0.001020617    2.195    0.544
       233 -10.8857      5.5670    167.7861   1.3073553652e+02   3.8880463220e+01    0.2535414    0.1310737  78.07  0.001348111    1.589    0.371
       234  -9.8497     14.5856    164.1822   1.2874758283e+02   3.8845646480e+01    0.1573969   0.07802983 -68.64 0.0009518633    1.721    0.419
       235  -8.9955     41.3095    157.6967   1.2268689460e+02   3.7593473184e+01    0.1234187   0.07337812  72.73 0.0003612779    1.607    0.378
       236  -9.3634    247.4779    155.5133   7.9388578872e+01   1.1890273968e+00    0.1360859    0.1159499   4.86 7.148061e-05    1.020    0.020
       237  -9.7846    243.0000    155.0028   8.0032229657e+01   2.1076824830e+00    0.2146016   0.07265199 -32.54 0.0005610665    2.889    0.654
       238 -10.1203      2.7602    153.5990   1.3033722259e+02   4.1996125942e+01    0.1426549   0.08188387  51.85 0.0009586946    1.684    0.406
       239 -10.3951     24.0729    150.7148   1.2568544003e+02   4.0814369496e+01    0.1644669     0.155861 -53.31  0.000413149    1.473    0.321
       240  -9.8427     22.3978    143.2349   1.2534059963e+02   4.2573076666e+01    0.1645498   0.08783713 -85.16 0.0006587349    1.578    0.366
       241 -11.0111      6.2953    142.1641   1.2874952137e+02   4.4120865450e+01    0.1847174    0.1019419  48.45 0.0007474733    1.843    0.457
       242  -9.9777     11.8215    141.4025   1.2749255135e+02   4.3855808314e+01    0.1162557    0.1114926   8.33 0.0009302988    1.548    0.354
       243 -10.3403      9.0072    135.5109   1.2759508629e+02   4.5336005120e+01    0.1731257    0.1150246 -82.60 0.0003382931    1.128    0.114
       244  -9.9537    212.6578    134.0383   8.0735399015e+01   1.1563380657e+01    0.2398474    0.2001534  59.08 0.0006591452    1.345    0.256
       245 -10.1928      2.5934    132.9398   1.2880129561e+02   4.6350178141e+01    0.2565674    0.1067423  52.37  0.001422756    2.460    0.594
       246  -9.8099     35.2461    130.8241   1.2100551387e+02   4.4103171717e+01    0.1617775    0.1179137 -58.39 0.0005344856    1.356    0.262
       247 -10.8739     11.7185    129.5368   1.2642524521e+02   4.6421797196e+01    0.2822966    0.1476591  74.98  0.001609156    1.928    0.481
