#   1 NUMBER                 Running object number                                     
#   2 MAG_AUTO               Kron-like elliptical aperture magnitude                    [mag]
#   3 X_IMAGE                Object position along x                                    [pixel]
#   4 Y_IMAGE                Object position along y                                    [pixel]
#   5 X_WORLD                Barycenter position along world x axis                     [deg]
#   6 Y_WORLD                Barycenter position along world y axis                     [deg]
#   7 A_WORLD                Profile RMS along major axis (world units)                 [deg]
#   8 B_WORLD                Profile RMS along minor axis (world units)                 [deg]
#   9 THETA_WORLD            Position angle (CCW/world-x)                               [deg]
#  10 FWHM_WORLD             FWHM assuming a gaussian core                              [deg]
#  11 ELONGATION             A_IMAGE/B_IMAGE                                           
#  12 ELLIPTICITY            1 - B_IMAGE/A_IMAGE                                       
         1 -15.0212      6.1683    116.3670   1.3903387145e+02   5.0700871922e+01     5.257221    0.8822563 -71.75   0.01300692    8.073    0.876
         2 -15.0538      5.1374    148.1849   1.4311214405e+02   4.3587017575e+01     5.774062    0.9079693 -73.36   0.01653953    5.998    0.833
         3 -13.6712    201.6829     27.9681   6.4960544475e+01   3.1303949754e+01      1.50208     1.224309  54.98  0.006970847    1.317    0.241
         4 -13.6050    218.3826      9.5618   5.8933974297e+01   2.9462807576e+01    0.9077027    0.7496493  69.22  0.002153896    1.253    0.202
         5 -11.2854      2.7628      4.0835   1.1183799596e+02   7.1932847572e+01    0.2809396    0.1526891 -26.29  0.001773353    1.394    0.283
         6 -11.5575    157.0835    249.2554   1.2271944077e+02   1.6005764274e-01    0.4073687    0.1448906  45.97  0.001292262    2.419    0.587
         7 -13.1899    232.6089    248.7105   1.0804476834e+02  -1.2200453027e+01     1.042441    0.3632198  37.45  0.004681134    2.491    0.599
         8 -13.0357      9.5211    207.2838   1.4723788285e+02   3.0182142302e+01    0.7383876    0.5793139  36.74  0.003112778    1.640    0.390
         9 -14.7666      9.1025    241.6367   1.4945853802e+02   2.3320601597e+01     2.916531     1.509216  53.42   0.01932229    1.572    0.364
        10 -14.8200     30.3586    227.6539   1.4490865794e+02   2.3741428161e+01     1.088949    0.9026377 -77.33  0.007978861    1.360    0.265
        11 -11.9052     80.6331    249.4156   1.3754852179e+02   1.2722340690e+01    0.5394107    0.1458834  39.40  0.002072897    3.425    0.708
        12 -11.9885    146.3003    247.3460   1.2459120473e+02   2.3488555984e+00    0.4728603    0.3242964 -82.47  0.002504559    2.160    0.537
        13 -12.9337     42.5026    214.0944   1.4150300136e+02   2.5121055255e+01    0.7206926    0.4898811  78.11  0.002513452    1.240    0.193
        14 -12.1895     98.9785    245.2137   1.3363704345e+02   1.0681463167e+01    0.5435385    0.2139335  55.40  0.002307813    2.551    0.608
        15 -11.8419     89.1325    227.0648   1.3352660600e+02   1.5814669676e+01    0.7493045    0.0929516  46.29  0.001972139    6.080    0.836
        16  -8.9813    152.5333    213.4251   1.1814816836e+02   7.4553756687e+00    0.1428218    0.1262549  48.16 0.0001063925    1.021    0.021
        17 -11.5812    123.7888    249.7382   1.2934123979e+02   5.7797569736e+00    0.6456804   0.06525403  43.21  0.001604088    6.650    0.850
        18 -12.1284     54.8720    199.0759   1.3746392937e+02   2.6842536308e+01    0.4515913    0.2705505 -53.84 0.0009493007    1.873    0.466
        19 -11.7730      4.5419    191.1275   1.4701559738e+02   3.4086438188e+01    0.4310598    0.2152323  71.55  0.002434361    1.880    0.468
        20 -12.1729     62.1778    190.0425   1.3480718339e+02   2.7916134423e+01     0.263567    0.2292433 -82.85 0.0004330114    1.108    0.097
        21 -11.6653      3.8273    183.6757   1.4658972989e+02   3.5766674941e+01    0.3570014    0.2235059  73.39  0.001224695    1.395    0.283
        22 -10.9008     73.5390    176.9723   1.3041119107e+02   2.9355833110e+01    0.2471165    0.2170932 -86.51 0.0003462849    1.028    0.027
        23 -13.3104     59.6216    175.0622   1.3344682434e+02   3.1752561555e+01    0.5410361    0.2802716 -46.99  0.002447512    2.308    0.567
        24 -12.2292    247.9006    243.9867   1.0445288769e+02  -1.3821598639e+01    0.5847521    0.2852771  21.68  0.002942596    2.164    0.538
        25 -12.0151    139.7598    248.8768   1.2609323504e+02   3.2147230111e+00    0.4182948    0.3492515 -77.96  0.002656617    1.419    0.295
        26 -11.0196     94.8434    152.4963   1.2090426964e+02   3.1852797190e+01    0.3660793    0.3117307 -52.13 0.0008784293    1.177    0.151
        27  -9.6364     98.1440    148.1786   1.1918086267e+02   3.2323109764e+01    0.2209826    0.2099355 -83.22 0.0003713366    1.012    0.012
        28 -11.9381     83.2292    151.3403   1.2373957427e+02   3.4033280340e+01    0.3205281    0.2492413 -48.64 0.0007370388    1.306    0.234
        29 -11.9883     67.5104    143.5304   1.2650846532e+02   3.8242230302e+01    0.6762015    0.4144178  61.29  0.002655079    2.012    0.503
        30 -10.1134    107.6585    137.5362   1.1437472227e+02   3.3148473230e+01    0.4866768    0.3129364 -17.62  0.001467003    2.843    0.648
        31 -10.6989     94.5505    134.6310   1.1732010764e+02   3.6191220594e+01    0.2612509    0.2413001 -38.56 0.0005202607    1.128    0.114
        32  -9.2518    105.5080    123.9439   1.1182855866e+02   3.6741633419e+01    0.2041943    0.1978091  43.59 0.0006018566    1.065    0.061
        33 -12.1655     81.4997    167.8900   1.2706297764e+02   3.0316819467e+01    0.7278144    0.6252675 -42.57  0.004100636    1.346    0.257
        34 -10.5030    244.7491     96.7418   7.4966986069e+01   1.0852438068e+01    0.2380316   0.09333022 -48.09 0.0009017261    2.434    0.589
        35 -10.6313    159.3991     77.4115   8.5337374710e+01   3.4498587753e+01    0.2713801    0.2502216 -27.61 0.0007524937    1.164    0.141
        36  -9.3806     92.7883    170.1587   1.2464204086e+02   2.7960563761e+01    0.2223338    0.1823056  81.61 0.0006546396    1.219    0.180
        37 -11.1601     65.2761    249.3350   1.4035273448e+02   1.4961346380e+01     0.280706    0.1826859  72.32 0.0008984294    1.312    0.238
        38 -11.8300    172.7104    248.2965   1.1949008673e+02  -2.3850503384e+00    0.4005545    0.2136346  52.61  0.001923787    2.019    0.505
