#   1 NUMBER                 Running object number                                     
#   2 MAG_AUTO               Kron-like elliptical aperture magnitude                    [mag]
#   3 X_IMAGE                Object position along x                                    [pixel]
#   4 Y_IMAGE                Object position along y                                    [pixel]
#   5 X_WORLD                Barycenter position along world x axis                     [deg]
#   6 Y_WORLD                Barycenter position along world y axis                     [deg]
#   7 A_WORLD                Profile RMS along major axis (world units)                 [deg]
#   8 B_WORLD                Profile RMS along minor axis (world units)                 [deg]
#   9 THETA_WORLD            Position angle (CCW/world-x)                               [deg]
#  10 FWHM_WORLD             FWHM assuming a gaussian core                              [deg]
#  11 ELONGATION             A_IMAGE/B_IMAGE                                           
#  12 ELLIPTICITY            1 - B_IMAGE/A_IMAGE                                       
         1  -8.3146     97.1425     14.7551   3.6852334772e+01   5.7951265419e+01    0.2361688    0.1621822 -31.53 0.0006352318    1.463    0.317
         2  -7.7664     83.5911     10.7950   3.9126973644e+01   6.1047450648e+01    0.1745396    0.1106287 -33.85 0.0004417081    1.599    0.375
         3  -8.6728     55.7591      9.8334   4.8305599206e+01   6.5741732096e+01    0.2099735    0.1481627 -40.52 0.0006744899    1.584    0.369
         4  -7.8636     47.6290      9.8319   5.1487925570e+01   6.6853240551e+01    0.1679093   0.09616962 -40.97 0.0006475841    1.735    0.424
         5  -8.1799     91.0145      8.8101   3.5995328031e+01   5.9871041138e+01    0.1884182    0.1568014 -81.46 0.0007195267    1.944    0.486
         6  -7.8864     28.2604      9.6436   5.9613987939e+01   6.9100914417e+01    0.1032865   0.08234672 -51.15 0.0006975607    1.620    0.383
         7  -8.5678     33.7108      4.9987   5.5033487644e+01   6.9235067034e+01    0.2851158    0.1536318 -52.84  0.001386284    3.132    0.681
         8  -8.3351     79.4375      3.8495   3.7203507335e+01   6.2622308200e+01    0.2272997    0.1087573 -29.16  0.000889211    1.955    0.489
         9  -8.1199     15.8245      3.0187   6.2348922480e+01   7.1274631972e+01    0.1593913    0.1189327 -59.16 0.0009862465    1.987    0.497
        10  -7.6151    115.6150      2.3086   2.6809748727e+01   5.5318122462e+01    0.1347864    0.1047054 -63.42 0.0007019622    1.805    0.446
        11  -8.0090     62.3077      1.3661   4.1751592311e+01   6.5837741480e+01    0.1451081    0.1135727  42.93  0.000328674    1.533    0.348
        12  -9.0935    147.2146    246.0166   7.8548546816e+01   7.6169624721e+00    0.2510193    0.1573379  78.74  0.001500254    2.422    0.587
        13  -8.9244    249.0974    248.6000   6.2735193733e+01  -8.5286764772e+00    0.3101547    0.1691249   0.58  0.001904091    2.260    0.557
        14 -10.1763    248.6848    241.8821   6.1806666084e+01  -7.8887385315e+00    0.3113749    0.2006861 -27.71  0.001603931    1.911    0.477
        15  -9.3426    232.9402    246.7555   6.4962132857e+01  -5.9515214989e+00     0.374206    0.2252894 -18.22  0.002208369    2.012    0.503
        16  -7.2897     72.3287    250.6805   9.0560533825e+01   1.7600664888e+01    0.1068945   0.05373636  65.87 0.0007047551    1.686    0.407
        17  -9.0625    120.3300    245.2326   8.2758456186e+01   1.1797169912e+01     0.290726    0.1566726  71.47  0.001671369    2.390    0.582
        18  -8.2331    139.4966    243.9853   7.9571472876e+01   9.0756000492e+00    0.1352932    0.1082025 -67.18 0.0007319211    1.584    0.369
        19  -8.0103     67.4846    244.4995   9.0862253432e+01   1.9119016314e+01    0.1024175   0.07090838  65.32  0.000810447    1.015    0.015
        20  -7.9010     34.6754    244.2948   9.5632913699e+01   2.2963168213e+01    0.1014052   0.04723939  65.56 0.0002913501    1.621    0.383
        21  -8.3359    201.8881    242.8474   6.9341983505e+01  -7.0236885816e-01    0.1683374    0.1398233 -87.65 0.0008277115    2.024    0.506
        22  -8.9164    193.8905    239.3508   7.0168277265e+01   9.7152397802e-01     0.158973    0.1458308  46.12 0.0004761899    1.279    0.218
        23  -8.3935    168.9013    243.1028   7.4713480657e+01   4.5623229423e+00    0.1674512     0.123117  57.68  0.000555176    1.317    0.241
        24  -8.5246     77.9977    243.0857   8.9173380049e+01   1.7994616044e+01    0.2172328   0.09013093  62.24  0.001234946    2.260    0.558
        25  -9.2539    183.1324    240.1597   7.2029324693e+01   2.6227511513e+00    0.3767655     0.219161  66.47  0.001949064    2.924    0.658
        26  -9.2978    160.1711    240.2113   7.5791708679e+01   6.3190812379e+00    0.2750878    0.1937498 -87.99  0.001372817    2.215    0.548
        27  -7.9241     88.1540    242.1276   8.7536950047e+01   1.6794128258e+01    0.1437286   0.09219926  71.85 0.0006680932    1.361    0.265
        28  -8.0174    214.0000    241.0194   6.7145813054e+01  -2.4426516532e+00    0.1450484   0.06415456 -34.19 0.0004872899    2.890    0.654
        29  -8.6287    240.4865    240.0309   6.2804554493e+01  -6.4839939607e+00    0.1977662    0.1321131   9.04 0.0009062974    1.470    0.320
        30  -9.4334    243.1601    235.8177   6.1750310617e+01  -6.5034894624e+00    0.2670662    0.1230023  21.57  0.001349809    2.562    0.610
        31  -8.4571    146.2776    239.4335   7.7976123717e+01   8.6262452207e+00    0.1695796    0.1222665  84.56 0.0005028425    1.800    0.445
        32  -8.7036    209.1293    238.5917   6.7589953006e+01  -1.4088896382e+00    0.1569513     0.153952   1.66 0.0006105961    1.410    0.291
        33  -8.7329    135.6100    238.5301   7.9621651494e+01   1.0414358152e+01    0.1664945     0.117294  78.72 0.0007531155    1.660    0.398
        34  -7.8019     41.2803    239.6179   9.4433508654e+01   2.2954864677e+01    0.1048615    0.0500455  69.70 0.0006886789    1.722    0.419
        35  -9.0799    230.8707    236.8851   6.3853984905e+01  -4.6957764007e+00    0.2366521    0.2004969  83.40  0.001106804    2.263    0.558
        36  -7.9309    129.3425    238.6635   8.0658040598e+01   1.1359340411e+01    0.1158393   0.06948939  66.72 0.0007050115    1.765    0.433
        37  -8.4350     25.6494    236.8426   9.6545477134e+01   2.5064050701e+01     0.206768    0.0740378  75.68  0.001142369    2.944    0.660
        38  -9.9404    214.7226    232.8643   6.5862287476e+01  -1.7014617389e+00    0.4285768    0.3134941  87.12  0.002308322    3.450    0.710
        39  -8.8446    203.1422    234.7165   6.8020710034e+01  -1.4877703671e-02    0.2262793    0.1761897 -68.00  0.001014168    2.229    0.551
        40  -9.7860    175.6961    233.1090   7.2342865400e+01   4.6936575458e+00    0.3914933    0.2092717 -57.21  0.002128293    3.009    0.668
        41  -9.0211    109.1405    234.4568   8.3528862899e+01   1.4988785606e+01    0.3908525    0.1677012  62.15  0.001614233    2.694    0.629
        42  -7.9177     58.4408    237.0000   9.1722420046e+01   2.1371740919e+01    0.2145824   0.04541857  41.46 0.0009415505    3.990    0.749
        43  -9.8223    246.5712    228.8459   6.0129553092e+01  -6.3742484518e+00    0.3536061     0.190451 -27.53  0.001299709    2.137    0.532
        44  -7.7744    152.6862    235.3054   7.6445798551e+01   8.1588392372e+00     0.112395   0.07479324  65.01 0.0002669128    1.621    0.383
        45  -8.6831     78.7074    234.3203   8.8396023326e+01   1.9236496961e+01    0.1796684    0.1063384  86.87  0.001223529    1.721    0.419
        46  -8.3440    122.8972    233.6252   8.1192008692e+01   1.3060710362e+01    0.2012856     0.130886  89.29 0.0008037674    1.957    0.489
        47 -10.0819    223.8692    243.8231   6.5969686880e+01  -4.2771811175e+00    0.3565541    0.2250267 -44.20  0.002292571    2.438    0.590
        48  -9.8247     68.6743    232.1941   8.9809900370e+01   2.0862065317e+01    0.4224293    0.1512187  65.16  0.001916329    3.588    0.721
        49  -8.3732    194.6061    232.5713   6.9126932772e+01   1.6336004475e+00    0.1945675       0.1431  67.33 0.0007656626    1.880    0.468
        50  -8.2529    132.6786    232.6604   7.9469523780e+01   1.1694097099e+01    0.1999626    0.1231802 -89.45  0.001006142    2.471    0.595
        51  -8.5032     92.3713    231.4707   8.5977237248e+01   1.7832533692e+01    0.2844825    0.1336093  74.36  0.001108706    3.085    0.676
        52  -7.8237     37.5271    233.5238   9.4643196048e+01   2.4322589727e+01   0.09950797   0.06741358  69.97 0.0008095581    1.011    0.011
        53  -9.1512    235.9551    230.4300   6.2065429279e+01  -4.8624287625e+00    0.3195604    0.2121066  -8.33  0.001358868    1.675    0.403
        54  -9.4501    186.3394    230.2888   7.0187696304e+01   3.2780151931e+00    0.2830937    0.2127729 -84.90  0.001501903    2.315    0.568
        55  -8.6143    153.6506    241.7056   7.7029591514e+01   7.1645997492e+00    0.1852513    0.1250334 -86.70  0.001147341    2.351    0.575
        56  -8.8187      1.6400    230.4707   9.9654053202e+01   2.8392805765e+01    0.1670169   0.07013749  75.53  0.001167478    1.833    0.455
        57  -8.9885    151.3071    228.6475   7.5878386259e+01   9.2883053503e+00    0.2534402    0.1641257  77.73  0.001287779    2.266    0.559
        58  -9.4573    148.4899    224.3033   7.5824597715e+01   1.0359957547e+01    0.3145889    0.2002613  74.59  0.001785199    2.184    0.542
        59  -9.1485    139.7881    229.9904   7.7981051415e+01   1.0955080997e+01     0.254552    0.1248993  57.91 0.0009107017    2.037    0.509
        60  -8.2682    136.7122    227.6944   7.8235847672e+01   1.1774116994e+01    0.1738823    0.1367537  46.40 0.0004445371    1.131    0.116
        61  -8.0631    229.6604    228.5097   6.2781800820e+01  -3.6634796758e+00    0.1586525    0.1042611 -25.63 0.0006053447    1.792    0.442
        62  -8.6765    162.4341    227.6668   7.3869671383e+01   7.5937870447e+00    0.2844179    0.1584941  62.34  0.001513863    2.226    0.551
        63  -8.2928    223.4616    226.9280   6.3546586685e+01  -2.4921191728e+00    0.2690066    0.1134734 -30.07  0.001387435    2.917    0.657
        64  -9.4248    225.6027    221.5469   6.2357577644e+01  -2.2658867222e+00    0.2367917    0.2166648   0.87  0.001223683    1.309    0.236
        65  -8.6843    206.3761    226.0482   6.6234258262e+01   4.3262936501e-01    0.1991824    0.1787029 -76.11  0.001038413    1.699    0.412
        66  -8.7368    180.4665    224.0437   7.0315719748e+01   5.0475768528e+00    0.2500782     0.162035  54.15 0.0008452272    1.477    0.323
        67  -8.7966    127.6603    226.9395   7.9681528769e+01   1.3310842635e+01    0.2531206     0.139296  60.70  0.001328176    1.767    0.434
        68  -8.0397    119.9874    227.4940   8.1034385565e+01   1.4412129012e+01    0.1615626    0.0732979  59.98 -0.0001638249    2.346    0.574
        69  -8.1085     49.7502    226.9536   9.2392590315e+01   2.3997583412e+01    0.1718537    0.0800187  72.55 0.0008793316    2.034    0.508
        70  -8.2501    200.0306    226.0430   6.7293678899e+01   1.4967238334e+00    0.1645069    0.1323989  65.46 0.0005909217    1.623    0.384
        71  -8.8637     94.2281    224.0220   8.4998917379e+01   1.8743506339e+01    0.3569696    0.1565731  63.45  0.001818866    2.539    0.606
        72  -9.1547    216.5415    222.8674   6.4061919674e+01  -9.0520732529e-01    0.3002483    0.1846295 -34.50  0.001621729    1.998    0.500
        73  -8.9166    104.8039    223.5091   8.3178620468e+01   1.7301892209e+01    0.2699187    0.1594895  82.43  0.001544668    2.063    0.515
        74  -7.8770     38.2064    224.2799   9.4003728885e+01   2.5737845891e+01    0.1437021   0.06125387 -88.98 0.0005355261    2.337    0.572
        75  -8.5168    173.1157    222.7573   7.1395068205e+01   6.4611431344e+00    0.1779352     0.157552  89.17 0.0007114501    1.437    0.304
        76  -8.3849    162.6644    222.3381   7.3135855639e+01   8.2818935075e+00    0.2146196    0.1565304  68.20  0.001366471    1.580    0.367
        77  -8.6491    159.0369    220.1072   7.3467742369e+01   9.2034286546e+00    0.2656481    0.1824307  73.14  0.001194542    1.907    0.476
        78  -7.7502    113.7235    223.3659   8.1656238919e+01   1.5995701555e+01    0.1152559   0.07256302  72.21 0.0007007917    1.674    0.403
        79  -8.0773      7.6633    234.7227   9.8985389131e+01   2.7169317011e+01   0.07401811   0.06391796 -89.98 0.0002631084    1.612    0.379
        80  -9.2671    238.8740    221.2041   6.0137010977e+01  -4.3999562462e+00    0.2221027    0.1951034 -40.36 0.0009869344    1.701    0.412
        81  -9.3107    192.3562    221.1706   6.7877428600e+01   3.3886971154e+00    0.2500415    0.2153234  87.19 0.0009983113    1.662    0.398
        82  -9.1556    120.7967    219.4171   8.0017036135e+01   1.5526599063e+01    0.4475238     0.213594  68.55  0.001832708    3.452    0.710
        83  -8.6732     82.9405    220.2338   8.6534345296e+01   2.0920181972e+01    0.2551304    0.1340067  75.69  0.001362959    2.145    0.534
        84  -8.2762     73.3786    220.5887   8.8147651970e+01   2.2132484352e+01    0.1952081   0.08391292 -85.29 0.0009550958    3.252    0.692
        85  -8.1270     27.5134    220.9832   9.5446131861e+01   2.7421067348e+01    0.1399573   0.07683127 -82.79  0.001026791    1.575    0.365
        86  -8.1908      6.0000    219.0162   9.8559643504e+01   2.9842233106e+01    0.1843689   0.06099445 -80.11   0.00111504    2.533    0.605
        87  -8.3183    202.5426    220.0226   6.5974957047e+01   1.7898985692e+00    0.1484724    0.1182288 -31.71 0.0006135034    1.544    0.352
        88  -8.3879    210.1330    218.7458   6.4496115161e+01   6.4820770141e-01    0.1707257    0.1589663 -27.78  0.000593305    1.390    0.280
        89  -9.6341    248.3881    217.4655   5.7991632783e+01  -5.5487642562e+00    0.3200169    0.2256002  71.93  0.001569446    3.909    0.744
        90  -9.0043     51.6338    217.1182   9.1422826223e+01   2.5405320267e+01      0.21435    0.1045712 -89.79  0.001314968    2.055    0.513
        91  -8.7193    169.3536    216.0018   7.1108770042e+01   8.0229830791e+00    0.2481529    0.1837397 -88.06 0.0009418177    2.059    0.514
        92  -8.6511    142.9544    216.4308   7.5798999254e+01   1.2425642488e+01    0.2102472    0.1560196  89.24  0.001031164    1.686    0.407
        93  -7.8049    111.8282    216.9980   8.1301548815e+01   1.7288667930e+01    0.1857192    0.1117451  78.96  0.001061476    2.041    0.510
        94  -7.8856     18.5845    215.7935   9.6525987624e+01   2.9186270746e+01    0.1379934    0.0676752  85.08 0.0009494053    1.670    0.401
        95  -9.2765    133.0231    215.9939   7.7488274891e+01   1.4117793140e+01     0.422493    0.2384202  77.24  0.002019301    3.017    0.669
        96  -8.6335    232.3161    214.5887   6.0126341971e+01  -2.6241088258e+00    0.1949436    0.1818301 -11.36 0.0009582446    1.390    0.281
        97  -8.0457    154.4470    215.0920   7.3602461560e+01   1.0700087297e+01     0.192566    0.1424886  61.92  0.001233366    1.331    0.249
        98  -9.4959    214.1057    211.8179   6.2723835174e+01   7.8818181435e-01    0.3689922    0.3055256  68.14  0.001904225    1.723    0.420
        99  -8.4129    185.6747    214.1477   6.7988202368e+01   5.4455682005e+00    0.1655053    0.1505276  86.89 0.0006564455    1.430    0.301
       100  -8.8264     93.2297    213.9198   8.4197525106e+01   2.0534321197e+01    0.2876951    0.1278353  62.05  0.001450406    2.415    0.586
       101  -9.4186     73.7552    212.1109   8.7362428241e+01   2.3507440247e+01    0.5964768    0.1928162  61.18  0.002289444    4.520    0.779
       102  -8.0128    106.5498    212.7398   8.1759760943e+01   1.8779098042e+01    0.1426094   0.09955507 -88.27 0.0009252748    1.535    0.348
       103  -7.9928    224.7629    212.1968   6.0986956150e+01  -1.0847781454e+00    0.1572922    0.1526471 -40.45  0.000758971    1.476    0.323
       104  -9.0521    204.2946    210.8121   6.4242392966e+01   2.6186656154e+00      0.23907    0.2064462 -60.77 0.0008004343    1.665    0.399
       105  -8.3410    161.5240    212.1722   7.1950902895e+01   9.9168844093e+00    0.1929898    0.1434254  61.95 0.0008325042    1.373    0.272
       106  -8.4040     62.2473    217.2113   8.9704308752e+01   2.4109352463e+01    0.2484834    0.1015395  64.25  0.001308622    2.502    0.600
       107  -9.4332    175.5886    209.7182   6.9100157790e+01   7.8168877092e+00    0.3570839    0.2414762  76.24   0.00169378    2.408    0.585
       108  -8.6701    147.9312    210.2793   7.4113427832e+01   1.2524676369e+01    0.2562401    0.1781692 -88.69  0.001302229    2.047    0.511
       109  -8.8122    116.2867    210.1060   7.9745603302e+01   1.7720520962e+01    0.2756628    0.1620381  80.24 0.0009365162    2.330    0.571
       110  -9.2173      7.0586    209.6709   9.7974442289e+01   3.1308869486e+01     0.348749   0.09821143  77.69  0.001388111    5.420    0.815
       111  -8.3372    192.2724    210.2258   6.6237980094e+01   4.8069158454e+00    0.1564941    0.1350401  64.72 0.0006755032    1.394    0.283
       112  -8.3643     85.8493    209.6986   8.5061194815e+01   2.2286734686e+01    0.2149874    0.1182863  76.84  0.001216944    2.053    0.513
       113  -9.2703    236.4280    207.6266   5.8274707234e+01  -2.5479280403e+00    0.3116529    0.2065137 -34.60  0.001439977    1.835    0.455
       114  -8.5858    139.4710    208.0338   7.5334012385e+01   1.4298882266e+01    0.2524986    0.1710378  80.23   0.00111637    1.923    0.480
       115  -9.6262    246.4960    207.1702   5.6543822652e+01  -4.1785165140e+00    0.2309482    0.1913085  -7.87 0.0006018723    1.275    0.216
       116  -8.1230    126.6068    208.3008   7.7683761855e+01   1.6374448469e+01    0.1828191    0.1197624  71.41 0.0007931467    1.687    0.407
       117  -9.1368     99.4709    205.8793   8.2267666752e+01   2.0987956437e+01    0.3233792    0.1833407  77.98   0.00118997    2.180    0.541
       118  -8.0552     11.8135    206.6040   9.7091994140e+01   3.1396730067e+01     0.134162    0.0643983  54.23 0.0008683179    1.649    0.394
       119  -9.0223    183.6880    203.7229   6.6737832304e+01   7.2185839188e+00    0.2959781    0.2105513  70.00   0.00122119    1.949    0.487
       120  -8.0924    109.0556    205.0556   8.0455368539e+01   1.9683672232e+01    0.1854541    0.1187086  71.32 0.0006732846    1.613    0.380
       121  -8.5821     56.3226    205.0269   8.9729812315e+01   2.6934249450e+01    0.1980045    0.1097379  66.28 0.0007949783    1.547    0.353
       122  -9.4229    194.8771    203.3820   6.4691261770e+01   5.2545391015e+00    0.3033593    0.2796431 -41.34  0.001329672    1.351    0.260
       123  -9.2744    192.4304    197.0831   6.4090080928e+01   6.5626336542e+00    0.2997604    0.2557408 -73.62  0.001069528    1.648    0.393
       124  -9.5933    163.8266    202.9011   7.0197114584e+01   1.0886812372e+01    0.3979036    0.2168507  59.30  0.001150996    2.121    0.529
       125  -8.7171    131.3352    203.7083   7.6243249187e+01   1.6349061313e+01    0.2525469     0.166353  72.17 0.0009592523    1.750    0.429
       126  -9.5757    250.0826    201.8458   5.5022913216e+01  -4.2025846763e+00    0.3609345    0.1817643 -27.39  0.001468373    2.122    0.529
       127  -9.7573    246.0454    193.5989   5.4189126485e+01  -2.6094874730e+00    0.3532224    0.2718059 -59.02  0.001780958    2.444    0.591
       128  -9.0789    243.1931    200.7980   5.5963153693e+01  -2.9329331987e+00    0.2683166    0.1824156 -30.54 0.0009101517    1.686    0.407
       129  -8.8176    140.3676    200.7868   7.4192719396e+01   1.5307114927e+01    0.3057831     0.192197  73.34  0.001321307    2.129    0.530
       130  -8.1468     48.7122    202.1443   9.0797118210e+01   2.8343658220e+01    0.1901149   0.07815479  69.45 0.0009490991    2.761    0.638
       131  -7.7719     41.2870    202.6513   9.2087973662e+01   2.9093012626e+01    0.1119506   0.05884559  71.63 0.0005459088    1.658    0.397
       132  -7.9458    222.3287    201.1727   5.9535111984e+01   6.3540827450e-01     0.156297    0.1110051 -40.51 0.0004046517    1.792    0.442
       133  -8.2456     79.9189    200.8611   8.5238365251e+01   2.4645345679e+01    0.2623761    0.1301941  71.71   0.00134684    2.408    0.585
       134  -9.2937    237.1034    197.9969   5.6474072377e+01  -1.5720381263e+00    0.3453397     0.160443 -35.85  0.001528345    2.486    0.598
       135  -9.4498    149.7079    198.4628   7.2135529967e+01   1.4066591016e+01    0.4033487    0.2581041  80.61  0.001503635    2.511    0.602
       136  -8.8838    123.9830    199.0074   7.6983517813e+01   1.8342891248e+01    0.2669604    0.1734174 -88.59  0.001114019    2.024    0.506
       137  -9.4012    112.9493    198.2038   7.8925276421e+01   2.0253415632e+01    0.4125246    0.2236711  74.38  0.001741804    2.720    0.632
       138  -8.4815    177.0887    198.6803   6.7130374275e+01   9.1340834963e+00     0.191561    0.1725293 -74.90 0.0005957399    1.392    0.282
       139  -8.9722     88.6975    198.4464   8.3407293478e+01   2.3852614344e+01    0.2841549    0.1655342  80.87  0.001387808    1.956    0.489
       140  -8.3203    202.4795    197.6368   6.2387451586e+01   4.6506096497e+00    0.2124643    0.1698639 -83.16  0.001151329    2.088    0.521
       141  -9.1686     61.5272    196.9563   8.8142344242e+01   2.7743339319e+01    0.4000802    0.1735137  67.61  0.001691852    2.668    0.625
       142  -8.1459     53.8897    196.5877   8.9456170919e+01   2.8737914139e+01    0.2225785    0.1025671  70.90  0.001187853    2.336    0.572
       143  -7.9266     29.3367    197.6865   9.3744011141e+01   3.1254683259e+01    0.1117941   0.05600519  68.47 0.0004583117    1.691    0.409
       144  -8.1514     12.4215    196.4365   9.6451621626e+01   3.3121716984e+01    0.1843803    0.0696093  88.77  0.001028388    2.451    0.592
       145  -8.7351    215.8873    195.3374   5.9628293761e+01   2.5153678972e+00    0.2327053    0.1763314 -51.52 0.0007974572    1.882    0.469
       146  -8.2370    133.0957    195.6592   7.4835054034e+01   1.7392617701e+01    0.1975714    0.1584257 -88.63 0.0006910278    1.373    0.272
       147  -8.7822    224.5706    193.7949   5.7847529885e+01   1.1438897829e+00     0.299257     0.170254 -43.83  0.001545163    2.346    0.574
       148  -8.9063    185.0365    194.6801   6.5029414389e+01   8.2639372468e+00    0.2044243    0.1869342 -58.00 0.0006605385    1.357    0.263
       149  -8.9038    160.7832    193.9201   6.9388986609e+01   1.2817792081e+01    0.2849365    0.1976987  78.40 0.0009170602    2.079    0.519
       150  -8.1738    231.1259    194.1294   5.6785829952e+01  -6.7063300557e-02    0.1563863    0.1456143  37.94 0.0004464861    1.330    0.248
       151  -8.7131     77.1733    193.8645   8.5029604519e+01   2.6280394096e+01    0.2191883    0.1487028  66.82 0.0006722653    1.260    0.206
       152  -9.0216     43.5597    192.9556   9.0969593060e+01   3.0592498433e+01    0.3267167    0.1482389  79.30  0.001753149    2.426    0.588
       153  -8.4427    210.9622    201.7637   6.1598006725e+01   2.5808654085e+00    0.1860788    0.1628754 -55.27 0.0006830344    1.598    0.374
       154  -8.0932    198.7912    191.4145   6.1974870671e+01   6.1814181188e+00     0.196955     0.159308 -54.06 0.0006483588    1.634    0.388
       155  -8.4468    172.6848    191.8143   6.6832904229e+01   1.0971386443e+01    0.2133023    0.1715994 -74.17 0.0009069627    1.659    0.397
       156  -9.1968    139.6141    190.6190   7.2883126958e+01   1.7125517393e+01    0.3390333    0.2237022  81.64  0.001096966    2.145    0.534
       157  -8.0250    179.1712    191.2319   6.5532592458e+01   9.8591885478e+00    0.1668197    0.1460763  74.57 0.0006767649    1.358    0.264
       158 -10.5698     92.7769    188.7668   8.1564013131e+01   2.5019407010e+01    0.9056229    0.2463304  52.18  0.003323348    3.942    0.746
       159  -8.3163    148.3381    189.0224   7.0979984670e+01   1.5853483956e+01    0.1700208     0.154673  89.20 0.0007432915    1.190    0.160
       160  -8.8468    129.3353    188.4633   7.4536125840e+01   1.9267876120e+01    0.2613123    0.1852513  76.03 0.0008974322    1.596    0.373
       161  -9.0278    249.2444    185.2608   5.2098962609e+01  -2.2035773558e+00    0.2408384    0.1849365 -28.38 0.0008095111    1.471    0.320
       162  -8.4062    237.2996    187.9293   5.4597156443e+01  -4.1458501949e-01    0.2061469    0.1497455 -10.67 0.0008312191    1.393    0.282
       163  -8.7223    216.4884    187.6356   5.8138142732e+01   3.4085402367e+00    0.2144721    0.2086812 -53.06 0.0008221167    1.371    0.271
       164  -8.8578    191.3719    187.0195   6.2556714160e+01   8.2002275337e+00    0.2869401    0.2140768 -73.13  0.001132831    2.180    0.541
       165  -9.2187    156.0803    187.3514   6.9240801120e+01   1.4731981674e+01    0.2782734    0.2145357 -69.39 0.0007892726    1.600    0.375
       166  -9.5981    120.7211    186.1120   7.5864762002e+01   2.1131809448e+01    0.4203441    0.2376855 -78.69  0.001985083    2.643    0.622
       167  -9.1844     54.7375    186.5963   8.8431561674e+01   3.0486379012e+01    0.3509507    0.1641077  77.03  0.001521934    2.568    0.611
       168  -8.5436     34.1911    187.7811   9.2213830151e+01   3.2562788057e+01    0.2513846    0.1159099  73.84  0.001426343    2.153    0.535
       169  -8.3331    230.6559    187.1283   5.5578827549e+01   8.7756672999e-01    0.1775277    0.1562266 -36.26 0.0008473156    1.450    0.310
       170  -8.5968    164.9688    186.6297   6.7431469503e+01   1.3213898438e+01    0.2557306    0.1882164  88.22  0.001112551    1.987    0.497
       171  -9.2471    109.5979    185.7519   7.7967478916e+01   2.3003411510e+01    0.3566789    0.2161254  82.60  0.001087561    2.191    0.544
       172  -9.1304    210.2684    183.9683   5.8569626609e+01   5.0656878105e+00    0.2607797    0.2079757 -31.25  0.001018867    1.411    0.291
       173  -8.4488    202.8840    184.4964   5.9999450603e+01   6.3871287639e+00    0.2080147    0.1839885 -61.24 0.0006494172    1.510    0.338
       174  -8.7462    182.9415    184.6858   6.3711316102e+01   1.0143913712e+01    0.2246008    0.1930704 -55.83 0.0006714368    1.421    0.296
       175  -9.2005     66.7962    184.3612   8.5982220485e+01   2.9418282130e+01     0.300851    0.1550302  68.02 0.0009181644    2.033    0.508
       176  -8.6012    224.1078    183.5894   5.6048546984e+01   2.5286768886e+00    0.2006972    0.1727022 -32.30 0.0005659984    1.382    0.276
       177  -8.9275    174.3610    183.4997   6.5121012035e+01   1.1953236678e+01    0.2575684    0.2109897  85.19 0.0008755626    1.594    0.372
       178  -9.0653     44.3158    181.8415   8.9918661060e+01   3.2588273952e+01    0.3209549    0.1658562  81.01   0.00127725    1.922    0.480
       179  -7.9026      1.7471    183.5594   9.7500850419e+01   3.6379258723e+01    0.1327844   0.06802134  55.38 0.0009404652    1.645    0.392
       180  -8.6355    241.2559    181.5015   5.2708294882e+01  -3.4079337337e-01    0.2742655    0.1946129 -64.41  0.001310401    3.175    0.685
       181  -9.1812    147.4948    180.3005   6.9766177490e+01   1.7489811100e+01    0.3086202    0.2257232  83.80   0.00102625    1.774    0.436
       182  -7.7183     90.3404    181.3094   8.1137343077e+01   2.6771265489e+01    0.1068517   0.09713668 -14.44 0.0007044384    1.690    0.408
       183  -9.5229     25.4894    178.4647   9.3066749758e+01   3.5194780935e+01    0.5493944    0.1937531  81.03  0.002220946    4.400    0.773
       184  -8.5913    250.5171    172.1815   4.9329231804e+01  -8.6902405789e-01    0.2677234    0.1667803 -18.32  0.001190287    1.600    0.375
       185  -9.3059    248.9801    177.1712   5.0574930649e+01  -1.1988531473e+00    0.2790165    0.2427452 -33.08  0.001273514    1.458    0.314
       186  -8.1798    247.3027    173.6652   5.0158675411e+01  -4.7047464056e-01     0.214819    0.1555084  -1.02 0.0005821384    1.325    0.245
       187  -9.5080    191.5172    178.0597   6.0914172860e+01   9.5088309776e+00    0.2858376    0.2420876  75.26  0.000740456    1.515    0.340
       188  -8.1571    169.6693    178.5521   6.5157588830e+01   1.3639486421e+01    0.2037457    0.1616109 -78.43 0.0007052801    1.687    0.407
       189  -8.6498    137.6024    178.8099   7.1474385914e+01   1.9535464005e+01     0.246105    0.1789588  83.29 0.0009696496    1.696    0.410
       190  -8.6271    217.4656    177.0146   5.5967901011e+01   4.6580043763e+00    0.2427853     0.204708 -68.75 0.0008594423    1.803    0.445
       191  -8.9763     35.7971    176.2996   9.1018311816e+01   3.4569571110e+01    0.4124387    0.1609183  80.66  0.001760357    3.760    0.734
       192  -8.6351    231.1368    176.7387   5.3510901355e+01   2.1140685515e+00    0.2093325    0.1719356 -32.17 0.0007728666    1.406    0.289
       193  -8.6427    205.1534    177.2009   5.8228881423e+01   6.9967259527e+00    0.1669343    0.1591239  85.56 0.0004562912    1.349    0.259
       194  -7.8685     97.5114    177.4578   7.9240645447e+01   2.6435808126e+01    0.1212589    0.1062674  72.50 3.814065e-05    1.063    0.059
       195  -8.9851     89.1801    176.6803   8.0791298961e+01   2.7826140837e+01    0.2536099    0.1622247  74.79 0.0007661865    1.639    0.390
       196  -9.3027     59.2723    175.7222   8.6530086512e+01   3.2022781920e+01    0.3780484    0.1683848  66.16  0.001811721    2.679    0.627
       197  -9.3508     55.9994    170.9609   8.6674618668e+01   3.3353238524e+01    0.3580858    0.1779757  83.61  0.001534006    2.411    0.585
       198  -9.0660     12.7336    176.0583   9.5171279237e+01   3.6834310018e+01    0.2725743    0.1117963  89.08  0.001465918    2.205    0.546
       199  -8.4973    129.4269    177.3579   7.2870573064e+01   2.1237390268e+01    0.2866375    0.1765492  77.55 0.0009599989    2.385    0.581
       200  -9.1110    182.8711    175.4006   6.2057577956e+01   1.1600131440e+01     0.301392    0.2100047 -45.39 0.0009359271    1.651    0.394
       201  -9.3215    158.6440    174.6127   6.6618820555e+01   1.6396943840e+01    0.3269784    0.2396792  86.44  0.001099685    1.921    0.480
       202  -9.2986    104.2118    174.4191   7.7491276882e+01   2.5979434224e+01    0.4698545    0.2298511  67.23  0.001938013    3.109    0.678
       203 -10.8384     75.8659    170.0743   8.2632087060e+01   3.0994096411e+01     1.069821    0.3903646 -76.32   0.00373104    4.748    0.789
       204  -9.8529     81.2780    155.3817   7.9588263721e+01   3.3214187206e+01    0.5074737    0.4696288 -10.80  0.001944906    1.539    0.350
       205  -8.2510    224.4950    174.0407   5.4141740161e+01   3.7236042978e+00    0.1838934     0.126973 -29.71 0.0004519964    1.546    0.353
       206  -9.5527    175.7503    172.2039   6.2838216469e+01   1.3504367040e+01    0.2960068    0.2479609 -50.22 0.0009869767    1.370    0.270
       207  -8.3202    143.1227    172.5804   6.9360858928e+01   1.9653180422e+01    0.2139109    0.1747174 -74.64  0.000641358    1.380    0.275
       208  -8.3629    134.8489    171.4026   7.0834849786e+01   2.1370295689e+01     0.212162     0.174838 -80.25 0.0005078778    1.321    0.243
       209  -9.0395     45.1712    171.0618   8.8785460522e+01   3.4580783459e+01    0.3144365     0.155061  84.83      0.00118    2.189    0.543
       210  -9.0795    230.4711    169.5160   5.2193407031e+01   3.1937172478e+00    0.3129858    0.1778522 -31.59   0.00157669    1.847    0.459
       211  -8.3506    205.9151    170.2463   5.6745908431e+01   7.8642775586e+00    0.2206868    0.1866511 -65.35 0.0006394767    1.641    0.390
       212  -8.6228    198.7955    170.0538   5.8031428064e+01   9.2996427687e+00    0.2562493    0.1928105 -60.22 0.0009247068    1.865    0.464
       213  -9.5749    121.4394    170.0855   7.3353923135e+01   2.3970736442e+01    0.3529305     0.245567 -82.12  0.001016147    1.717    0.418
       214  -8.4809    237.1660    169.2614   5.0985439031e+01   1.9589687157e+00    0.2152445    0.1865719 -31.32  0.000761642    1.358    0.264
       215  -8.4780    149.9165    169.3279   6.7435833117e+01   1.8972745647e+01     0.234496    0.1795653  89.96  0.000734107    1.662    0.398
       216  -8.3135    244.4756    168.9994   4.9692803792e+01   6.2936744501e-01    0.1848599    0.1210183 -24.71 0.0004776882    1.534    0.348
       217  -9.0786    166.9321    168.2921   6.3845071910e+01   1.5883725100e+01    0.3051571    0.2018953  67.17 0.0009401949    1.964    0.491
       218  -8.2882     88.7060    168.5550   7.9835986063e+01   2.9483120305e+01    0.2097266    0.1351989  86.40  0.001043914    1.713    0.416
       219  -8.5645    218.8307    168.1611   5.3979885223e+01   5.6291004106e+00    0.1896388    0.1831607  49.19 0.0006169874    1.271    0.213
       220  -7.9935    211.4561    167.9411   5.5271565943e+01   7.1095246763e+00    0.2436577    0.1250769 -43.63  0.001092117    2.332    0.571
       221  -8.7811    212.8936    163.5568   5.4122634276e+01   7.4658883993e+00    0.2387159    0.1964926 -36.67 0.0007027094    1.365    0.267
       222  -9.0956    111.7907    167.4118   7.4924456516e+01   2.6107917591e+01    0.3066242    0.1900927  73.47  0.001186244    2.022    0.506
       223  -9.1451    191.9461    166.4081   5.8612737438e+01   1.1228841232e+01    0.2696129    0.1999728 -36.32 0.0004807057    1.479    0.324
       224  -8.7300    185.0371    166.4018   5.9938831738e+01   1.2613031781e+01    0.2354379    0.1900964 -60.04 0.0004619549    1.554    0.357
       225  -9.7320    137.2962    164.4489   6.9162310232e+01   2.2216716822e+01    0.6492383    0.2749976  58.56  0.002308417    3.425    0.708
       226 -10.0904     95.0866    162.6713   7.7698690189e+01   2.9700668311e+01    0.7587807    0.3714297  75.30  0.002597976    4.682    0.786
       227  -9.0727     20.5077    165.8504   9.3030418531e+01   3.8099211035e+01    0.2652501    0.1247636  64.35  0.001294923    2.000    0.500
       228  -8.4626    234.0657    164.7239   5.0593514377e+01   3.1490366165e+00    0.2202734    0.1709154 -33.69 0.0006704325    1.434    0.303
       229  -9.6070     33.7309    163.3312   9.0287211468e+01   3.7325122578e+01    0.4643494    0.1650582  60.54  0.002097237    3.334    0.700
       230  -9.0725    246.1946    162.8994   4.8152870474e+01   1.0885420110e+00    0.2416111    0.1662502 -35.97 0.0004866051    1.625    0.385
       231  -8.2429    240.1566    163.8901   4.9376524790e+01   2.0975301516e+00    0.1870483     0.182463   8.28 0.0006167434    1.304    0.233
       232  -8.6616    159.5010    163.9224   6.4522178735e+01   1.8096397045e+01    0.2483567    0.2007272  76.70 0.0008705385    1.453    0.312
       233  -8.4630    204.9773    162.5114   5.5371861430e+01   9.2114368599e+00    0.2345504    0.1878556 -50.81 0.0006160377    1.548    0.354
       234  -9.2947      3.5984    162.1584   9.5910593754e+01   4.0257214536e+01    0.3464802     0.125719  61.31   0.00182925    2.673    0.626
       235  -9.0923    177.5332    160.4666   6.0243618206e+01   1.5105910339e+01    0.2717414    0.2334197  82.74 0.0008160282    1.431    0.301
       236  -8.8702    151.6116    160.5937   6.5513292308e+01   2.0229178068e+01    0.2812862    0.2114422 -84.60  0.001302615    1.762    0.433
       237  -8.8064     60.8535    160.0890   8.4499035023e+01   3.4947206940e+01    0.2952413    0.1561272  77.02  0.001060082    2.285    0.562
       238  -8.5476    227.5956    158.9305   5.0519468793e+01   5.2066234028e+00    0.2685423    0.1963107 -49.80 0.0009291972    1.826    0.452
       239  -9.4191    243.3513    149.5227   4.5785155010e+01   3.4017014775e+00    0.3351997     0.184777 -32.17  0.001617186    1.809    0.447
       240 -10.6574    241.2434    153.8792   4.7083021109e+01   3.2232427369e+00     0.656893    0.4365141 -52.05  0.003208394    2.273    0.560
       241 -10.1282    249.5869    157.1267   4.6378225356e+01   1.1960968007e+00    0.3954669    0.3342642 -66.42  0.001454873    1.901    0.474
       242  -8.5022    236.9913    158.9543   4.8887933025e+01   3.3627593087e+00    0.1890065    0.1694932 -67.96 0.0007141826    1.634    0.388
       243  -8.7501    196.8216    157.9587   5.5978142597e+01   1.1580238911e+01    0.2659885    0.1959004 -60.40 0.0008568879    1.883    0.469
       244  -8.3111    128.1161    158.6570   7.0076933416e+01   2.4990995614e+01     0.227298    0.1763248 -74.09 0.0006440568    1.405    0.288
       245  -9.6841    105.9155    157.7375   7.4655121577e+01   2.8983134300e+01    0.4694228    0.2830681  74.52  0.001194017    2.223    0.550
       246  -8.4253    188.1640    157.6231   5.7580740571e+01   1.3412346335e+01    0.2282762    0.1859948 -49.70 0.0006427367    1.417    0.294
       247  -9.1887    167.5344    157.0511   6.1573291887e+01   1.7717521432e+01    0.3353664    0.2594999 -80.93  0.001168785    1.770    0.435
       248  -8.6097    217.9683    156.5000   5.1730228900e+01   7.4840737857e+00    0.2498211    0.1865583 -47.46 0.0008345727    1.656    0.396
       249  -8.8743    157.6359    155.6457   6.3326334731e+01   1.9952135303e+01    0.2970845     0.215625 -49.59  0.001558173    1.493    0.330
       250  -9.3067    119.6393    154.8022   7.1219046617e+01   2.7252381337e+01    0.3914834    0.2526248 -79.78  0.001276745    2.040    0.510
       251  -9.2774     49.8222    155.1049   8.6213323259e+01   3.7270805884e+01    0.3537004    0.1678058  66.51  0.001517042    2.499    0.600
       252  -8.1103    204.9125    155.0278   5.3831486069e+01   1.0376879517e+01    0.2047595    0.1731293 -78.63 0.0007398205    1.681    0.405
       253  -8.9686    144.6464    154.1555   6.5756612553e+01   2.2772624435e+01    0.3806958    0.2527072 -41.82  0.001144336    1.664    0.399
       254  -9.4466     68.1488    153.6370   8.2165701585e+01   3.5352579730e+01    0.3662117    0.1868896  68.09   0.00123969    2.479    0.597
       255  -7.9293    232.8389    153.7833   4.8506453323e+01   4.8890377454e+00    0.1684618    0.1653623 -55.44 0.0004988867    1.330    0.248
       256  -9.6844    132.8233    152.7216   6.8008524533e+01   2.5285356932e+01    0.4261655    0.2801095  73.22  0.001207333    2.024    0.506
       257  -9.1323    133.5054    148.0237   6.6979106768e+01   2.6078845283e+01    0.3054723     0.220901 -42.78  0.001160518    1.511    0.338
       258  -8.3454    182.7588    151.4277   5.7362267481e+01   1.5568342262e+01    0.2598499    0.1846477 -77.97  0.001104962    2.378    0.580
       259 -10.6144    148.9541    144.9351   6.3022321134e+01   2.3684151981e+01     0.600263    0.3911495  84.28  0.001723919    2.707    0.631
       260  -8.8590     20.3726    152.2869   9.1949467978e+01   4.0808455230e+01    0.1596429   0.08046471 -86.57 0.0006988404    1.691    0.409
       261  -8.5593      8.4806    153.0000   9.4349348527e+01   4.1665649122e+01     0.186817   0.05773516  30.37 0.0009294934    3.893    0.743
       262  -8.6518      2.6940    150.7761   9.5307967066e+01   4.2555130176e+01    0.3547815   0.06647844 -74.23  0.001467678    3.821    0.738
       263  -9.6107    248.8669    149.1418   4.4782855088e+01   2.3804357755e+00     0.320847    0.1924526 -26.26 0.0008314662    1.616    0.381
       264  -8.8582    189.5081    149.9672   5.5718484962e+01   1.4402618304e+01    0.3123064    0.2327315 -68.33 0.0008118086    1.950    0.487
       265  -8.6444     98.3233    150.6424   7.5166835608e+01   3.1644074445e+01    0.2716928     0.185774  80.80 0.0008988597    1.688    0.408
       266  -8.2720    213.0997    149.8324   5.1192125140e+01   9.4837091021e+00    0.1994249    0.1895536  69.42 0.0004446851    1.284    0.221
       267  -8.3050    162.6635    150.3905   6.1236550094e+01   1.9899212980e+01    0.2099105    0.1646291  81.02  0.001069633    1.628    0.386
       268  -8.5976    198.8987    148.5345   5.3585807187e+01   1.2662242992e+01     0.249338    0.1957364 -53.53 0.0006634949    1.559    0.358
       269 -10.1044     89.2881    145.9904   7.6425700911e+01   3.3999864463e+01    0.6428467    0.3375915 -87.33   0.00251322    3.402    0.706
       270  -9.6522     39.9923    147.6355   8.7451456372e+01   3.9880456043e+01    0.4431964      0.20702  67.98  0.002190281    2.594    0.615
       271  -9.4011    233.2679    147.6237   4.7093671985e+01   5.6712818556e+00    0.2471429    0.1784377 -25.47 0.0006393547    1.375    0.273
       272  -9.0878     57.8046    134.6434   8.1877069804e+01   4.0649898192e+01    0.2051355    0.1204405  32.38 0.0008295635    2.074    0.518
       273 -10.3379     55.0870    144.6632   8.3839003929e+01   3.8838930799e+01    0.6787305    0.3204779  73.34  0.002890504    3.285    0.696
       274  -8.4569     53.0055    137.4673   8.3364178820e+01   4.0605221203e+01    0.2380209    0.1641138 -35.39  0.001366978    2.151    0.535
       275  -8.3735    223.1887    146.6492   4.8658336499e+01   7.8720117880e+00    0.2230978    0.1829955 -33.73 0.0004186707    1.307    0.235
       276 -10.2554    106.6923    144.0647   7.2193652164e+01   3.1646892731e+01    0.6909226    0.4126897  86.42  0.002450082    2.755    0.637
       277  -9.5474     13.5255    145.9437   9.2787457461e+01   4.2675036748e+01    0.3137489    0.1461589  73.95  0.001388666    2.210    0.547
       278  -8.2968    206.8398    146.2273   5.1571042101e+01   1.1355722599e+01    0.2033578    0.1904109  58.86 0.0007149354    1.223    0.182
       279  -8.3058    175.5201    145.9613   5.7663639740e+01   1.8033157027e+01    0.2413048    0.1930427 -85.52 0.0008019482    1.703    0.413
       280  -9.9745    139.0908    144.8620   6.5145383147e+01   2.5635635159e+01      0.41008    0.2771884 -77.09  0.001245204    2.077    0.518
       281  -9.6905     29.4923    150.6340   8.9950951946e+01   4.0306543567e+01    0.4091411    0.1739493  72.20  0.001763241    3.047    0.672
       282 -10.4867    241.5583    143.6797   4.4801633849e+01   4.5585576118e+00    0.5504285    0.3072349  11.76  0.002244344    2.662    0.624
       283  -8.0664    250.4845    140.5311   4.2618243314e+01   3.2191898224e+00    0.1368255    0.1196507   4.35 0.0001585947    1.029    0.028
       284  -8.8309    165.8085    143.8408   5.9217112249e+01   2.0447945559e+01    0.2820465    0.2378026  88.12 0.0009849372    1.447    0.309
       285  -9.8348    124.9571    142.4801   6.7801477070e+01   2.8773138584e+01    0.4447533    0.2976325 -84.28  0.001283111    2.107    0.525
       286  -7.6470    230.6562    142.3001   4.6367335932e+01   6.9691031418e+00    0.1313417    0.1140222 -78.32 0.0007037047    1.676    0.403
       287  -8.4074    182.0500    141.4789   5.5362908203e+01   1.7435194934e+01    0.2556674    0.1979479 -56.73 0.0005238937    1.541    0.351
       288 -11.0086     69.3902    139.9233   7.9986439637e+01   3.8075040832e+01    0.6465049    0.3336349 -78.87   0.00306887    2.241    0.554
       289 -10.3811     73.0785    129.6508   7.7521683154e+01   3.9793219875e+01    0.5299523    0.2958398 -63.29  0.001827748    1.618    0.382
       290  -9.1470      2.4103    141.3424   9.4669049467e+01   4.4460564051e+01    0.2938787     0.126638  79.93  0.001371433    2.307    0.566
       291  -8.7980    172.3825    138.1123   5.6599434089e+01   2.0104091837e+01      0.31453    0.2292738 -69.99 0.0009682305    1.918    0.479
       292  -9.7600     23.5201    137.9105   8.9951033440e+01   4.3480874666e+01    0.4104188     0.177145  67.89  0.001849957    2.901    0.655
       293  -9.2337    247.0892    143.6524   4.3871043607e+01   3.4645363728e+00    0.2915255    0.1960248  -8.19 0.0005242228    1.535    0.349
       294  -7.8194    218.5190    138.4640   4.7666319299e+01   1.0087371593e+01    0.1431317    0.1308054  15.09 0.0001299062    1.021    0.021
       295  -8.2224    207.3309    137.4608   4.9511058655e+01   1.2648324077e+01      0.23675    0.1698543 -53.24 0.0006977619    1.764    0.433
       296  -8.5747    197.4034    137.0236   5.1313570721e+01   1.4876034135e+01    0.2809907    0.2082967 -54.62 0.0008708906    1.668    0.401
       297  -9.6403    151.3678    135.7071   6.0555659743e+01   2.4970655319e+01    0.5118331    0.2899933  32.13  0.002131258    2.177    0.541
       298  -9.0363    248.5572    134.7400   4.1626898508e+01   4.3923569057e+00    0.2703218    0.2100734 -28.17 0.0008532974    1.272    0.214
       299  -8.7461    250.7996    129.8653   4.0147089037e+01   4.6130085380e+00    0.4536363    0.1309211 -25.63  0.001377355    4.191    0.761
       300  -8.4083    162.6528    136.1292   5.8209511263e+01   2.2538089062e+01    0.2222542    0.1793917 -63.40 0.0006439179    1.434    0.302
       301  -9.5833     78.1827    147.0541   7.9063647620e+01   3.5380227847e+01    0.2966771    0.1893385  88.47 0.0008225017    1.760    0.432
       302  -9.3697     39.2601    135.7598   8.6247751314e+01   4.2448859644e+01    0.2410593    0.1498679  74.04 0.0007650362    1.637    0.389
       303 -10.4827     83.4784    132.8692   7.5595024523e+01   3.7643453707e+01    0.5014223    0.3018155 -77.80  0.001403157    1.892    0.471
       304  -7.9477    231.4691    133.9597   4.4327694334e+01   8.0212066368e+00    0.2044614    0.1339798 -28.06 0.0004890605    1.501    0.334
       305  -8.7246    179.3583    133.7842   5.4180382956e+01   1.9375622176e+01    0.2640109    0.2154915 -67.42 0.0008244099    1.529    0.346
       306  -9.2277    112.9450    132.7536   6.8645551350e+01   3.2934098791e+01    0.4156568    0.2822545 -65.88  0.001638566    1.559    0.359
       307  -7.6976    237.5105    133.5136   4.3186489710e+01   6.8226414173e+00    0.1403937     0.127479   4.33 0.0002015516    1.045    0.043
       308 -10.7231    132.5395    130.2265   6.3587851888e+01   2.9828245643e+01    0.7933923    0.4497458 -51.99  0.002194787    1.810    0.447
       309  -9.7964    131.2086    118.6302   6.1309596112e+01   3.2457113043e+01     0.583105      0.36841  83.58  0.001970196    3.068    0.674
       310  -7.2995      7.6460    133.6692   9.2953154978e+01   4.5640074696e+01    0.1063838   0.06680913 -52.81 0.0007045749    1.781    0.439
       311  -9.4586    143.0948    131.3333   6.1433860443e+01   2.7513215922e+01    0.3305214    0.2436232 -64.95 0.0008120826    1.567    0.362
       312  -9.9830     97.8437    129.6274   7.1601245577e+01   3.6138541048e+01    0.5308518    0.2193021 -50.76  0.002213219    2.334    0.572
       313 -10.0266     12.7912    128.5140   9.1358391763e+01   4.6320862704e+01    0.5094284    0.2271639  85.79  0.002210347    2.394    0.582
       314  -8.3528    246.9241    130.0985   4.0829249219e+01   5.3677443512e+00    0.2044978    0.1803663 -34.83 0.0005775386    1.265    0.210
       315  -8.1042    204.6190    130.2948   4.8361391764e+01   1.4405537101e+01    0.2113625    0.1735084 -72.50 0.0006598199    1.670    0.401
       316  -8.2280    192.8627    130.0678   5.0591684417e+01   1.7050398961e+01    0.2139452    0.1987638 -64.72 0.0004838705    1.250    0.200
       317  -9.4302    168.3899    129.2999   5.5438585702e+01   2.2582299144e+01      0.30613    0.2543626 -71.92 0.0005337312    1.464    0.317
       318  -9.6136    152.9022    128.8811   5.8701454433e+01   2.5973923519e+01    0.3823822    0.2553955 -64.23 0.0008590605    1.934    0.483
       319  -8.2369      1.7834    130.1956   9.3904298932e+01   4.6769898780e+01    0.1801935   0.07484417  67.28 0.0009356952    2.720    0.632
       320  -8.2667    211.5227    128.9783   4.6750175262e+01   1.3093921538e+01    0.2174414    0.1403719 -35.54 0.0008433004    1.573    0.364
       321  -8.0227    186.3780    129.2024   5.1684761832e+01   1.8640449875e+01    0.2052726    0.1371628 -46.96 0.0005217422    1.645    0.392
       322  -9.3326     49.9991    128.2325   8.2790108085e+01   4.2925136305e+01    0.3867809    0.1959776  78.23  0.001715242    2.975    0.664
       323 -10.5451     44.1073    122.8493   8.3432857263e+01   4.4720467080e+01    0.8636456    0.3710559 -84.88  0.003149511    3.566    0.720
       324 -10.5516     60.0811    124.8530   7.9872588867e+01   4.2493018474e+01    0.6576359    0.3549314  82.54  0.002681371    2.816    0.645
       325  -9.8715    117.8198    125.0742   6.5921794175e+01   3.3669087788e+01    0.5166452    0.3333922  79.97    0.0014806    2.452    0.592
       326  -8.7444    235.0026    125.2419   4.1680571202e+01   8.5575263812e+00    0.1931688    0.1173041  48.20 0.0008979328    1.656    0.396
       327  -7.7993    228.4870    124.9920   4.2743482952e+01   9.9978866675e+00    0.2012076    0.1155237 -51.87 0.0008097555    2.481    0.597
       328  -8.9484    179.2761    124.5228   5.2024274627e+01   2.1054859575e+01    0.2969944    0.2460653 -74.08 0.0006475222    1.532    0.347
       329 -10.3798     28.7595    122.2498   8.7014588243e+01   4.6327570076e+01    0.6947348    0.3091052  75.97   0.00294778    3.619    0.724
       330  -8.0350    188.3931    124.1222   5.0065952665e+01   1.9079067675e+01    0.2072613    0.1375219 -47.69 0.0005887574    1.673    0.402
       331  -9.2929     84.9425    122.2624   7.3335400530e+01   3.9720401429e+01    0.5235192    0.2417458  29.39  0.002125141    3.156    0.683
       332  -7.8869    194.8700    121.7606   4.8202103713e+01   1.8022766713e+01    0.1962603     0.176099 -66.95 0.0004293077    1.327    0.246
       333  -8.9500    171.9525    121.3590   5.2796036393e+01   2.3268252903e+01    0.2413976    0.2043198 -50.45 0.0004620004    1.263    0.208
       334  -9.3572    158.6306    121.3317   5.5673591142e+01   2.6208605371e+01    0.3372831    0.2628872 -84.35 0.0009988919    1.723    0.420
       335  -7.8766    203.1775    121.6053   4.6551312798e+01   1.6164550724e+01    0.2022221    0.1326169  38.40 0.0002731626    1.515    0.340
       336  -9.7146     71.1076    119.4463   7.6251691952e+01   4.2276327175e+01    0.3922212    0.2355819 -83.28  0.001212654    2.037    0.509
       337 -10.0042    141.5585    118.0051   5.8739144517e+01   3.0487783743e+01    0.5513786    0.2930174 -55.33  0.001227453    2.193    0.544
       338  -8.6612    100.5573    119.6540   6.8963422946e+01   3.7832425680e+01    0.4587499    0.2419932  18.80  0.001372788    5.739    0.826
       339  -9.6883      3.2540    117.3788   9.2420939594e+01   4.9321547265e+01    0.4600024    0.1966715  72.10   0.00231624    2.904    0.656
       340 -10.1258    109.3180    114.0840   6.5587719006e+01   3.7520599617e+01    0.5534853    0.3263227 -68.98  0.001606064    2.231    0.552
       341  -9.0200    109.7666    106.9768   6.3835072840e+01   3.8950137813e+01    0.3246095    0.1939613  18.83  0.001246403    3.101    0.678
       342  -8.1581    185.5281    115.5227   4.8527760525e+01   2.1245036534e+01    0.2574834    0.1364609 -47.48 0.0006538295    2.136    0.532
       343  -8.1313    250.2466    114.7940   3.6694226300e+01   6.8318313454e+00    0.1998364    0.1526753  14.45  0.001055817    1.342    0.255
       344  -8.3371    192.9523    115.1281   4.6937030169e+01   1.9602873248e+01    0.2246759    0.2037906 -66.71 0.0005293651    1.286    0.223
       345 -10.0822     92.7513    112.2797   6.9371474608e+01   4.0690434043e+01    0.4897496    0.2879734 -67.20  0.001549408    1.892    0.472
       346  -8.7522     59.0851    115.2009   7.8534838132e+01   4.4719558483e+01     0.221506    0.1524821  -1.45  0.001055029    2.618    0.618
       347  -8.4051    167.3451    114.1368   5.2000240838e+01   2.5645272598e+01    0.2326896    0.1895495 -17.83 0.0005947074    1.359    0.264
       348  -9.8683     78.9057    112.3605   7.2939314708e+01   4.2754575897e+01    0.5258817    0.3103872 -78.92  0.001874948    2.213    0.548
       349  -8.5872     78.2861    104.8918   7.1570468086e+01   4.4474995308e+01    0.2833015    0.1939248   7.00  0.001368147    2.454    0.593
       350 -10.5534     65.9173    111.3205   7.6093006826e+01   4.4729770654e+01    0.5809102    0.2616317 -54.89  0.002737954    1.923    0.480
       351  -9.7529    133.4146    109.6155   5.8625028490e+01   3.3857276128e+01    0.6572438    0.3386227 -46.98  0.002306582    1.925    0.481
       352 -10.1041    121.9111    112.1232   6.2024050401e+01   3.5613002851e+01    0.3908135    0.2794633 -54.58 0.0006007279    1.394    0.282
       353 -10.7606    249.0374    103.2848   3.4089837677e+01   8.7221044046e+00    0.5497165    0.3584984 -15.07  0.002650597    1.574    0.365
       354  -8.7666    159.2089    111.7167   5.3177229088e+01   2.7926055414e+01    0.2599312    0.1975908 -51.61 0.0005981904    1.401    0.286
       355  -9.8919     14.3368    111.0729   8.9122239138e+01   4.9882482886e+01    0.3378507    0.1807361  67.59  0.001946364    2.155    0.536
       356  -8.8567    149.9432    109.9891   5.4835151493e+01   3.0299065826e+01     0.238621    0.1858191 -81.44 0.0005934652    1.700    0.412
       357  -8.6176     43.0408    109.1311   8.1634338969e+01   4.7814612188e+01    0.2516748    0.1472846   9.04  0.001247304    3.145    0.682
       358  -7.9459    189.4492    107.5400   4.5696091659e+01   2.1736323826e+01    0.1501774    0.1468485   9.11 0.0002610926    1.037    0.035
       359 -10.7411    108.7035     98.3949   6.2009413336e+01   4.0955386740e+01      0.75034    0.4638585  75.59  0.001008722    3.087    0.676
       360  -8.6355    107.7425     92.4063   6.0719225560e+01   4.2384729239e+01    0.2771816    0.2394306 -23.74 0.0009246353    1.246    0.198
       361 -10.5039     45.9274    102.2716   7.9726661409e+01   4.9019183723e+01    0.6636744    0.3555929  75.20  0.002927668    3.164    0.684
       362 -10.6761     22.8201    102.2448   8.5839034072e+01   5.1129350931e+01    0.6825686    0.3357724  84.64  0.002571934    2.760    0.638
       363  -9.5922    150.7667    103.0472   5.2852151020e+01   3.1473921369e+01    0.4845034    0.2992624 -65.34  0.001617162    2.482    0.597
       364  -9.8046    139.9409    103.8413   5.5599740101e+01   3.3665182104e+01    0.5214948    0.2993004 -43.80  0.001908903    1.724    0.420
       365  -8.6146    166.7579    103.9246   4.9494206603e+01   2.7688084329e+01    0.2745163    0.2039075 -56.71 0.0006212505    1.556    0.357
       366  -8.5732     93.9673    104.0345   6.7233887291e+01   4.2278681450e+01    0.2183321    0.1671397 -17.94   0.00112676    1.769    0.435
       367 -10.1490    128.6428    101.5835   5.7757234120e+01   3.6464171676e+01    0.4673905     0.304849 -52.54  0.001444857    1.573    0.364
       368  -9.0358      6.8027    102.8717   9.0019299820e+01   5.2141422820e+01     0.238116    0.1286711  81.99 0.0007864543    1.949    0.487
       369  -7.7614    175.6130    101.8133   4.7031989773e+01   2.6012011052e+01    0.2159749    0.1396354 -47.67 0.0006412319    1.669    0.401
       370  -8.5030    159.8458    100.7375   5.0173000078e+01   2.9873708428e+01    0.2781162    0.1918987 -64.02 0.0006454415    1.937    0.484
       371  -9.3114     82.2450    100.0272   6.9447694745e+01   4.4960797706e+01    0.3207287    0.2221435 -76.43 0.0009869282    1.685    0.407
       372 -10.1351     64.0773     95.8576   7.3520040656e+01   4.8350545018e+01    0.6291593    0.3369456 -75.78  0.001651127    2.537    0.606
       373  -9.0791     65.1152     87.3503   7.1341964980e+01   5.0068571487e+01    0.6650494    0.2614095  23.49  0.002245336    5.145    0.806
       374  -9.1989     95.0092     96.7568   6.5233947043e+01   4.3672139676e+01    0.3159596    0.2017836 -57.98 0.0007610613    1.535    0.348
       375  -8.5209    174.8654    111.6679   4.9764586775e+01   2.4391123046e+01    0.2869639    0.2155633 -46.48 0.0006234519    1.400    0.286
       376  -8.0141    164.6223     93.8268   4.7224693326e+01   3.0057404054e+01     0.215745    0.1398827 -47.54 0.0004490349    1.638    0.390
       377  -7.7780    188.5024     93.4807   4.2129706310e+01   2.4398575231e+01    0.1519836    0.1503863 -25.28 0.0001192586    1.061    0.057
       378  -8.3255    176.3431     92.9964   4.4476803132e+01   2.7421386992e+01    0.2207889    0.1918629 -34.00  0.000472459    1.150    0.130
       379 -10.2417    124.0320     90.8718   5.6058165944e+01   3.9571862732e+01    0.5563571    0.4805073  12.10  0.002183566    1.316    0.240
       380  -9.2423     45.9291     92.2321   7.7876027946e+01   5.1212796207e+01    0.3642184    0.2202359   3.07  0.001804232    2.979    0.664
       381  -9.7370      5.0647     91.5461   8.9070395254e+01   5.4648194286e+01    0.2736266    0.1620597  80.50  0.001147582    1.810    0.448
       382  -8.0405    157.8288     91.3619   4.8051180099e+01   3.2100791842e+01    0.2132418    0.1861824 -44.83 0.0004882918    1.165    0.142
       383  -9.5001     34.6978     89.4421   8.0537603330e+01   5.2901833922e+01    0.3868068    0.2162476 -86.35  0.001682884    2.256    0.557
       384  -8.8825     22.7872     89.7965   8.3961209514e+01   5.3815937633e+01     0.221618    0.1726034   5.19  0.001042704    1.781    0.438
       385  -8.5325    151.1510     88.7526   4.8842903681e+01   3.4128823232e+01    0.2983796     0.165649 -50.82 0.0006997777    2.054    0.513
       386  -9.2041    139.2384     92.1062   5.2616165604e+01   3.6139413688e+01    0.3826583    0.2779798 -79.72  0.001060516    2.052    0.513
       387 -10.0768     86.5087     85.8767   6.4843000329e+01   4.7353100305e+01    0.5970072      0.35642 -61.90  0.001853364    1.830    0.453
       388  -7.7932    164.0000     86.9986   4.5435020735e+01   3.1453231487e+01    0.2512225   0.08743352 -36.46 0.0005297744    2.861    0.651
       389  -9.7572     48.5244     84.0404   7.5453480590e+01   5.2720381120e+01    0.4703273     0.290107  83.38  0.001747808    2.576    0.612
       390  -8.2877    157.8708     83.8785   4.5898808511e+01   3.3473009367e+01    0.2308044    0.2038818  -3.20 0.0004739601    1.198    0.165
       391  -9.7660    104.8224     83.0152   5.8955527918e+01   4.4857435456e+01    0.3775849    0.2885319 -74.75 0.0008482629    1.682    0.405
       392  -9.4132    140.8811     82.3136   4.9415069532e+01   3.7666971026e+01    0.4115756     0.251127 -46.82    0.0011998    1.686    0.407
       393  -8.1653     64.0498     82.6681   7.0549174704e+01   5.1212004417e+01    0.1664026    0.1612174 -70.52 0.0006644313    1.135    0.119
       394  -8.2397     35.7482     82.4001   7.8895875901e+01   5.4329994067e+01    0.1453003    0.1155323  -4.25 0.0009502441    1.665    0.399
       395  -9.6650     24.5473     80.1325   8.1788250253e+01   5.5756891663e+01    0.4202101    0.2097002 -81.25  0.001393919    2.407    0.585
       396  -9.1595     10.0647     80.9923   8.6179026090e+01   5.6581983338e+01     0.310274    0.1568513  70.79  0.001553064    3.050    0.672
       397  -8.4448    150.2260     80.2861   4.6593878951e+01   3.5919521301e+01    0.2875476    0.1880179 -59.36  0.000756352    2.003    0.501
       398  -8.7002    119.2769     79.8119   5.4143520349e+01   4.2738140396e+01    0.3179733    0.1901409 -47.14 0.0008622449    1.647    0.393
       399  -8.7812     74.8781     80.3401   6.6768170551e+01   5.0257543639e+01     0.283694    0.1754813 -65.73 0.0008812091    1.833    0.455
       400  -8.3015    166.9182     79.4709   4.2608307932e+01   3.2094984244e+01    0.2368684    0.2007224 -30.60 0.0005191286    1.172    0.147
       401  -8.0227    184.2231     77.9920   3.8601251179e+01   2.8076729002e+01     0.210486    0.1264491 -32.27 0.0008711834    1.654    0.395
       402  -7.6884    179.3178     85.6416   4.1791401342e+01   2.7990700864e+01    0.1620692    0.1220528 -68.64 0.0007044232    1.757    0.431
       403  -8.0367    157.1376     76.1466   4.3770071250e+01   3.5040559969e+01      0.21469    0.1792368 -57.85 0.0004350187    1.347    0.258
       404  -9.3099    128.1638     74.9454   5.0372817078e+01   4.1840536651e+01     0.420345    0.2309306 -48.32  0.001265947    1.921    0.479
       405  -8.7220    140.3747     75.0369   4.7354424499e+01   3.9142041540e+01    0.2212358    0.1841486 -38.23 0.0006583813    1.180    0.152
       406  -9.9127     63.0970     73.2842   6.8479657686e+01   5.3325662247e+01    0.4544088    0.2448977 -61.73  0.001304875    1.919    0.479
       407  -8.3267    163.5567     73.2550   4.1474583534e+01   3.3996148471e+01    0.2854831     0.144735 -38.77 0.0007882104    1.947    0.486
       408  -9.6454     82.4707     72.3413   6.2324216003e+01   5.0802195536e+01    0.4193502    0.2710112 -66.63  0.001105673    1.999    0.500
       409  -8.1788     42.9299     72.9484   7.4676396341e+01   5.5673027560e+01     0.185484    0.1391214  88.08 0.0006924277    1.674    0.403
       410  -9.1836     28.0160     70.9520   7.8922533297e+01   5.7439266119e+01    0.4664526    0.1804867 -32.98  0.001699927    4.920    0.797
       411  -7.6736    175.4860     72.4348   3.8714411479e+01   3.1185880151e+01    0.1553897    0.1484063  16.88 0.0001870267    1.028    0.027
       412  -9.0479    105.5847     71.8712   5.5482539284e+01   4.6955547330e+01     0.253849    0.2419265  -3.53 0.0008333505    1.068    0.064
       413  -9.3011     95.2541     71.0256   5.8169578123e+01   4.8978723291e+01    0.3479059    0.2221616 -55.80 0.0009054235    1.691    0.409
       414  -9.3596     51.4005     69.1972   7.1085571715e+01   5.5573627444e+01    0.4059873    0.2052412 -67.07  0.001536454    2.363    0.577
       415  -8.9491     16.6508     69.6071   8.2228281800e+01   5.8565576199e+01    0.2557181    0.1440942 -76.73 0.0007865472    1.731    0.422
       416  -7.7006    157.2545     69.6350   4.1750880164e+01   3.6152627275e+01    0.1563945    0.1179517 -60.74 0.0003245231    1.628    0.386
       417  -8.9661    147.2422     67.8704   4.3486597776e+01   3.8848439137e+01    0.3430553      0.22082 -53.34 0.0007830446    1.863    0.463
       418  -8.5503    138.7666     66.1114   4.4951864705e+01   4.1122024674e+01    0.3049836    0.1932796 -47.06 0.0007510575    1.684    0.406
       419  -8.8690    121.8730     65.6998   4.9107113574e+01   4.4900726110e+01    0.2982206    0.2442889 -67.18 0.0007749734    1.518    0.341
       420  -8.5804    115.9431     72.6008   5.2862368908e+01   4.4812999102e+01    0.2747445    0.1927198 -55.27 0.0006272178    1.592    0.372
       421  -8.9032     37.3077     63.9033   7.4318621630e+01   5.8116331364e+01    0.2720793    0.1715894 -77.60   0.00115156    1.982    0.495
       422  -8.9320    110.2516     63.5633   5.1563083692e+01   4.7656653984e+01    0.2844624     0.225734 -70.06 0.0006684262    1.666    0.400
       423  -8.6401     64.8886     62.6866   6.4972335701e+01   5.5282226253e+01    0.3896106    0.2227614 -14.45  0.001585164    3.344    0.701
       424  -7.9163    158.2229     61.5908   3.9004161332e+01   3.7271986276e+01    0.2073615    0.1412492  43.00 0.0003111153    1.472    0.320
       425  -9.1095     97.6817     60.5030   5.4154245576e+01   5.0597036402e+01    0.2609437    0.2393006  54.80 0.0008735681    1.269    0.212
       426  -8.6180     89.2681     59.7179   5.6407962847e+01   5.2212448409e+01     0.240237    0.1556447 -44.24  0.000536341    1.420    0.296
       427  -9.6177     73.4128     59.0606   6.1136676759e+01   5.4826640988e+01    0.3759578    0.2297452 -58.59  0.001237599    1.867    0.465
       428  -9.8095     23.4428     56.2471   7.7121432043e+01   6.0865314156e+01    0.3983642    0.2365987 -88.32  0.002038649    2.727    0.633
       429  -9.4927      7.6065     56.8493   8.2656886643e+01   6.1782491222e+01    0.2978235    0.1767572 -86.25  0.001397706    2.019    0.505
       430  -8.0359    130.7406     57.2084   4.4018829550e+01   4.4487291347e+01    0.2370002    0.1794053 -49.80 0.0006339545    1.457    0.314
       431  -7.6800    193.5493     56.5225   3.0491676134e+01   2.9075802011e+01    0.1523997    0.1473278  13.41  9.73416e-05    1.022    0.022
       432  -8.3480    140.1600     55.9616   4.1289459254e+01   4.2542052392e+01    0.2747659    0.1680262 -40.84 0.0006923514    1.653    0.395
       433  -8.9463    119.2502     55.2523   4.6334186200e+01   4.7323939658e+01    0.4242528    0.2262007 -46.95  0.001575007    2.058    0.514
       434  -8.7353     44.1390     55.2195   6.9714244879e+01   5.9229272234e+01    0.2614224    0.1511994 -57.71 0.0009093549    1.564    0.360
       435  -9.3897     62.8617     54.3321   6.3092258303e+01   5.7212306863e+01    0.3365789    0.1659937 -53.91 0.0006224864    2.002    0.500
       436  -8.9268     54.2836     53.7701   6.5811195846e+01   5.8393474087e+01    0.3404033    0.1981748 -68.53  0.001131475    2.595    0.615
       437  -8.6091    105.8784     53.0849   4.9276272791e+01   5.0419071893e+01    0.2112716    0.1919062 -55.96 0.0004662597    1.264    0.209
       438  -9.5769     92.4716     50.3451   5.2266896309e+01   5.3399971917e+01    0.4134732    0.2249398 -47.59  0.001122956    1.910    0.476
       439  -8.3911    144.6212     48.7989   3.7819947095e+01   4.2634112382e+01    0.2167117    0.1339393 -40.59 0.0005703577    1.663    0.399
       440  -8.3514    129.7349     48.9780   4.1447298723e+01   4.6082900571e+01    0.2146906    0.1804439 -24.76 0.0004662998    1.150    0.131
       441  -8.6031    120.8836     47.3042   4.3125132473e+01   4.8313653066e+01    0.2479673    0.1891813 -39.55 0.0005585427    1.324    0.245
       442  -8.1414    112.5103     46.7268   4.5168704291e+01   5.0179563679e+01    0.1910784    0.1306998 -43.84 0.0004820974    1.524    0.344
       443  -9.0087     82.2143     46.0823   5.3952467180e+01   5.5911040859e+01    0.3012372    0.2152014 -58.21 0.0008049178    1.790    0.441
       444  -8.3963     45.1195     44.6020   6.6149014487e+01   6.1219332357e+01    0.2089336    0.1443166 -54.15 0.0006987745    1.365    0.267
       445  -8.9022     16.8845     44.6410   7.6546247505e+01   6.3682352973e+01    0.2183574    0.1379628 -63.75  0.000620661    1.406    0.289
       446  -7.8846     32.3684     44.2779   7.0711728777e+01   6.2537971256e+01    0.1228243   0.07492956 -28.69 0.0007009623    1.683    0.406
       447  -8.4693    132.8209     42.8603   3.8523486752e+01   4.6335899934e+01    0.2621546    0.1922246 -34.47 0.0006475031    1.356    0.262
       448  -8.7215     92.8663     42.2958   4.9239693248e+01   5.4732423599e+01     0.275555     0.169913 -11.68  0.001233811    2.110    0.526
       449  -9.3580     69.6345     41.3647   5.6394221746e+01   5.8706133813e+01     0.324966    0.2337923 -61.23  0.001069556    1.892    0.472
       450  -9.0668     58.1784     42.2897   6.0696931981e+01   6.0113688811e+01    0.3073432    0.1985007 -60.97  0.001260651    2.027    0.507
       451  -9.7775      5.0747     41.1645   8.0073136655e+01   6.5090240702e+01    0.4858677    0.1807304 -70.69  0.002181204    3.110    0.678
       452  -7.6688    140.3206     41.2725   3.6188562228e+01   4.4805713899e+01    0.1537811    0.1090657  23.59 0.0002880181    1.570    0.363
       453  -8.7596    105.9257     41.0922   4.4944089487e+01   5.2439112996e+01    0.2125867    0.1853773 -50.06 0.0005993655    1.331    0.248
       454  -8.7708     36.9721     40.9127   6.7957055905e+01   6.2761063266e+01    0.1868246    0.1501002 -43.45 0.0005954577    1.069    0.064
       455  -8.3213     95.7447     38.0438   4.6766017431e+01   5.4904085850e+01    0.2061623    0.1772543 -43.80 0.0006176015    1.292    0.226
       456  -8.3083     80.8553     36.5215   5.0838598231e+01   5.7787769296e+01    0.2611672    0.1588019 -49.41 0.0008998398    1.910    0.477
       457  -8.8464    153.0977     35.3973   3.1338200849e+01   4.2493980100e+01     0.244936    0.1978345  -0.28 0.0004315691    1.303    0.233
       458  -9.2703     26.1873     35.2855   7.0276560615e+01   6.4802841694e+01    0.2598839    0.1729711 -65.61 0.0008762132    1.726    0.421
       459  -8.1097    126.0263     35.3300   3.7441507432e+01   4.9010762615e+01    0.1993201    0.1800502  31.83 0.0003744259    1.084    0.077
       460  -8.5680    111.9634     34.4841   4.0765756864e+01   5.2220106966e+01    0.2645497    0.1861272 -44.74 0.0006629939    1.591    0.372
       461  -7.9260     88.5645     34.0137   4.7403355785e+01   5.6865224719e+01    0.2078603    0.1213512 -34.20  0.001015656    1.568    0.362
       462  -8.2406    119.0756     33.0032   3.8320172591e+01   5.0901195738e+01    0.2146087    0.1731289 -59.80 0.0004742085    1.616    0.381
       463  -8.6398     60.7956     32.3695   5.6103548489e+01   6.1533842379e+01    0.2364967    0.1785258 -56.44 0.0007531177    1.695    0.410
       464  -8.8489     48.6574     33.1164   6.0859897174e+01   6.2951535549e+01     0.176326    0.1688165 -21.31 0.0006381181    1.280    0.219
       465  -8.6238     72.2149     30.9567   5.1536085550e+01   6.0096044008e+01    0.1918803    0.1617009 -40.73 0.0005449777    1.290    0.225
       466  -9.1411     13.0821     30.0398   7.3868421950e+01   6.6770212994e+01    0.2886769    0.1589092 -65.86  0.001321875    1.963    0.491
       467  -8.1528    101.9315     29.3405   4.1545454189e+01   5.5038384814e+01    0.1896517    0.1710588  20.79 0.0006365901    1.103    0.093
       468  -7.7995     42.3040     29.6904   6.2010121009e+01   6.4282321240e+01    0.1078296   0.09275979 -66.92 0.0003524615    1.609    0.378
       469  -8.8255     81.6424     27.2008   4.6865586376e+01   5.9140231062e+01    0.2814929    0.2012453 -50.50 0.0009374854    1.787    0.440
       470  -9.1328      4.1201     27.4683   7.6790719903e+01   6.7794484829e+01    0.2340361    0.1663625 -82.14  0.001199658    1.901    0.474
       471  -7.9442    110.0000     27.0634   3.8396956301e+01   5.3696774087e+01    0.2268254   0.07606008 -29.68 0.0005955134    2.879    0.653
       472  -8.7922     91.9695     26.4413   4.3307899933e+01   5.7392598750e+01    0.2482011     0.174092 -42.07 0.0006687772    1.564    0.361
       473  -8.2041    104.2219     22.4447   3.8106338941e+01   5.5529081712e+01    0.1765311    0.1360517  63.21 0.0009359642    1.629    0.386
       474  -9.0804     63.7150     20.8213   5.0312808854e+01   6.2985640367e+01    0.2822162    0.1875439 -45.73  0.000781976    1.720    0.419
       475  -8.8394     48.3266     21.4090   5.6359252560e+01   6.4987445718e+01    0.2204833    0.1663892 -41.70 0.0008191533    1.334    0.251
       476  -7.8654     34.4927     22.5386   6.2379697935e+01   6.6352094225e+01    0.1185016   0.09359087 -32.02 0.0002888229    1.061    0.057
       477  -8.0333    120.6224     20.8331   3.3197062671e+01   5.2176124556e+01    0.2037459    0.1205591 -36.28 0.0009388772    1.763    0.433
       478  -7.8327     19.5610     21.4800   6.8261862870e+01   6.7876202819e+01    0.1148436   0.08592228 -38.33 8.695968e-05    1.032    0.031
       479  -8.8281     74.1981     19.2577   4.5962810784e+01   6.1569482368e+01    0.2654104    0.1807789 -37.76 0.0007478398    1.489    0.328
       480  -7.9139     39.0076     18.2749   5.8778484435e+01   6.6589626440e+01    0.1619975    0.1299498 -21.17  0.000447807    1.055    0.052
       481  -7.8522    112.8270     16.7919   3.3502691092e+01   5.4405504404e+01    0.1766042    0.1609987 -39.54 0.0003962899    1.283    0.220
       482  -8.1926     87.9895     17.0593   4.0553082335e+01   5.9436043443e+01    0.1930025    0.1562784 -51.33 0.0004716497    1.660    0.398
       483  -8.3231     30.0289     15.9295   6.1569152316e+01   6.7910798811e+01    0.1582216    0.1365139 -62.10 0.0006224114    1.685    0.407
       484  -9.4168    211.3325    246.7951   6.8365512674e+01  -2.6107009111e+00    0.2867764     0.209955 -63.84  0.001594904    2.697    0.629
       485  -7.9744     17.0350     13.9485   6.6489931748e+01   6.9387165000e+01    0.1378699    0.1001671 -34.66 0.0004123127    1.011    0.011
       486  -7.8117    189.2320     12.9777   1.7734476818e+01   3.5704807900e+01    0.1889898    0.1840183  -8.39 0.0003562141    1.076    0.071
       487  -7.7040    119.7219     11.3187   2.9589944763e+01   5.3477822110e+01    0.1322728    0.1066812 -53.38 0.0003875883    1.576    0.366
       488  -7.9089    191.5022    249.4935   7.1867761612e+01   2.3112064417e-01    0.1119279   0.08252035  42.23 0.0008098719    1.063    0.059
       489  -9.2392    175.4239    247.7197   7.4216524063e+01   2.9744137898e+00    0.2551265    0.1737612  61.39  0.001156625    1.627    0.386
       490  -8.9969    156.3180    247.9807   7.7306106418e+01   5.9516292326e+00    0.1987121    0.1502276  82.15 0.0007029253    1.720    0.419
       491  -8.2627    113.3718    248.5964   8.4162270901e+01   1.2345775629e+01    0.1700297   0.09621946 -71.92  0.001117789    2.244    0.554
       492  -8.3827     93.9005    248.9011   8.7191727385e+01   1.5030305530e+01    0.1930917    0.1035738  75.66  0.001015329    2.100    0.524
       493  -9.2803    243.2292    246.0246   6.3261052716e+01  -7.4381782086e+00    0.3096462    0.1705544  -9.30  0.001929425    2.260    0.558
       494  -8.7026    218.5062    247.0276   6.7263039154e+01  -3.7548288197e+00    0.2205554    0.1081503 -33.74  0.001333295    2.629    0.620
       495  -8.6590    132.1020    247.5624   8.1119646012e+01   9.7256712981e+00    0.2051094    0.1348143  72.61  0.000742574    1.695    0.410
       496  -9.0470    103.8677    246.6253   8.5468623713e+01   1.3975057532e+01    0.3095133    0.1557471 -79.57   0.00181832    2.805    0.643
