#   1 NUMBER                 Running object number                                     
#   2 MAG_AUTO               Kron-like elliptical aperture magnitude                    [mag]
#   3 X_IMAGE                Object position along x                                    [pixel]
#   4 Y_IMAGE                Object position along y                                    [pixel]
#   5 X_WORLD                Barycenter position along world x axis                     [deg]
#   6 Y_WORLD                Barycenter position along world y axis                     [deg]
#   7 A_WORLD                Profile RMS along major axis (world units)                 [deg]
#   8 B_WORLD                Profile RMS along minor axis (world units)                 [deg]
#   9 THETA_WORLD            Position angle (CCW/world-x)                               [deg]
#  10 FWHM_WORLD             FWHM assuming a gaussian core                              [deg]
#  11 ELONGATION             A_IMAGE/B_IMAGE                                           
#  12 ELLIPTICITY            1 - B_IMAGE/A_IMAGE                                       
         1 -12.8415     21.8277     58.9128   6.6730744942e+01   6.2220218621e+01     1.254491    0.7431334  87.13  0.006461247    2.318    0.569
         2 -13.3110     14.9005     23.2875   5.9286919138e+01   7.0189469579e+01    0.9582002    0.7767197  50.45  0.005230199    1.765    0.433
         3 -13.0995      2.8856     40.8034   7.0207517824e+01   6.7338361713e+01     1.652938    0.3073443 -64.58  0.006341381    3.490    0.713
         4 -13.2870     14.4330     43.0418   6.5765188040e+01   6.6201437392e+01    0.7395251    0.7021999  53.91  0.003938784    1.355    0.262
         5 -13.7778    176.6757     40.3816   1.3951743979e+01   3.5361620833e+01      1.87927    0.9598184 -53.87  0.006883467    2.308    0.567
         6 -12.8579    168.2513     29.5048   1.1763346610e+01   3.9235700926e+01     1.061026    0.7710776  69.73  0.004422049    1.345    0.257
         7 -13.5462      9.4372      8.2962   5.6046190816e+01   7.3358423203e+01    0.8762282    0.6415594  -4.27  0.006188164    1.445    0.308
         8 -12.5813    157.3417      9.3679   6.4902534539e+00   4.4678836664e+01    0.9495123    0.4815579 -51.78    0.0037659    2.294    0.564
         9 -11.6186     72.5237      8.1916   2.6268203437e+01   6.5106450149e+01    0.4896809    0.4030321 -29.47  0.002383706    1.250    0.200
        10 -11.0906     58.4298      7.9318   3.1489067510e+01   6.7616555339e+01     0.493488    0.2554787 -20.40  0.002403215    2.010    0.502
        11 -11.3290     46.3895      6.0207   3.5628609885e+01   6.9735432806e+01    0.4763472    0.3199954  48.39  0.002807842    1.967    0.491
        12  -8.8053     37.3084    235.3260   8.2223642627e+01   2.2548551197e+01   0.08557831   0.07658102  88.36 0.0007037824    1.654    0.395
        13 -12.3820      5.0284    246.5985   8.7600712564e+01   2.4240889828e+01    0.4167634    0.2488849  66.97  0.002167244    1.017    0.017
        14 -11.7707     10.7824    244.2012   8.6681694292e+01   2.4035108251e+01     0.365736    0.1958712  82.02  0.002242622    1.405    0.288
        15 -13.3932     92.5796    220.8647   7.1742493256e+01   1.7561967686e+01     1.560741    0.9919096  68.48  0.008299997    1.344    0.256
        16 -13.8825    100.4400    172.7717   6.4674054560e+01   2.5563559533e+01     1.573982     0.896933  83.61  0.007098212    2.292    0.564
        17 -13.3894    116.9169    208.7500   6.5944117865e+01   1.5793320703e+01     1.506795    0.8224704 -50.56  0.008007913    2.361    0.577
        18 -13.7168    110.3743    193.6586   6.5376976152e+01   1.9674483460e+01     1.805337     1.383981 -20.54  0.009544439    2.595    0.615
        19 -11.9720     61.8858    197.6017   7.5353707599e+01   2.6347350094e+01    0.6195099    0.3336278  74.52  0.003001911    1.711    0.415
        20 -13.2557     97.9224    192.3084   6.7712707140e+01   2.2007368088e+01    0.9041674    0.6347167 -38.87  0.004868244    2.411    0.585
        21 -14.2612     89.9079    185.5598   6.8543851971e+01   2.4642290815e+01     1.705201    0.9376261 -59.93  0.008973666    1.960    0.490
        22 -11.4156     26.1424    226.5647   8.3582974770e+01   2.5357684737e+01    0.3839892    0.2322643  77.33  0.002628713    1.201    0.167
        23 -14.4825      6.5338    209.5721   8.6038707303e+01   3.0501428978e+01     1.946632    0.5863835 -80.26   0.01036696    2.748    0.636
        24 -12.1893     26.2378    154.1300   7.8924311325e+01   3.9833123816e+01    0.7006167      0.42356  69.79  0.004299235    1.393    0.282
        25 -14.4722     22.2731    167.4584   8.0812247183e+01   3.7331048776e+01     1.495834    0.6464654  74.20  0.007679203    2.149    0.535
        26 -14.5000     13.4970    156.6004   8.1872322081e+01   4.0518070432e+01     1.765599    0.6130347  81.50  0.007525275    3.142    0.682
        27 -13.2313      4.4982    185.7390   8.5335693515e+01   3.5274334269e+01    0.5806724    0.2539872  87.92  0.002787233    1.767    0.434
        28 -14.9885      8.2115    176.3482   8.4162041849e+01   3.6829689690e+01     2.043178    0.7560619  58.50   0.01115117    2.165    0.538
        29 -14.4383      4.4335    159.1975   8.3932400885e+01   4.0755751932e+01     1.448731    0.5100448 -84.23  0.007324923    2.247    0.555
        30 -10.8933    107.7435    225.3548   6.9448449608e+01   1.4444118010e+01    0.3512776    0.2140934 -75.52  0.002138082    1.910    0.477
        31 -10.6273    241.6667    226.6718   4.6287751035e+01  -7.9042568182e+00    0.1202828   0.06954177  17.06 0.0007051788    1.719    0.418
        32 -10.1522     49.2431    225.5101   7.9699865572e+01   2.2785708675e+01    0.2267217    0.1233937 -84.37  0.001373649    1.705    0.414
        33 -10.9033     44.6643    221.9873   8.0257342431e+01   2.3985639444e+01    0.3634719     0.215268  37.77  0.002222341    1.980    0.495
        34 -11.7223    130.4528    220.6434   6.4818816387e+01   1.1505612841e+01    0.3529395    0.3218375 -14.62  0.002206909    1.649    0.394
        35 -11.7926    177.1753    217.5363   5.5901188161e+01   3.8744965303e+00    0.3966555    0.2259812 -56.13  0.002104766    2.543    0.607
        36 -14.4801     27.9679    201.9288   8.1962102307e+01   2.9696499189e+01     1.275781    0.6776754  73.74  0.005884423    1.446    0.308
        37 -12.8666     42.4158    183.9688   7.8008612184e+01   3.1610862788e+01     0.864826    0.4557589  46.52  0.004827838    1.704    0.413
        38 -12.3882     50.9530    193.5354   7.7112411463e+01   2.8599925093e+01    0.5952054    0.3642507 -79.95  0.002932202    1.476    0.322
        39 -13.2280     47.6211    211.0109   7.9030008366e+01   2.5631231364e+01    0.7499586    0.5274272 -88.24   0.00372935    1.288    0.224
        40 -13.2893     44.1021    200.6486   7.8944302954e+01   2.8052119688e+01     1.059509     0.371757  47.12  0.005470205    2.220    0.550
        41 -11.9393    148.1026    211.5457   6.0404238569e+01   9.9204445596e+00    0.5400735    0.4555364 -69.07  0.003586724    1.417    0.294
        42 -12.7299    232.7806    208.2195   4.4729128739e+01  -4.4965702231e+00    0.4357806    0.3143861  33.61  0.002839582    1.159    0.137
        43 -12.2931    135.3798    207.7327   6.2300652685e+01   1.2794435518e+01    0.5011021    0.4424747  41.31  0.002765358    1.250    0.200
        44 -13.2062    210.5334    199.3033   4.7037544434e+01   4.4337367291e-01     1.075907    0.5592846 -31.63  0.005495797    2.237    0.553
        45 -12.2567    182.6283    196.1245   5.1594083051e+01   6.0256364199e+00    0.8180355    0.5234631 -17.69  0.004052708    2.411    0.585
        46 -13.7436    230.7625    197.2342   4.3164523687e+01  -2.8384583765e+00     0.819024     0.416557 -21.14  0.004065504    2.390    0.582
        47 -13.0013    244.4186    194.8951   4.0462889317e+01  -4.8575874938e+00    0.6970882    0.4363564  -0.47  0.003943107    1.774    0.436
        48 -13.2285     78.8645    178.0325   6.9962987916e+01   2.7911226748e+01     1.331906    0.5923575 -53.50  0.005321987    2.740    0.635
        49 -11.8009    188.7492    202.8201   5.1552183746e+01   3.8979979632e+00    0.3970662    0.3242361  44.22   0.00175892    1.085    0.078
        50 -13.0301    223.5840    181.7504   4.1565735455e+01   4.6038981284e-01    0.7501588    0.5324113  54.14  0.004202487    1.622    0.383
        51 -13.1654     68.5704    165.5056   7.0716850826e+01   3.2126286988e+01     1.708961    0.9104153  38.42  0.008667102    2.016    0.504
        52 -10.3692    161.7924    180.3967   5.2991008451e+01   1.2629161646e+01    0.2027093    0.1176308  38.39 0.0008013649    1.666    0.400
        53 -13.7483    231.3487    169.8484   3.7897318831e+01   6.7220634573e-01     1.021629    0.7608359 -63.94  0.005325775    2.261    0.558
        54 -11.4368     43.0638    174.7667   7.7113402838e+01   3.3464576942e+01    0.4009535    0.2744826  35.96  0.002507076    1.794    0.443
        55 -11.7858    156.1021    173.0974   5.2879030423e+01   1.5080784537e+01    0.4036917    0.2611647  46.66   0.00202486    1.376    0.273
        56 -13.2915     70.6633    205.1098   7.4345326483e+01   2.3670159750e+01     1.013738    0.5567961  66.00  0.004814939    1.550    0.355
        57 -13.3881    244.7640    162.0645   3.4050964086e+01  -7.3807078046e-01    0.7269637    0.5262777   2.99  0.004124494    1.404    0.288
        58 -10.2985     40.0037    166.3967   7.7016382229e+01   3.5630425967e+01    0.1992971    0.1425836 -71.32  0.000476253    1.389    0.280
        59 -10.1936     47.8132    161.0107   7.4807026322e+01   3.5880677644e+01    0.1735891    0.1452647 -75.86 0.0004892191    1.299    0.230
        60 -12.0222     97.4947    156.1205   6.2877995232e+01   2.9673584318e+01    0.6007568     0.479723 -64.05   0.00342477    1.296    0.229
        61 -12.0529    169.0474    153.3806   4.6419151393e+01   1.6111034684e+01     1.024447    0.5351709 -39.64  0.004300836    2.143    0.533
        62 -11.1725    214.3950    156.6950   3.8209261417e+01   5.9445367819e+00    0.3598258    0.2656391 -39.81  0.001916129    1.451    0.311
        63 -11.4914     75.9238    135.5718   6.4820393920e+01   3.7891661569e+01    0.6849528    0.3446507 -83.96  0.001258457    2.642    0.622
        64 -10.2011     69.7008    152.5771   6.8835686870e+01   3.4863132982e+01    0.3004803     0.176173  40.67  0.001550951    1.789    0.441
        65 -12.5792     74.8125    147.7017   6.6949142972e+01   3.5230092052e+01     1.209567    0.5587603  38.74  0.005424156    2.292    0.564
        66  -9.2993     60.8391    153.3625   7.0999951774e+01   3.5921455394e+01    0.1490141    0.1211141  38.24 0.0003217878    1.516    0.340
        67 -11.9195     45.5862    148.6860   7.3999120408e+01   3.8927882993e+01    0.3336779    0.2660358 -20.17  0.001232418    2.243    0.554
        68 -11.2546     21.9292    145.2617   7.9126011613e+01   4.2239096317e+01     0.325817    0.2870406  46.70  0.001811354    1.455    0.313
        69 -11.3526      1.7503    127.0451   8.2350092784e+01   4.8017708008e+01    0.6145864    0.1234561 -77.57  0.002296577    3.730    0.732
        70 -11.6857    250.0273    123.0625   2.4649481451e+01   3.8363511218e+00     1.132284    0.1690053 -31.64  0.002570677    7.143    0.860
        71  -9.9202     88.9873    123.4828   5.9284244282e+01   3.8668288243e+01    0.2062822    0.1400242  43.66  0.000730557    1.550    0.355
        72 -11.7580    171.8440    102.2943   3.3681413996e+01   2.5571139808e+01     0.334388    0.2904509  88.57   0.00162515    1.253    0.202
        73 -11.5652    164.7340     92.3212   3.2464421194e+01   2.9341553133e+01    0.5591607    0.3748501 -38.59  0.002391818    1.499    0.333
        74 -11.3385    247.7619     88.3355   1.6611841377e+01   9.5982917898e+00    0.3381171    0.1914805  76.29  0.001375619    2.668    0.625
        75 -12.3903    148.9703     81.0494   3.2759641093e+01   3.5572869993e+01    0.9070521    0.7894423 -62.06  0.004109039    1.166    0.143
        76 -11.5287     31.5912     83.8568   6.8495921542e+01   5.5685756311e+01    0.6530535    0.2278371 -70.73  0.002619123    2.677    0.626
        77 -11.8224    126.7432     74.8111   3.6406912391e+01   4.2225857504e+01    0.7732989    0.5614522  59.16  0.003529944    1.463    0.316
        78 -10.3309     37.6845     76.4992   6.4951254704e+01   5.6824159109e+01    0.2502037    0.2052939  82.18  0.001570344    1.317    0.241
        79 -11.0203    247.1439     75.7070   1.3518534773e+01   1.1662618427e+01    0.2323158    0.1860479 -76.96  0.001220881    1.431    0.301
        80 -11.6047    124.7704    243.1658   6.8246592453e+01   8.9740539884e+00    0.5925483    0.2419537  48.26  0.003172896    1.791    0.442
        81 -11.1630    122.4007    238.8340   6.8221898650e+01   9.9894869467e+00    0.5545431    0.1961389  47.79  0.002725882    2.084    0.520
        82 -11.6943    151.1695    241.0828   6.3512337111e+01   5.0248241399e+00    0.4282624    0.2857136  42.25  0.002207075    1.198    0.165
        83 -10.5429     32.1841    242.3322   8.3373286201e+01   2.1977874686e+01    0.2607311    0.1136067  59.08   0.00124607    1.547    0.354
        84 -13.5221    212.1656     63.8236   1.5312080460e+01   2.2110160998e+01    0.9058009    0.6573183 -85.95  0.004127202    1.622    0.384
        85 -12.7979    226.0495     57.3603   1.1506812688e+01   1.9550046769e+01    0.5467705     0.347934 -35.92  0.002502487    1.450    0.310
        86 -11.2268     51.2533     54.3658   5.4100895069e+01   6.0295287900e+01    0.4717527    0.3512409  89.54   0.00254975    1.906    0.475
        87  -9.9677     38.7677    241.2559   8.2295723929e+01   2.1379167595e+01    0.3002735   0.08844091  61.44  0.001507695    2.742    0.635
        88 -11.4124    103.6247    235.3402   7.1129430030e+01   1.3460632271e+01    0.3804528    0.2916171 -85.19  0.002249783    1.420    0.296
        89 -11.6899     35.1317     49.7657   5.9021229651e+01   6.3071429749e+01    0.5421273    0.3412657  34.63  0.003120524    1.911    0.477
        90 -10.1902    240.2499     45.9017   6.6631457249e+00   1.7687136638e+01    0.3143854    0.1702717  47.31  0.001183765    2.231    0.552
        91 -13.5417    195.9576     38.2081   1.0206761703e+01   3.0363782586e+01     1.105934    0.5706264 -68.94   0.00379119    2.872    0.652
        92 -10.0043     37.3019     41.8718   5.5589858586e+01   6.4510208659e+01    0.2470392    0.1439123  28.33  0.001357139    2.040    0.510
        93 -12.1872     27.9385     39.9584   5.8975712647e+01   6.5807131086e+01      0.45788     0.303586 -73.59  0.002618113    1.805    0.446
        94 -11.8480      3.1075    236.6160   8.7565492746e+01   2.6077065068e+01    0.2926404    0.1423399  86.03  0.001127944    1.579    0.367
        95 -11.3560    244.7805     21.6097   3.5991130235e+02   1.9814095973e+01     0.570976    0.2372299 -56.93  0.002205879    2.552    0.608
        96 -10.4466    141.4054     24.0717   1.4799606113e+01   4.7251170401e+01    0.4033426    0.2410683  79.02   0.00165222    2.044    0.511
        97 -11.2249     41.5519     21.0066   4.5410844642e+01   6.8010716772e+01    0.2863824    0.1986856 -61.18  0.001602262    2.009    0.502
        98 -10.1675     73.2878    234.8981   7.6278836869e+01   1.7973405526e+01    0.2575438    0.1578236  80.85    0.0014109    1.482    0.325
        99 -11.2274     68.2417    229.7740   7.6760213571e+01   1.9537802814e+01    0.5143763    0.3160122  46.12  0.003426817    1.466    0.318
       100 -12.3521     68.7050    219.7205   7.5919942331e+01   2.1239426847e+01    0.7752113    0.3544495  59.38   0.00353844    1.754    0.430
