#   1 NUMBER                 Running object number                                     
#   2 MAG_AUTO               Kron-like elliptical aperture magnitude                    [mag]
#   3 X_IMAGE                Object position along x                                    [pixel]
#   4 Y_IMAGE                Object position along y                                    [pixel]
#   5 X_WORLD                Barycenter position along world x axis                     [deg]
#   6 Y_WORLD                Barycenter position along world y axis                     [deg]
#   7 A_WORLD                Profile RMS along major axis (world units)                 [deg]
#   8 B_WORLD                Profile RMS along minor axis (world units)                 [deg]
#   9 THETA_WORLD            Position angle (CCW/world-x)                               [deg]
#  10 FWHM_WORLD             FWHM assuming a gaussian core                              [deg]
#  11 ELONGATION             A_IMAGE/B_IMAGE                                           
#  12 ELLIPTICITY            1 - B_IMAGE/A_IMAGE                                       
         1  -7.3210    116.9461     19.9475   4.9120191495e+01   5.2846018362e+01    0.1527631    0.1358353  54.13            0    1.013    0.013
         2  -7.4966    212.1453     10.8590   3.3657499892e+01   3.1522663639e+01     0.148526    0.1311577  80.08 0.0002587026    1.252    0.201
         3  -8.4508    166.9840      2.0954   3.5926543451e+01   4.2756486712e+01    0.1842405    0.1668614 -81.11 0.0003588657    1.125    0.111
         4  -8.5297    237.1017    243.6593   7.8020728500e+01  -9.9102777890e+00    0.1775507      0.13713 -25.64 0.0005245137    1.318    0.242
         5  -7.6889     84.7659    250.4601   1.0885907645e+02   1.0848248351e+01    0.2339569   0.09431005  41.48 0.0007194479    1.981    0.495
         6  -8.0090      7.1649    242.2924   1.2330827056e+02   2.1861595374e+01    0.1478023    0.1319138  43.02 0.0007544863    1.460    0.315
         7  -9.1771    197.0941    231.0122   8.3317654850e+01  -2.6763610779e+00    0.2920267     0.261124  87.44  0.001850446    1.756    0.430
         8 -10.3133    217.1631    225.1299   7.8544265936e+01  -4.6603646415e+00    0.2186615    0.1922769   0.39            0    1.118    0.106
         9  -9.1228    185.6710    225.3436   8.4642193082e+01  -3.0462380504e-02    0.3271303    0.1997273  41.78  0.000807837    1.628    0.386
        10  -6.7814     77.2568    222.3228   1.0757858342e+02   1.7579468014e+01    0.1168111     0.101026 -34.96 0.0001614564    1.547    0.354
        11  -8.8668    186.7217    220.7412   8.3671681627e+01   5.8398157661e-01    0.2322134     0.199848   4.21 0.0003980908    1.067    0.063
        12  -8.8161    187.2957    216.1439   8.2781343326e+01   1.2833597063e+00    0.2188654     0.197756  26.49 0.0003203956    1.127    0.112
        13  -7.4313    108.3030    219.2347   1.0029447250e+02   1.3567697693e+01    0.1805908    0.1224428 -72.78 0.0009308663    1.698    0.411
        14  -6.8177     10.3180    216.6684   1.2134871140e+02   2.6862092320e+01     0.130038   0.06591052  64.62 0.0007047774    1.690    0.408
        15  -7.9368    213.9925    213.3038   7.7098228295e+01  -2.3507956437e+00    0.1916381    0.1624094 -33.48 0.0004787287    1.259    0.206
        16 -10.2303    154.1892    210.2753   8.8742540516e+01   7.8184513185e+00     0.257027    0.2305919 -50.49 0.0002956191    1.221    0.181
        17  -8.4508    106.0551    206.3114   9.9032428876e+01   1.6696112597e+01    0.2220194    0.1921273 -84.47  0.000267273    1.197    0.165
        18  -6.8793     44.6597    206.3000   1.1322869259e+02   2.5446550861e+01    0.1400044   0.08017228  63.70 0.0004466971    1.668    0.400
        19  -8.5981    176.8521    195.6626   8.1314833121e+01   6.7642771809e+00    0.2378115    0.2063952 -26.08 0.0003223126    1.151    0.131
        20  -7.9997    162.2352    193.2314   8.4021543540e+01   9.8140567147e+00    0.3273761    0.1869198 -50.45  0.001479878    1.862    0.463
        21  -9.3805     38.5808    194.7075   1.1353249567e+02   2.8850332111e+01    0.2239437    0.2025953 -84.27  0.001348017    1.173    0.147
        22  -7.4379     85.4993    184.0123   1.0077684035e+02   2.5096929789e+01    0.2041126    0.1366058 -65.07 0.0004010814    1.483    0.326
        23  -8.0159    104.0816    182.9963   9.5958179789e+01   2.2341350394e+01    0.2153878     0.202348  69.45 0.0003241695    1.005    0.005
        24  -7.7349    109.5201    179.4686   9.4009899170e+01   2.2248221910e+01    0.2691288    0.1422261 -55.28 0.0007393557    1.910    0.476
        25  -8.8987     40.6149    179.0689   1.1144725283e+02   3.2366673062e+01    0.2158779    0.1849239  46.65 0.0001975902    1.232    0.188
        26  -7.6053    101.0293    175.9991   9.5570014276e+01   2.4519650861e+01    0.1724655    0.1614708  68.14  0.000955513    1.016    0.016
        27  -7.3733    135.9951    165.0261   8.4734379325e+01   2.0795107622e+01    0.1753294    0.1712053 -67.94 0.0009533137    1.029    0.028
        28  -9.7097    183.0116    142.6749   6.9204950871e+01   1.6284773010e+01    0.3104905    0.2285629 -39.06  0.001094878    1.315    0.240
        29  -8.7501    126.3776    140.5818   8.1993201780e+01   2.8383711542e+01    0.2652722     0.252263 -18.93 0.0003769457    1.135    0.119
        30  -7.9425    187.9949    139.9521   6.7579300974e+01   1.5826189612e+01     0.229624    0.2107405 -19.80 0.0007889332    1.120    0.107
        31  -7.2484    186.5158    132.5070   6.6189320824e+01   1.7635542894e+01    0.2625736    0.1391232  35.99   0.00102747    2.326    0.570
        32  -7.8991     89.2997    132.0000   9.0408857549e+01   3.7364172525e+01    0.2036823    0.1875636 -66.82 0.0004319869    1.041    0.039
        33  -7.2731     90.1859    122.9939   8.8139623510e+01   3.9426125079e+01    0.2165031    0.1715443   2.90   0.00102774    1.627    0.385
        34  -7.7491    131.7054    114.9873   7.4464597587e+01   3.3182403238e+01    0.2087989    0.1952007 -55.22 0.0002236726    1.053    0.050
        35  -8.6312     74.7238    110.1068   8.9938976555e+01   4.5102338158e+01    0.2324903    0.2108691  21.82 0.0002768425    1.184    0.155
        36  -8.0810    108.5107     99.1459   7.6636557807e+01   4.1537972808e+01    0.3741391    0.2083717  25.77  0.001363206    2.656    0.623
        37  -8.9467    188.3175     95.8616   5.7103624491e+01   2.4394024126e+01     0.352228    0.2556023 -33.09 0.0009755223    1.456    0.313
        38 -10.2443     92.4631     91.7758   7.9435482599e+01   4.6271502450e+01    0.2629971     0.253299 -13.21 0.0002712483    1.035    0.034
        39  -7.6779    103.9720     91.0593   7.5703267733e+01   4.4198989560e+01    0.2203814    0.1791562  -3.76 0.0002989198    1.507    0.336
        40  -7.7165    164.1536     84.1211   5.8717675143e+01   3.2132164260e+01    0.2058624    0.2003057   9.57 0.0002925799    1.163    0.140
        41  -7.0570    140.5471     69.5329   5.9695806080e+01   4.0308813036e+01    0.1456511    0.1410326  67.97 8.819839e-05    1.024    0.024
        42  -6.6839    202.7109     53.3059   4.4436079066e+01   2.8204398332e+01    0.1406886   0.09175495 -67.94 0.0001601846    1.572    0.364
        43  -7.7486    123.8773     47.0721   5.6626649608e+01   4.7810996806e+01    0.1968141    0.1811083 -87.51            0    1.156    0.135
        44  -7.5511    162.5085     42.8999   4.7683538360e+01   3.9183304094e+01    0.1923123    0.1375493 -34.07 0.0005008967    1.512    0.339
        45  -8.3572    155.0105     41.0415   4.8435163677e+01   4.1248016360e+01    0.2003804    0.1830122  80.97  0.000317212    1.007    0.007
        46  -9.0477    123.2203     34.9893   5.2824130858e+01   4.9624702975e+01    0.2672854     0.224085 -35.95 0.0004806365    1.295    0.228
        47  -8.5207    228.5400     29.8180   3.6298493840e+01   2.5728305514e+01    0.2140879    0.1707795  86.34 0.0004519679    1.186    0.157
        48  -7.0911    246.4384     26.4888   3.4120931256e+01   2.2475205198e+01    0.1221491   0.09116773 -66.07 0.0001174445    1.038    0.036
        49  -8.2388    240.9957     24.8571   3.4223572464e+01   2.3770386431e+01     0.196713    0.1430332 -53.98 0.0003870309    1.171    0.146
        50  -7.4518    191.6784     21.3416   3.8054564311e+01   3.4966560363e+01    0.1402082   0.08233504 -67.27 0.0007016333    1.723    0.420
        51  -7.6099    249.3058    249.6832   7.6898014587e+01  -1.2122545688e+01   0.09144928   0.08592574   6.02 0.0002444881    1.628    0.386
        52  -7.0880    190.2468     14.6711   3.6592913383e+01   3.6050628012e+01    0.1290409   0.08013973 -63.81 0.0002140728    1.543    0.352
        53  -8.4957    197.9852    248.5689   8.5895940102e+01  -5.4622778964e+00     0.183151    0.1628455 -20.75  0.001294061    1.270    0.212
