#   1 NUMBER                 Running object number                                     
#   2 MAG_AUTO               Kron-like elliptical aperture magnitude                    [mag]
#   3 X_IMAGE                Object position along x                                    [pixel]
#   4 Y_IMAGE                Object position along y                                    [pixel]
#   5 X_WORLD                Barycenter position along world x axis                     [deg]
#   6 Y_WORLD                Barycenter position along world y axis                     [deg]
#   7 A_WORLD                Profile RMS along major axis (world units)                 [deg]
#   8 B_WORLD                Profile RMS along minor axis (world units)                 [deg]
#   9 THETA_WORLD            Position angle (CCW/world-x)                               [deg]
#  10 FWHM_WORLD             FWHM assuming a gaussian core                              [deg]
#  11 ELONGATION             A_IMAGE/B_IMAGE                                           
#  12 ELLIPTICITY            1 - B_IMAGE/A_IMAGE                                       
         1 -13.7079    217.9321     27.3389   1.2481968231e+01   2.9329309456e+01    0.8695914    0.6528313 -41.22  0.003879908    1.183    0.155
         2 -11.2851     61.0698     21.4425   3.5109301129e+01   6.7387987481e+01    0.2896752    0.2473354  67.68 0.0008125624    1.131    0.116
         3 -10.5409     67.9415    214.6660   8.0676794181e+01   2.0277884321e+01     0.177234    0.1588088  42.51  0.000768011    1.070    0.065
         4 -11.9981    248.8295    245.1673   4.9138819793e+01  -3.4745657032e+00    0.2764906    0.1521849 -21.51  0.002189754    1.339    0.253
         5 -10.4619    152.6008    209.3113   6.0338701287e+01   1.0826675293e+01    0.2216074    0.1186116 -52.60  0.001142507    2.235    0.553
         6  -9.6773    164.4351    206.1817   5.7500357577e+01   9.8864577036e+00    0.2594285    0.1179458 -55.47  0.001136029    3.327    0.699
         7 -10.0090    210.9960    198.7709   4.8054646959e+01   5.5852221093e+00    0.1832652      0.13103 -22.70 0.0004948784    1.134    0.118
         8 -10.0572     69.4476    195.9594   7.8461942991e+01   2.4179166148e+01     0.414697    0.1396379 -68.66  0.001514337    3.412    0.707
         9 -10.1480    193.0070    194.8149   5.0424718052e+01   8.2122371388e+00    0.2825479    0.1599213 -61.92  0.001088383    5.371    0.814
        10 -10.7090     54.8186    191.4832   8.2037991942e+01   2.6965583385e+01     0.379183    0.2172614 -87.23  0.001255558    2.050    0.512
        11 -12.5347     53.0349    231.5270   8.5671015290e+01   1.8467140334e+01     0.365472    0.1636636 -65.90  0.001299898    2.571    0.611
        12  -9.8621     70.1764    235.9112   8.1920023577e+01   1.5806277724e+01    0.1334561   0.09149544 -61.42  0.000395647    1.761    0.432
        13  -9.6668     63.6700    181.6407   7.8514167913e+01   2.8252914998e+01    0.2049227    0.1935689   8.92 0.0002768636    1.156    0.135
        14 -12.2519     57.7153    179.8660   8.0046383181e+01   2.9422021651e+01    0.4358805    0.3438965 -27.60  0.001243121    1.567    0.362
        15 -11.7487    179.6412    168.8510   4.8387339357e+01   1.4136357307e+01    0.6896538    0.4934673  -5.33  0.003999109    1.530    0.346
        16 -10.5181    174.5480    179.5124   5.1230423099e+01   1.3024884652e+01    0.2812294    0.2155703 -33.22 0.0009653241    1.205    0.170
        17 -11.3419    172.4066    176.0105   5.1030754225e+01   1.3921526913e+01    0.3690619    0.3056383  -2.06  0.001262981    1.130    0.115
        18 -10.8920     74.0341    179.8696   7.5343438572e+01   2.7340088036e+01     0.267665    0.2317567 -70.02 0.0004975469    1.240    0.194
        19  -9.9270     71.5408    176.5069   7.5634680830e+01   2.8480865986e+01    0.2667003    0.1934695  36.80 0.0008487583    1.248    0.199
        20 -12.4231    110.8208    167.2736   6.3394219137e+01   2.4927797710e+01    0.5877308    0.3894017 -75.64  0.001061005    2.038    0.509
        21 -12.0928    123.2698    172.8569   6.1194976699e+01   2.1790420796e+01    0.3748916    0.2645227  57.20  0.001568253    1.758    0.431
        22 -12.0783    104.9378    172.5111   6.5798222123e+01   2.4651332425e+01    0.4062522    0.3475477 -35.02 0.0006491477    1.245    0.197
        23 -11.5476    139.6460    171.4591   5.7090574802e+01   1.9574818229e+01    0.2543163    0.2464242  37.97 0.0004621416    1.147    0.128
        24 -12.2184    234.1279    168.8850   3.9671327393e+01   7.1514460419e+00    0.3526369    0.1695274 -42.55  0.001402442    1.926    0.481
        25 -11.4602    130.6790    166.6456   5.8325072508e+01   2.1948403159e+01    0.3605664    0.2508191 -19.75  0.001764503    1.766    0.434
        26  -9.7648    103.2595    162.9534   6.4674845541e+01   2.7096227510e+01    0.1952624    0.1908091  59.69 0.0006349488    1.046    0.044
        27 -10.9993     61.5956    241.7892   8.4350090970e+01   1.5614321312e+01    0.1865446    0.1177134 -54.16  0.001104966    1.960    0.490
        28  -9.9635     99.5082    160.4712   6.5283192964e+01   2.8267804348e+01    0.2405061    0.1809407 -73.67  0.000219176    1.516    0.340
        29 -12.3904     94.8227    158.9495   6.6341512927e+01   2.9366900905e+01    0.4112474    0.3201187  64.02  0.001033482    1.428    0.300
        30 -10.4928    231.4460    160.4879   3.8583414430e+01   8.6342939025e+00    0.1141284   0.08666793 -25.13 4.944449e-05    1.006    0.006
        31  -8.9901    139.3144    156.2735   5.4372643874e+01   2.2714974899e+01    0.1388211    0.1061168  -7.13 0.0002017507    1.559    0.359
        32 -10.8990    113.2041    151.8411   5.9997664121e+01   2.8048456466e+01    0.5123577    0.3068586 -80.64  0.001906508    2.992    0.666
        33 -10.2624    115.2958    147.6422   5.8631154766e+01   2.8656706079e+01    0.2663303    0.1899033  61.39  0.001238103    1.702    0.412
        34 -11.8568    109.2774    145.2992   5.9792124891e+01   3.0238358846e+01    0.4838342    0.3369343  28.59  0.001612548    1.512    0.339
        35 -12.0830    133.6847    145.4232   5.3546240014e+01   2.5955318054e+01     1.025302    0.3032967 -53.73  0.003062685    4.023    0.751
        36 -12.8263     95.4422    143.8363   6.3445308855e+01   3.2952317438e+01    0.8311202    0.5886292 -31.78  0.002085048    1.727    0.421
        37  -9.2571    119.1555    143.0884   5.6703856168e+01   2.9024503618e+01    0.1944292    0.1720798  80.48 0.0002853152    1.274    0.215
        38 -11.2733     89.8323    149.1260   6.6087469811e+01   3.2565082893e+01    0.3556947    0.2874334  53.93 0.0004108911    1.244    0.196
        39 -12.6280    106.2364    132.2906   5.7961288070e+01   3.3871289275e+01    0.7612839    0.4481875 -56.26  0.003148521    1.721    0.419
        40 -11.9350    135.5340    129.4786   4.9686512437e+01   2.9046057380e+01    0.8516752    0.2686177 -50.94  0.002700323    3.310    0.698
        41 -11.9004     95.4014    131.0993   6.0895812222e+01   3.6119026347e+01    0.3132172    0.2935552 -44.73 0.0004275068    1.114    0.102
        42 -10.5588    131.0505    126.8365   5.0169207274e+01   3.0467325890e+01    0.3472175     0.198351 -43.62  0.001186115    1.722    0.419
        43 -10.4253    161.6691    126.5152   4.3335012570e+01   2.4791012453e+01    0.2638929    0.2159645 -33.40 0.0007413272    1.166    0.142
        44 -11.0656    114.4069    125.4413   5.4155813801e+01   3.3965196875e+01    0.3029673     0.283053  -7.33 0.0006777644    1.187    0.158
        45  -9.4107    150.8316    134.1411   4.7256492104e+01   2.5255164903e+01    0.2038658    0.1846903 -73.05 0.0003811633    1.230    0.187
        46 -11.8338     55.3745    236.5248   8.5446438810e+01   1.7251089698e+01    0.2358407    0.1675979  75.25 0.0008823584    1.605    0.377
        47 -10.7646    102.2627    120.5704   5.6487428718e+01   3.7444250419e+01     0.298581    0.2603894   2.66 0.0006312588    1.385    0.278
        48 -10.2241    162.3393    119.8648   4.1700886534e+01   2.5943434079e+01    0.2359812     0.199029 -63.01 0.0006519751    1.255    0.203
        49  -9.9532    159.3660    115.8597   4.1356569412e+01   2.7276347870e+01    0.2621058    0.2045276 -75.20 0.0008738731    1.572    0.364
        50 -10.1216    156.0239    111.4226   4.0968582005e+01   2.8785346713e+01    0.3123462    0.1997793 -62.50    0.0011859    1.883    0.469
        51 -10.0553    109.8978    115.8199   5.3135209155e+01   3.7094176596e+01    0.2219926    0.2085586 -19.04 0.0003125211    1.185    0.156
        52  -9.6683     92.3210    111.4600   5.7369045357e+01   4.1591361608e+01    0.2490707    0.1858468 -84.57 0.0007141898    1.607    0.378
        53 -11.8030    115.5734    108.3397   4.9680853259e+01   3.7676620653e+01    0.5112731    0.3125756  61.35  0.002087617    2.004    0.501
        54 -10.4241    134.5628    105.2689   4.4086771087e+01   3.4394511870e+01    0.3003417    0.1381968 -49.44  0.001140855    2.120    0.528
        55  -9.2291     94.1910    248.9740   7.7580408094e+01   1.0896938917e+01    0.1259173   0.09442069 -62.61 0.0007761427    1.708    0.415
        56 -11.7298    112.0719     99.2126   4.8222021779e+01   4.0477774285e+01    0.5772035    0.3376927  75.55  0.001929481    3.235    0.691
        57  -9.9282     82.3092    102.8709   5.8546485670e+01   4.5667778843e+01    0.2617727    0.2101168  57.81 0.0005158595    1.267    0.211
        58 -11.1740     74.8650     99.6699   6.0388819828e+01   4.7882938694e+01    0.3630357    0.2911557  72.37    0.0012402    1.356    0.263
        59  -9.1130    148.8858     97.8123   3.9016422781e+01   3.2889773245e+01    0.1994362    0.1631446 -71.86 0.0004213429    1.296    0.228
        60  -9.7125     67.9753     96.0168   6.2052841609e+01   5.0079992980e+01    0.2335059    0.2197242  70.71 0.0003586354    1.031    0.030
        61 -10.0838     61.8080     92.9549   6.3722273578e+01   5.1959379974e+01    0.2458102    0.2187751  39.82 0.0002449122    1.140    0.123
        62 -10.5363    127.4343     89.3724   4.1480509384e+01   3.9239767366e+01    0.2929285    0.2375567 -78.16 0.0002794119    1.327    0.247
        63  -9.4027    114.0157     88.7270   4.4717533232e+01   4.2368059492e+01    0.2122645    0.1947619  71.50 0.0003659817    1.082    0.076
        64  -9.7484     98.0055     88.0635   4.9177738400e+01   4.6038173558e+01    0.2563453    0.1891747  87.76 0.0008630352    1.708    0.414
        65 -12.2745     39.3475    232.9994   8.9047522842e+01   1.9550778176e+01    0.2024478      0.19141 -58.61  0.001350988    1.335    0.251
        66 -12.1324    168.9792     70.4505   2.8198661482e+01   3.3460827093e+01    0.6333509    0.3845378 -82.28  0.002522781    2.244    0.554
        67 -12.8105    175.5073     66.3944   2.6186929620e+01   3.2700855147e+01    0.4806177    0.4033951 -63.83 0.0008969267    1.073    0.068
        68 -12.9032     47.7455    230.0971   8.6854724262e+01   1.9294653634e+01    0.3685136    0.2493304 -76.13  0.002110232    1.735    0.424
        69 -13.7897    192.1835     53.2199   2.0787022477e+01   3.1143070934e+01     1.033085    0.8901567  33.69  0.004000718    1.622    0.383
        70 -12.2419    198.0565     47.9351   1.8889117252e+01   3.0667434242e+01    0.3813816    0.3498749  13.26  0.001339369    1.529    0.346
        71 -12.3979     59.7903    228.9815   8.3862501594e+01   1.8260891201e+01    0.2632526    0.2089905 -20.67  0.001007318    1.580    0.367
        72 -11.0894    159.2471    226.0426   6.1345175702e+01   7.3608925061e+00    0.3147545    0.1488495 -57.70  0.001456198    3.598    0.722
        73  -9.6624     87.3081    222.3305   7.6642531532e+01   1.6476248817e+01    0.2335163    0.1427609  24.28 0.0006850024    1.418    0.295
        74 -10.4156     56.6686     45.5536   4.9464216931e+01   6.4179196749e+01    0.3422394     0.219081  59.76  0.001519183    1.785    0.440
        75 -10.2195     78.5633     42.4196   3.9059125635e+01   5.9894654868e+01    0.2479224    0.2301665  81.15 0.0003919901    1.031    0.030
        76  -9.5506    114.9115     40.4776   2.8354707496e+01   5.1161478126e+01    0.2162997    0.1384095  69.62 0.0006022006    1.518    0.341
        77 -11.9413     88.7445    218.0843   7.5861256691e+01   1.7136803327e+01    0.5072434    0.3644539  21.24  0.002001424    1.249    0.200
        78  -9.4313    109.5801     37.4938   2.8366077125e+01   5.2966961953e+01    0.1460733    0.1334948 -83.59 8.819121e-05    1.022    0.021
        79 -19.5857     18.1928    146.6647   8.9642889167e+01   4.2371066201e+01     20.12196     6.314534 -84.44   0.06526497    3.352    0.702
        80 -15.5323     70.6867    143.6363   7.1122369413e+01   3.6960853063e+01     2.231185     1.898974  46.58   0.01152717    1.121    0.108
        81 -10.3358     91.0703    244.4772   7.7869164388e+01   1.1996277771e+01    0.1832412     0.142407 -37.07 0.0005539965    1.540    0.351
