#   1 NUMBER                 Running object number                                     
#   2 MAG_AUTO               Kron-like elliptical aperture magnitude                    [mag]
#   3 X_IMAGE                Object position along x                                    [pixel]
#   4 Y_IMAGE                Object position along y                                    [pixel]
#   5 X_WORLD                Barycenter position along world x axis                     [deg]
#   6 Y_WORLD                Barycenter position along world y axis                     [deg]
#   7 A_WORLD                Profile RMS along major axis (world units)                 [deg]
#   8 B_WORLD                Profile RMS along minor axis (world units)                 [deg]
#   9 THETA_WORLD            Position angle (CCW/world-x)                               [deg]
#  10 FWHM_WORLD             FWHM assuming a gaussian core                              [deg]
#  11 ELONGATION             A_IMAGE/B_IMAGE                                           
#  12 ELLIPTICITY            1 - B_IMAGE/A_IMAGE                                       
         1 -13.3085    170.6090     54.5224   6.1391331068e+01   3.5316341065e+01     1.950483     1.270465  25.48  0.005751126    2.065    0.516
         2 -13.4243    185.0125     40.0628   5.4348171618e+01   3.3671630607e+01     1.089009     0.955065 -33.12  0.003327734    1.113    0.101
         3 -12.8400    190.1721     33.8752   5.1669699462e+01   3.3141684194e+01    0.6655454    0.5744534 -38.49  0.001389232    1.116    0.104
         4 -13.9628    208.0408      8.8344   4.2169646944e+01   3.1409115007e+01     1.437223     1.136994  25.37  0.006344134    1.564    0.361
         5 -12.0700    190.0841     15.1995   4.5893801021e+01   3.5355259663e+01    0.5056866    0.3946253 -66.52  0.002576768    1.284    0.221
         6 -11.6300    241.2553      2.2667   3.7857435802e+01   2.4077540809e+01     0.760528    0.2406438  75.77  0.002990831    3.218    0.689
         7 -11.5159     59.1254      3.0032   6.8583872151e+01   6.8131648987e+01    0.4579409    0.2010169  44.23  0.002159845    2.221    0.550
         8 -11.2685     54.1698    210.3908   1.2061923307e+02   2.5029776508e+01    0.1790227     0.125096  60.57 0.0003712492    1.121    0.108
         9 -13.2272    246.7318    240.5865   8.9905749094e+01  -7.5251016981e+00     1.350497    0.5656692 -22.81  0.007662239    2.650    0.623
        10 -17.6608     41.7612    243.0021   1.2486932003e+02   2.0757807875e+01      6.66572     4.536555  33.38   0.04913919    1.816    0.449
        11 -19.1833     25.0028    102.5688   1.1622615871e+02   5.2022627801e+01     17.69691      1.31524 -69.45   0.03367684   11.633    0.914
        12 -10.7265    153.2511    184.4606   9.7561966077e+01   1.4771139493e+01    0.3105145    0.1596643 -57.83  0.001372126    2.582    0.613
        13  -9.0599     65.7156    187.1778   1.1629363657e+02   2.8131938464e+01     0.135738    0.1269291  77.42 0.0002891402    1.262    0.208
        14 -10.1358    238.3936    185.7727   8.1988214616e+01  -2.9634838586e-01    0.1719317    0.1043709 -16.56 0.0009503728    1.631    0.387
        15  -9.9579    189.0939    178.4294   8.9392172217e+01   9.2737926434e+00    0.3668294    0.2744849  69.14  0.001247947    1.979    0.495
        16  -9.8196    187.9600    173.4626   8.8666726575e+01   1.0281443932e+01    0.3265313    0.2404814 -60.91  0.001705438    1.917    0.478
        17 -10.9131    193.2745    195.6361   9.1701223262e+01   5.9120885912e+00     1.066571     0.484542 -51.63  0.004394138    3.612    0.723
        18  -9.5192     87.4684    202.8463   1.1348850093e+02   2.2056606648e+01     0.196072    0.1627926  28.32 0.0009641458    1.513    0.339
        19 -11.9460     75.3489    248.6980   1.1967752096e+02   1.5815614778e+01    0.3124733    0.1407683 -60.72  0.001898276    2.710    0.631
        20 -11.3175     71.8405    244.8983   1.1999819552e+02   1.6855766909e+01    0.1968272    0.1508128 -76.32  0.001027061    1.507    0.337
        21  -9.5113    187.0491    165.8035   8.7341349153e+01   1.1717692307e+01    0.3096488    0.1899804 -48.96 0.0009909637    1.921    0.480
        22 -10.1046     14.3503    201.3422   1.2743339122e+02   3.1076830972e+01     0.101573   0.08714723  66.89 0.0005007455    1.314    0.239
        23 -11.2913     69.5815    208.7906   1.1756188323e+02   2.3385977761e+01    0.2142906    0.1732229  72.14 0.0003553779    1.060    0.057
        24  -9.4073      1.2836    163.4387   1.2798468014e+02   3.9930983126e+01    0.1095572   0.07655936 -85.13 0.0003665286    1.171    0.146
        25 -10.6955     73.6821    207.2061   1.1662771703e+02   2.3140715236e+01    0.2936931    0.2377942 -51.96   0.00200517    1.661    0.398
        26 -11.0206     93.7813    157.6405   1.0626027121e+02   3.0403296532e+01    0.2568502     0.215471 -66.49 0.0003865735    1.187    0.157
        27 -11.9349     99.2116    151.1094   1.0389272602e+02   3.0974995016e+01    0.5701398    0.4520568 -27.39  0.003034231    1.737    0.424
        28 -10.8989    133.7712    145.5641   9.4616598536e+01   2.5968416103e+01     1.100639     0.266168 -54.07  0.002735059    5.887    0.830
        29 -10.1121    113.3839    151.3492   1.0053837693e+02   2.8500016177e+01    0.2901965    0.2123079  80.47  0.000821972    1.619    0.382
        30  -9.7044    174.8563    149.0793   8.6316861779e+01   1.7059580147e+01    0.2152519    0.1987702 -87.05 0.0005583647    1.284    0.221
        31 -10.1419    143.9571    146.6737   9.2505579627e+01   2.3747720576e+01    0.4554173     0.196424 -58.73  0.001515707    3.427    0.708
        32  -9.0945     92.2275    146.8101   1.0486680056e+02   3.3078093723e+01    0.1834821    0.1633809 -36.44  0.001058197    1.368    0.269
        33  -9.3925    115.2491    143.8614   9.8681700858e+01   2.9807457745e+01    0.2509953    0.1527709  81.87 0.0009520747    2.880    0.653
        34 -11.3076    109.3666    137.8741   9.8952865146e+01   3.2201061201e+01    0.6204272    0.3383376 -37.22  0.002496191    2.490    0.598
        35  -8.9414    128.0304    139.4709   9.4710699027e+01   2.8376201435e+01    0.2234493    0.1414356  43.80  0.001023545    1.567    0.362
        36 -11.7876     98.1238    136.9782   1.0161597910e+02   3.4357779766e+01    0.2726277    0.2631557 -62.87 0.0004365461    1.133    0.117
        37 -10.9362    105.9507    130.7800   9.8377854748e+01   3.4422015524e+01     0.404445    0.3123035 -66.07  0.001165087    1.279    0.218
        38 -10.2560    135.7673    127.8728   9.0288645205e+01   2.9342415400e+01    0.4705673    0.1659768 -48.59  0.001566177    2.857    0.650
        39 -10.2575    116.2675    128.7250   9.5304662036e+01   3.2993630374e+01    0.3080853    0.2557763 -21.95 0.0007157436    1.499    0.333
        40 -10.5151    104.0233    124.4940   9.7546856652e+01   3.6210743014e+01    0.2839724    0.2457517 -17.21 0.0007157663    1.452    0.312
        41  -9.6775    160.6375    127.9888   8.4560711956e+01   2.4084871144e+01    0.3915449    0.2530809 -65.76  0.001600117    2.228    0.551
        42  -9.3192    152.8806    119.6392   8.4265339911e+01   2.7454454043e+01    0.2617716    0.2079671 -29.98 0.0007033757    1.327    0.246
        43  -9.2792    111.0074    118.0762   9.4256119933e+01   3.6400842491e+01    0.2144078    0.2069318 -82.88  0.001196169    1.028    0.028
        44  -9.8848    231.2585    113.7027   6.7567185072e+01   1.1337887933e+01    0.2585187    0.2235168  -3.41 0.0007727633    1.112    0.101
        45  -9.4370    167.7286    112.6885   7.9170427967e+01   2.5538691193e+01     0.318624    0.2276622 -77.67  0.001329758    2.131    0.531
        46 -10.9887    119.4124    110.6310   9.0224912593e+01   3.6448442341e+01    0.5469525    0.3613275  74.21  0.002229064    2.267    0.559
        47  -9.7174    134.5426    105.7267   8.5057847648e+01   3.4367580818e+01    0.3881176     0.147429 -46.62  0.001294525    2.588    0.614
        48  -9.7756    205.4832    110.1576   7.1041310579e+01   1.7450872425e+01    0.3161951    0.2128187  40.12 0.0009774501    1.569    0.363
        49  -9.6644     73.1535    102.8432   1.0145503353e+02   4.6400918824e+01    0.2100482    0.1824733 -82.57 0.0004725937    1.134    0.118
        50 -11.8161    151.2280    196.2453   9.9860644422e+01   1.3089478922e+01    0.3717959    0.2987351  50.91  0.001800575    1.159    0.137
        51  -8.6497    167.6925     95.3218   7.4448992169e+01   2.8897789375e+01    0.1596514    0.1230801 -71.23 0.0002101457    1.642    0.391
        52  -9.8756    189.5154     88.9307   6.8272201411e+01   2.4826319200e+01    0.3967214    0.2924256 -66.38  0.001790668    1.713    0.416
        53  -8.6521    152.6777     81.6923   7.3743620791e+01   3.5099079349e+01    0.1609983    0.1244474  11.81 0.0003757654    1.644    0.392
        54  -8.6702     73.4922     73.4620   9.3591416031e+01   5.3204101932e+01    0.1436687    0.1289801 -51.38 0.0001346998    1.037    0.036
        55  -9.7510     81.3601    194.9316   1.1387273501e+02   2.4448217519e+01    0.2726809    0.2043761  46.72  0.001738102    1.247    0.198
        56 -10.2191     61.8973    219.7888   1.1990490769e+02   2.2351893956e+01    0.1858857    0.1271765  82.86  0.001032748    1.323    0.244
        57 -11.0072     61.4149    205.0179   1.1880812227e+02   2.5150989132e+01    0.3337103    0.1999311 -49.52  0.001911182    2.411    0.585
        58 -11.8622     58.8478    215.5831   1.2014379533e+02   2.3494006547e+01    0.2278747    0.1554523  64.61 0.0005481293    1.153    0.132
        59 -11.5901     65.2434    195.4668   1.1719892119e+02   2.6522102570e+01    0.3141823    0.2191301 -46.85  0.001253946    2.040    0.510
        60  -9.3890    184.7634    212.8378   9.6067258140e+01   4.8873379700e+00    0.1637969    0.1378951  55.53  0.001079288    1.400    0.286
        61  -9.1403    156.5075    190.4463   9.7893169746e+01   1.3156110574e+01    0.1312245    0.1150341  32.63 3.703964e-05    1.067    0.063
