#   1 NUMBER                 Running object number                                     
#   2 MAG_AUTO               Kron-like elliptical aperture magnitude                    [mag]
#   3 X_IMAGE                Object position along x                                    [pixel]
#   4 Y_IMAGE                Object position along y                                    [pixel]
#   5 X_WORLD                Barycenter position along world x axis                     [deg]
#   6 Y_WORLD                Barycenter position along world y axis                     [deg]
#   7 A_WORLD                Profile RMS along major axis (world units)                 [deg]
#   8 B_WORLD                Profile RMS along minor axis (world units)                 [deg]
#   9 THETA_WORLD            Position angle (CCW/world-x)                               [deg]
#  10 FWHM_WORLD             FWHM assuming a gaussian core                              [deg]
#  11 ELONGATION             A_IMAGE/B_IMAGE                                           
#  12 ELLIPTICITY            1 - B_IMAGE/A_IMAGE                                       
         1 -12.2473     17.8851     24.2366   1.0547485401e+02   6.9208788272e+01    0.4785235    0.2864675 -59.02  0.002626175    1.921    0.479
         2 -11.2562    131.5366     22.7370   6.4720124846e+01   4.9583096067e+01    0.4064181    0.2260944 -24.32   0.00114284    1.873    0.466
         3 -11.7488      7.0660     18.4136   1.0873572962e+02   7.1058291484e+01    0.3244498    0.1759585 -41.60 0.0005526842    1.372    0.271
         4 -11.0806    182.2600     19.2260   5.5009982546e+01   3.7139281022e+01    0.3197145    0.2390391 -10.39  0.001234731    1.547    0.354
         5 -12.1403     80.2120     15.6421   7.5254536271e+01   6.1768757221e+01    0.3694834    0.2992874 -26.32  0.002099393    1.280    0.219
         6 -10.6723     43.3375     16.2904   8.9774415089e+01   6.7770965963e+01    0.3030695    0.2518497  82.88  0.001748299    2.604    0.616
         7 -12.1645     26.0445     13.1069   9.6482022679e+01   7.0333601390e+01    0.3612455     0.248241  18.28  0.001790966    1.501    0.334
         8 -11.8904     45.3362      8.3364   8.4901171392e+01   6.8607039648e+01    0.3173735    0.2491071  44.88  0.002046831    1.690    0.408
         9 -11.0750     39.6592      5.3107   8.5867069155e+01   6.9804033686e+01     0.252398    0.2185364  53.50  0.001333898    1.868    0.465
        10 -10.5763     38.1542      2.3976   8.4985463725e+01   7.0384492476e+01    0.1903278    0.1470138  11.33 0.0001556832    1.149    0.130
        11  -9.7369      7.9739     10.9750   1.0512143296e+02   7.2294314569e+01    0.1362841    0.1327603  27.66 0.0004446315    1.574    0.365
        12 -12.3502    209.4812      5.3215   4.8069490500e+01   3.1752314264e+01    0.5207027    0.2855173 -59.58 0.0005301816    1.895    0.472
        13 -10.8133    194.9761      8.6939   5.0431859437e+01   3.5005864833e+01    0.1910485    0.1622859  80.50 0.0004225388    1.094    0.086
        14 -10.2182    128.0163      8.4618   6.0061264866e+01   5.1918214196e+01    0.1944122    0.1800868  20.75 0.0003231077    1.075    0.070
        15 -10.3392     74.2273      8.5339   7.3872909345e+01   6.3735123643e+01    0.2235627    0.1633314 -14.60  0.000543288    1.288    0.224
        16 -10.3285    159.4085      7.6147   5.4525559825e+01   4.4137433994e+01    0.2413244     0.199253  76.83 0.0007187617    1.161    0.139
        17 -10.7798    106.5913      8.0200   6.4486337665e+01   5.7010233086e+01    0.3591891    0.1361403  61.94   0.00139688    2.700    0.630
        18 -10.3768     87.5806      7.2222   6.9115571121e+01   6.1222556842e+01    0.2256219    0.1529894  -4.28 0.0007990982    1.483    0.326
        19  -9.7963     62.7516      7.1617   7.7231331430e+01   6.5974200390e+01    0.1911744    0.1392615 -64.16 0.0009621688    2.866    0.651
        20 -10.4164     24.7509      6.9348   9.4064084990e+01   7.1414451116e+01    0.1944929    0.1410692 -43.22 0.0009675704    1.592    0.372
        21  -9.6647     19.6328      7.1782   9.6897563353e+01   7.1908021705e+01    0.1560373   0.08341304 -31.83 0.0004038674    1.514    0.340
        22 -11.7410    193.6279      4.0692   4.9279632160e+01   3.5784109876e+01    0.4616922     0.173813  55.98  0.001228339    2.465    0.594
        23 -10.2873     14.1683      4.9166   9.8747844327e+01   7.2771089582e+01    0.1576103    0.1283572 -29.42 0.0004071908    1.251    0.201
        24 -10.1186      9.7421      1.5581   9.9545245113e+01   7.3673379752e+01    0.2343275    0.1417589  48.23  0.000985816    3.800    0.737
        25  -9.6589      7.4985      5.4972   1.0283998687e+02   7.3235334891e+01    0.1149448   0.08193596 -25.92 0.0008103949    1.038    0.036
        26 -11.4639    161.2067      3.0153   5.2778415924e+01   4.4087929223e+01    0.4117799    0.2793108  84.25  0.001727262    1.504    0.335
        27  -9.6670     30.6466      3.8118   8.9394167939e+01   7.1176175502e+01    0.1571304   0.09404962 -38.35 0.0004245666    1.682    0.406
        28 -10.5744    217.8929      2.7011   4.6653609806e+01   2.9979481964e+01    0.2075692    0.1832653 -11.36  0.001196593    1.344    0.256
        29 -10.8305     73.6616      2.1593   7.0932308944e+01   6.4506258739e+01    0.2355051    0.2048321   6.21  0.000885575    1.098    0.090
        30 -11.1218    181.3536      1.8409   4.9955178750e+01   3.9072516580e+01    0.3157213    0.1672192  64.77  0.001502804    1.685    0.406
        31  -9.3380    115.6506      2.2370   6.0084821031e+01   5.5428356760e+01    0.1255514    0.1011904 -80.00 0.0003143826    1.568    0.362
        32 -10.7578     50.2506      2.1109   7.9495818985e+01   6.8628654633e+01    0.1992708    0.1564408  27.16 0.0003147888    1.237    0.192
        33 -10.4966    199.2524      1.4191   4.7990519048e+01   3.4630022044e+01    0.2419068    0.1129294  68.48 0.0007884011    1.933    0.483
        34 -10.0100     90.5204      1.3397   6.5590907217e+01   6.1159428925e+01    0.2038217    0.1105962  54.74 0.0002174233    1.716    0.417
        35 -10.7814    109.9594    238.8595   1.1980924182e+02   1.2563557771e+01     0.171161    0.1512474  66.09 0.0003239728    1.146    0.127
        36 -11.1518    210.1638    247.0837   1.0286608395e+02  -3.7260793976e+00    0.2661452    0.1774179  43.71 0.0005813212    1.516    0.341
        37 -11.5577    187.1736    248.1537   1.0700193813e+02  -4.4056132530e-01    0.3121717    0.2327776 -32.52  0.001262176    1.645    0.392
        38  -9.7719    158.7342    250.6841   1.1234259335e+02   3.5260636479e+00    0.1642109   0.08183786  44.38 0.0005320541    1.610    0.379
        39  -9.5333    127.6536    250.2880   1.1781241869e+02   8.2187496767e+00    0.1168429   0.07151424  59.13 0.0007023267    1.655    0.396
        40 -10.4495    111.4815    246.4745   1.2029891392e+02   1.1141557576e+01    0.2555791    0.1110966 -59.06  0.001380538    2.812    0.644
        41 -11.6938    111.5648    243.4461   1.1998303019e+02   1.1601726239e+01    0.2866628    0.1783755  38.85  0.000619601    1.394    0.283
        42 -11.2756    115.0203    249.9566   1.2001397537e+02   1.0101494199e+01    0.3321925    0.1997777  32.49  0.001559807    1.683    0.406
        43 -10.5315    121.2145    247.8053   1.1869844790e+02   9.5299110501e+00    0.2209236    0.1293107  47.92 0.0003902905    1.349    0.259
        44 -10.8414    117.8457    246.2185   1.1913701562e+02   1.0261632223e+01    0.2203345    0.1589691 -74.46 0.0003586478    1.712    0.416
        45  -9.5531     84.5163    250.4598   1.2538052260e+02   1.4236532295e+01     0.109558   0.08350593  56.02 0.0004000745    1.032    0.031
        46 -11.8196     77.9180    248.3268   1.2634594728e+02   1.5441915378e+01    0.2722818    0.1734558  86.96  0.001855474    1.669    0.401
        47 -12.1931     75.5948    240.5201   1.2613367549e+02   1.7027835017e+01    0.4187508    0.2733918  73.28  0.002003901    1.436    0.304
        48  -9.0997     71.9639    251.0000   1.2756212309e+02   1.5774727621e+01    0.1512928    0.0486658  39.62 0.0007406203    2.530    0.605
        49 -12.4777     46.6315    247.0818   1.3153526100e+02   1.9474456838e+01    0.2232629    0.1596613 -81.87 0.0006182354    1.440    0.306
        50 -11.2207     47.2967    218.2982   1.2951649924e+02   2.4465648652e+01    0.3823045    0.2831137 -67.12   0.00273864    1.530    0.347
        51 -11.8522     19.8870    217.3586   1.3437410063e+02   2.7579115778e+01    0.2079597    0.1989876  72.66 0.0006774648    1.501    0.334
        52 -12.4810     31.0079    231.2057   1.3322634387e+02   2.3927136504e+01    0.9014007    0.1512694  48.88  0.003277558    3.646    0.726
        53 -11.6820     19.9960    222.1994   1.3461481662e+02   2.6678394687e+01    0.3315117    0.1825928  38.08  0.001461652    1.820    0.451
        54 -12.5819     13.3412    221.6355   1.3572210864e+02   2.7428672753e+01    0.7138488     0.260289 -81.84  0.004010387    2.456    0.593
        55 -12.3330      6.7422    223.1697   1.3690099221e+02   2.7768344171e+01    0.6009119    0.2414722 -73.42  0.003090777    2.265    0.558
        56 -13.6157      8.0538    213.6400   1.3624124649e+02   2.9392932613e+01    0.5099958    0.3231685  37.72   0.00264846    1.708    0.414
        57 -12.6438     39.5164    229.6400   1.3167261213e+02   2.3279906286e+01    0.2463408    0.1986939  86.59  0.001955205    1.225    0.184
        58 -11.9324     46.0090    229.7928   1.3054965336e+02   2.2518645677e+01    0.4463563    0.2425348  78.28   0.00102064    1.737    0.424
        59 -12.4134     38.4218    219.9590   1.3124384756e+02   2.5160094812e+01    0.5748188    0.2215864 -67.72  0.002389624    2.515    0.602
        60 -13.0034     27.7689    219.4129   1.3310622365e+02   2.6400980196e+01    0.4150923     0.199506  50.63  0.001272797    1.655    0.396
        61 -12.4195     31.1939    213.1678   1.3210839473e+02   2.7211432090e+01    0.4154886    0.2787738 -85.84  0.002604008    1.315    0.240
        62 -13.6742     15.1006    247.8281   1.3661843284e+02   2.2714787756e+01     0.633796    0.4266219  42.33   0.00509735    1.530    0.347
        63 -13.7189      4.3670    244.8359   1.3815187751e+02   2.4239624066e+01    0.7644598    0.5531096 -49.41  0.004362162    2.487    0.598
        64 -13.3392     24.2647    246.8100   1.3513805595e+02   2.1957892031e+01    0.5674215    0.3229453  75.10   0.00247304    1.401    0.286
        65 -13.1211     21.7613    238.1166   1.3512436477e+02   2.3683157843e+01     0.418631    0.2355819  48.34  0.001068331    1.436    0.304
        66 -13.2059      3.8405    234.3266   1.3783482362e+02   2.6067872452e+01     0.587124    0.2471706  80.45  0.002944294    2.014    0.504
        67 -12.9264     11.5384    231.3569   1.3647403029e+02   2.5864451883e+01    0.3437577    0.1994257  60.38 0.0004143423    1.265    0.209
        68 -10.3541    184.1292    232.4620   1.0535061512e+02   2.0590007950e+00    0.3473986    0.1747484  22.99 0.0007256817    2.526    0.604
        69 -11.5167    143.6275    232.3060   1.1282356472e+02   8.4976138811e+00    0.3150587    0.1752298  40.43  0.001020088    1.467    0.318
        70 -10.2969    152.5283    231.2392   1.1102060645e+02   7.2556691021e+00     0.192064    0.1216841 -58.27 0.0009281008    2.088    0.521
        71 -10.2014     80.9251    231.4072   1.2440763067e+02   1.7879835689e+01     0.177777    0.1280811  72.81 0.0003851123    1.264    0.209
        72 -12.0647     73.5298    227.3765   1.2541274678e+02   1.9568142869e+01    0.4724136    0.2522197  84.13  0.001909602    2.261    0.558
        73 -10.6744     58.2626    230.1927   1.2840856730e+02   2.0996322243e+01    0.3286875    0.1456501  60.20  0.001520105    2.071    0.517
        74 -11.2784    242.5828    229.2585   9.4631665221e+01  -6.4070179948e+00    0.2616822    0.2075549 -48.59  0.001735221    2.198    0.545
        75 -10.1155     96.6140    230.1160   1.2138746589e+02   1.5936005307e+01    0.2016246    0.1271823  52.41  0.000843092    1.300    0.231
        76 -10.4298    202.9382    227.6767   1.0123202325e+02  -2.7090892664e-01    0.2034365    0.1633045 -40.73 0.0009839241    1.600    0.375
        77 -10.9162    174.2528    228.1123   1.0653641584e+02   4.2389591741e+00    0.2857252    0.1612554  40.15 0.0009852542    1.460    0.315
        78 -12.2747    107.3427    227.9589   1.1914971128e+02   1.4751918820e+01    0.2358989    0.1915043  58.31 0.0003348848    1.045    0.043
        79 -10.5322    111.4588    227.5066   1.1832117556e+02   1.4218362306e+01    0.2016197    0.1611504  52.12 0.0004877087    1.020    0.020
        80  -9.5467    125.8700    228.1780   1.1566417940e+02   1.1919087341e+01    0.1543096     0.126341  28.23 0.0003904664    1.316    0.240
        81 -10.2667    164.1772    224.4500   1.0789810347e+02   6.4064997644e+00    0.2105712    0.1652727 -78.31 0.0009728614    1.897    0.473
        82 -10.8342     78.8497    223.7230   1.2409844696e+02   1.9517253122e+01    0.2327732    0.1566858 -73.17  0.000856486    1.571    0.363
        83 -11.0430    177.1093    222.8286   1.0522700193e+02   4.5375603704e+00    0.3280464    0.2147321  60.93  0.001757612    2.150    0.535
        84 -11.3568    121.1003    222.0842   1.1584642279e+02   1.3674595958e+01    0.2075093    0.1845046 -63.46  0.000372945    1.319    0.242
        85 -10.6016    187.8930    222.2489   1.0313086181e+02   2.8635313160e+00    0.1981757    0.1666643  -8.22 0.0003333261    1.272    0.214
        86 -10.2338    158.9830    221.8387   1.0851301782e+02   7.6521535068e+00    0.2176173    0.1608053  80.71  0.001229823    2.085    0.520
        87 -10.2110     63.6329    220.7101   1.2668174156e+02   2.2045078492e+01    0.3013236     0.132991  67.70  0.001441607    2.715    0.632
        88  -9.7593    241.6378    221.1848   9.3448194479e+01  -5.3589486259e+00     0.154121   0.09485243 -13.72 0.0002729048    1.618    0.382
        89 -10.8486    134.9907    218.9323   1.1274939542e+02   1.2017413083e+01    0.2724423    0.1934245 -46.94  0.001553844    1.687    0.407
        90  -9.4740     84.9811    221.2129   1.2270077594e+02   1.9135498671e+01    0.1523686   0.08063853  42.12 0.0006387797    1.625    0.385
        91  -9.8933    249.2339    219.9818   9.1981878791e+01  -6.3180868460e+00    0.1733192    0.1329517  70.60 0.0009038228    3.630    0.724
        92 -10.3820    228.5760    218.8396   9.5277205185e+01  -3.1309494166e+00     0.278327    0.1092716 -37.32  0.001323558    2.852    0.649
        93  -9.6334    190.4384    218.3967   1.0205641110e+02   2.9910716520e+00    0.1241635    0.1017195  28.93 -1.95472e-05    1.030    0.029
        94 -10.5843    173.3122    216.5940   1.0500059694e+02   6.0886056923e+00    0.3190499    0.2295295 -74.55  0.001720645    2.418    0.586
        95 -10.6386     88.3595    217.6903   1.2169943017e+02   1.9305676654e+01    0.2482359    0.1508454  75.42 0.0008663152    1.852    0.460
        96 -11.5107     82.7440    215.8103   1.2259715606e+02   2.0433551426e+01    0.5304499    0.2397796  30.13  0.001945492    2.864    0.651
        97 -10.8496     86.1460    211.8200   1.2152286588e+02   2.0705338435e+01    0.1937358     0.176451  77.49  0.000555288    1.159    0.137
        98 -10.5612    217.6461    217.1932   9.6915495653e+01  -1.2298372849e+00    0.1626877    0.1042732 -18.49 0.0009447312    1.678    0.404
        99 -10.6785    117.6777    212.6724   1.1535601208e+02   1.5851192399e+01    0.1861407    0.1692389  34.36  0.001149042    1.203    0.169
       100 -10.3563    101.3025    217.1701   1.1912552391e+02   1.7534632784e+01    0.1654393    0.1504717 -54.10 0.0006238317    1.370    0.270
       101 -10.4322     97.9934    214.2417   1.1944797655e+02   1.8554203294e+01    0.2968357    0.1557668 -52.99  0.001580125    2.233    0.552
       102 -12.0534     96.0789    209.6798   1.1931397540e+02   1.9681136753e+01    0.4822953    0.2718502 -59.88  0.001889846    1.936    0.484
       103  -9.9976     75.0777    212.5014   1.2376269631e+02   2.2093606867e+01    0.1754559    0.1324121  54.45  0.001168834    1.124    0.110
       104 -11.0199     72.7566    216.5515   1.2459321278e+02   2.1641195870e+01    0.2556551    0.1918385  28.51  0.001662697    1.663    0.399
       105 -10.2319     76.5050    216.4657   1.2386592408e+02   2.1159358479e+01     0.187601    0.1228406  56.68 0.0005543831    1.280    0.219
       106  -9.6318    157.2682    216.6603   1.0809746764e+02   8.7476256590e+00    0.1187035   0.09326386  70.17 0.0001452398    1.600    0.375
       107 -10.1152    147.0928    215.3005   1.0988591105e+02   1.0651846084e+01    0.2635157    0.1235948  54.49  0.001150312    2.541    0.606
       108 -11.2420    112.0520    213.6063   1.1659101538e+02   1.6556879355e+01     0.287741     0.190455 -48.78  0.001039174    1.830    0.454
       109  -9.5200    134.5405    214.5223   1.1224946076e+02   1.2836626596e+01    0.1259625    0.1070886  47.44 4.706926e-05    1.007    0.007
       110  -9.1610    248.4912    230.5071   9.3861594762e+01  -7.3728585978e+00    0.1160233   0.08581083  12.51  7.07541e-05    1.007    0.007
       111  -9.6692    164.3483    212.8569   1.0615591895e+02   8.1691923169e+00    0.1576784    0.1155819 -27.79 0.0003963062    1.653    0.395
       112 -11.8095     38.8520    211.8438   1.3061237630e+02   2.6637928433e+01     0.242073    0.1739971  73.89 0.0003968294    1.096    0.088
       113 -10.1009    231.0569    211.9748   9.3674434114e+01  -2.6612306511e+00    0.1875414    0.1480224  13.57 0.0004826893    1.007    0.007
       114 -10.8943    116.7656    216.7474   1.1604283077e+02   1.5270105316e+01    0.2239281    0.2024403 -10.20  0.001089124    1.475    0.322
       115 -11.8501    128.8706    209.0175   1.1263324322e+02   1.4716553247e+01    0.3882028     0.318013 -59.69  0.002302894    1.392    0.282
       116 -10.3041     23.6555    208.4998   1.3319055646e+02   2.8875201546e+01    0.2056542    0.1092676  22.51  0.001136439    2.997    0.666
       117 -10.1932    214.4641    210.4658   9.6344338754e+01   1.6289545050e-01    0.1255999     0.102582  17.63 8.812801e-05    1.006    0.006
       118  -9.9968     80.6117    210.2545   1.2245349417e+02   2.1769938732e+01    0.1460507    0.1068914 -62.72 0.0009283697    1.513    0.339
       119 -12.2700     67.1343    207.5766   1.2484934892e+02   2.4079388753e+01    0.2730084    0.1737434  61.24  0.001679966    1.372    0.271
       120 -10.8329     90.1944    204.9383   1.1996164348e+02   2.1437888811e+01    0.2205632    0.1555342 -84.96 0.0003646803    1.496    0.332
       121 -10.8397     14.3862    198.2646   1.3429027015e+02   3.1756340680e+01    0.3020491    0.1656808  64.33  0.001964431    1.494    0.330
       122 -10.4191     17.2361    207.6792   1.3430808099e+02   2.9660754634e+01    0.1982904    0.1227526  43.24 0.0003374539    1.552    0.356
       123 -11.1746     14.1626    205.1067   1.3472029712e+02   3.0445254530e+01    0.2883905    0.1445348  57.08  0.001260674    1.615    0.381
       124 -12.5128     19.2510    201.4321   1.3357283991e+02   3.0676318536e+01    0.2692404    0.2121893 -76.68 0.0009309545    1.343    0.255
       125 -10.6209    152.3071    207.0275   1.0764213044e+02   1.1159948620e+01    0.2472459     0.145667  50.98 0.0008827947    1.663    0.399
       126  -9.4210    141.2807    208.2999   1.1003760514e+02   1.2798588754e+01    0.1193854   0.09674859   7.54 -0.000275831    1.544    0.353
       127 -10.8103     52.1844    206.9351   1.2771044612e+02   2.6057433447e+01     0.303965    0.1439367  37.11   0.00141381    2.058    0.514
       128 -10.6722    100.9848    206.2148   1.1791960127e+02   1.9604962549e+01    0.1897067    0.1398702  58.83 0.0003466026    1.208    0.172
       129  -9.6198     38.6545    206.1523   1.3024151307e+02   2.7756793976e+01    0.1376369   0.08905359 -71.35 0.0009029192    1.523    0.343
       130 -10.7119      2.8556    205.5121   1.3676205373e+02   3.1383836373e+01    0.2766924    0.1124428  52.00  0.001173954    1.943    0.485
       131 -11.2062    183.6589    203.6882   1.0093823423e+02   6.3113020953e+00    0.2737025    0.2168568  -2.74 0.0004338064    1.379    0.275
       132 -10.4939    111.5161    202.5401   1.1530389478e+02   1.8680418256e+01    0.3982182    0.2936231 -58.75  0.001344778    1.500    0.333
       133 -10.7766    109.4836    197.5708   1.1506968897e+02   1.9948601767e+01    0.2338499     0.194448  65.88 0.0006377291    1.118    0.105
       134 -11.5720    108.8029    194.1378   1.1474980943e+02   2.0723461505e+01    0.2331018    0.2086608 -82.00 0.0003370819    1.158    0.136
       135 -10.8113    195.4182    204.0905   9.8761228114e+01   4.2319805324e+00    0.2305196    0.1528931  28.18  0.000842793    1.370    0.270
       136 -10.9174    122.5566    203.2263   1.1312418746e+02   1.6789563371e+01    0.2626563    0.2189461  70.96 0.0006118076    1.216    0.178
       137 -10.6653    121.4113    199.1511   1.1279480409e+02   1.7734161991e+01    0.2150526    0.1601306  43.58 0.0003676756    1.199    0.166
       138  -9.5881    158.6284    203.1734   1.0578110994e+02   1.0727156132e+01    0.1566393    0.1216252 -29.26 8.602034e-05    1.517    0.341
       139 -14.1314     35.8133    242.9794   1.3308012591e+02   2.1372735966e+01     0.738823    0.4533356  75.79  0.003469791    1.336    0.251
       140  -9.3318    103.6574    203.3427   1.1702283582e+02   1.9745018879e+01      0.13556   0.08519058  67.91 0.0007047713    1.783    0.439
       141 -11.9321     52.2572    202.4206   1.2731543102e+02   2.6934773497e+01    0.2965509    0.2238458  33.03  0.001986193    1.573    0.364
       142 -10.6833     31.3217    202.7075   1.3138742047e+02   2.9215928738e+01     0.201655    0.1205702  69.84 0.0006054251    1.406    0.289
       143 -10.5844     28.1310    201.1594   1.3188681173e+02   2.9849986520e+01    0.2278866    0.1326067  59.59 0.0003865118    1.426    0.299
       144 -12.0781    240.7364    201.5082   9.0150589066e+01  -2.8435757539e+00    0.4017713    0.1828052  38.00  0.001394934    2.013    0.503
       145 -10.2633    165.7450    201.9494   1.0416359023e+02   9.6980716321e+00    0.2258531    0.1653747  41.69 0.0006696291    1.208    0.172
       146 -11.2562     95.9461    200.2580   1.1823354227e+02   2.1501269744e+01    0.2455111    0.1715154 -66.93 0.0004822512    1.512    0.339
       147 -10.8099     70.2616    201.4453   1.2362905593e+02   2.4872193607e+01      0.27163    0.1557684  51.49  0.001149612    1.518    0.341
       148 -11.1681     40.0638    201.7242   1.2964008258e+02   2.8470921365e+01    0.2046879    0.1725336  -2.29 0.0008338128    1.997    0.499
       149 -12.7103      4.9457    199.8261   1.3611072666e+02   3.2295226944e+01    0.2641363    0.2050068  66.27  0.001454014    1.157    0.135
       150 -11.5681    240.6882    198.2983   8.9571078882e+01  -2.4273401124e+00    0.2089743    0.1935579 -39.54    0.0013546    1.571    0.363
       151 -11.0949    208.6607    199.4314   9.5468283785e+01   2.6596763494e+00    0.2170888    0.1924212  -8.06 0.0005499664    1.159    0.137
       152  -9.9772    155.1287    199.8434   1.0595720338e+02   1.1900701678e+01    0.1923621    0.1590335  53.22 0.0002748266    1.201    0.168
       153  -9.8487    149.7680    199.7169   1.0702725897e+02   1.2851736996e+01    0.1688987    0.1427972  66.59 0.0005758266    1.306    0.234
       154 -11.3833     89.4409    199.5245   1.1949269321e+02   2.2599866127e+01    0.3746017    0.1882264  47.91  0.001286218    1.754    0.430
       155 -11.4071    190.7227    200.8115   9.9088447368e+01   5.5325003397e+00    0.2225457    0.1926491  24.69 0.0002497704    1.027    0.026
       156 -10.0569    169.5619    198.7336   1.0287253389e+02   9.5632261365e+00    0.2303913    0.1282453 -38.87  0.001132557    2.045    0.511
       157 -10.8364    224.0226    197.9776   9.2416211321e+01   2.9488273489e-01    0.1966161    0.1613941  12.02 0.0004823793    1.007    0.007
       158  -9.5255    162.0085    198.0230   1.0427018313e+02   1.1010300319e+01    0.1558168    0.1381073  34.43 0.0003149666    1.007    0.007
       159 -11.4753     52.8207    192.6906   1.2633440213e+02   2.8826004000e+01    0.2247536     0.170465  81.49 0.0002876504    1.122    0.108
       160 -11.9893     62.6128    196.3883   1.2468204329e+02   2.6870770476e+01    0.3209585    0.2337964  40.10 0.0001466738    1.414    0.293
       161 -10.6963     57.0383    195.1306   1.2570005411e+02   2.7819117281e+01    0.1798334    0.1417723  71.10 0.0004600802    1.046    0.044
       162  -9.2200     50.3013    198.2941   1.2734697647e+02   2.7988454410e+01    0.1010046   0.08900282 -47.64 0.0001886589    1.572    0.364
       163 -10.8503     24.9254    194.6614   1.3205927461e+02   3.1465161824e+01    0.3270495    0.1339247 -79.97  0.001735921    2.191    0.544
       164 -12.2015    229.4388    194.8242   9.0875587117e+01  -1.6545323147e-01    0.3364251    0.2281996   4.50  0.001918247    1.500    0.333
       165 -12.1699    217.4689    194.6069   9.2976225245e+01   1.8580314610e+00    0.3735435    0.2504079  28.57  0.002124382    1.336    0.251
       166 -10.2324    188.9775    196.4581   9.8663281878e+01   6.5105555855e+00    0.1988645    0.1160638  39.97 0.0004514498    1.531    0.347
       167 -10.7067    136.5214    195.4823   1.0910381082e+02   1.5891835114e+01    0.2529569    0.1732087  72.41  0.001057885    1.953    0.488
       168  -9.7103    139.8504    194.8089   1.0830487096e+02   1.5444226025e+01    0.2183287    0.1632285  38.67 0.0005400055    1.219    0.180
       169  -9.9978    102.4446    196.3042   1.1638092591e+02   2.1290755982e+01    0.2085317      0.10462  40.53 0.0001153127    1.813    0.448
       170  -9.7776     82.4266    195.7130   1.2050964085e+02   2.4358805043e+01    0.1543463    0.1121306 -59.38 0.0005496411    1.500    0.333
       171 -10.4085     95.3276    195.0600   1.1772147050e+02   2.2615968238e+01    0.1957778    0.1614727  38.90 0.0003240387    1.260    0.206
       172 -10.2203     44.7820    194.7215   1.2814562308e+02   2.9346614364e+01    0.1579516    0.1053104  69.45 0.0003901683    1.288    0.223
       173 -11.7452    122.5062    192.6317   1.1162687708e+02   1.8792696188e+01    0.4879242     0.261115  59.64  0.001068274    2.289    0.563
       174 -10.4080     71.2773    194.1148   1.2265962114e+02   2.6207645246e+01    0.2025621    0.1583796  52.75 0.0006243943    1.167    0.143
       175 -10.8462    146.7269    193.0415   1.0659078915e+02   1.4570957909e+01    0.2680407    0.1778404  31.91 0.0009631574    1.500    0.333
       176 -10.1345    164.7026    191.7245   1.0266414650e+02   1.1612961904e+01    0.3152419    0.1872901   3.43  0.001142522    3.952    0.747
       177  -9.9970    131.1707    191.8565   1.0967214682e+02   1.7482443325e+01    0.1699936    0.1528259   7.44 0.0003473841    1.311    0.237
       178 -10.6781     34.3899    191.2607   1.2994720850e+02   3.1187660101e+01    0.1980985    0.1451851  65.09  0.000706892    1.140    0.122
       179 -11.6371    246.0205    190.7213   8.7253673028e+01  -2.2890342605e+00    0.2522893    0.1461039  29.60  0.000760996    1.600    0.375
       180 -10.6051     66.6266    191.1066   1.2331245381e+02   2.7433070764e+01    0.2081809    0.1643312  39.76 0.0005356261    1.357    0.263
       181 -10.5572     57.2781    189.9508   1.2515081305e+02   2.8850492961e+01     0.253387    0.1720494 -88.40 0.0009666088    1.362    0.266
       182 -10.5546     16.8754    191.0397   1.3337709404e+02   3.2965450434e+01    0.1643386    0.1279026  66.31            0    1.131    0.115
       183 -10.6485    227.1141    189.3699   9.0262509002e+01   9.7105504356e-01    0.2150444    0.1737393 -29.72 0.0003652837    1.341    0.254
       184 -12.4309     91.5997    188.9058   1.1773623115e+02   2.4410463196e+01    0.2738771    0.2228121  78.83 0.0006012071    1.165    0.141
       185  -9.6858     77.3086    190.3644   1.2097369648e+02   2.6157045818e+01    0.1614495    0.1268359  24.74 0.0009584914    1.617    0.382
       186 -10.2179     81.0652    189.1638   1.2003152190e+02   2.5880540154e+01    0.2195348    0.1604329  47.15 0.0004889049    1.269    0.212
       187 -10.3785    189.3353    188.8190   9.7218954112e+01   7.6601605231e+00    0.2362105     0.170018 -56.37  0.001050227    1.891    0.471
       188 -11.3057    131.8681    186.6764   1.0871249772e+02   1.8351614817e+01    0.2400374    0.2175591 -71.37 0.0003330049    1.194    0.162
       189 -11.2211      3.7221    187.8660   1.3570921094e+02   3.4758900199e+01    0.1713897    0.1359947  76.21 0.0002906999    1.116    0.104
       190  -9.9558    205.3160    187.0347   9.3813601294e+01   5.0806853028e+00     0.176817    0.1533287  -5.72 0.0001981263    1.111    0.100
       191  -9.1038     60.6323    187.2642   1.2417463189e+02   2.8992366301e+01    0.1296502    0.0758159  63.55 0.0006985957    1.652    0.395
       192  -9.8930    220.9910    186.2655   9.0768594852e+01   2.4532004331e+00    0.1803614    0.1477888  22.00 0.0003385328    1.086    0.079
       193 -11.3752    104.7901    184.1582   1.1422213544e+02   2.3354634382e+01    0.3869728    0.3366354 -16.90  0.002330743    1.551    0.355
       194 -10.3039     10.2761    185.7709   1.3432867498e+02   3.4625308159e+01    0.2088731    0.1905299 -29.68  0.001648352    1.701    0.412
       195 -11.1992     15.6414    182.8845   1.3308726518e+02   3.4741337751e+01    0.3474055     0.235277 -83.28   0.00241437    1.229    0.186
       196 -10.7491    226.1695    183.8970   8.9381530958e+01   1.9051736606e+00    0.2288927    0.1682315  31.81  0.001339108    1.260    0.206
       197 -10.5280    177.7053    184.2977   9.8700390053e+01   1.0526769582e+01    0.1969698    0.1864141  46.54 0.0002532019    1.159    0.137
       198 -10.8801    174.3343    182.8463   9.9117237744e+01   1.1397212043e+01    0.3373637    0.2154115  41.25  0.001160283    1.435    0.303
       199 -10.1966     63.4417    182.4962   1.2306457180e+02   2.9638340763e+01    0.1969873    0.1397849 -34.83  0.001091249    2.197    0.545
       200 -10.8164     55.4760    181.4898   1.2467872467e+02   3.0841435228e+01    0.3451168    0.1928506  83.73  0.001805056    1.938    0.484
       201 -10.7846     58.6854    182.2864   1.2407008825e+02   3.0280023581e+01    0.2924924    0.1821037  72.13  0.001655266    1.588    0.370
       202 -10.4813     60.4129    179.4436   1.2338874642e+02   3.0669457394e+01    0.2203937    0.1542058 -74.03 -2.00722e-06    1.333    0.250
       203 -11.7315     29.2627    181.5276   1.3022168626e+02   3.3728847249e+01    0.3916002    0.3695549 -44.56  0.002986775    1.497    0.332
       204 -11.6321     32.5131    176.9529   1.2916342831e+02   3.4366566529e+01    0.4248562    0.2684711 -61.55  0.000888153    1.617    0.382
       205 -10.9285     79.3987    182.8020   1.1962030728e+02   2.7436931158e+01    0.2837743    0.1601578  37.60 0.0004969278    1.768    0.434
       206 -11.1487     47.6117    181.9950   1.2641341519e+02   3.1661125107e+01    0.2717309     0.206611  17.94 0.0009650668    1.881    0.468
       207 -12.0494     47.4735    177.0938   1.2596396744e+02   3.2720541801e+01    0.2817083    0.1798277  41.75  0.001693237    1.560    0.359
       208 -10.7040      4.1543    181.4903   1.3526858160e+02   3.6013712985e+01    0.3442105    0.1137392 -69.48  0.001771244    2.495    0.599
       209 -11.4857    229.5990    180.5103   8.8111831605e+01   1.8024035786e+00    0.2617274     0.247791 -65.78  0.001680769    1.552    0.356
       210  -9.8548    122.9600    182.5473   1.0999080507e+02   2.0689070111e+01    0.2102249    0.1228423  41.30 0.0005768157    1.584    0.369
       211  -9.9199     88.1609    182.1422   1.1760792806e+02   2.6316085190e+01    0.1800542    0.1357524  77.69  0.000400907    1.321    0.243
       212 -10.2266    132.0937    180.0917   1.0759098999e+02   1.9594216565e+01    0.2205324      0.15928  72.28  0.001123326    1.713    0.416
       213 -11.9945     79.8150    174.8659   1.1851527008e+02   2.9066138608e+01    0.4978879    0.3153015  88.37  0.001713956    1.801    0.445
       214 -10.2708    104.0297    178.0380   1.1349807390e+02   2.4737589078e+01    0.2094155     0.170302  72.61  0.000673929    1.216    0.178
       215 -10.7739    106.4835    175.5590   1.1257092775e+02   2.4859960733e+01    0.3387713    0.1804647  48.23   0.00159476    1.784    0.439
       216  -9.5959     69.2601    176.3121   1.2107198868e+02   3.0201425907e+01    0.1824282    0.1202945  28.33 0.0004133354    1.838    0.456
       217  -9.6990     70.7125    178.6847   1.2103396435e+02   2.9499386651e+01    0.1310422    0.1090045  75.98 0.0003822519    1.048    0.046
       218 -10.9317     74.0562    177.0922   1.2009552144e+02   2.9388558350e+01    0.2217472     0.213666  14.42 0.0004860221    1.342    0.255
       219 -10.4984     91.8291    177.2512   1.1612684549e+02   2.6799141934e+01    0.1614206     0.153852 -28.10 0.0003082854    1.315    0.240
       220 -10.2469    136.5602    176.2182   1.0595150131e+02   1.9563289712e+01    0.1851036    0.1310911 -38.21 0.0006797175    1.626    0.385
       221 -10.5772     22.1414    175.4942   1.3122907995e+02   3.5689093212e+01    0.2095379    0.1369567 -82.79 0.0005255318    1.268    0.212
       222  -9.5286    171.2995    175.3469   9.8335836471e+01   1.3285957829e+01    0.1422713    0.1059128   2.40 0.0003077295    1.682    0.405
       223 -10.3434     16.7962    174.9899   1.3230380291e+02   3.6283786840e+01    0.2581707    0.1587224  -3.47  0.001326115    3.734    0.732
       224 -10.2635    191.7996    174.3980   9.3987859850e+01   9.5785347815e+00    0.1914655    0.1199557  31.44 0.0003393943    1.568    0.362
       225 -10.3267    156.2479    173.9394   1.0125286792e+02   1.6381500237e+01    0.2076624    0.1866631  33.06  0.001205748    1.046    0.044
       226 -10.3971    159.8879    173.5444   1.0039915128e+02   1.5771053280e+01    0.2751496    0.1826136  37.70 0.0003134059    1.421    0.296
       227  -9.7152      2.1641    173.8687   1.3521634599e+02   3.7742191317e+01    0.1292677    0.1096659 -79.70 0.0003297821    1.283    0.221
       228 -10.5784     98.1661    172.2362   1.1396003498e+02   2.6890303242e+01    0.2610314    0.1754947 -73.78  0.000872512    1.599    0.375
       229 -10.3942    199.8635    171.6454   9.1857606558e+01   8.5189877626e+00    0.2102377    0.1745103  -7.68 0.0003415639    1.194    0.163
       230 -10.3197     63.0253    171.0055   1.2183886321e+02   3.2163048782e+01    0.2060813    0.1273518  65.24 0.0006704638    1.641    0.391
       231  -9.9078    110.3091    170.7168   1.1093657612e+02   2.5248421494e+01    0.1379385   0.09930354  70.74 0.0002266335    1.567    0.362
       232 -11.6911     47.2229    166.5525   1.2492489125e+02   3.5041517295e+01     0.382894     0.275357  74.97  0.002374776    1.267    0.211
       233  -9.8834     31.6007    170.3034   1.2877722678e+02   3.5885360015e+01    0.1625725   0.09350424 -68.34 0.0009479378    1.555    0.357
       234  -9.6923    201.3522    175.3207   9.2303822857e+01   7.6423471914e+00    0.1455754   0.09913466   9.22 0.0007047566    1.749    0.428
       235 -10.1428    114.1454    168.7793   1.0973625190e+02   2.5011818410e+01    0.2131416    0.1770416  68.35 0.0007024817    1.211    0.174
       236  -9.2318     14.6349    169.2971   1.3234077405e+02   3.7680463036e+01    0.1228733   0.06534813  65.33  0.000350926    1.721    0.419
       237 -10.1769      2.1345    168.7872   1.3491355653e+02   3.8805742465e+01    0.1839978    0.1049573 -60.85 0.0006919809    1.798    0.444
       238  -9.7441    133.0215    168.4833   1.0537430714e+02   2.1751685803e+01    0.2083175    0.1311152  42.15 0.0004712877    1.501    0.334
       239 -10.5950     73.1920    165.8163   1.1883335238e+02   3.1962921209e+01     0.340183    0.1911179 -89.44  0.001569553    2.251    0.556
       240 -10.0246     75.5061    162.5053   1.1783169293e+02   3.2378770858e+01    0.2210558      0.10834 -53.52 0.0009393653    2.071    0.517
       241  -9.8421     66.1656    167.8293   1.2072930485e+02   3.2455873434e+01    0.1626429    0.1398634 -56.57 0.0004993716    1.306    0.234
       242  -9.9789    121.4979    167.4478   1.0781770847e+02   2.4022275339e+01    0.1378351    0.1289901  59.72 5.179767e-05    1.008    0.008
       243 -10.3737     82.2026    165.7422   1.1671047769e+02   3.0711258396e+01    0.2216061    0.1501609  57.32 0.0005041779    1.451    0.311
       244 -10.6389     59.1559    165.8254   1.2210245590e+02   3.3789032719e+01    0.1914992    0.1475127  76.86 0.0005131635    1.186    0.157
       245 -12.1082     23.9861    164.0037   1.2989459511e+02   3.7987327312e+01     0.227706    0.1763549  68.70 0.0003967406    1.154    0.133
       246 -10.3482     32.9874    162.2834   1.2772038012e+02   3.7499417566e+01    0.1740515    0.1380406 -68.99 0.0001967162    1.242    0.195
       247 -11.4701     35.3167    158.5684   1.2681481679e+02   3.8089139852e+01    0.4396355    0.1977752  49.63  0.001531566    2.181    0.542
       248 -11.5960    141.1644    161.1498   1.0215825259e+02   2.1733580555e+01    0.2726939    0.2217516  42.82 0.0002884046    1.174    0.148
       249  -9.4914     87.7211    162.3508   1.1490344831e+02   3.0645946349e+01    0.1393239   0.09612877  77.60 0.0002861907    1.645    0.392
       250 -10.1470     18.7244    160.7618   1.3078502170e+02   3.9168068416e+01    0.1594471    0.1309712 -86.67 0.0007530236    1.098    0.089
       251 -10.8949     45.6908    158.9791   1.2443867867e+02   3.6896771288e+01    0.2421822    0.2072601 -32.35  0.001218776    1.585    0.369
       252  -9.6717    149.1353    159.1894   9.9971203185e+01   2.0603797023e+01       0.1848    0.1639822  76.85 0.0002853898    1.267    0.211
       253 -11.0005    108.0330    158.4114   1.0940073022e+02   2.8271540543e+01    0.4110307    0.2147668  38.25  0.001347087    1.923    0.480
       254 -11.3052    248.4817    157.5234   8.0204976011e+01   1.8368362351e+00    0.2790166    0.2029247   4.67 0.0009849831    1.360    0.265
       255 -11.7048     96.3001    153.5725   1.1140817858e+02   3.1269620338e+01    0.4456558    0.2782444 -56.42 0.0005976615    1.574    0.365
       256 -10.9343     52.1884    155.7206   1.2250748111e+02   3.6890939896e+01     0.240198    0.1632804 -68.69 0.0007868156    1.322    0.244
       257  -9.8331    164.4983    155.4630   9.5804246733e+01   1.8311657233e+01    0.1444193    0.1372455  26.72 -1.561582e-05    1.006    0.006
       258 -10.0828     70.9578    154.6506   1.1780521662e+02   3.4768820839e+01    0.2038038    0.1649117 -60.00 0.0003017775    1.237    0.192
       259 -10.1731    113.4629    153.9802   1.0729791178e+02   2.8306927910e+01    0.2106327    0.1373744 -58.06  0.001016326    1.564    0.360
       260 -10.6578     65.4792    152.1266   1.1878913772e+02   3.6069408298e+01    0.2242153     0.174339  53.24 0.0003147741    1.276    0.216
       261  -9.5386    137.5215    151.4943   1.0108270139e+02   2.4417908766e+01    0.1432024    0.1394352  39.51 -6.180306e-06    1.025    0.024
       262 -10.2367     11.7941    157.7873   1.3208220165e+02   4.0400036955e+01    0.1901791    0.1185754 -70.87  0.000320904    1.376    0.273
       263  -9.4892     79.5401    150.4980   1.1505071080e+02   3.4514299257e+01     0.133793    0.1223622 -84.41 -6.539929e-06    1.035    0.034
       264  -9.9725     51.9528    149.4314   1.2176422008e+02   3.8349702489e+01    0.1992965    0.1474511 -75.50 0.0002835399    1.190    0.159
       265 -10.3074    226.1744    148.6249   8.2084263493e+01   7.2322139986e+00     0.189969    0.1208068  32.51 0.0003236172    1.611    0.379
       266  -9.3507     91.7733    147.9579   1.1156183118e+02   3.3250870328e+01    0.1721194    0.1090185 -58.88 0.0008391715    1.526    0.345
       267 -11.1204     36.0721    145.4176   1.2519442593e+02   4.0982552415e+01    0.3197732    0.1549131 -73.97 0.0008651742    1.807    0.447
       268  -9.9468    164.1613    145.8082   9.3798607664e+01   2.0257171194e+01    0.2076395    0.1734442   4.02 0.0002606675    1.355    0.262
       269 -10.3927      4.7201    143.4008   1.3255029818e+02   4.4098368210e+01    0.2020356    0.1193816 -79.73 0.0002378502    1.322    0.244
       270  -9.4808     16.2936    142.9955   1.2976733947e+02   4.3313687357e+01    0.1484412   0.08678876 -77.34 0.0006036863    1.380    0.276
       271 -10.7332    132.3118    140.4019   1.0000109008e+02   2.7774662339e+01    0.2553459    0.2346174 -80.14 0.0004289772    1.149    0.130
       272  -9.8218     72.8489    140.1377   1.1507180613e+02   3.7842701301e+01    0.1785851    0.1540508 -43.57 0.0004063681    1.296    0.228
       273 -10.0565     65.9255    139.1141   1.1671198233e+02   3.9011335244e+01    0.1939837    0.1588911  79.99  0.001139645    1.200    0.167
       274 -10.1578     35.0082    138.0521   1.2457969092e+02   4.2778625232e+01     0.210598    0.1287642  72.16  0.001139862    1.748    0.428
       275 -10.7072     95.5504    136.0741   1.0839817312e+02   3.5356976930e+01     0.335312    0.2904716 -44.32   0.00171206    1.214    0.176
       276  -9.8736     55.0329    136.0036   1.1909001509e+02   4.1094246406e+01    0.1544155    0.1371848 -85.51            0    1.033    0.032
       277 -10.2968     24.1126    136.1804   1.2713443124e+02   4.4209023648e+01     0.169794    0.1214637  76.62 0.0005776483    1.318    0.241
       278 -10.3489     50.6269    135.1920   1.2013218992e+02   4.1795457243e+01    0.2790246    0.1499153 -44.69 0.0005271441    2.165    0.538
       279 -10.3248     40.4868    133.4072   1.2255586444e+02   4.3307417025e+01    0.2711422    0.1563968 -85.26  0.001181915    1.755    0.430
       280 -11.6605     27.6920    131.5204   1.2567260636e+02   4.4967654691e+01    0.4238969    0.2212079  68.42  0.002091254    2.283    0.562
       281 -10.4702     47.0819    131.6880   1.2056062366e+02   4.3009613136e+01    0.2221527    0.1663285  17.26 0.0007701415    1.744    0.427
       282  -9.1430     61.7022    131.2765   1.1655897648e+02   4.1384534915e+01    0.1319103   0.09486977  74.29  0.000183732    1.533    0.348
       283 -10.2710      9.9325    131.0401   1.3018637601e+02   4.6496697870e+01    0.1733612    0.1384939 -78.32 0.0003439553    1.064    0.060
       284  -9.6765    122.0270    130.0466   1.0027675703e+02   3.2012530079e+01    0.1729887    0.1659652 -58.51 0.0003166677    1.030    0.029
       285  -9.4711    126.5911    128.4894   9.8766371386e+01   3.1471715387e+01    0.1465292    0.1429499 -53.56 0.0001174547    1.020    0.019
       286  -9.4979     17.3493    128.3186   1.2800069633e+02   4.6564390863e+01    0.1221454   0.07692982 -47.32 0.0007048207    1.735    0.424
       287  -9.2528    156.7356    127.3138   9.1199230140e+01   2.5510219603e+01    0.1469675    0.1208305 -79.72 0.0002081838    1.542    0.352
       288 -10.4746     91.2022    127.2057   1.0778102412e+02   3.8103402975e+01    0.2794526    0.2055546  20.33 0.0008248198    1.718    0.418
       289 -10.3715     30.2009    125.8829   1.2429476905e+02   4.6049641653e+01    0.1806539    0.1679247  77.77 0.0003702538    1.174    0.148
       290 -10.2057      3.5383    125.0005   1.3123472404e+02   4.8294265688e+01    0.1744706   0.08933167 -73.80 0.0003248547    1.501    0.334
       291  -9.7806     39.4472    122.0375   1.2121514395e+02   4.6069557625e+01    0.1994262    0.1070069 -66.04   0.00101656    1.566    0.361
       292  -9.2396    123.4706    121.4102   9.7904606663e+01   3.3633662153e+01    0.1468188    0.1440053  87.39 8.258363e-05    1.029    0.028
       293 -11.2045     20.2546    119.2467   1.2615477364e+02   4.8427067765e+01    0.5104707    0.2750264  59.49  0.002695629    2.147    0.534
       294 -10.6886     18.8510    114.8415   1.2598547139e+02   4.9554149989e+01    0.2376144    0.1769004  78.72 0.0007014645    1.333    0.250
       295 -10.4867     67.9527    119.0333   1.1262415398e+02   4.3448205648e+01    0.3989133    0.1744199 -37.72  0.001383693    3.663    0.727
       296 -10.7277     91.2552    116.5759   1.0548878020e+02   4.0549844737e+01    0.3578353    0.3007131  49.15  0.001960212    1.253    0.202
       297  -9.9927     10.6860    117.9096   1.2861382401e+02   4.9435513562e+01     0.172614    0.1233533 -80.60 0.0007605205    1.123    0.109
       298  -9.6273     54.8296    117.6321   1.1612771643e+02   4.5432774584e+01    0.1663681    0.1194076  47.30 0.0003819249    1.520    0.342
       299  -9.7901    138.7495    115.7631   9.2638085640e+01   3.1735404295e+01    0.1981583    0.1770178 -87.81  0.000298246    1.276    0.217
       300  -9.2526     49.2512    115.6741   1.1739454931e+02   4.6532603718e+01    0.1294177   0.09268603  84.44 0.0002412752    1.544    0.352
       301 -10.1455     60.1210    113.3009   1.1378313994e+02   4.5810438795e+01    0.2489778    0.1613698  88.57 0.0005959417    1.988    0.497
       302 -11.7547      5.3685    113.0603   1.2953144172e+02   5.0888391015e+01    0.4319972    0.1993638 -84.50   0.00151318    1.967    0.492
       303 -11.2456      2.8393    107.8027   1.2965550872e+02   5.2235707395e+01     0.289748    0.1718449 -78.59    0.0011751    1.339    0.253
       304 -11.8460    149.7998    111.2423   8.8781404552e+01   3.0289491217e+01    0.2596081    0.2545466 -44.09 0.0002413594    1.035    0.033
       305  -9.5083    120.5201    112.4597   9.6480018574e+01   3.6177276914e+01    0.1487569      0.14549 -53.01 2.067375e-05    1.008    0.008
       306 -10.2289     73.4124    111.7641   1.0956534596e+02   4.4397597977e+01    0.2453303    0.1918373  40.93  0.001040084    1.387    0.279
       307 -10.5782     37.9947    111.9456   1.2005130558e+02   4.8580016705e+01    0.1885119    0.1568945 -69.23            0    1.011    0.011
       308 -11.2695     38.0525    108.5245   1.1946518494e+02   4.9376564657e+01     0.247394    0.2160494  70.88  0.001249522    1.231    0.188
       309 -10.4803     86.0278    109.8083   1.0544464145e+02   4.2952907319e+01    0.2963941     0.191388  59.17  0.001358034    1.947    0.486
       310 -10.6287     20.6234    109.4320   1.2475328860e+02   5.0672045743e+01    0.2777578    0.1730182 -41.97   0.00159726    1.750    0.429
       311  -9.9935     65.5260    109.0216   1.1132116106e+02   4.6120516447e+01    0.1916764    0.1592084 -64.03 -3.079088e-05    1.088    0.081
       312 -10.1339     63.3529    105.6621   1.1126823484e+02   4.7190448083e+01    0.2763994    0.1771949 -82.02 0.0009525379    1.964    0.491
       313 -11.4570    112.7729    105.0868   9.6682616684e+01   3.9306323944e+01    0.2431214    0.2391385  -8.81 0.0002281326    1.042    0.040
       314 -10.7417      9.1709    101.0569   1.2699442041e+02   5.3396344697e+01    0.3809565    0.1921298 -70.28  0.001624521    1.536    0.349
       315  -9.9910    123.5089    103.0662   9.3238026491e+01   3.7609755270e+01    0.2359926    0.1467696 -47.96  0.001021504    1.586    0.370
       316 -12.0687     52.3978    101.0204   1.1366919292e+02   4.9615716749e+01     0.549189    0.3815591 -15.06  0.002424363    2.011    0.503
       317 -11.4806     58.7368    100.2690   1.1153137059e+02   4.9032727529e+01    0.2428637    0.2236634 -57.96 0.0003353472    1.048    0.046
       318 -11.1728     43.2288    102.2550   1.1676609389e+02   5.0327581135e+01    0.3316765    0.2057954 -67.61 0.0009563479    1.431    0.301
       319  -9.4884     29.4192    103.4281   1.2122294473e+02   5.1355362468e+01    0.1257501    0.1032685 -68.82 0.0001277787    1.008    0.008
       320 -11.0764    135.0407    100.7657   8.9605997669e+01   3.5666739100e+01    0.3331089    0.2340618 -35.04 0.0008942352    1.449    0.310
       321 -11.2314     70.6896    101.6309   1.0813571705e+02   4.7137918948e+01    0.2667983     0.220491 -44.41 0.0002348793    1.154    0.133
       322 -10.0693     19.0300    103.6469   1.2440054438e+02   5.2131399088e+01    0.1900091    0.1374057  59.17   0.00118196    1.564    0.361
       323 -11.0798     37.1843     98.5836   1.1796670731e+02   5.1782592004e+01    0.3158636    0.1800288 -66.58  0.001650913    1.514    0.340
       324 -12.9517    106.3854     97.6200   9.6486876333e+01   4.2159465908e+01    0.3203037    0.3025178  43.42 0.0008851195    1.110    0.099
       325 -11.0400     85.7540     97.6108   1.0255997122e+02   4.5781837635e+01    0.3431024    0.3087023 -12.11  0.001398421    1.218    0.179
       326  -9.2549     16.2809     98.7029   1.2450893857e+02   5.3469141318e+01     0.117046   0.08224031  78.35 0.0003507388    1.540    0.350
       327  -9.3800      4.3104     98.6218   1.2813507584e+02   5.4240422364e+01    0.1227076    0.0753943  74.57   0.00012581    1.791    0.442
       328 -10.1471     79.8083     96.1874   1.0401466977e+02   4.7043503611e+01    0.2040896    0.1613599 -28.89  0.001077833    1.368    0.269
       329 -10.8263     62.7975     96.0348   1.0930296512e+02   4.9497094299e+01    0.2184061    0.1977393  54.31 0.0003649063    1.240    0.193
       330  -9.5662     23.6666     96.2977   1.2182964435e+02   5.3480442443e+01    0.1222887   0.08613761  73.43 0.0006051768    1.647    0.393
       331 -10.1865    105.9589     91.4504   9.4899024986e+01   4.3575720420e+01    0.2260455    0.1960617 -44.66 0.0002960846    1.103    0.093
       332 -10.3305     54.0386     92.5290   1.1130936625e+02   5.1392589434e+01    0.1785671    0.1344933  29.94 0.0007921677    1.521    0.343
       333 -11.3393      6.7284     90.1415   1.2624178894e+02   5.6031550759e+01    0.4031439    0.2224751  57.44  0.002210234    2.303    0.566
       334 -11.1585    114.4065     90.6700   9.2271959491e+01   4.2087685606e+01    0.5928721    0.1354788  40.10  0.001477003    5.323    0.812
       335 -10.4898     88.1715     89.1212   9.9563073832e+01   4.7275389759e+01    0.2329974    0.1923295 -22.55 0.0007959057    1.301    0.232
       336  -9.9389     77.7588     88.0120   1.0252526029e+02   4.9195759869e+01    0.2006613    0.1659037 -49.21 0.0003479458    1.105    0.095
       337 -10.3376     67.0203     88.7564   1.0617691747e+02   5.0593003334e+01    0.1925382    0.1504736  32.63 0.0005352841    1.426    0.299
       338 -10.4335     63.7792     86.8425   1.0674963818e+02   5.1464234850e+01    0.2158843    0.2028064  11.85 0.0007425135    1.182    0.154
       339 -11.1447     27.3276     86.6210   1.1890359677e+02   5.5415738836e+01    0.3980913    0.1383624 -69.10  0.001582074    2.811    0.644
       340 -10.3489     21.0639     88.2599   1.2129042543e+02   5.5526734281e+01    0.1589244    0.1374112 -66.62 0.0001795336    1.075    0.070
       341 -11.6566     48.9953     84.6109   1.1114296202e+02   5.3783053156e+01    0.4483597     0.250048 -29.92  0.002057939    2.307    0.566
       342  -9.9423     53.5055     82.4839   1.0909024307e+02   5.3742730803e+01    0.1351388    0.1164957 -48.32 -0.0001004842    1.010    0.010
       343 -10.9307      9.4132     85.6991   1.2470233076e+02   5.6883525133e+01    0.1990566    0.1703515 -83.01 0.0002770621    1.166    0.142
       344 -10.3354    128.7554     85.5968   8.6879775063e+01   4.0118716875e+01     0.294564    0.1469828  44.37  0.001139849    2.047    0.512
       345 -10.5022    119.9104     85.2429   8.9151038514e+01   4.2080821376e+01    0.3203742    0.1925267  68.16  0.001173569    2.832    0.647
       346 -10.2907     98.3454     84.0772   9.5016333585e+01   4.6573962292e+01    0.2235501    0.1974817  12.37 0.0008483549    1.217    0.178
       347  -9.5325     30.6396     84.6792   1.1740024510e+02   5.5581952821e+01    0.1354805   0.07981107 -37.49 0.0007043083    1.771    0.435
       348 -10.6561    133.3268     82.7964   8.4848267243e+01   3.9661657743e+01    0.2673455    0.2300559  84.27 0.0006779963    1.414    0.293
       349 -10.1844     89.6296     81.6440   9.6975503721e+01   4.8646735386e+01    0.2499318    0.1652301 -28.27 0.0005953403    1.708    0.415
       350 -10.0523     88.5626     77.8874   9.6189430100e+01   4.9626994283e+01    0.2315847    0.1714333  43.84 0.0008491853    1.471    0.320
       351 -11.5625     42.0348     80.6229   1.1258776420e+02   5.5431389052e+01    0.3651243    0.2343024 -57.97  0.002010304    1.324    0.245
       352 -10.1855     20.0716     82.0184   1.2048520142e+02   5.7021351125e+01     0.185163     0.149344 -62.44 0.0003940119    1.021    0.020
       353 -10.4993     76.9908     80.7860   1.0076889036e+02   5.0903596862e+01    0.2177976    0.1782515 -21.08 0.0007587374    1.295    0.228
       354 -10.2074     67.9765     78.8480   1.0321061540e+02   5.2663512006e+01    0.2090019    0.1674304 -26.86 0.0004656322    1.273    0.215
       355 -10.0797    110.7702     77.6294   8.9392133519e+01   4.5501246938e+01    0.1973469    0.1424229  53.07 0.0003656416    1.537    0.349
       356 -10.9111     60.1753     74.8552   1.0476148511e+02   5.4599609788e+01    0.4348151     0.304352 -78.50   0.00216206    2.000    0.500
       357 -11.3051     53.1985     75.3260   1.0733682336e+02   5.5372570851e+01    0.3635668    0.2417472 -62.89  0.001721656    1.512    0.339
       358  -9.5723     35.6037     77.2429   1.1405576212e+02   5.6821078137e+01    0.1201622   0.09268864  65.51 0.0006931432    1.673    0.402
       359 -10.1647     17.7267     75.6658   1.2007814000e+02   5.8618557694e+01    0.2962399    0.1289461 -74.67  0.001330968    2.457    0.593
       360  -9.3658     98.6683     76.6853   9.2680873649e+01   4.8054641081e+01    0.1512316    0.1131875  -5.62 0.0004313355    1.682    0.405
       361 -10.4057     28.3758     74.9339   1.1611263871e+02   5.7976092750e+01    0.2829693     0.133944 -47.47 0.0008309816    1.769    0.435
       362 -10.1017      3.5853     75.7721   1.2507282761e+02   5.9435772247e+01    0.2213201    0.1475419  86.90  0.001161942    1.628    0.386
       363 -10.6986     80.7107     74.0280   9.7547628279e+01   5.1756547492e+01    0.2158852    0.1996637  28.60 0.0003790082    1.167    0.143
       364  -9.8123     69.3262     74.0089   1.0135945441e+02   5.3516956525e+01    0.1960372    0.1609847 -48.69 0.0007908932    1.127    0.112
       365  -9.9037     37.0181     71.5301   1.1216692487e+02   5.7958728985e+01    0.1744545    0.1279751  18.57  0.001035472    1.608    0.378
       366 -10.0332    117.9921     69.7012   8.4815285564e+01   4.5535406846e+01     0.202213    0.1883729  21.28 0.0002620838    1.072    0.068
       367 -10.2801     80.0202     69.5987   9.6394890750e+01   5.2789109278e+01    0.2179684    0.1710982 -40.89 7.966098e-05    1.167    0.143
       368 -11.9301     52.5544     68.4828   1.0566078023e+02   5.6938124602e+01    0.3946172    0.2463543 -56.89    0.0016681    1.509    0.337
       369 -10.7350    141.3453     73.6764   8.0028002601e+01   3.9546661369e+01    0.3307629    0.2487842   1.01  0.001501796    1.682    0.405
       370 -10.4543     88.0688     69.1431   9.3609046977e+01   5.1514507710e+01    0.2234708    0.1854777  -9.04 0.0005394774    1.280    0.219
       371  -9.4187     63.6954     69.6679   1.0201864983e+02   5.5240989081e+01    0.1422428   0.09657373 -23.95 0.0007037561    1.659    0.397
       372 -10.4242     58.5029     69.2244   1.0373025248e+02   5.6032336396e+01    0.2084802    0.1654997 -21.79 0.0005962951    1.294    0.227
       373 -11.0899     45.0825     68.4406   1.0838753550e+02   5.7807117514e+01    0.3394253    0.1615831 -54.10 0.0008468347    1.782    0.439
       374 -12.1073     22.2431     67.4033   1.1666106836e+02   6.0130758380e+01    0.4585803    0.2496758 -72.88  0.002362152    1.942    0.485
       375 -11.0464     17.0415     66.7086   1.1846296972e+02   6.0653920726e+01    0.3081463    0.1732479  47.69 0.0004870057    2.443    0.591
       376  -9.6851    127.0433     66.5373   8.1338389333e+01   4.4126905724e+01    0.2214179    0.1483556  49.28 0.0005253981    1.516    0.340
       377  -9.6243     75.4589     66.5075   9.6945846283e+01   5.4156019221e+01    0.1407821    0.1250877 -28.88 4.931683e-05    1.014    0.014
       378  -9.9174    101.7605     64.0016   8.7615054987e+01   4.9959291733e+01     0.236475    0.1609156 -12.01 0.0007909134    1.887    0.470
       379  -9.3285    137.2443     63.6493   7.7808927512e+01   4.2286355759e+01    0.1507846    0.1158556 -60.93  0.000417765    1.581    0.368
       380 -10.8059      9.4999     62.8450   1.2049918455e+02   6.1969960930e+01    0.2071947    0.1737742  -3.50 0.0005087581    1.427    0.299
       381 -11.6796      5.1990     59.5605   1.2147582227e+02   6.2916475590e+01    0.4066871    0.2366751 -18.87   0.00190477    2.050    0.512
       382 -10.2761     31.2809     58.9746   1.1103522617e+02   6.1211888693e+01    0.1777119    0.1496361 -61.14 0.0003307195    1.203    0.168
       383 -10.9582     21.6133     57.0696   1.1437426440e+02   6.2415127168e+01    0.2658112    0.2000328  38.68 0.0009261114    1.682    0.406
       384 -11.9536     29.3013     54.1011   1.1044524001e+02   6.2413698762e+01    0.6937706    0.3036192 -28.83  0.002865805    3.101    0.678
       385  -9.9751     73.9616     61.0404   9.5662781300e+01   5.5492967672e+01    0.2120842    0.1552188 -11.53 0.0004747219    1.568    0.362
       386 -10.9199     68.8175     60.8499   9.7410697528e+01   5.6323672289e+01    0.4071524    0.2182739  31.31  0.001596774    2.086    0.521
       387 -10.4337     39.3390     60.6627   1.0836235594e+02   6.0080163305e+01    0.2318255    0.1831749 -50.13 0.0008476647    1.104    0.094
       388 -10.1443     94.6595     58.3073   8.7839832234e+01   5.2401422265e+01    0.1391231    0.1166028 -82.19 0.0002484454    1.685    0.407
       389 -10.5079     47.6418     58.4452   1.0448798610e+02   5.9636676348e+01    0.2145205    0.1668768  21.22 0.0006995809    1.438    0.305
       390  -9.4563    110.6837     57.2968   8.2668210999e+01   4.9353514952e+01    0.1417407    0.1184466 -76.81 0.0003829401    1.608    0.378
       391 -11.2354    225.8789     55.7789   5.9440504690e+01   2.1786995126e+01    0.2314537    0.1992121 -42.78 0.0002890681    1.076    0.070
       392  -9.8498    137.5017     55.9943   7.5198779718e+01   4.3507371721e+01    0.2289127    0.1472881 -31.55 0.0006473791    1.560    0.359
       393  -9.8701     79.1611     55.5483   9.1963360101e+01   5.5706027227e+01    0.2737969   0.09436107 -45.07  0.000981054    2.788    0.641
       394 -10.1907     52.6014     55.7542   1.0171833082e+02   5.9585883980e+01    0.1833588    0.1159476 -56.22 0.0006596593    1.635    0.388
       395 -10.0217    118.6947     54.6457   7.9508138839e+01   4.8069797677e+01    0.1559085    0.1126669   8.96 0.0005425912    1.714    0.417
       396 -11.4450     41.7451     52.2800   1.0484609467e+02   6.1562815230e+01    0.3452531    0.1939717 -41.80  0.001079596    1.502    0.334
       397 -10.9912    128.5528     51.0192   7.5671620703e+01   4.6417491484e+01    0.3514506    0.2338757 -17.88  0.001593211    1.690    0.408
       398  -9.8081     60.9331     51.7320   9.7171852416e+01   5.9266986187e+01     0.182994    0.1607261 -12.29  0.001124252    1.079    0.073
       399  -9.8331     53.8129     52.1605   1.0004216808e+02   6.0147861123e+01    0.1796615    0.1332425 -23.52 0.0002301692    1.296    0.229
       400 -10.9063    174.0380     50.3040   6.5778732096e+01   3.5315919493e+01     0.246992    0.2073684 -40.02 0.0003123782    1.194    0.162
       401 -11.0820     65.7263     50.1972   9.4830470463e+01   5.8860469210e+01    0.2867545    0.2221468 -57.71   0.00125787    1.555    0.357
       402 -11.4720     11.7099     39.8249   1.1379093656e+02   6.6673458753e+01    0.3956027    0.3146123 -16.24  0.002039569    1.291    0.225
       403 -11.1091     13.3865     50.7398   1.1610015317e+02   6.4325191786e+01    0.2380932    0.1812136  10.81 0.0008614738    1.565    0.361
       404 -11.2175     17.2404     46.5607   1.1331897005e+02   6.4932555399e+01    0.2618176    0.1517363 -39.94  0.001069807    1.431    0.301
       405 -10.8365     93.8959     49.9262   8.5050209965e+01   5.4048283670e+01    0.3190405    0.2049187 -21.23  0.001349287    1.699    0.411
       406 -10.4087     97.3531     49.6617   8.3872208107e+01   5.3415437364e+01    0.3360233      0.24352 -64.24  0.001083115    2.048    0.512
       407 -11.1588     73.6454     50.0282   9.1893056643e+01   5.7650767454e+01    0.2209845     0.181416   2.86 0.0007947636    1.234    0.190
       408  -9.6026    152.8559     48.3788   6.9238108841e+01   4.0934494568e+01    0.2221579    0.1264704  45.79 0.0005877118    1.749    0.428
       409 -10.5407    122.9556     46.3828   7.5438963906e+01   4.8439744337e+01    0.3153094    0.2041379 -35.02 0.0009346853    1.543    0.352
       410 -10.0623    114.3365     47.0427   7.7960191639e+01   5.0279126519e+01    0.2035348    0.1743201 -22.49 0.0003490367    1.142    0.124
       411 -11.1652     61.8210     44.9206   9.4343852044e+01   6.0420131383e+01    0.3071633    0.2015398 -22.25 0.0004024825    1.566    0.361
       412 -11.5176     69.7151     42.3023   9.0379353527e+01   5.9673319768e+01      0.44392    0.2048261 -30.57  0.001427885    2.298    0.565
       413 -11.7461     12.3732     46.4189   1.1537923816e+02   6.5288388337e+01    0.2886486    0.2284167 -73.29 0.0004483581    1.406    0.289
       414  -9.9187     33.8889     44.1961   1.0541776209e+02   6.3994754885e+01    0.1714523    0.1647021  84.29  0.001191028    1.408    0.290
       415  -9.4856     25.6226     44.1895   1.0897198307e+02   6.4759138161e+01    0.1677664   0.08920365 -45.30 0.0002557143    1.483    0.326
       416 -10.7642    141.5043     42.3699   6.9620116266e+01   4.4615504948e+01    0.2421383    0.2322805  34.69 0.0001959836    1.013    0.013
       417 -10.3554     80.9123     43.1088   8.6723612104e+01   5.7632658978e+01    0.2029321      0.17889  -8.87 0.0003228524    1.012    0.012
       418 -10.5257     56.9207     41.0526   9.4765259422e+01   6.1826441643e+01    0.1962188    0.1671859 -19.76 0.0003834619    1.011    0.011
       419 -10.5298     19.7601     40.7760   1.1046312677e+02   6.5916050645e+01    0.3301938    0.1538224  23.19  0.001528602    2.485    0.598
       420 -10.8660    129.5027     37.5422   7.0624300100e+01   4.8199696263e+01    0.6750182    0.3138435  32.14  0.002338891    3.097    0.677
       421 -11.4564    103.6461     38.9981   7.7929211056e+01   5.3839171823e+01    0.2506564    0.2367544 -36.86 0.0003927672    1.185    0.156
       422 -11.1827     41.5216     38.2439   1.0001565587e+02   6.4313141515e+01     0.317109    0.1915658 -11.11 0.0008714923    2.060    0.515
       423 -10.6887      4.2253     36.2704   1.1618192870e+02   6.7824386948e+01     0.526517    0.1429161 -62.99  0.002130099    3.335    0.700
       424 -10.3014     86.3337     37.1324   8.2528473436e+01   5.7608591631e+01    0.1961949    0.1621033 -21.44 0.0007338597    1.131    0.116
       425 -11.7064    193.9063     35.2979   5.8146199953e+01   3.2303103794e+01    0.2387728    0.2339698 -64.97 0.0002745111    1.041    0.039
       426  -9.9413     72.3252     36.2915   8.7017846024e+01   6.0258228187e+01    0.1377303   0.09611657   1.60 0.0003134019    1.616    0.381
       427 -11.4822    118.9139     33.8635   7.1826248100e+01   5.1190106822e+01     0.355615    0.2903602 -70.89  0.001853679    1.619    0.382
       428 -10.7036     55.8734     34.2447   9.2459907326e+01   6.3168702084e+01    0.2749312    0.2095944  60.10  0.001279403    2.126    0.530
       429 -11.3317    140.8695     32.7907   6.6404672049e+01   4.6068370124e+01    0.5684702    0.3458067  40.98   0.00259146    1.660    0.398
       430  -9.9364    112.7639     33.6870   7.3342152582e+01   5.2614288550e+01     0.181337     0.164533 -59.89 0.0006454336    1.327    0.246
       431 -11.7190     77.3837     33.2868   8.3974569106e+01   5.9857019621e+01    0.3158725    0.2468774  67.37  0.001359645    1.944    0.486
       432  -9.8919     60.7456     33.7719   9.0331678938e+01   6.2530460448e+01    0.2385573    0.1420801 -33.94  0.001244673    1.511    0.338
       433  -9.6478     47.9668     34.0005   9.5613027720e+01   6.4288449660e+01    0.1547949    0.1247045 -25.03 0.0003845903    1.038    0.036
       434  -9.8888     45.5482     31.5358   9.5628557846e+01   6.5027316210e+01     0.225961    0.1174632  24.86  0.001128553    2.170    0.539
       435 -10.4484     29.2757     34.0890   1.0384874150e+02   6.6384256660e+01    0.1815291    0.1559288 -13.05 0.0004790105    1.152    0.132
       436 -10.8792     87.1729     33.1987   8.0647274817e+01   5.8049346771e+01    0.1774399    0.1675504 -52.04 0.0007612349    1.324    0.245
       437 -11.6769    107.2176     29.4689   7.3166271512e+01   5.4419828725e+01    0.4277132    0.3101638 -17.16 0.0005623326    1.394    0.283
       438 -10.4024    206.8893     31.3673   5.5343296213e+01   2.9547971396e+01    0.1991215    0.1656035  69.18  0.001114706    1.190    0.160
       439 -11.0535     33.5505     30.4021   1.0047314224e+02   6.6625670383e+01    0.2504076    0.2117529  -3.53  0.001716619    1.177    0.150
       440 -10.1555    159.0165     29.9789   6.1967457853e+01   4.1854193363e+01    0.2113998    0.2030196  44.39  0.001216636    1.024    0.024
       441  -9.7002     51.1687     28.9340   9.2149801219e+01   6.4720961394e+01     0.169303      0.15318 -25.09 0.0003267742    1.228    0.185
       442 -12.1533    146.1681    243.0522   1.1367641049e+02   6.4994694479e+00    0.5162657    0.4014291   0.86  0.002403143    1.763    0.433
       443 -10.7572     99.0673     27.2443   7.4541082862e+01   5.6476698422e+01    0.3228006    0.2045867  43.35  0.001048127    1.502    0.334
       444 -11.2122    242.9177     25.3543   5.0013066892e+01   2.1762288382e+01    0.2240055    0.1918981 -47.56 0.0003585541    1.070    0.065
       445 -11.8197      1.9083     25.3756   1.1393604338e+02   7.0074709994e+01    0.2683102    0.1325225 -57.99  0.001556898    1.689    0.408
       446 -10.8841    151.8385    244.8221   1.1286463409e+02   5.3798679542e+00    0.1710185    0.1636381  53.36 0.0003086109    1.231    0.188
       447 -10.0344     46.1093     24.8964   9.2536963084e+01   6.6065666853e+01    0.1806104    0.1627425 -26.62  0.001209194    1.265    0.209
       448 -10.3684     60.8697     24.0227   8.6047218781e+01   6.4051728337e+01    0.2049695    0.1696551  -7.77 0.0006640258    1.017    0.017
       449 -11.1029      9.9807     23.1348   1.0903363047e+02   7.0003843412e+01    0.2270972    0.1498974 -47.30 0.0007621948    1.233    0.189
       450 -10.6713    136.6072    246.7320   1.1582857427e+02   7.4114309881e+00    0.1341983     0.108323 -82.66 0.0005572466    1.589    0.370
       451 -10.9817    175.8753     22.7707   5.6971846355e+01   3.8381223409e+01    0.3235331    0.2056897  23.54  0.001456196    2.095    0.523
       452  -9.7312    153.4577     23.4415   6.0756672215e+01   4.4035386020e+01    0.1421116     0.132373  49.08 0.0002325729    1.022    0.021
       453 -12.0211    117.4979     22.6443   6.7835471052e+01   5.2942763328e+01    0.3610822    0.2358225  45.70 0.0005404743    1.418    0.295
       454 -11.3951    190.2025     20.5714   5.4377927713e+01   3.4974667861e+01    0.2711364    0.2355448 -13.51 0.0004095689    1.279    0.218
       455 -10.0124    101.9189     22.2702   7.1674618964e+01   5.6499242480e+01    0.1901524    0.1634884  30.33 0.0003840188    1.069    0.064
       456  -9.5539     78.8091     22.1627   7.8672700382e+01   6.1205302337e+01    0.1802233    0.1355284   8.85  0.001015333    1.291    0.225
       457 -11.1695    129.9640    242.2568   1.1652755485e+02   9.0740404873e+00    0.2312134    0.1689276 -68.54  0.001549288    1.732    0.423
       458 -10.5956     37.8875     21.1516   9.4528426287e+01   6.7711760577e+01    0.3023154    0.1850821  15.89  0.001726179    1.769    0.435
       459 -10.6155     33.1556     18.2552   9.5417785537e+01   6.8733967535e+01    0.2767284    0.2206066 -57.99  0.001044438    1.866    0.464
       460 -10.7053     92.6553     18.6643   7.2766101404e+01   5.8906702100e+01    0.2684046    0.1879364 -36.56  0.001441635    1.559    0.358
       461 -10.2934    198.9015     18.1016   5.2625535335e+01   3.3055316299e+01    0.2263303    0.1555907  37.60  0.001140329    1.725    0.420
       462 -10.2935    174.4280     18.4936   5.5857201841e+01   3.9218812792e+01    0.1377546    0.1310422  74.44 6.612521e-05    1.013    0.013
       463 -11.5567     92.1942    242.8643   1.2339418937e+02   1.4423121812e+01    0.3381001    0.2059838  50.70  0.001483908    1.283    0.221
       464 -10.0947     74.9265     12.9600   7.5755029187e+01   6.3096683335e+01    0.1821199    0.1754289   3.61   0.00120443    1.271    0.213
       465 -10.4953     59.2697     17.5685   8.3683066791e+01   6.5235806696e+01    0.3640995    0.1923775  35.99  0.001869683    1.888    0.470
       466 -12.1330    200.3096    245.0806   1.0428162698e+02  -2.0361459874e+00    0.2191681    0.1788955  15.36 0.0002700655    1.121    0.108
       467 -10.0991     90.0751     25.0663   7.6307313907e+01   5.8625015646e+01    0.2030675    0.1671276 -58.28   0.00112638    1.667    0.400
       468 -10.8099    115.5047     15.9921   6.5666019143e+01   5.4154330441e+01     0.488894    0.2232778  38.30  0.002009581    2.277    0.561
       469 -10.2865    112.4691     15.5238   6.6191364960e+01   5.4907563542e+01    0.2644894    0.2123576  29.43 0.0005171894    1.161    0.139
       470 -11.2054    201.4537    240.5030   1.0342407081e+02  -1.6547548738e+00    0.2677445    0.1618996  39.18  0.001085672    1.384    0.277
       471  -9.7049    185.8023     13.8208   5.2955711796e+01   3.6805835356e+01    0.1888267     0.147485 -62.78 0.0002764418    1.308    0.235
       472 -10.6473    179.9945     13.7039   5.3648171742e+01   3.8294701557e+01     0.198343    0.1670195  74.68 0.0004318057    1.114    0.103
       473 -10.4362    148.4967     12.9677   5.8018862916e+01   4.6400039340e+01    0.2730794    0.1673772  49.38 0.0007318456    1.511    0.338
       474 -11.0359    221.8738     22.4479   5.1305771893e+01   2.6957486627e+01    0.2197155    0.1629684 -47.05 0.0003348608    1.252    0.201
       475 -10.4932    198.2995    240.3213   1.0395204280e+02  -1.1545054726e+00    0.2069024     0.132871  22.44 0.0005110196    1.416    0.294
       476 -12.2432     63.1424    243.7957   1.2854438055e+02   1.8056368414e+01    0.2558766    0.2014135  69.51  0.001100585    1.095    0.087
       477 -10.0259     85.8588    245.1405   1.2470979326e+02   1.4911363318e+01    0.1736415    0.1140474  61.92 0.0005548632    1.290    0.225
       478 -11.5787     99.4608    245.8111   1.2237145969e+02   1.2945350074e+01    0.4355284    0.1915282  47.38  0.002424045    1.769    0.435
       479 -10.6615    181.0607    243.0101   1.0738545082e+02   1.1391360615e+00    0.1817309    0.1223133  15.15 0.0007130306    1.639    0.390
       480  -9.5967    246.2053    241.6114   9.6010085172e+01  -8.2252626502e+00    0.1506138   0.07984357  26.27 0.0001257594    1.524    0.344
       481 -10.1689    191.3187    240.9288   1.0527261731e+02  -1.6616719659e-01    0.2154188     0.172462  31.72   0.00151971    1.077    0.072
       482 -10.3670    149.4953    247.4806   1.1360432032e+02   5.3619439142e+00    0.1996019    0.1576374  43.89 0.0006252523    1.052    0.049
       483 -11.6602    121.9960    241.0822   1.1784835718e+02   1.0443967320e+01    0.4242452    0.1289151  41.45  0.001877438    2.575    0.612
       484 -11.3049    168.0520    238.7042   1.0914712603e+02   3.7305990977e+00    0.2373327    0.2063635 -73.73 0.0005491867    1.603    0.376
       485 -10.4071     87.2573    231.2201   1.2322791096e+02   1.7052999301e+01    0.2163705    0.1066339  57.82 0.0005576702    1.903    0.475
       486  -9.6197      2.9584     11.0000   1.0795012490e+02   7.2631747572e+01    0.1573026   0.05945429  18.26 0.0008107121    3.000    0.667
       487 -11.1536     96.4891    238.9950   1.2226988195e+02   1.4461741385e+01    0.2450691    0.1414572  65.90  0.001444924    1.811    0.448
       488  -9.3945     93.4788    237.4620   1.2267141459e+02   1.5134998594e+01    0.1854731     0.110976  62.29 0.0007495616    1.567    0.362
       489 -10.7486     92.7351    233.1312   1.2239941708e+02   1.5967232397e+01    0.3567087    0.1721826  58.03  0.001465111    2.018    0.504
       490 -11.5843    141.8804    238.4556   1.1390666209e+02   7.8350047652e+00    0.4729687    0.1857117  45.03  0.001543071    2.077    0.519
       491 -11.0288     83.7757    238.1774   1.2448480464e+02   1.6340560022e+01    0.2020648    0.1480464  63.40 0.0004814039    1.127    0.113
       492 -10.4059    156.8955    238.2704   1.1112685136e+02   5.5331614551e+00    0.1721752    0.1262154  39.16 0.0008585634    1.091    0.083
       493 -11.7651    102.2540    240.2081   1.2134331852e+02   1.3451545476e+01    0.2731882    0.1688486  48.80 0.0009080178    1.278    0.217
       494 -11.5705     44.7391    236.8922   1.3122840908e+02   2.1417283228e+01    0.3225739    0.1440947  60.95  0.001237127    1.903    0.474
       495 -11.4770    197.1374    233.9001   1.0321646105e+02  -1.6783209642e-01    0.2376605    0.2017092 -12.19  0.001694231    1.292    0.226
       496  -9.7359    192.7081    233.3579   1.0392986508e+02   5.9190787442e-01    0.1669224    0.1042726  46.39 0.0004327373    1.573    0.364
       497  -9.6262    187.3379    236.2935   1.0532287233e+02   1.0452076038e+00    0.1211264   0.07935137  16.25 0.0003238543    1.648    0.393
       498 -11.1695    218.6678    233.0691   9.9300739192e+01  -3.3509975789e+00    0.3529308    0.2113754  -5.05  0.001617961    2.039    0.510
       499 -10.3111    105.9170    235.1824   1.2017459555e+02   1.3749069212e+01     0.169166    0.1240191  57.68  0.000229695    1.154    0.133
       500 -11.2064    231.7071    232.5185   9.6981608390e+01  -5.2099870014e+00    0.5325617    0.2298177 -16.11  0.002256739    3.933    0.746
       501 -10.4571    173.2221    233.3085   1.0746491524e+02   3.6686230793e+00    0.2059626    0.1554614  23.62 0.0005598685    1.234    0.190
