#   1 NUMBER                 Running object number                                     
#   2 MAG_AUTO               Kron-like elliptical aperture magnitude                    [mag]
#   3 X_IMAGE                Object position along x                                    [pixel]
#   4 Y_IMAGE                Object position along y                                    [pixel]
#   5 X_WORLD                Barycenter position along world x axis                     [deg]
#   6 Y_WORLD                Barycenter position along world y axis                     [deg]
#   7 A_WORLD                Profile RMS along major axis (world units)                 [deg]
#   8 B_WORLD                Profile RMS along minor axis (world units)                 [deg]
#   9 THETA_WORLD            Position angle (CCW/world-x)                               [deg]
#  10 FWHM_WORLD             FWHM assuming a gaussian core                              [deg]
#  11 ELONGATION             A_IMAGE/B_IMAGE                                           
#  12 ELLIPTICITY            1 - B_IMAGE/A_IMAGE                                       
         1 -14.8432     68.5200    144.1868   1.0629572799e+02   3.7173330310e+01     5.786006     2.951706  69.98  0.003602781    3.487    0.713
         2 -14.3969    199.4657     37.3486   4.6746332438e+01   3.0737220185e+01     1.909186     1.420157  23.93  0.006939347    1.833    0.454
         3 -13.4650      2.5936      6.8034   9.3883082331e+01   7.3367731601e+01     1.196774    0.5567151 -46.09  0.007085973    1.838    0.456
         4  -9.8995     60.4588      7.5038   6.6387367020e+01   6.6078607853e+01    0.1254157    0.1010813  10.11 0.0001528314    1.005    0.005
         5 -11.6900     42.8540      6.6282   7.3015774445e+01   6.8983662190e+01    0.3163775    0.1272295  36.19  0.001542893    2.397    0.583
         6 -11.2695     17.0357      2.4706   8.3458649629e+01   7.2738996253e+01    0.1981909    0.1270311  11.39  0.001075728    1.447    0.309
         7 -12.3725    235.5650      2.4688   3.4578780217e+01   2.6356670785e+01    0.6889526     0.268177  76.28  0.003186272    2.451    0.592
         8 -14.4506    211.2208     25.2017   4.2149496447e+01   2.9416947294e+01     1.335388      1.02903   7.61  0.005613632    1.839    0.456
         9 -14.0241     14.0897    191.8787   1.2440463444e+02   3.2184098166e+01      2.32834    0.5634666 -68.71  0.002150463    3.188    0.686
        10 -11.0753    139.9828    249.7126   1.0538215839e+02   4.2094393427e+00    0.2437378    0.1853708  35.40   0.00124563    1.151    0.131
        11 -13.2230     47.4631    221.6618   1.2012423285e+02   2.2406010082e+01     1.169739    0.6375314  69.23  0.001329367    1.692    0.409
        12 -14.3662     85.5046    229.5110   1.1353212281e+02   1.5869949714e+01     1.491697      1.20213  88.29  0.004459692    1.213    0.176
        13 -16.8080      8.8894    241.6495   1.2809615172e+02   2.2806002096e+01     9.196589     1.216858 -76.15   0.03346391    6.120    0.837
        14  -9.5879     34.0026    227.8802   1.2305457243e+02   2.2748101755e+01    0.1495935    0.1290275  66.12 0.0009879235    1.261    0.207
        15 -12.9128     25.0132    225.5191   1.2451385113e+02   2.4187023999e+01    0.4703569    0.3499405  69.68  0.002695051    1.045    0.043
        16 -10.2101    113.2216    207.4434   1.0527753642e+02   1.5965893067e+01     0.231994    0.1901317  80.57 0.0003476797    1.261    0.207
        17 -12.1488    193.0472    194.6451   8.6430384001e+01   4.4220070907e+00     1.123403     0.634577 -65.54  0.003648461    5.304    0.811
        18 -13.9853     53.8231    192.5208   1.1622841825e+02   2.7743538247e+01     1.013567    0.8492747 -82.69  0.005036195    1.139    0.122
        19 -14.6982     45.5911    203.2748   1.1896557541e+02   2.6410990206e+01     3.476337     1.432144  65.71   0.01070832    2.889    0.654
        20 -10.8441    208.8347    196.9023   8.3773182113e+01   1.2934309251e+00    0.2082306    0.1650621   2.50  0.000456631    1.209    0.173
        21  -9.3061    160.0041    197.0326   9.3664996954e+01   9.9330222018e+00    0.2014905    0.1636897  73.55  0.000347946    1.560    0.359
        22  -9.0510     97.5048    190.4406   1.0633938067e+02   2.2040593913e+01    0.1331297    0.1229327  69.55 0.0008069401    1.059    0.056
        23  -9.7579     44.1869    186.8764   1.1773841975e+02   3.0151467168e+01    0.1957688    0.1380589  76.20   0.00066158    1.245    0.197
        24  -9.5361     71.3767    185.9429   1.1162472695e+02   2.6910780218e+01    0.1783812    0.1449482 -83.14 0.0004500184    1.126    0.112
        25 -14.8727      2.2101    204.5418   1.2743376974e+02   3.0602069331e+01     3.415843          nan -71.50  0.008599966   10.321    0.903
        26 -10.6477    146.4896    182.7569   9.4049531992e+01   1.5203399082e+01    0.2802517    0.2538055  40.74  0.000875573    1.049    0.047
        27 -11.5576    141.5446    174.7884   9.3687093388e+01   1.7784462797e+01    0.8028359    0.4964505 -78.61  0.002724163    2.892    0.654
        28 -10.2759     99.1933    180.9691   1.0456140176e+02   2.3865306184e+01    0.3128158    0.2549616  10.10  0.001689894    1.668    0.400
        29 -12.1722     68.6881    176.6523   1.1106265221e+02   2.9397968567e+01    0.4301823    0.2663689 -42.31  0.002108024    2.147    0.534
        30 -12.1045     73.0481    171.7497   1.0937412689e+02   2.9933580942e+01    0.3364746    0.2326558 -54.61 0.0008208748    1.489    0.328
        31 -10.1810     39.5173    177.2529   1.1780736759e+02   3.2855888062e+01    0.2312559    0.1608846  63.36  0.000665586    1.325    0.245
        32 -13.1861     81.9258    162.3572   1.0581288542e+02   3.0860582335e+01     1.525767    0.5204056  52.48 0.0004333775    4.098    0.756
        33 -13.7227     69.9768    157.7307   1.0808608388e+02   3.3686423962e+01    0.6296126    0.5166469 -38.40  0.001726951    1.476    0.322
        34  -9.3279    111.5329    217.5034   1.0696117751e+02   1.4260368172e+01    0.1285494    0.1119666  56.39 6.380921e-05    1.017    0.016
        35 -10.8439     33.5203    165.4815   1.1796493678e+02   3.6218578382e+01    0.2819176    0.2077011  56.45  0.001618577    1.333    0.250
        36 -10.4089    230.1705    166.1502   7.3608537536e+01   2.5813090158e+00     0.181209    0.1647402 -48.91 0.0007806475    1.359    0.264
        37 -10.4967    159.4124    162.7766   8.7229247011e+01   1.6853062400e+01    0.3111131    0.2465894 -69.70  0.001529664    1.545    0.353
        38  -8.8615     47.3352    159.7021   1.1399703702e+02   3.6078695665e+01    0.1375193   0.08700871  70.18 0.0007031677    1.651    0.394
        39 -12.3330     88.6904    155.2580   1.0292807393e+02   3.1516775771e+01     0.633884     0.457317 -28.49  0.003055678    1.925    0.481
        40 -10.8332     32.9845    157.0480   1.1717871558e+02   3.8258597950e+01    0.4180471    0.2017037  46.10  0.002096592    2.104    0.525
        41  -8.9007    112.6752    151.2744   9.6068818668e+01   2.8407265735e+01    0.1502048    0.1131779  74.57 0.0003816274    1.582    0.368
        42 -11.1441    133.6399    144.2383   8.9318840608e+01   2.6052806886e+01     1.160751    0.2993745 -54.29  0.002778115    5.475    0.817
        43 -10.7123    174.3837    148.5307   8.0777311655e+01   1.6740410226e+01    0.3544679    0.2991029 -67.56  0.001424423    1.407    0.289
        44 -11.3160     39.1158    145.9514   1.1430025461e+02   4.0288443596e+01    0.3835289    0.3152341  15.45  0.001915689    1.606    0.377
        45 -12.2976     54.8697    147.1019   1.1036621011e+02   3.8226156945e+01     0.705958     0.586611 -51.26  0.004203019    1.279    0.218
        46 -10.1886     83.7562    143.2396   1.0205472917e+02   3.5188258990e+01    0.2726855    0.2165901  77.41 0.0007146341    1.356    0.262
        47 -10.9620    102.5919    140.1931   9.6427989783e+01   3.2827780170e+01    0.5710645    0.3506629 -24.78  0.002175331    2.790    0.642
        48 -12.4248     89.8180    140.3985   9.9885754541e+01   3.4923773727e+01      0.29041    0.2514732 -51.23 0.0003672664    1.148    0.129
        49 -12.3927     44.3385    129.3980   1.1049710924e+02   4.3769587951e+01    0.4392783    0.3641079  83.44  0.002082468    1.198    0.165
        50 -10.5519    106.0715    130.4501   9.3384555253e+01   3.4539331880e+01    0.4087426    0.2949984 -59.65  0.001944009    1.364    0.267
        51 -12.1825     31.4837    129.6476   1.1412233288e+02   4.5001603715e+01     0.490684    0.2888796 -68.46  0.002630343    1.392    0.282
        52 -10.2942    111.6158    130.6408   9.1931300195e+01   3.3474009134e+01    0.3184133    0.2570439   6.63  0.000776914    1.597    0.374
        53 -10.7418    136.1026    129.0960   8.5182763577e+01   2.8987965808e+01    0.4230913    0.1877521 -45.50  0.001444643    2.203    0.546
        54 -10.9390    135.1996    121.7452   8.3587709000e+01   3.0833129472e+01    0.5546116    0.1209573 -45.58  0.001389593    4.455    0.776
        55 -10.1554    160.3329    127.6668   7.8965893006e+01   2.4112102400e+01    0.3499444    0.2714067 -83.57  0.001563008    1.760    0.432
        56 -11.1280     98.9141    126.6925   9.4503419769e+01   3.6712196174e+01    0.3084787    0.2570732   4.79 0.0009263262    1.504    0.335
        57 -11.1312    120.7976    121.6018   8.7313018663e+01   3.3818462592e+01    0.4909236    0.2631353 -24.31  0.001472586    3.949    0.747
        58 -10.0343    107.9650    119.1985   9.0219118178e+01   3.6858302592e+01    0.2168496     0.209285 -42.94 0.0004644455    1.039    0.038
        59 -16.0087     59.8496    247.2527   1.1981246921e+02   1.6050145015e+01     9.683922     3.037536  29.34  0.005701272   11.256    0.911
        60  -9.8940    168.2362    113.3011   7.3481719760e+01   2.5344889484e+01    0.3684936    0.2423817 -64.75  0.001342333    2.082    0.520
        61  -9.6369     36.6514    167.3183   1.1742996138e+02   3.5462300037e+01    0.2215938    0.1549582  65.31 0.0006131214    1.351    0.260
        62 -11.4783    119.1333    110.3512   8.4876457536e+01   3.6731020621e+01    0.5227512    0.3346686  80.60   0.00182272    3.143    0.682
        63 -11.1766     21.7601    107.5856   1.1365206823e+02   5.1165545790e+01    0.2538584    0.1660498  11.67  0.001439627    2.025    0.506
        64 -10.0768    205.6094    110.1022   6.5088673400e+01   1.7468952927e+01    0.2664163    0.2205914  39.60 0.0005898694    1.298    0.230
        65 -11.0335     31.6205    108.1114   1.1070081300e+02   5.0213663937e+01    0.2300393    0.1988472 -12.51  0.001101017    1.412    0.292
        66 -10.4256    134.6046    105.0290   7.9315106906e+01   3.4658281896e+01    0.5408301     0.148925 -43.48  0.001517583    3.525    0.716
        67 -10.9470    241.7380     98.7700   5.6424611371e+01   1.1688292024e+01    0.2450557    0.1582669 -86.93 0.0008230277    2.624    0.619
        68 -11.0564     18.5264    111.5388   1.1523296759e+02   5.0465185878e+01    0.3645704    0.1031924 -69.17  0.001390568    2.844    0.648
        69 -10.0080     33.9410    100.1890   1.0850986303e+02   5.1904085455e+01    0.1962307    0.1657719 -86.45 0.0008501855    1.236    0.191
        70 -14.6093     10.6019    206.3452   1.2598842161e+02   2.9469653788e+01    0.6870518    0.4962947  25.31  0.002398541    1.942    0.485
        71 -10.4764     53.1332     91.1078   1.0014484599e+02   5.2025437001e+01    0.3180243    0.1808531 -53.97  0.001502293    1.497    0.332
        72 -10.3765     41.7760     91.8290   1.0416374868e+02   5.3121458497e+01    0.2253406    0.1849375 -50.46 0.0006336914    1.042    0.040
        73  -8.7139     74.5590     84.5318   9.1170255179e+01   5.0597753677e+01    0.1437604    0.1295652 -42.09 0.0001432721    1.030    0.029
        74  -9.7892    240.3475     82.6876   5.2804643567e+01   1.4576344744e+01    0.1465974   0.09821386 -63.62 0.0007045578    1.715    0.417
        75  -9.7813    158.1916     81.2295   6.6731897969e+01   3.4027790647e+01    0.2126854    0.1825379 -71.56 0.0004288943    1.311    0.237
        76  -8.9711     56.5354     66.5192   9.2070617599e+01   5.7063580690e+01     0.135644    0.1192284 -37.38 8.779678e-05    1.063    0.059
        77 -10.8152     13.4989     59.7593   1.0701067405e+02   6.2699001812e+01     0.219588    0.1755338 -48.59 0.0004121588    1.041    0.039
        78 -13.3629    190.3344     44.0971   4.9882545876e+01   3.2080300669e+01     1.005003     0.657639  41.62   0.00103767    1.780    0.438
        79 -14.4419     31.4380    248.6454   1.2475669768e+02   1.9178530658e+01    0.9774537    0.4795127  40.11   0.00507304    1.871    0.466
        80  -9.6176     68.0964     52.1106   8.2842980163e+01   5.8238958943e+01    0.1898697    0.1707097 -89.59 0.0006705782    1.615    0.381
        81 -10.1525    147.0543     43.4001   5.7230413870e+01   4.3008282693e+01     0.256557    0.2066242 -43.19 0.0004308581    1.291    0.225
        82 -12.1515      2.8550     29.8853   1.0308243600e+02   6.9355956090e+01    0.3798568    0.1391486 -48.00  0.001988055    1.897    0.473
        83 -11.2156    134.2032    245.9426   1.0601438733e+02   5.6922812890e+00    0.2233159    0.1483257  17.50  0.001147909    2.062    0.515
        84 -10.3256     14.7336     32.0279   9.7998864352e+01   6.8171594724e+01    0.1662091    0.1254802 -35.30 0.0005301432    1.040    0.038
        85 -11.6130    144.8246     49.4660   5.9703602118e+01   4.2671562590e+01    0.5612769    0.3575989 -76.30  0.001717795    2.616    0.618
        86  -9.3660    189.5163     15.0161   4.1892012980e+01   3.5849006800e+01    0.1911025    0.1309147 -29.94  0.000580707    1.545    0.353
        87 -10.4973    172.0384    240.3753   9.8107427138e+01   6.2358066243e-01    0.3550963    0.2561727 -85.94   0.00185408    2.724    0.633
        88  -9.2607     43.4846    236.4580   1.2193569116e+02   2.0023984771e+01     0.111139   0.08706681  69.69 0.0001450587    1.072    0.067
        89  -9.0886     41.2586    232.0974   1.2203428014e+02   2.1108825873e+01    0.2261172     0.132111  37.05   0.00121652    1.784    0.439
        90  -9.8736     72.8026    229.7233   1.1599501662e+02   1.7590794141e+01    0.2851791     0.186051 -44.64  0.001520516    2.311    0.567
