#   1 NUMBER                 Running object number                                     
#   2 MAG_AUTO               Kron-like elliptical aperture magnitude                    [mag]
#   3 X_IMAGE                Object position along x                                    [pixel]
#   4 Y_IMAGE                Object position along y                                    [pixel]
#   5 X_WORLD                Barycenter position along world x axis                     [deg]
#   6 Y_WORLD                Barycenter position along world y axis                     [deg]
#   7 A_WORLD                Profile RMS along major axis (world units)                 [deg]
#   8 B_WORLD                Profile RMS along minor axis (world units)                 [deg]
#   9 THETA_WORLD            Position angle (CCW/world-x)                               [deg]
#  10 FWHM_WORLD             FWHM assuming a gaussian core                              [deg]
#  11 ELONGATION             A_IMAGE/B_IMAGE                                           
#  12 ELLIPTICITY            1 - B_IMAGE/A_IMAGE                                       
         1  -9.3490    110.4999     92.5140   1.0723536698e+02   4.2559285666e+01    0.1481767    0.1424005 -50.33 0.0008104187    1.023    0.023
         2 -13.2256    242.8296    240.7480   1.1002720263e+02  -8.4378805257e+00     1.572642     1.060674   0.41   0.01076221    1.405    0.288
         3 -10.9626     64.1755    248.6199   1.4197838744e+02   1.7330380787e+01    0.4943603    0.3610034  51.76  0.003262642    1.214    0.176
         4  -9.6011     57.9543    247.4613   1.4292784115e+02   1.8306235897e+01    0.2169531    0.1078739  55.24  0.001366449    1.518    0.341
         5 -10.6928     34.6998    248.8250   1.4676699761e+02   2.0832864330e+01    0.5416383    0.1452363  46.87  0.002522767    2.516    0.603
         6 -10.8813     53.1336    239.3770   1.4318192990e+02   2.0271220118e+01     0.592386    0.2046134  55.36  0.003066589    2.376    0.579
         7 -11.1494     43.2801    244.8451   1.4516505690e+02   2.0516951281e+01    0.8771624    0.1984235  38.03  0.003785339    4.045    0.753
         8 -10.4446     37.8489    240.7726   1.4580794200e+02   2.1838233624e+01    0.5317215    0.1414886  42.29  0.002688403    2.805    0.644
         9 -12.9541     41.8109    236.1857   1.4487418955e+02   2.2177710704e+01     2.286388    0.2062067  42.73   0.00883618    4.576    0.781
        10 -12.4498      4.1777    226.0326   1.5051283263e+02   2.7934764678e+01     1.920827    0.6101049  86.04  0.009575135    3.167    0.684
        11 -10.6514     10.8784    226.4515   1.4944784108e+02   2.7218546699e+01    0.7041384    0.2091931  67.44  0.003271953    3.463    0.711
        12  -9.9429     26.1124    249.3068   1.4813500213e+02   2.1698057115e+01    0.2887663      0.12377  52.58  0.001126924    1.672    0.402
        13 -11.5583     27.8696    242.3919   1.4750813390e+02   2.2671363828e+01    0.8880841    0.2997665  63.37  0.004684675    2.649    0.622
        14 -10.7422     21.7817    244.7293   1.4858581090e+02   2.2925943728e+01    0.5591631    0.1888173  37.89  0.003116794    2.809    0.644
        15 -11.2985     19.1226    249.3333   1.4921177023e+02   2.2434736466e+01    0.6409633    0.1619937  41.97  0.003450135    2.865    0.651
        16 -11.5149     14.8722    240.7284   1.4947661397e+02   2.4319922898e+01    0.5830094    0.2939338  58.46  0.004144984    1.429    0.300
        17 -10.5654      5.7260    235.7621   1.5068478418e+02   2.6076657885e+01    0.3502145    0.1682504  48.55  0.001969158    1.647    0.393
        18 -11.1177      4.1741    249.0871   1.5144994063e+02   2.3975749837e+01    0.5430827    0.1398214  42.76   0.00311619    2.725    0.633
        19 -11.7062      3.4355    243.3394   1.5134079761e+02   2.5003447668e+01    0.6918505    0.2024727  57.23  0.003999938    2.380    0.580
        20  -9.7115     89.9661    250.1136   1.3775275323e+02   1.3642609773e+01    0.2862286    0.1068551  49.13  0.001501877    2.039    0.510
        21  -9.3415    100.2146    247.2191   1.3573162237e+02   1.2650964120e+01    0.1645728    0.1049942  61.51 0.0009571211    1.346    0.257
        22 -10.7462     83.3116    244.6034   1.3842849944e+02   1.5457422901e+01    0.3465015    0.1765489  43.93   0.00157743    1.606    0.377
        23  -9.3105     96.2054    244.2070   1.3615328876e+02   1.3711746812e+01    0.1642648      0.10721  64.72  0.001075288    1.351    0.260
        24 -10.4424     88.4138    241.4369   1.3726783822e+02   1.5272942501e+01    0.2683339    0.1572102  80.99  0.001607013    1.939    0.484
        25  -9.0002    105.2400    241.9758   1.3434855072e+02   1.2759261051e+01    0.1310411   0.09403536 -71.60  0.000765505    1.604    0.377
        26 -10.3687     71.3827    239.8903   1.4010348837e+02   1.7857530031e+01    0.4360005    0.2161423  40.61  0.002575978    1.822    0.451
        27 -10.7771     92.9632    235.1909   1.3588561896e+02   1.5676609369e+01    0.3521922    0.1644142  56.29  0.001297668    1.912    0.477
        28 -10.1171     80.4992    236.0110   1.3818586312e+02   1.7291444298e+01    0.2900052    0.1344612  43.21  0.001627485    1.793    0.442
        29  -8.9660    102.5116    234.4783   1.3408908112e+02   1.4400626115e+01    0.1195795   0.09202263  59.24 0.0001493667    1.035    0.034
        30 -10.5378     58.6470    230.7796   1.4161395082e+02   2.1093845406e+01    0.3902863    0.2594565  32.00  0.002533483    1.919    0.479
        31 -10.7397     48.6754    229.8204   1.4328273320e+02   2.2494182204e+01    0.5357368    0.1239797  50.92  0.002327709    3.293    0.696
        32  -9.4306     27.7847    232.3886   1.4698095653e+02   2.4419961736e+01     0.233316    0.1103614  65.89  0.001136408    1.708    0.415
        33  -9.8541     86.4146    230.7227   1.3664697359e+02   1.7382678407e+01    0.2028598    0.1564026  64.49 0.0009524761    1.032    0.031
        34  -8.6708    104.2918    229.6633   1.3326378531e+02   1.4952503364e+01    0.1226629   0.07654089  68.20 0.0005032092    1.641    0.391
        35  -9.7901     39.6124    229.1077   1.4479515391e+02   2.3687944207e+01    0.2983606    0.1304033  41.66  0.001757063    2.014    0.504
        36  -9.3421     80.8556    228.1600   1.3742040519e+02   1.8614963038e+01    0.1886167    0.1289195  65.91  0.001240035    1.229    0.186
        37  -9.6969     21.8606    227.8378   1.4771210978e+02   2.5861095377e+01    0.3023808   0.08839142  42.96  0.001616396    2.601    0.616
        38 -10.5160     94.0531    227.0096   1.3488410399e+02   1.6934670880e+01     0.298092     0.134223  49.02  0.001564073    1.810    0.447
        39 -10.4954     71.8009    223.0318   1.3861395176e+02   2.0779652013e+01    0.4158156    0.2511539  32.72  0.002443948    1.989    0.497
        40  -9.7146     19.1913    220.1837   1.4774322920e+02   2.7529791174e+01    0.5958208    0.1141885  60.05  0.001762315    8.026    0.875
        41  -9.3664     19.3215    223.6791   1.4791160823e+02   2.6875873333e+01    0.2298665   0.08600113  49.70  0.001346893    2.033    0.508
        42  -9.0315     16.4652    223.4942   1.4837945505e+02   2.7199259939e+01    0.1836184   0.07667118  44.31 0.0007928706    1.991    0.498
        43  -9.9538     74.5636    250.0985   1.4035500210e+02   1.5738143239e+01    0.3729206    0.1101272  48.12  0.001832814    2.466    0.594
        44  -8.9006     50.8245    222.0684   1.4234165333e+02   2.3646311277e+01    0.2490528     0.184116  -2.66  0.001390794    3.441    0.709
        45  -9.2791     33.7390    223.5946   1.4545254897e+02   2.5353398817e+01    0.1480309   0.07520996  52.47 0.0004745653    1.556    0.357
        46  -8.7629     99.6082    221.7691   1.3329521370e+02   1.7040713103e+01    0.1592114    0.1064406 -83.80 0.0008274692    1.665    0.399
        47  -9.3529     84.7704    222.5943   1.3617081220e+02   1.9063965683e+01    0.1746323   0.08702048  50.81 0.0009527957    1.653    0.395
        48 -10.6103     51.1212    249.7733   1.4419599451e+02   1.8761068152e+01    0.4761912    0.1935187  38.03  0.002680037    2.403    0.584
        49  -8.8876     27.2981    225.1616   1.4664982726e+02   2.5770189609e+01    0.2212351   0.08208451  58.19  0.001211538    2.195    0.544
        50  -8.9060     43.8404    219.6973   1.4341603116e+02   2.4921354255e+01    0.1565012    0.1313853  47.90  0.001018641    1.407    0.289
        51 -10.3430     13.4690    216.6193   1.4852372838e+02   2.8760935439e+01    0.2980243    0.1348437  60.07  0.001469437    1.734    0.423
        52  -8.3574     24.3244    216.6637   1.4665838579e+02   2.7654076519e+01    0.1183858   0.05732925  66.79 0.0007051175    1.717    0.417
        53  -8.2869     22.3708    210.7148   1.4664193963e+02   2.8980987556e+01    0.1182905   0.05729844  64.05 0.0007018351    1.706    0.414
        54  -8.8519      9.0292    210.0353   1.4893928612e+02   3.0421338889e+01    0.1783994   0.08493574  65.92 0.0006165524    1.677    0.404
        55  -9.2674      6.4001    205.1643   1.4914204347e+02   3.1591985594e+01    0.2800039    0.1185445  71.08  0.001616608    2.033    0.508
        56  -8.9186     77.8337    207.8194   1.3601194210e+02   2.2814864886e+01    0.1773831    0.1190572  68.35 0.0006746977    1.337    0.252
        57  -8.7199      1.4812    205.0428   1.4999167660e+02   3.2057108508e+01    0.1547853   0.07901582 -86.37 0.0006884589    1.552    0.356
        58  -8.7504     13.0573    204.0621   1.4790523167e+02   3.1182127734e+01    0.1817738   0.08920587  67.71   0.00111563    1.678    0.404
        59  -8.4139    189.6414    203.7113   1.1332291409e+02   4.8762028553e+00    0.1347109   0.09248777  15.88  0.000702536    1.685    0.406
        60 -10.0692    167.5482    200.7851   1.1710565493e+02   9.3173047644e+00    0.2939329      0.13232 -47.71  0.001301465    2.573    0.611
        61  -8.4358    100.3159    200.6609   1.3069714274e+02   2.0876375810e+01    0.1348311   0.08566483  70.75 0.0007048137    1.703    0.413
        62 -10.3505    179.3419    198.2465   1.1436534734e+02   7.5950192385e+00    0.3365487     0.163632 -37.03  0.001527681    2.409    0.585
        63 -10.3201    134.8557    199.2882   1.2344203884e+02   1.5411569895e+01    0.2217699    0.1489644  57.36  0.001191016    1.455    0.313
        64 -10.5039    151.8720    197.8780   1.1976405771e+02   1.2649393101e+01    0.2087697    0.1779859  24.57  0.001253578    1.245    0.197
        65  -8.2794    188.5094    194.5284   1.1193585784e+02   6.5192776810e+00     0.133832    0.1174028  28.51 0.0002140956    1.002    0.002
        66 -11.6106    137.4043    193.5090   1.2203418463e+02   1.6035881958e+01    0.4591384    0.1913398  48.17  0.001922415    2.223    0.550
        67 -11.5219    125.9918    191.9945   1.2418028975e+02   1.8327245197e+01    0.3638364    0.2416775  30.18  0.001877071    1.729    0.422
        68  -9.4000      4.0700    197.3353   1.4914100671e+02   3.3315829871e+01     0.227237    0.0993684  81.15  0.001310397    1.962    0.490
        69  -9.5950    149.5008    192.4918   1.1937395510e+02   1.4046789671e+01    0.1350638    0.1205962  46.64 0.0005327866    1.008    0.008
        70  -9.4823    175.7436    189.9923   1.1362826418e+02   9.6315219345e+00    0.1673023    0.1180361 -41.47 0.0008909325    1.569    0.363
        71 -10.9454    160.6544    186.4742   1.1605810756e+02   1.3076089979e+01    0.2819114    0.2275237  61.03   0.00158769    1.310    0.237
        72 -11.0684    152.4115    185.1091   1.1752679436e+02   1.4868336577e+01    0.4198809    0.2540695 -79.53  0.001618018    3.478    0.712
        73 -11.6970    129.2024    185.3923   1.2247652651e+02   1.9048610069e+01    0.5178751    0.2241472  34.84  0.002047433    2.633    0.620
        74  -9.5163    169.5916    185.1782   1.1400118456e+02   1.1622571152e+01     0.181876    0.1302512 -29.51 0.0008931564    1.639    0.390
        75 -10.1571    112.5143    182.0046   1.2554610722e+02   2.2622342380e+01     0.255547    0.1921442  28.44  0.001393189    1.580    0.367
        76 -11.1341    122.8162    179.7591   1.2295019756e+02   2.1300524154e+01    0.2862996    0.2289471 -41.44  0.001610112    1.476    0.322
        77  -9.7191    179.4220    180.2087   1.1109577371e+02   1.0616628895e+01    0.1850369    0.1330947 -54.86 0.0009492847    1.681    0.405
        78  -9.0893    172.3129    177.3215   1.1199241645e+02   1.2499968212e+01    0.1409558    0.1070061   7.67 0.0005325894    1.654    0.395
        79 -11.0836    153.1912    176.5353   1.1583962811e+02   1.6333980514e+01    0.2786058     0.225089  84.03  0.001493699    1.522    0.343
        80  -8.4237      1.3371    176.6753   1.4847599621e+02   3.7690105860e+01    0.1185095   0.05911657  67.74 0.0007051279    1.720    0.418
        81 -10.3748    141.9805    175.3337   1.1802897116e+02   1.8692206285e+01    0.2078261    0.1754319  45.63 0.0006499242    1.103    0.093
        82 -10.4283    164.9799    173.9736   1.1287547602e+02   1.4537965155e+01    0.2220796    0.2070895  36.74 0.0008895475    1.013    0.012
        83  -9.9597    131.2267    173.4017   1.2004012936e+02   2.1075879721e+01    0.2059797    0.1206666  51.97 0.0009531652    1.668    0.400
        84  -9.5809    136.4827    177.5033   1.1960058153e+02   1.9286926349e+01    0.1383815    0.1270799  56.05 6.538371e-05    1.008    0.008
        85 -10.1888    120.5063    170.0281   1.2184768248e+02   2.3711261421e+01    0.2271015    0.1815389  48.37  0.001257667    1.180    0.153
        86 -10.5520    137.0434    167.8101   1.1775291844e+02   2.1128054927e+01    0.3083228    0.1814957  54.32  0.001400194    1.753    0.430
        87  -9.6596    172.4080    167.2276   1.1000889197e+02   1.4321442455e+01    0.1935336    0.1366103 -54.84 0.0009000174    1.645    0.392
        88 -10.5211    151.5986    166.6568   1.1433183366e+02   1.8555493081e+01    0.2925666    0.1730358  46.34  0.001344428    1.596    0.373
        89  -9.7179    129.0215    166.5150   1.1931309072e+02   2.2895200322e+01    0.2232007    0.1321245  43.71  0.001036912    1.603    0.376
        90 -10.0312    121.2576    163.5690   1.2054934837e+02   2.4935800921e+01     0.280389    0.1269278  45.90  0.001145836    2.106    0.525
        91 -10.5486    140.3906    161.7297   1.1586158012e+02   2.1728528033e+01     0.273894    0.1674785  52.79  0.001122543    1.649    0.393
        92  -9.2667    155.4840    160.4911   1.1227057786e+02   1.9001827619e+01    0.1438636    0.1368121  45.55 1.771906e-05    1.005    0.005
        93  -9.2910    179.4968    157.5041   1.0653551943e+02   1.4683583562e+01    0.1437258    0.1373093  31.88 0.0008105367    1.026    0.025
        94 -10.6272    148.0699    160.6550   1.1393717770e+02   2.0444620245e+01    0.2494333    0.2052341 -67.32  0.001320795    1.352    0.260
        95  -9.1707    129.6550    155.6809   1.1714243953e+02   2.5050713314e+01    0.1437675    0.1161904  -2.08 0.0007049273    1.725    0.420
        96  -9.0871      3.6285    154.8446   1.4653531107e+02   4.2105208507e+01    0.1701406   0.08166242 -89.73 0.0009515186    1.749    0.428
        97  -9.9723    160.8205    152.8492   1.0952469600e+02   1.9427880914e+01     0.206754    0.1773904  79.02 0.0009578646    1.349    0.259
        98 -10.3754    139.8320    150.8801   1.1382967330e+02   2.4085223130e+01    0.2811053    0.1730615  37.27  0.001257883    1.689    0.408
        99 -10.6766    146.8592    151.8672   1.1242816704e+02   2.2474695455e+01    0.2306706    0.2076813   8.58  0.001249878    1.265    0.209
       100 -10.4350    150.6976    141.9434   1.0942536437e+02   2.3731400271e+01    0.2157565    0.2017069 -55.74  0.001175448    1.095    0.086
       101 -10.1806    158.0280    141.0051   1.0755752069e+02   2.2382027216e+01     0.244055    0.1888192  87.86  0.001138908    1.733    0.423
       102 -10.4555    142.4003    140.6677   1.1106115856e+02   2.5712820700e+01     0.305392    0.1866371  42.97  0.001061288    1.619    0.382
       103 -10.9058    147.5036    135.9995   1.0882572276e+02   2.5632990815e+01    0.3040214     0.214912  62.56  0.001391423    1.620    0.383
       104  -8.7142      3.6882    136.3315   1.4501301769e+02   4.6140839395e+01    0.1198601   0.06857695  72.22 0.0001797905    1.674    0.403
       105 -10.1964    151.0215    128.0350   1.0614707123e+02   2.6540542868e+01    0.2822238    0.1685712 -67.48  0.001036059    2.658    0.624
       106  -9.9279    136.6750    125.1443   1.0887027174e+02   3.0199872509e+01    0.3179224    0.1355453 -52.84  0.001103834    2.606    0.616
       107  -9.1245    239.3283    125.3205   8.8128254835e+01   7.7976145551e+00    0.1447859    0.1039324   8.25 0.0007047937    1.687    0.407
       108  -9.1554    155.3178    124.3326   1.0425805042e+02   2.6366637000e+01    0.1567059    0.1225445   3.05 0.0004491754    1.691    0.409
       109  -9.8905    131.7675    114.7012   1.0752082328e+02   3.3466749061e+01    0.2810776     0.230834 -47.80  0.001410299    1.202    0.168
       110  -9.5085      4.5857    109.8049   1.4208353322e+02   5.1997873782e+01     0.173793   0.08948757 -85.71 0.0009488443    1.756    0.430
       111  -8.8000    142.6817    100.6866   1.0111231958e+02   3.4029555044e+01    0.1567875    0.1235349   5.42 0.0007036998    1.648    0.393
       112  -9.0777    130.6813     98.6590   1.0355291511e+02   3.7091980895e+01     0.157572    0.1224562  -0.89 0.0005378238    1.714    0.417
