#   1 NUMBER                 Running object number                                     
#   2 MAG_AUTO               Kron-like elliptical aperture magnitude                    [mag]
#   3 X_IMAGE                Object position along x                                    [pixel]
#   4 Y_IMAGE                Object position along y                                    [pixel]
#   5 X_WORLD                Barycenter position along world x axis                     [deg]
#   6 Y_WORLD                Barycenter position along world y axis                     [deg]
#   7 A_WORLD                Profile RMS along major axis (world units)                 [deg]
#   8 B_WORLD                Profile RMS along minor axis (world units)                 [deg]
#   9 THETA_WORLD            Position angle (CCW/world-x)                               [deg]
#  10 FWHM_WORLD             FWHM assuming a gaussian core                              [deg]
#  11 ELONGATION             A_IMAGE/B_IMAGE                                           
#  12 ELLIPTICITY            1 - B_IMAGE/A_IMAGE                                       
         1 -11.1679    230.1393      6.6993   6.3964169309e+01   2.5595069159e+01      1.47654    0.6103609 -47.80  0.006571804    2.119    0.528
         2 -11.3992    215.2744      4.6150   6.4402416927e+01   2.9359213260e+01    0.6768323    0.5301279  68.78  0.003917293    1.326    0.246
         3 -12.0608    246.4313     14.8962   6.4977410157e+01   2.1140331962e+01     1.825702     0.782632 -18.27  0.008050311    2.477    0.596
         4  -9.3630     93.9261     14.5318   8.6593600283e+01   6.1090404844e+01    0.4661509    0.3222564  45.95  0.002285086    1.367    0.268
         5  -9.4894     94.8962      6.9459   8.2379961323e+01   6.1739004694e+01    0.5269633    0.2205725 -27.31  0.001877202    2.402    0.584
         6  -9.9253    200.4060     11.1893   6.7445965987e+01   3.2504325307e+01    0.2416509    0.2035662  -3.11 0.0006649795    1.367    0.269
         7 -10.3171    220.0480     11.9582   6.6057857636e+01   2.7498094356e+01    0.4648562    0.3548556 -16.61  0.002624046    1.396    0.283
         8  -9.5232    195.9106     11.3243   6.7892276458e+01   3.3663553454e+01    0.3002692    0.1941868  40.96  0.001430736    1.830    0.454
         9  -9.5863    161.7917     10.4982   7.1320978952e+01   4.3038937780e+01    0.4471525    0.2651252  58.11  0.002002275    1.595    0.373
        10  -8.8071    102.7937      7.4606   8.0568893883e+01   5.9648212709e+01    0.2938756    0.2737347 -82.33   0.00165882    1.165    0.142
        11  -8.7077    154.2928      5.7924   7.0571792381e+01   4.5589502671e+01    0.2608033    0.1893651 -87.80 0.0007065046    1.371    0.271
        12 -11.0801    236.1982     29.9302   6.9485935401e+01   2.1875249536e+01     1.034574    0.5598279 -48.05  0.005113026    1.709    0.415
        13  -7.6646    172.2861      5.3506   6.8320119899e+01   4.0604736876e+01    0.1494813    0.1040816  36.64 0.0006247028    1.660    0.398
        14  -9.1639    122.1446      4.6850   7.5084670822e+01   5.4705861254e+01    0.2433804    0.1829298 -84.47  0.000975504    1.445    0.308
        15  -9.3571    192.3609      2.2860   6.5465389196e+01   3.5439606668e+01    0.3454993    0.2217441  35.52  0.001642526    1.939    0.484
        16  -8.1096    145.3242      4.3551   7.1223890805e+01   4.8247107552e+01    0.1618171    0.1010305  38.35 0.0007046226    1.766    0.434
        17  -9.1716    183.7409      2.0006   6.6113857453e+01   3.7771269953e+01    0.4125871    0.2316281 -76.89  0.001822971    1.879    0.468
        18  -8.5434    159.6507      2.8500   6.8843645323e+01   4.4346983289e+01    0.2538315    0.1826752  63.66 0.0006476901    1.303    0.233
        19  -8.4140     81.4984      2.5188   8.3924070779e+01   6.5527794727e+01    0.1415103    0.1277517  31.41 6.629741e-05    1.016    0.015
        20  -7.9277    144.9930      1.4731   7.0143807981e+01   4.8592363885e+01    0.2183558    0.1108784 -74.13 0.0008090806    2.492    0.599
        21  -7.8969    118.3105      1.3264   7.4271395207e+01   5.6065598346e+01    0.1580866   0.09939711  37.42  0.000292456    1.660    0.397
        22  -9.5139     23.8992    158.2523   1.4745875753e+02   4.0325936336e+01    0.3348532    0.1105502  46.29  0.001565803    2.319    0.569
        23  -9.1466    156.3299    148.4619   1.1239388980e+02   2.2193829684e+01    0.3453196    0.2330621  21.10  0.001461386    1.741    0.426
        24  -7.9447     87.6623    149.6695   1.2960440001e+02   3.4339302247e+01    0.1319436    0.1083032 -13.41 0.0007051984    1.736    0.424
        25  -7.8533    216.4500    148.5304   1.0057821281e+02   1.0719248798e+01    0.1310704    0.1101297  10.83 8.833383e-05    1.018    0.017
        26  -7.7063    123.0000    148.0629   1.2018246074e+02   2.8631280299e+01    0.2145085   0.08239431 -51.84 0.0007989746    2.919    0.657
        27  -9.0320    236.2263    145.4499   9.6716936281e+01   7.6485633999e+00    0.2284771    0.1081697  40.41  0.001128636    2.018    0.505
        28  -8.2067    192.5282    140.5092   1.0325065925e+02   1.6369141447e+01    0.1376098    0.1227766  18.82 5.648436e-05    1.015    0.014
        29  -8.8167    114.0074    138.9731   1.2080382308e+02   3.2146585234e+01    0.2247885    0.1788499   4.01  0.001136334    1.700    0.412
        30  -8.9572    245.3206    132.3363   9.2650424307e+01   7.6860527153e+00    0.2117534    0.1317911  11.93  0.001133644    1.780    0.438
        31  -8.7113    229.9917    125.1966   9.3429074389e+01   1.1323436911e+01    0.1883973    0.1369318 -43.38  0.001052044    1.609    0.378
        32  -8.8860    193.9637    122.0000   9.8873099207e+01   1.8932159545e+01    0.2358679   0.07704604  49.10 0.0008077987    2.980    0.664
        33  -7.5643      2.9993    111.9843   1.5074100800e+02   5.2399411031e+01    0.1397531    0.1205477  64.22 0.0004061787    1.123    0.109
        34  -8.9608    122.3100    109.8536   1.1231348482e+02   3.6685027620e+01    0.3999421    0.3042235  73.96  0.001886396    1.594    0.373
        35  -8.4726    177.0086    110.0139   9.9319472942e+01   2.4552401812e+01    0.2250261    0.1828416 -80.79  0.000800322    1.674    0.403
        36  -8.3362    161.1765    109.2091   1.0249938709e+02   2.8259500036e+01    0.2101762    0.1842217  89.50  0.001083467    1.370    0.270
        37 -10.1723     24.5697    100.3129   1.4244478014e+02   5.3734406906e+01    0.7199036    0.3717485 -49.26  0.003511504    2.107    0.525
        38  -9.9390     36.0046     96.9805   1.3785352621e+02   5.3531403111e+01     0.473794    0.2250206 -48.87   0.00211206    2.276    0.561
        39 -10.1982     32.3438     96.6660   1.3915509766e+02   5.3956860346e+01    0.3221093    0.2620296 -84.62  0.001929417    1.097    0.089
        40  -9.2323    173.4017     99.8631   9.7467799657e+01   2.7100049665e+01    0.3599591    0.2537333 -16.93  0.001658722    1.671    0.402
        41 -10.1002    133.0905     97.9154   1.0634969461e+02   3.6808757588e+01    0.4837859     0.296501  46.52  0.002084546    1.562    0.360
        42 -10.2525    124.2753     97.7584   1.0867905905e+02   3.8806447975e+01    0.6876019    0.5199491  35.97  0.003279748    1.362    0.266
        43  -8.5475    107.0643     98.7947   1.1391596364e+02   4.2225633859e+01    0.4251845    0.2578676  20.17  0.001575723    2.740    0.635
        44  -8.0811    158.7334     97.5562   1.0001103677e+02   3.0939185418e+01    0.2134313    0.1461644  61.58 0.0009442442    1.600    0.375
        45 -10.5922     72.8851     93.7812   1.2384670318e+02   4.9596850112e+01    0.5889087    0.4382923 -44.34   0.00299443    1.447    0.309
        46  -8.5962     58.5114     93.5228   1.2895243372e+02   5.1766842498e+01    0.1389733    0.1300233 -84.42 0.0002928295    1.021    0.020
        47  -8.0553     14.4909     93.0289   1.4533454867e+02   5.6248307125e+01    0.1892598    0.1082877 -82.10 0.0005221847    1.520    0.342
        48  -8.7856    214.7031     94.8963   8.8757494468e+01   1.8532341697e+01      0.39147    0.1656237 -27.51  0.001547317    2.362    0.577
        49  -7.7947      8.3099     89.6706   1.4733044049e+02   5.7435001432e+01    0.1318778   0.07710796  62.89 0.0007041179    1.665    0.400
        50  -9.0597    246.8620     85.7178   8.2089968275e+01   1.3108583776e+01    0.3471531    0.1449003 -31.66  0.001554468    2.045    0.511
        51  -8.6667    140.0390     86.4173   1.0133233879e+02   3.7461647266e+01    0.2813114    0.2257538 -48.75 0.0004430838    1.305    0.234
        52  -7.8470     92.4917     86.4613   1.1524210450e+02   4.7871445599e+01     0.147316    0.1457164  63.98 0.0001105464    1.044    0.043
        53 -10.1414    242.2569     63.7771   7.7374075422e+01   1.6697621762e+01    0.5102067    0.2290715  56.18  0.002331663    2.369    0.578
        54 -10.9001    248.3894     72.2986   7.8748822936e+01   1.4426640810e+01     1.327497    0.2745128 -29.19   0.00435108    3.823    0.738
        55  -8.8678    242.9341     76.3731   8.0350119971e+01   1.5032670129e+01     0.473584    0.1273225 -34.60  0.001733682    2.979    0.664
        56  -8.4479    199.3135     82.1698   8.7950184588e+01   2.3837944956e+01    0.2760856     0.181793  70.15  0.001263784    1.832    0.454
        57  -8.7394    220.2242     81.2017   8.4496228549e+01   1.9218413697e+01    0.2353923   0.08729856 -38.64 0.0008862792    2.514    0.602
        58  -8.7379    105.7841     71.1913   1.0628871727e+02   4.8458117308e+01    0.3728798    0.2044409 -52.74  0.001474509    2.009    0.502
        59  -8.9148     35.2302     64.0161   1.3201676366e+02   6.1712963188e+01    0.2631227    0.1860058  14.35  0.001201942    1.660    0.398
        60  -9.7965     31.0947     61.7947   1.3343663461e+02   6.2644545420e+01     0.430878    0.1502041 -59.31   0.00175681    2.336    0.572
        61  -8.8143    232.1153     60.2956   7.7646904454e+01   1.9293009102e+01    0.3365627    0.2319878  -2.17   0.00141165    1.718    0.418
        62  -7.4194    150.3349     60.3284   9.0753467971e+01   3.9566579497e+01    0.1651287    0.1199671  23.76 0.0007051912    1.723    0.420
        63  -8.1458    165.2048     59.5799   8.7455272010e+01   3.5792033904e+01    0.2272007    0.1374244  49.00 0.0009546454    1.640    0.390
        64  -8.0926     40.3824     53.7918   1.2686322537e+02   6.3611176781e+01    0.2029511     0.107853 -50.96 0.0009465676    1.695    0.410
        65  -8.0714     97.6658     48.9872   1.0097607661e+02   5.4696055546e+01    0.2529464    0.1128922 -57.43 0.0007049987    4.334    0.769
        66  -9.0828    249.7227     45.6662   7.2215789500e+01   1.7226490464e+01    0.4104698    0.1682534 -39.31  0.001857278    2.043    0.511
        67  -9.5265    250.4399     39.7044   7.0711309933e+01   1.7729897388e+01     0.347561    0.1698986 -13.40  0.001536518    2.441    0.590
        68  -9.4330    232.7834     45.1720   7.3707777816e+01   2.0947472819e+01    0.3809886    0.2589679  -6.81  0.001616286    1.699    0.412
        69  -8.1936     57.5164     45.5003   1.1574331662e+02   6.3183821217e+01    0.2795543    0.1382974  35.97  0.001198603    2.121    0.529
        70  -8.1195     51.9970     44.0646   1.1784837124e+02   6.4326594599e+01    0.2143908    0.1698268  77.94   0.00112596    1.687    0.407
        71  -8.4646     85.8950     43.1491   1.0277935801e+02   5.8388895028e+01    0.2316736    0.2080198 -85.50 0.0009309592    1.301    0.231
        72  -8.2107    104.6678     41.3340   9.5612622338e+01   5.4431300715e+01    0.1578027    0.1203708 -75.46 0.0007052224    1.731    0.422
        73  -8.6615    143.7188     38.1533   8.4423460256e+01   4.4758560071e+01    0.2645954    0.1940143 -52.31  0.001218382    1.465    0.317
        74  -7.6348    224.3116    248.3426   1.1558418458e+02  -1.5110373907e+00    0.1080046   0.05817155  13.93 0.0003955186    1.701    0.412
        75  -8.3976    231.3838    235.8787   1.1280681840e+02  -1.3030484125e+00    0.1786923    0.1119476  31.96 0.0007825028    1.314    0.239
        76  -7.5158    234.5333    229.4941   1.1141634118e+02  -1.1312442315e+00    0.1080382   0.07491414  17.91 0.0003966942    1.010    0.010
        77  -7.8635     47.6725     28.6791   1.1358008812e+02   6.8188604637e+01    0.1408337   0.09954511 -15.07 0.0007047857    1.686    0.407
        78  -7.5133    175.3667     27.2915   7.5265034324e+01   3.7470841067e+01     0.158565    0.1063064  38.46 0.0007026446    1.711    0.415
        79  -8.1303      4.5165     28.9795   1.4051652648e+02   7.2162723763e+01     0.188882    0.1004156 -68.66 0.0008835135    1.559    0.358
        80  -7.8104    185.3409     26.2958   7.3645633267e+01   3.4890344598e+01    0.1521968     0.106444  37.45 0.0003629948    1.660    0.398
        81  -8.1204      9.1846     25.1612   1.3635852512e+02   7.2824717289e+01    0.1592076    0.1380278  81.45 0.0004940714    1.317    0.241
        82  -9.3411    202.7281     19.0970   6.9552419701e+01   3.1108451716e+01    0.3188651    0.2167006 -70.44  0.001589323    1.517    0.341
        83  -8.5127    152.2914     20.0660   7.6155079072e+01   4.4692795164e+01    0.2164857    0.2010941 -51.48  0.001168016    1.098    0.089
        84  -9.8804    211.7770     15.0102   6.7561161780e+01   2.9233587688e+01    0.2796936    0.2569743  14.49  0.001680683    1.267    0.211
        85  -7.5178     14.3177     19.3132   1.3072151021e+02   7.3818006920e+01    0.1325328   0.07601313 -35.81 0.0007036296    1.646    0.392
        86  -8.1432    211.9851    227.4969   1.1478190319e+02   2.0624520958e+00    0.1407915   0.08240528  49.71 0.0008090836    2.433    0.589
        87  -7.9487    156.6530    225.6811   1.2439566726e+02   1.0232315596e+01     0.118001   0.07651287  15.87 0.0007048853    1.730    0.422
        88  -9.6111    249.2404    222.6622   1.0815773763e+02  -2.3925520052e+00    0.2381551     0.154287  12.22  0.001780474    1.141    0.123
        89  -9.6877    148.2487     15.1020   7.4931830268e+01   4.6370135477e+01     0.403271    0.2057807  65.15  0.001650749    1.791    0.442
        90  -8.9111    171.2188    222.4013   1.2126277929e+02   8.4922116750e+00     0.170712   0.08545991  42.67 0.0009526903    1.660    0.398
        91  -8.9205    116.4964     13.5289   8.0225301618e+01   5.5341751583e+01    0.1503793    0.1391362  50.41 -3.880246e-06    1.024    0.024
        92  -7.8455     56.1220    216.8512   1.4367608889e+02   2.5424923709e+01    0.1354127    0.1093116  39.82 0.0009989429    1.257    0.204
        93  -7.9851    242.4660    221.0169   1.0894605825e+02  -1.3836596020e+00     0.141232   0.09010323 -15.52 0.0005892473    1.544    0.352
        94  -7.9365    187.0056    215.5141   1.1743581346e+02   6.9778286020e+00    0.1767585   0.09043074  36.59 0.0004989525    1.507    0.337
        95  -8.8332    243.4861    208.5143   1.0687415979e+02  -3.5231133479e-01    0.1112679   0.08014408  14.04 0.0008103228    1.013    0.013
        96  -7.3125    167.7045    201.6483   1.1906388959e+02   1.1765052884e+01    0.1235412   0.08445671  10.61 0.0007033116    1.684    0.406
        97  -9.2698    237.8738    192.6514   1.0517717403e+02   2.0130999906e+00    0.1898769     0.112876  20.79 0.0008240127    1.429    0.300
        98  -8.5464     32.9742    191.6804   1.4716785016e+02   3.2589805155e+01    0.1627237   0.09270161   2.05  0.000671107    4.356    0.770
        99  -7.5780    205.4428    190.4959   1.1026502129e+02   7.1752065638e+00    0.1212044   0.09769719  21.73 0.0001197565    1.062    0.059
       100  -8.4784    220.4195    178.7687   1.0564331109e+02   6.2128038628e+00    0.2129322    0.1099515 -33.83   0.00114366    2.101    0.524
       101  -7.2898     11.6851    178.3132   1.5136571776e+02   3.7222989461e+01    0.1237456   0.05770001  57.42 0.0002155539    1.640    0.390
       102  -7.8791    193.1449    172.8831   1.0946891742e+02   1.1522417676e+01    0.1799919    0.1289525  20.28 0.0006333791    1.288    0.224
       103  -9.4577    249.6905    167.0556   9.8832996962e+01   3.0027183486e+00    0.4142397    0.1610199 -39.80  0.001845244    3.490    0.713
       104  -8.9596     97.0335    165.7715   1.2948018165e+02   2.9498181155e+01    0.2137616    0.1560769  56.02 0.0007050915    1.245    0.197
