#   1 NUMBER                 Running object number                                     
#   2 MAG_AUTO               Kron-like elliptical aperture magnitude                    [mag]
#   3 X_IMAGE                Object position along x                                    [pixel]
#   4 Y_IMAGE                Object position along y                                    [pixel]
#   5 X_WORLD                Barycenter position along world x axis                     [deg]
#   6 Y_WORLD                Barycenter position along world y axis                     [deg]
#   7 A_WORLD                Profile RMS along major axis (world units)                 [deg]
#   8 B_WORLD                Profile RMS along minor axis (world units)                 [deg]
#   9 THETA_WORLD            Position angle (CCW/world-x)                               [deg]
#  10 FWHM_WORLD             FWHM assuming a gaussian core                              [deg]
#  11 ELONGATION             A_IMAGE/B_IMAGE                                           
#  12 ELLIPTICITY            1 - B_IMAGE/A_IMAGE                                       
         1 -14.8304     68.2987    144.1974   1.1262523864e+02   3.7258468135e+01     5.212369     2.390404  69.59  0.006918247    4.451    0.775
         2 -14.3507    199.3189     31.8659   5.2124124296e+01   3.1104548140e+01     2.211595     1.391792  30.42    0.0085172    2.137    0.532
         3 -14.0287    213.9973     15.0573   4.5644461697e+01   2.9339058023e+01     1.162771    0.9376317  31.06  0.002818516    1.520    0.342
         4 -12.3873    208.0859     22.4121   4.8319794095e+01   3.0000457380e+01    0.5091346    0.3991594  25.37  0.001128464    1.590    0.371
         5 -12.5315      1.9541     24.0241   1.0854073653e+02   6.9836181267e+01    0.9676452    0.1352146 -58.13   0.00326582    5.047    0.802
         6 -13.4378      3.7698      6.0487   1.0067137651e+02   7.2897776134e+01    0.9658681    0.6408848 -30.25  0.007016951    1.107    0.097
         7 -10.3108     60.2640      7.6090   7.4852102499e+01   6.6194211613e+01    0.1663166    0.1031468  29.97 0.0009393732    1.544    0.352
         8 -11.1240     42.1505      3.9207   8.0371337657e+01   6.9349994992e+01    0.2414159    0.1565387 -42.49  0.001430508    1.929    0.482
         9  -9.1768    180.3117    192.6610   9.5997181358e+01   7.8029698953e+00     0.130834    0.1049726  77.36 0.0007045707    1.692    0.409
        10 -15.4982    105.7883    247.2768   1.1721735450e+02   1.1483746146e+01     6.113421     2.267696  35.70    0.0230357    3.220    0.689
        11 -10.1273    211.0908    180.0069   8.7703074458e+01   4.0153334203e+00     0.408522    0.1810652 -24.88  0.001535442    3.226    0.690
        12 -11.9492     68.4710    181.7923   1.1753050896e+02   2.8910580026e+01    0.3519182    0.2503105 -42.25   0.00201662    2.050    0.512
        13 -11.8570     73.0111    176.1896   1.1591186261e+02   2.9479014605e+01    0.2682824    0.2264001 -54.51  0.000614381    1.433    0.302
        14  -9.4061     99.4952    180.4727   1.1078665155e+02   2.4606934649e+01    0.1325127    0.1145937  72.80  0.000169711    1.001    0.001
        15 -16.4691      7.2406    205.0856   1.3098627968e+02   3.1101111674e+01     6.435021     1.184781 -74.46   0.02262275    4.103    0.756
        16  -9.8570    197.7671    176.0778   8.9474773917e+01   7.2017574814e+00    0.2791072    0.1768263  67.47  0.001174511    2.703    0.630
        17 -13.4060     69.5053    162.4818   1.1494193926e+02   3.2953642610e+01    0.5432419    0.4124057 -33.59  0.001379381    1.963    0.491
        18 -14.6474     65.4098    244.0846   1.2370152097e+02   1.7581664968e+01     2.422271     1.120384  45.21   0.01482845    1.745    0.427
        19  -9.9039     32.5661    165.2380   1.2338006493e+02   3.6745407729e+01    0.1641042   0.09068301 -66.23 0.0009459741    1.611    0.379
        20 -10.7662     45.6758    170.3372   1.2109637404e+02   3.4213291574e+01    0.3512858    0.1705378  75.07  0.001677791    2.379    0.580
        21  -9.6041     52.3552    163.2752   1.1888276723e+02   3.4973405411e+01    0.1124393   0.09357113 -41.17 0.0007005277    1.647    0.393
        22 -11.1913     33.0574    157.2571   1.2249870195e+02   3.8442373762e+01    0.2908868    0.1826845  68.60   0.00175843    1.485    0.327
        23 -10.0532    188.8612    154.8740   8.6860191121e+01   1.2679222901e+01    0.2370606    0.1980063  10.68  0.001247664    1.284    0.221
        24 -10.8477    134.2388    147.0341   9.7168014756e+01   2.5538056295e+01    0.7096355    0.1471282 -52.11  0.001742185    5.723    0.825
        25  -9.8964    174.8339    148.8504   8.8464946470e+01   1.6768212764e+01     0.203739    0.1794797  86.06 0.0004980341    1.349    0.259
        26 -11.9258     81.8949    165.9005   1.1260953747e+02   3.0440563205e+01    0.4326287    0.2979516 -70.31 0.0004619024    1.370    0.270
        27 -16.3250     10.6576    242.9167   1.3218317674e+02   2.4036819516e+01     2.217403     1.560532  45.52   0.01846828    1.591    0.371
        28 -12.4208     89.4637    143.2364   1.0725326184e+02   3.4386341565e+01    0.3541576    0.2989756 -16.92 0.0005601833    1.654    0.395
        29 -11.0624    102.5204    142.5505   1.0390694424e+02   3.2397049585e+01    0.5655568    0.3450482 -32.18  0.002376492    2.549    0.608
        30 -10.0349     45.1866    144.4215   1.1825894617e+02   4.0041266468e+01    0.1700097    0.1020608  52.83 0.0006158812    1.697    0.411
        31 -12.6127     87.9836    159.4811   1.1027563727e+02   3.0943487324e+01     1.038711     0.668542 -66.93  0.001459384    1.490    0.329
        32 -12.9413     40.1472    244.7915   1.2778799013e+02   2.0551160133e+01    0.3326182    0.2127733  85.99 0.0005260401    1.326    0.246
        33 -10.1481    105.9201    130.6417   1.0068466680e+02   3.4518488854e+01    0.2925592    0.2443411  86.75    0.0013871    1.265    0.209
        34 -10.1116    111.3856    132.2201   9.9629058846e+01   3.3173720284e+01    0.2864191    0.2347654  -9.82 0.0009314208    1.677    0.404
        35 -11.6500    129.0241    173.4887   1.0329785567e+02   2.0980517556e+01    0.4873937    0.2361516  30.06  0.001831167    3.024    0.669
        36 -10.2871    160.5157    128.2413   8.6860652757e+01   2.3986839101e+01    0.3005939    0.2353703  -8.84  0.001394231    1.631    0.387
        37 -11.1117     98.7679    128.6334   1.0210784047e+02   3.6224073774e+01    0.2908691    0.2495652  -0.57 0.0009288712    1.543    0.352
        38  -9.9987    125.8184    127.0424   9.4860639980e+01   3.1581084208e+01    0.2440844    0.1691763 -78.08 0.0005088325    1.934    0.483
        39 -10.4726    117.1469    126.6598   9.6957827782e+01   3.3355034413e+01    0.2657772    0.1986773 -64.92 0.0008828266    1.387    0.279
        40  -9.4048    146.5636    185.4703   1.0158062697e+02   1.5400402950e+01    0.1366012    0.1220415  57.06 0.0001949624    1.039    0.038
        41 -10.1173    135.6169    123.8137   9.1677139126e+01   3.0295407083e+01    0.2233157    0.1410316 -58.04 0.0005917149    1.733    0.423
        42  -9.8381    107.8869    120.2291   9.7897117354e+01   3.6543034131e+01    0.2077406    0.1886044 -89.94 0.0004445595    1.114    0.103
        43 -10.0935    167.9818    112.8089   8.1295504758e+01   2.5419475562e+01    0.3747225    0.2585036 -71.54   0.00151907    2.126    0.530
        44  -9.8483    205.3883    110.1317   7.2916086074e+01   1.7150198223e+01    0.2546246    0.2071884  35.47 0.0006718698    1.277    0.217
        45 -11.4215     43.9092    109.3736   1.1339008050e+02   4.8307131265e+01     0.265018     0.194573 -79.76   0.00106509    1.258    0.205
        46 -10.7878    195.4716    169.9907   8.8705435596e+01   8.6731966012e+00     0.302653    0.2885577  24.02  0.001529471    1.079    0.073
        47  -8.9298     89.4892    101.4152   9.8497355810e+01   4.4053453406e+01    0.1428303     0.132066 -68.44 5.736921e-05    1.056    0.053
        48 -10.9701      2.0023     88.2911   1.2236336126e+02   5.6404552866e+01    0.3649954    0.1230146 -74.61  0.001667208    2.438    0.590
        49  -9.0153     24.9689     82.4925   1.1421153791e+02   5.6208997988e+01    0.1447887    0.1239488  23.04 0.0004128448    1.466    0.318
        50 -11.1983      2.3067     80.7421   1.2117981440e+02   5.8061546961e+01    0.2818986   0.09966553 -66.57  0.001398275    1.985    0.496
        51 -10.4830     13.5044     59.9629   1.1347646295e+02   6.1958746079e+01    0.1718003    0.1585653  76.36 0.0004547961    1.360    0.264
        52 -11.8920    152.3764     55.5526   6.7848657353e+01   3.9881775023e+01    0.8565379     0.503081 -81.40  0.001559256    4.073    0.754
        53 -10.5709    146.0497     50.4957   6.7564547930e+01   4.2267768782e+01    0.3219999    0.2363112 -81.08  0.001072123    1.908    0.476
        54 -12.5324    191.1550     37.6742   5.5012745469e+01   3.2474087349e+01    0.5908505    0.5150667   2.06  0.001003551    1.310    0.237
        55 -13.5445     43.4424    210.7264   1.2503710832e+02   2.6242120634e+01    0.5577537    0.4420914 -70.40  0.001301407    1.479    0.324
        56 -15.6099     52.2872    201.4207   1.2267683532e+02   2.6986287199e+01     3.767545     1.568997  59.39   0.01899444    2.271    0.560
        57 -10.2618     71.5259    229.9847   1.2159160889e+02   1.9180069473e+01    0.1726674      0.12144  58.51 0.0006008037    1.111    0.100
        58  -9.4710     95.1687     41.7934   7.7893031088e+01   5.5088870457e+01    0.2814709    0.1464039 -45.69  0.001198276    2.146    0.534
        59 -11.7250     63.1638    222.7675   1.2246724407e+02   2.1568502272e+01    0.3710104    0.1938696  68.49  0.001367294    1.771    0.435
        60 -10.3941    207.6420    183.7741   8.9085437000e+01   4.0817778074e+00     0.227421    0.1969584 -22.06 0.0009018102    1.206    0.171
        61 -12.0477    193.9867    193.8381   9.3558637283e+01   5.0654843232e+00    0.6968111     0.572269 -85.48  0.003923086    1.858    0.462
        62 -10.8263    189.6335     15.0977   4.8491979405e+01   3.5600057017e+01    0.2473253    0.1885749 -90.00 0.0007099717    1.314    0.239
