#   1 NUMBER                 Running object number                                     
#   2 MAG_AUTO               Kron-like elliptical aperture magnitude                    [mag]
#   3 X_IMAGE                Object position along x                                    [pixel]
#   4 Y_IMAGE                Object position along y                                    [pixel]
#   5 X_WORLD                Barycenter position along world x axis                     [deg]
#   6 Y_WORLD                Barycenter position along world y axis                     [deg]
#   7 A_WORLD                Profile RMS along major axis (world units)                 [deg]
#   8 B_WORLD                Profile RMS along minor axis (world units)                 [deg]
#   9 THETA_WORLD            Position angle (CCW/world-x)                               [deg]
#  10 FWHM_WORLD             FWHM assuming a gaussian core                              [deg]
#  11 ELONGATION             A_IMAGE/B_IMAGE                                           
#  12 ELLIPTICITY            1 - B_IMAGE/A_IMAGE                                       
         1 -13.6433     67.2697     44.0794   8.5891919753e+01   5.9842129594e+01     2.165365    0.8340214 -28.17  0.006764494    4.488    0.777
         2 -15.5736    113.8006    143.9331   9.9303557416e+01   3.0032263287e+01     5.708464     3.321577 -30.97   0.02192225    2.816    0.645
         3 -15.6242    113.6164    101.2786   8.9400793598e+01   3.9843902508e+01     2.840286     2.312768 -37.14   0.01428699    1.241    0.194
         4 -15.3879    107.4725     73.2153   8.2881700232e+01   4.7079432885e+01     2.975837     2.188464 -86.19   0.01312619    2.165    0.538
         5 -14.4087     71.0091     60.7205   9.0503745164e+01   5.6097272077e+01     3.882408     1.610297 -29.32   0.01190896    4.498    0.778
         6 -15.6095     74.4398    124.9790   1.0588606911e+02   4.1020887249e+01     3.576814     2.450083 -67.76   0.01847028    1.355    0.262
         7 -15.1855     90.0805     76.8524   8.9331481168e+01   4.9621647637e+01     2.211211     1.797977  74.66   0.01142744    1.621    0.383
         8 -13.6547     97.4933     44.0491   7.5636282371e+01   5.4460237586e+01    0.9330491     0.736897  79.60  0.004732344    1.889    0.471
         9 -11.7266    122.1364     30.5931   6.3648225157e+01   5.1048177101e+01    0.3506326     0.263888 -67.65  0.001720831    1.813    0.449
        10 -13.0150     77.1861     26.0450   7.4902953163e+01   6.1102064485e+01     0.766314    0.4266943  41.48  0.003831876    1.793    0.442
        11 -11.9444     97.8427     12.0862   6.2383326225e+01   5.8741883332e+01    0.4097956    0.2711716  47.21  0.001930616    1.391    0.281
        12  -9.5045     40.7921     14.2125   8.3840117276e+01   6.8430307641e+01    0.2183401    0.1512316  -7.59 0.0003289393    1.324    0.245
        13  -9.7968     50.4646     15.9262   8.0454619264e+01   6.6870575366e+01    0.2758593    0.1725339  -2.71  0.001065063    1.753    0.429
        14  -9.8891    169.7298    232.1485   1.0206364131e+02   2.9824593980e+00     0.303472    0.2159237  58.45  0.001440029    1.551    0.355
        15 -12.2563    237.6890    231.3173   8.9806347647e+01  -7.8006672644e+00     1.218002    0.4822488  41.84  0.006056596    2.295    0.564
        16 -12.2985    231.4736    236.7888   9.1744413174e+01  -7.4979212786e+00    0.5987666    0.3222429  20.64  0.003346272    1.858    0.462
        17 -11.7338    249.1788    223.2100   8.6515626101e+01  -8.5737210288e+00      0.70822     0.387347 -15.67   0.00401917    1.952    0.488
        18 -12.4319    237.9907    241.1781   9.1336906666e+01  -8.9426788568e+00    0.7199168     0.386098  38.12  0.003223106    1.593    0.372
        19  -8.6120    214.3514    250.2999   9.6717261599e+01  -6.4673421808e+00    0.1194302   0.07172134  17.67 0.0007037358    1.694    0.410
        20  -9.4790    127.9506    232.5477   1.0989845556e+02   9.8038200280e+00    0.2061866     0.173178 -30.33  0.001366034    1.690    0.408
        21 -12.4522     99.7999    218.4405   1.1362490341e+02   1.6713852164e+01    0.8703153    0.3483908  59.89  0.003507732    3.184    0.686
        22 -12.2460     99.1468    226.5213   1.1461649443e+02   1.5343889129e+01    0.5730765    0.3511656  39.65  0.002362313    1.552    0.356
        23 -10.5979    107.0083    224.0197   1.1286334413e+02   1.4585665905e+01     0.463498    0.3180465  17.05  0.002438503    2.565    0.610
        24 -10.2126     74.1159    229.8054   1.1953538866e+02   1.8361103270e+01    0.1900022    0.1233154  65.47  0.001040649    1.264    0.209
        25  -8.9409    170.7291    225.3712   1.0090576746e+02   3.8222014687e+00    0.2741345    0.1269179  51.20 0.0008371483    2.216    0.549
        26 -10.9131    164.6686    226.6808   1.0223506599e+02   4.6512763163e+00    0.3824205    0.3056969  26.22  0.001830294    1.241    0.194
        27  -9.9957    160.5271    227.4714   1.0312629025e+02   5.2298475811e+00    0.2303848    0.2253009 -37.30 0.0009425555    1.242    0.195
        28 -11.5343    125.9358    221.9031   1.0898874804e+02   1.1932237880e+01    0.6526199    0.4276066  74.25  0.001168745    1.857    0.461
        29 -12.6782     88.3307    225.0479   1.1648980074e+02   1.7215413455e+01    0.7186742     0.316678 -62.17  0.003729349    2.469    0.595
        30  -9.3237    185.0403    226.9834   9.8476496340e+01   1.1658775024e+00    0.2250721    0.1522197  39.44 0.0006859917    1.223    0.182
        31  -8.8944     19.9461    222.8529   1.2852212295e+02   2.6192375767e+01    0.1363232    0.1248257 -29.21  0.001077509    2.031    0.508
        32  -9.0925    157.3783    221.9472   1.0294452647e+02   6.6341457621e+00    0.1653493    0.1537082  36.99  0.001120773    1.123    0.109
        33 -10.6974    131.0771    215.8457   1.0720808503e+02   1.2140956635e+01    0.4286516    0.3206981  81.94  0.002113094    1.555    0.357
        34  -8.8006    115.1058    220.9822   1.1096425263e+02   1.3850257588e+01    0.1737351    0.1469196  15.42 0.0006660722    1.643    0.391
        35 -10.7723     75.4893    220.0264   1.1841152901e+02   1.9976284447e+01    0.2336094    0.1509988  48.38 0.0007332042    1.334    0.251
        36 -10.1382     63.1549    218.0434   1.2053543035e+02   2.2021658169e+01    0.2447847     0.107799  60.23    0.0012422    2.110    0.526
        37 -11.3761    238.0426    216.1038   8.7175696770e+01  -6.0461923018e+00    0.2984048    0.1849823  27.57  0.001771562    1.385    0.278
        38  -8.6143    175.8254    216.0371   9.8527123956e+01   4.3748533603e+00    0.1856959     0.145951  89.29  0.001026893    1.927    0.481
        39 -11.3958     79.4786    211.2386   1.1679885518e+02   2.1097527741e+01    0.2585491    0.2291528  75.35 0.0009446481    1.181    0.153
        40  -8.6095     42.2881    215.6364   1.2417270303e+02   2.5085345185e+01    0.1230429   0.06363218  69.78 0.0006014858    1.695    0.410
        41 -10.2574    111.1791    213.6236   1.1084498180e+02   1.5820445514e+01    0.3926559    0.1939193  38.66  0.001586526    1.920    0.479
        42 -11.2883     87.0819    210.3551   1.1521991613e+02   2.0165093044e+01    0.2848912    0.1581496  50.61  0.001382583    1.525    0.344
        43 -11.8054    245.1056    209.5056   8.4799357110e+01  -6.3270468244e+00    0.4675038    0.3098945  37.51   0.00285751    1.450    0.310
        44 -10.9307    249.9845    198.9810   8.2043030600e+01  -5.7629560344e+00    0.4603544    0.2516431 -22.76  0.001719479    1.810    0.448
        45 -11.2664    248.9860    205.7971   8.3470761036e+01  -6.4671478859e+00    0.3563699    0.3238229  52.93  0.001350004    1.666    0.400
        46  -9.4158    202.8461    209.1761   9.2285672722e+01   6.9411821719e-01    0.2321058    0.1923202  12.62  0.001306968    1.131    0.116
        47  -9.7871    135.5862    209.1903   1.0540128225e+02   1.2561895671e+01    0.2156014    0.1278627 -60.93 0.0006373892    2.003    0.501
        48 -11.0009     57.2455    206.5945   1.2066196657e+02   2.5025937433e+01    0.3639103    0.1813375 -83.10  0.001945264    2.015    0.504
        49  -9.2639     47.3972    209.1831   1.2274683157e+02   2.5735999366e+01     0.169263   0.08904176  88.40 0.0009490867    1.811    0.448
        50 -11.7133    101.9394    207.1180   1.1189567626e+02   1.8525380421e+01    0.4525672    0.2311534  39.05  0.002256693    1.877    0.467
        51  -8.4841    212.6877    207.7061   9.0210299179e+01  -7.8989308909e-01    0.1302284   0.08802846  12.57 -0.0001541599    1.594    0.373
        52  -9.1165    123.9153    205.9233   1.0729990173e+02   1.5158275920e+01    0.1730135    0.1571667  38.28  0.001106216    1.211    0.175
        53  -9.2848    236.3032    205.2909   8.5552710452e+01  -4.3959543334e+00    0.1271338   0.08286586  10.25 0.0002140369    1.570    0.363
        54 -12.2075     81.3424    201.8721   1.1544221234e+02   2.2686348415e+01    0.4281375    0.2774856  65.51  0.002483459    1.401    0.286
        55 -12.1025     78.9610    194.2529   1.1507802622e+02   2.4591763919e+01    0.4701402    0.2726357  70.34   0.00207062    1.806    0.446
        56  -9.4171     49.0324    202.0596   1.2185491602e+02   2.6964456054e+01    0.1968855     0.108485  68.84  0.000823775    1.637    0.389
        57 -12.2094     90.0280    199.4386   1.1339674630e+02   2.1889043605e+01    0.4248031    0.3341866  46.18  0.001382591    1.258    0.205
        58 -10.5614    128.1149    197.0309   1.0517125805e+02   1.6129281633e+01    0.4282849    0.3099919  25.30  0.001813367    1.710    0.415
        59 -10.4186    173.1907    195.0642   9.5584813606e+01   8.2867606028e+00    0.3908926    0.2830018 -34.83  0.002002645    1.568    0.362
        60 -11.3671     66.7576    194.6683   1.1763644759e+02   2.6210604498e+01    0.3482605     0.205841  86.61  0.001276431    1.716    0.417
        61 -10.3626    136.3755    194.0045   1.0298469248e+02   1.5249936294e+01    0.3101584    0.1673121 -56.18  0.001301199    2.085    0.520
        62  -9.8237     43.7948    193.5019   1.2215354287e+02   2.9350758969e+01    0.3586861    0.1608413  86.25  0.001701461    2.487    0.598
        63  -9.7118     44.5001    188.5127   1.2157580098e+02   3.0316150015e+01    0.1717597      0.14006 -56.22  0.001152549    1.576    0.365
        64  -9.3777    124.1408    191.8682   1.0523796355e+02   1.7833979675e+01    0.2045349    0.1648445  67.24 0.0004751398    1.192    0.161
        65 -13.8002     97.3714     54.3929   7.9523051370e+01   5.2698288645e+01     1.317323    0.6343196  49.91  0.005384106    2.311    0.567
        66 -10.6404    210.1608    247.6094   9.7046619003e+01  -5.5262554032e+00    0.4086354    0.1952765  21.51  0.001951159    2.720    0.632
        67 -15.1025     81.3440    154.6820   1.0924724902e+02   3.2977246258e+01     3.657758    0.7946975 -55.84   0.01151631    4.005    0.750
        68  -9.9020    195.8343    248.5903   9.9672548449e+01  -3.4380243466e+00    0.2727809    0.1903512   9.98  0.001756032    1.605    0.377
        69  -9.9437    204.6837    176.1637   8.5792877347e+01   5.5134306001e+00    0.3161406    0.2545159 -23.26 0.0009920201    1.265    0.209
        70 -10.6238    132.1797    178.0453   1.0128795105e+02   1.9182467535e+01    0.3864868    0.2232277  28.80  0.001664347    2.237    0.553
        71 -12.3587     60.3607    175.2698   1.1688234720e+02   3.1229580904e+01    0.5746203    0.3718024 -61.21  0.003289795    1.553    0.356
        72  -9.0608     12.5282    176.5231   1.2706917147e+02   3.6180104702e+01    0.2364581    0.1317154 -75.96  0.001431628    1.472    0.321
        73  -9.1244     13.8963    171.9502   1.2646869857e+02   3.7035787445e+01    0.2891043    0.1719942 -43.53   0.00164207    2.654    0.623
        74  -7.8640    218.3273    174.2915   8.2827163860e+01   3.2276852895e+00     0.141391   0.09868061  10.43 0.0007017864    1.620    0.383
        75  -8.7118    149.0096    173.7500   9.6830590882e+01   1.6867184100e+01    0.2926538    0.1619079 -62.97  0.001202546    2.434    0.589
        76 -11.8418    122.8481    171.9477   1.0233175284e+02   2.2165052839e+01    0.4463331    0.3350128 -37.34   0.00231147    1.646    0.392
        77  -8.7737     23.4074    174.2155   1.2468431249e+02   3.5655287095e+01    0.1760061   0.08816265  89.80 0.0009559742    1.753    0.429
        78  -8.6426    193.4112    172.8400   8.7338442424e+01   8.2717339300e+00    0.1812886    0.1318632 -22.74 0.0003490958    1.521    0.342
        79  -8.8226     34.4274    173.2565   1.2228920560e+02   3.4737910599e+01    0.1765517   0.09401669 -89.05 0.0009508187    1.700    0.412
        80 -10.0580     44.8859    170.6195   1.1977367393e+02   3.4159501752e+01     0.401264    0.1526403 -72.98  0.001806633    2.375    0.579
        81 -11.5844     54.9731    186.7617   1.1926036444e+02   2.9417116004e+01    0.5323676    0.2458779  73.33  0.002370537    2.684    0.627
        82 -10.7005     55.3414    169.7575   1.1736472032e+02   3.3096349724e+01    0.3649589    0.2124744 -89.01  0.001306193    1.693    0.409
        83 -10.7135     55.7457    163.9510   1.1659215459e+02   3.4356819964e+01    0.3294008    0.2472576 -32.40  0.001860472    2.052    0.513
        84  -9.7155    208.0815    170.1411   8.3912934021e+01   5.8600550070e+00    0.3325909    0.1776742  33.91  0.001145961    1.931    0.482
        85 -10.5579    249.4880    178.9744   7.8253772697e+01  -3.0106646345e+00    0.3385735    0.1162371 -33.43  0.001290206    2.781    0.640
        86 -10.5606    154.2464    168.8858   9.4767570366e+01   1.6813916695e+01    0.4225394    0.1904355 -38.18  0.001583209    2.764    0.638
        87  -9.4811    214.1062    168.1393   8.2350651338e+01   5.0249576346e+00    0.2220706    0.1769254   9.60 0.0007337227    1.272    0.214
        88  -9.5213     47.4909    164.0918   1.1849119602e+02   3.5322282472e+01    0.2804435     0.155531 -88.47   0.00144719    1.765    0.433
        89  -9.8278     37.9586    162.9602   1.2051959079e+02   3.6649566110e+01    0.5476573    0.1305755 -64.37  0.002125404    3.246    0.692
        90 -10.3379    147.6946    163.3878   9.5151785344e+01   1.9230789516e+01    0.4408957    0.3467824  50.64  0.001728093    1.218    0.179
        91 -11.3961    144.9866    159.7711   9.5049642896e+01   2.0521923597e+01    0.6076388    0.2208628  41.82  0.002115601    2.693    0.629
        92  -8.6003    185.7819    163.4157   8.6949220277e+01   1.1493406981e+01     0.204969    0.1302362  33.14 0.0008083919    1.627    0.385
        93 -13.8367     57.1446    143.2097   1.1351481157e+02   3.8995058274e+01     2.444231    0.8774082 -77.18  0.007814986    4.263    0.765
        94  -8.4962      9.3507    161.6545   1.2665618329e+02   3.9663498145e+01    0.1270475   0.06437697  68.93 0.0007040606    1.814    0.449
        95  -9.3007     22.9014    158.4474   1.2344628645e+02   3.9179680230e+01    0.3561053    0.1301364 -83.43  0.001543684    2.693    0.629
        96  -8.1492    205.6830    159.6864   8.2173462147e+01   8.1163696036e+00    0.1481814    0.1076758   7.75 0.0007036082    1.645    0.392
        97 -10.3994    165.9660    248.7401   1.0495890398e+02   1.2533443934e+00    0.2808267    0.1699705  46.78  0.001118529    1.362    0.266
        98  -9.3856    213.2681    155.2430   7.9753079628e+01   7.3534281937e+00    0.2690185     0.234766  45.53   0.00144021    1.219    0.179
        99 -14.2197     92.1077    102.4905   9.5858957409e+01   4.3556698283e+01     2.373659    0.9460785  36.63  0.008668258    2.832    0.647
       100  -9.5227    107.1960    248.9659   1.1539465686e+02   1.0356685167e+01    0.1617361    0.1397575  42.25  0.001067561    1.320    0.242
       101  -9.8550     28.5195    149.1494   1.2125126860e+02   4.0754990383e+01    0.4881039     0.183106 -88.80  0.001841069    3.546    0.718
       102  -9.5025    230.1416    148.9110   7.5260382434e+01   5.0535846950e+00    0.2086328    0.1891353 -53.66 0.0006954452    1.329    0.248
       103  -8.5217    220.6577    149.2753   7.7053653977e+01   6.8783709526e+00    0.1341498    0.1156948 -83.96 0.0007000518    1.620    0.383
       104 -10.7248     39.5826    133.7275   1.1667379791e+02   4.3241126811e+01    0.7802619    0.2372686 -58.91   0.00318139    2.635    0.621
       105 -10.1241     39.5535    147.4548   1.1842738181e+02   4.0028734932e+01    0.4524539    0.2227442  75.97  0.002028976    2.541    0.606
       106  -9.9608     40.0825    141.1361   1.1751851052e+02   4.1446490938e+01    0.3818208    0.2321033 -46.47  0.002044603    1.935    0.483
       107 -10.5102    149.4192    145.8448   9.1130330217e+01   2.2561775478e+01    0.4182456    0.2408512  70.01  0.001441683    3.142    0.682
       108 -11.0104    158.8300    140.5907   8.7796151866e+01   2.1674435830e+01    0.7268844    0.3187561 -49.23   0.00263432    2.418    0.586
       109  -8.9861     12.9242    145.8609   1.2456873387e+02   4.2883107157e+01    0.2396847    0.1148517  78.06  0.001053438    2.117    0.528
       110  -8.6754    219.0248    143.5419   7.6061918859e+01   8.1850803971e+00    0.2171711    0.1403835  45.78   0.00102815    1.587    0.370
       111  -8.5215    197.4066    143.2206   8.0143402867e+01   1.2792868794e+01    0.2056357    0.1382702 -47.89 0.0008024804    1.599    0.375
       112 -10.0324     23.1476    137.7733   1.2132308347e+02   4.3869394769e+01    0.4953838    0.2124039  76.63  0.002037609    3.238    0.691
       113  -9.4971     22.8851    131.2832   1.2065582702e+02   4.5397264033e+01    0.3939002    0.1461158 -48.22  0.001661945    3.208    0.688
       114 -14.1549     90.0358     90.1313   9.3214528043e+01   4.6728113662e+01      1.92797    0.8866503  40.55  0.007747105    2.342    0.573
       115 -11.1439     49.8233    155.3019   1.1692082322e+02   3.7057846656e+01    0.5124086    0.3328882  89.69   0.00227379    1.434    0.303
       116 -14.0152     65.5891     92.2004   1.0139907902e+02   5.0014641731e+01     2.203076    0.7948567 -46.43  0.008308713    2.583    0.613
       117  -9.1393    232.3829    132.7938   7.1208713757e+01   7.2603249386e+00    0.2121844    0.1280372 -24.46 0.0009584993    1.698    0.411
       118 -10.1145    249.3270    131.8985   6.8202314996e+01   4.0439456497e+00    0.2898178    0.1063737 -39.62  0.001102393    2.519    0.603
       119 -11.3619     44.2941    122.9299   1.1384426955e+02   4.5304254109e+01     1.150295    0.5532671  85.74  0.004334823    3.479    0.713
       120 -14.0219     92.8134    184.0660   1.1086843835e+02   2.4654901048e+01     1.451288    0.8620414  84.93  0.006703841    2.125    0.529
       121  -9.8493     40.5865    113.7889   1.1341540939e+02   4.7866663634e+01    0.4731048    0.1791449 -64.41  0.002039508    2.153    0.536
       122  -9.2612     12.6936    129.1835   1.2300434951e+02   4.6704148319e+01    0.3763159    0.1738261  79.87  0.001789703    2.460    0.594
       123  -9.5531     13.0337    121.4934   1.2207758228e+02   4.8451280329e+01    0.5589941   0.07523742 -56.35  0.001848523    4.708    0.788
       124 -14.2961    104.0795    178.2474   1.0755930684e+02   2.4082527430e+01     2.790195     1.249068  57.23   0.01104128    2.654    0.623
       125 -10.7987     28.1809    121.8288   1.1807984830e+02   4.7146259248e+01    0.7364397    0.3277741  78.92  0.002789408    3.770    0.735
       126 -10.8984    142.9664    121.0212   8.6876813309e+01   2.9306840691e+01     0.366304    0.2784261 -71.68 0.0009821684    1.586    0.369
       127  -9.5963      2.2295    115.2295   1.2424295885e+02   5.0612971549e+01    0.6062121    0.1799149 -84.15  0.002230665    3.849    0.740
       128  -9.3002    249.4803    117.5173   6.4873079875e+01   6.2858321830e+00     0.141343    0.1238889 -17.07 5.080023e-05    1.059    0.056
       129  -9.1824     37.4628    178.9047   1.2216139258e+02   3.3176552676e+01    0.2364006   0.09678539 -70.48  0.001170738    2.101    0.524
       130 -10.5230     14.2322    109.0949   1.2023859078e+02   5.1235224002e+01    0.5469627    0.2281855 -70.62  0.002258297    1.847    0.459
       131 -10.6697    173.7719    243.8564   1.0293088787e+02   6.6850505010e-01    0.3856127    0.2431892 -64.18  0.002155822    2.675    0.626
       132 -11.8384     45.9581    102.5731   1.0981500401e+02   4.9963813283e+01    0.8619863    0.4688783  76.54  0.003461639    3.284    0.695
       133 -10.9138     44.0960     93.0965   1.0848560130e+02   5.2385094896e+01    0.6447422    0.3978302 -24.96  0.003152945    2.247    0.555
       134 -11.3887     48.3398     84.2536   1.0511425107e+02   5.3968397318e+01    0.6508236    0.4221741  83.48  0.002956209    2.398    0.583
       135 -11.0933     22.5807    102.1631   1.1682131636e+02   5.2225428687e+01     0.758392    0.3614957  79.28  0.003074933    3.493    0.714
       136 -10.1330     20.7155     93.2948   1.1595984741e+02   5.4425546067e+01    0.5390541    0.2251813 -37.81  0.002346985    3.088    0.676
       137  -9.6817    232.1795    177.4396   8.0944024783e+01   2.0655994369e-01    0.2134592    0.1535795 -32.40  0.001191793    1.397    0.284
       138 -12.4903     66.7745    183.8351   1.1646352855e+02   2.8506589637e+01    0.7868521    0.2443906 -60.61  0.003229747    2.986    0.665
       139  -9.0944      6.4462    102.7307   1.2163867227e+02   5.3214096155e+01    0.3034664   0.09835425 -78.15  0.001247071    2.877    0.652
       140  -9.0180    203.6568    188.3841   8.8375070954e+01   3.7206343770e+00    0.3121139    0.1562715  47.75  0.001398934    2.018    0.504
       141  -8.5638    156.4901    188.4823   9.7863848721e+01   1.2594333377e+01      0.13894    0.1247669  50.55 0.0008100181    1.040    0.038
       142 -11.7279    246.5309    248.4040   9.1048901213e+01  -1.0904071592e+01    0.6095844    0.3813619  37.90  0.003163082    1.495    0.331
       143 -11.1327     49.5394     77.1375   1.0294013091e+02   5.5441616778e+01    0.4984555     0.361323   4.00  0.002401895    1.758    0.431
       144 -10.5307     34.7349     89.3947   1.1074946675e+02   5.4164135993e+01    0.6030622     0.261244 -73.35  0.002511511    2.621    0.618
       145 -10.4384     36.0161     82.2595   1.0881654589e+02   5.5683227891e+01    0.5046127    0.2617229 -31.54  0.002343987    2.488    0.598
       146  -9.6465      4.6692     91.6558   1.2069238767e+02   5.5844074393e+01    0.3716297    0.1694057 -89.24  0.001762662    2.508    0.601
       147  -9.9305      8.0835     83.1521   1.1833067686e+02   5.7575209568e+01    0.5344874    0.1158905 -55.45  0.001518767    2.879    0.653
       148 -11.9472    249.9279    240.5802   8.9264196932e+01  -1.0574295460e+01    0.9646698    0.3200173 -34.08  0.004714236    3.338    0.700
       149 -10.2239     24.3030     80.4643   1.1242285753e+02   5.7091450693e+01    0.4412046    0.2358029 -79.49   0.00161658    2.125    0.529
       150 -10.6302     27.2150     71.9091   1.0956106638e+02   5.8780551103e+01    0.7947605    0.3078512 -31.53  0.002870685    4.380    0.772
       151  -9.7584     34.6735    187.1943   1.2344306645e+02   3.1708399274e+01    0.3439832    0.1351753 -89.70  0.001512291    2.882    0.653
       152 -10.1791    230.8916    186.1624   8.2904430426e+01  -8.4878465816e-01    0.4145848    0.2671468  65.23  0.001839057    3.112    0.679
       153  -9.3783    144.1587    187.0724   1.0022071954e+02   1.5166001287e+01    0.1975768    0.1860129   7.51 0.0005148933    1.219    0.180
       154 -14.5357    101.1642    120.3740   9.7577075970e+01   3.7802904491e+01     1.940126     1.417094 -88.49  0.009135565    1.714    0.417
       155  -8.6679     10.0128     74.9538   1.1626981005e+02   5.9301614750e+01    0.1434149    0.1099906 -61.60 0.0003949767    1.003    0.003
       156 -10.3047     43.1259     70.2866   1.0341325853e+02   5.7659368470e+01    0.6159176    0.1685749 -52.16  0.002333588    2.768    0.639
       157 -11.0675     51.5425     69.4636   1.0015577621e+02   5.6899285901e+01    0.6496062    0.3084723 -65.26  0.002458497    2.700    0.630
       158 -10.7759     51.5098     61.9783   9.7961878713e+01   5.8499113783e+01     0.409532    0.3358971 -41.59  0.002519364    1.032    0.031
       159  -9.3028     16.3064     69.5442   1.1297666485e+02   6.0108663941e+01    0.4115354    0.1615394 -70.51  0.001788136    2.496    0.599
       160  -9.5364     17.6795     63.0316   1.1102563011e+02   6.1440530236e+01    0.3554314    0.1036928 -51.90  0.001562074    2.370    0.578
       161 -10.2786    246.8249    185.6996   8.0035974924e+01  -3.4949162166e+00    0.2111201    0.1430581  18.54 0.0005982012    1.417    0.294
       162 -10.5676     38.5082     59.1472   1.0202748304e+02   6.0526064993e+01    0.4271488    0.2018234 -30.21  0.001862861    2.681    0.627
       163 -10.0983     37.4052     64.1923   1.0387340329e+02   5.9561490526e+01    0.3050595    0.2033897 -67.41  0.001151509    1.573    0.364
       164  -8.7924    198.1827    185.9941   8.8976723872e+01   5.1269667673e+00    0.2254294    0.1510464  -4.56  0.001074188    2.012    0.503
       165  -9.1339    161.0038    184.7502   9.6264635685e+01   1.2434091180e+01    0.3663065    0.1705111 -32.02  0.001314621    3.523    0.716
       166  -9.9393    211.3222    183.0609   8.5891521244e+01   3.1451547217e+00    0.4372425    0.2727883  17.08  0.002074912    1.958    0.489
       167  -9.0663     24.6100     58.8139   1.0732111928e+02   6.1838037989e+01    0.2230545    0.1550872 -85.30  0.001272744    1.925    0.481
       168  -9.0637     25.9854     55.0436   1.0575967306e+02   6.2524002042e+01    0.2631878    0.1112092 -40.28  0.001063606    2.131    0.531
       169 -10.3569      7.2400     55.0638   1.1322172402e+02   6.3786058129e+01    0.6796345   0.08849863 -60.51  0.002410006    3.875    0.742
       170 -10.6854     54.4260     54.1721   9.4359537135e+01   5.9735066634e+01     0.504238    0.2508926 -61.70  0.002059278    2.920    0.658
       171 -10.5730     53.9361     47.4255   9.2201971803e+01   6.1116220376e+01    0.4489124    0.2959773 -28.11  0.002465113    1.445    0.308
       172  -9.6867     44.3042     55.6591   9.8729241489e+01   6.0640376088e+01    0.2688088    0.1778389 -59.12  0.001153617    1.535    0.348
       173 -10.2756     45.5154     50.0167   9.6414113633e+01   6.1641570350e+01    0.4627441    0.2417505 -27.41  0.002154659    2.261    0.558
       174  -9.7401     30.9044     51.3065   1.0269470654e+02   6.2876121474e+01    0.3464117    0.1901659 -68.04  0.001569749    2.297    0.565
       175  -9.4106     30.6694     45.6701   1.0102190714e+02   6.4034388798e+01      0.26338    0.1387983 -38.41  0.001101968    1.625    0.385
       176  -9.4641     21.8587     47.6351   1.0531871866e+02   6.4380193033e+01     0.387044    0.1750761 -23.55  0.001710457    3.162    0.684
       177  -9.5723    250.5802    190.1943   8.0273851213e+01  -4.7137269914e+00    0.2299128    0.1101481 -35.39  0.001132443    2.095    0.523
       178 -11.5718    131.7075     46.4424   6.7131921591e+01   4.6488360818e+01    0.4984541    0.3303492 -88.19  0.001762033    2.584    0.613
       179 -10.0188    167.8856    242.3584   1.0379074464e+02   1.8248058624e+00    0.2138996    0.1733108  51.33 0.0007153241    1.201    0.167
       180  -9.4492     44.6288     44.7798   9.4955292715e+01   6.2764653154e+01    0.2576623    0.1645452 -57.02 0.0008599512    1.720    0.419
       181  -9.9772     45.9004     40.1821   9.2754463239e+01   6.3481575043e+01    0.3636289    0.1805214 -30.29  0.001631087    2.097    0.523
       182  -9.5499     16.7291     42.6011   1.0599933901e+02   6.5772685545e+01    0.5284421     0.121227 -54.81  0.002131011    2.979    0.664
       183 -12.3676    115.4542     42.0497   6.9694454051e+01   5.0947122108e+01    0.4841438    0.3868568  83.16  0.002125459    1.683    0.406
       184 -10.2794     58.4961     43.0033   8.8797393307e+01   6.1327066591e+01    0.2761101    0.1915603 -55.70  0.001112752    1.737    0.424
       185 -11.2263     57.6271     37.6221   8.7041234598e+01   6.2410482056e+01    0.4198762    0.3086487 -31.78  0.002485738    1.181    0.153
       186  -9.6702      4.8010     41.0248   1.1074115505e+02   6.6818380552e+01     0.430901     0.157437 -71.15  0.001718785    3.823    0.738
       187 -12.7097    108.4914     37.3270   6.9808800262e+01   5.3203309688e+01    0.5534301    0.4361844  72.96  0.002860813    1.639    0.390
       188  -9.1815     36.5226     40.5643   9.6812078848e+01   6.4457082858e+01    0.2868802    0.1686955 -63.51   0.00143832    2.313    0.568
       189  -9.4818     38.0133     35.9711   9.4479340754e+01   6.5156847815e+01    0.2684019    0.1610608 -21.45  0.001460245    1.758    0.431
       190 -12.7857     97.7005     33.4265   7.1393093104e+01   5.6068365233e+01    0.6288676     0.418572  53.01  0.003168466    1.616    0.381
       191 -10.9949    107.6690    237.5089   1.1417997072e+02   1.2151358233e+01    0.4589256    0.2665702  84.57  0.002478004    2.348    0.574
       192 -10.1384     60.1397     32.6754   8.4036972182e+01   6.2887005307e+01     0.224753    0.1640154 -41.37 0.0008405287    1.384    0.278
       193 -10.3639     51.5084     27.1372   8.5143683494e+01   6.5024490514e+01    0.4580284    0.2084799 -19.73  0.001695977    3.765    0.734
       194  -8.8388     12.7253     31.5493   1.0427429391e+02   6.8203522376e+01     0.184778    0.1297691 -70.16 0.0009827189    1.787    0.440
       195 -10.2098     27.8249     28.7730   9.6226998842e+01   6.7494252515e+01     0.481028    0.1276179 -37.68  0.001752795    3.803    0.737
       196 -11.8852    125.5068     40.4140   6.6484550814e+01   4.8877000228e+01    0.4892501    0.3018598  70.41  0.002083366    2.126    0.530
       197 -10.5616    101.6032    234.1648   1.1494557532e+02   1.3634699435e+01    0.2928445    0.2174275  23.10  0.001804174    1.944    0.486
       198  -9.3498     43.9809     25.8301   8.7763277957e+01   6.6224783329e+01    0.1931815    0.1371524 -12.71 0.0005128952    1.319    0.242
       199 -11.7199    110.9093     24.4559   6.4075423874e+01   5.4427620094e+01    0.3433217    0.2531496  59.43  0.001217769    1.429    0.300
       200  -9.4095    222.4750     32.9814   4.7467762058e+01   2.5241791624e+01     0.210588    0.1779898  87.58 0.0004115026    1.143    0.125
       201 -10.8997     62.0228     27.4544   8.1073255934e+01   6.3436795588e+01    0.2768298    0.1906168   6.41  0.001116446    1.566    0.361
       202 -11.5762     93.1135     21.1971   6.7671584533e+01   5.8676443584e+01    0.4039462    0.1954768  43.56  0.001828849    1.948    0.487
       203 -10.0463     58.9173     22.1048   7.9900485601e+01   6.4723743981e+01    0.1949626    0.1567359  -8.44 0.0004455654    1.055    0.052
       204  -9.1829    188.6494     20.8535   4.8261915073e+01   3.5314627218e+01    0.1976973    0.1749171 -52.96  0.001006247    1.127    0.113
       205  -9.5637     12.7525     21.2456   1.0050267750e+02   7.0095851991e+01    0.2034555    0.1558511 -22.18 0.0007740895    1.135    0.119
       206  -9.0691     48.2716     21.6538   8.4061717111e+01   6.6329809340e+01    0.1112851   0.09493985 -51.58 0.0002768041    1.621    0.383
       207  -9.5309     12.9620    183.1662   1.2743085523e+02   3.4739529055e+01     0.265008    0.2308149  -2.62   0.00174018    1.953    0.488
       208 -11.5153     84.4547     21.4394   7.0458218002e+01   6.0373083180e+01    0.3443555    0.2608848 -30.51  0.001978017    1.340    0.254
       209 -11.2577    147.7410     28.1089   5.7160270415e+01   4.5068554375e+01    0.4143805    0.2780434   8.03  0.001878516    1.949    0.487
       210 -10.3776     44.4846    182.3701   1.2101646356e+02   3.1630669039e+01    0.3002929    0.1620071  83.17  0.001184915    1.818    0.450
       211  -8.8554    160.8017    234.8265   1.0408184460e+02   4.0694491561e+00    0.1800025    0.1422204  28.50 0.0005352335    1.238    0.192
       212 -10.0975    153.1557    179.5820   9.6997834659e+01   1.4919231508e+01    0.4255476    0.2944856 -15.34  0.001933219    2.304    0.566
       213  -9.1792    164.3875    233.5382   1.0324467455e+02   3.6665097227e+00    0.2232879    0.1519925  72.47  0.001215327    2.222    0.550
       214 -10.6791     80.4709     12.9474   6.7912199205e+01   6.2189171789e+01    0.2450902    0.1938801  47.85   0.00147039    1.353    0.261
       215 -10.3853     75.7117     13.5700   6.9769664828e+01   6.3014131917e+01    0.2743684    0.1547531  47.82  0.001410106    1.794    0.443
