#   1 NUMBER                 Running object number                                     
#   2 MAG_AUTO               Kron-like elliptical aperture magnitude                    [mag]
#   3 X_IMAGE                Object position along x                                    [pixel]
#   4 Y_IMAGE                Object position along y                                    [pixel]
#   5 X_WORLD                Barycenter position along world x axis                     [deg]
#   6 Y_WORLD                Barycenter position along world y axis                     [deg]
#   7 A_WORLD                Profile RMS along major axis (world units)                 [deg]
#   8 B_WORLD                Profile RMS along minor axis (world units)                 [deg]
#   9 THETA_WORLD            Position angle (CCW/world-x)                               [deg]
#  10 FWHM_WORLD             FWHM assuming a gaussian core                              [deg]
#  11 ELONGATION             A_IMAGE/B_IMAGE                                           
#  12 ELLIPTICITY            1 - B_IMAGE/A_IMAGE                                       
         1 -15.1198    112.4922    109.5849   3.9637947554e+01   3.8005438794e+01     5.863756     3.645139 -13.05   0.01965701    3.426    0.708
         2 -14.1736      9.1249    113.3354   7.6362268882e+01   5.1617394051e+01      2.78784     1.067433 -66.88   0.01154062    2.171    0.539
         3 -15.0020     11.4892     77.7391   7.0751593480e+01   6.0984794979e+01     4.197938     2.623852 -70.61   0.02141374    1.394    0.283
         4 -15.0789     94.0866      9.4349   7.7931104681e+00   6.0248791492e+01      4.59367     1.559632  65.87   0.01698674    2.698    0.629
         5  -5.9748     38.3745     30.7576   4.0547091116e+01   6.9277866535e+01     1.518382    0.8506624  28.28  0.007109058    1.948    0.487
         6 -15.1061     59.6637     38.6781   3.3703163584e+01   6.4031675393e+01     5.204618     1.813446  37.61   0.01543384    3.387    0.705
         7 -12.6084    106.0600     60.6084   2.6302128792e+01   4.9859985933e+01     2.901341     1.750747  -8.39  0.009652797    3.568    0.720
         8 -13.6515      7.5322     24.3603   5.8492753505e+01   7.4295685825e+01      1.43654     1.085037  -7.14  0.007573192    1.330    0.248
         9  99.0000     20.1052     13.3463   4.2490490672e+01   7.5146887532e+01     1.345974    0.7124537  24.49  0.006657724    2.034    0.508
        10 -12.7666    137.8012      4.3063   3.5875754222e+02   4.9502225563e+01    0.6794535     0.366473  72.17  0.001751135    1.707    0.414
        11 -12.9649    130.4418     35.8113   1.1362966256e+01   4.7872910232e+01    0.9855432    0.8697061  44.61  0.005148503    1.216    0.178
        12 -11.4762    244.9975     16.6538   3.5412900360e+02   2.4086312515e+01    0.5023679    0.3125372 -80.90  0.003217435    1.659    0.397
        13 -11.2821    235.4411     20.8711   3.5559343139e+02   2.5443729656e+01    0.3274317    0.2418041 -35.83  0.001447855    1.200    0.166
        14 -11.8797    150.6130     20.0586   2.6915982156e+00   4.4681373521e+01    0.7369092    0.4941357  84.11  0.003773105    1.480    0.324
        15  -9.6658     48.9264     21.1925   2.9593860452e+01   6.9096032379e+01    0.4376653     0.408469 -56.95  0.002678913    1.280    0.219
        16 -10.8342    139.5213     19.4637   3.9628170840e+00   4.7566706576e+01     0.432886    0.2647533 -34.41   0.00185526    1.593    0.372
        17 -10.7054    213.8350     16.7037   3.5595258289e+02   3.0255391126e+01    0.2317106    0.2215342  11.00 0.0004006075    1.375    0.273
        18 -11.0852    208.0443     18.3304   3.5675464207e+02   3.1316267893e+01    0.4335956    0.2316843 -62.32  0.001476508    1.764    0.433
        19 -10.7812    169.7745      9.3643   3.5727307655e+02   4.1039194829e+01    0.3189668    0.3080782 -13.37 0.0008990014    1.235    0.190
        20 -10.5711    193.7116      7.5375   3.5492985902e+02   3.5598773662e+01    0.2774091    0.2111935  67.55  0.001416048    1.440    0.306
        21 -10.7923    187.7685      4.9291   3.5462024584e+02   3.7207546804e+01    0.2766533    0.2683613 -24.82 0.0006656797    1.257    0.205
        22 -10.2019    180.3238      4.0155   3.5487752697e+02   3.9027093331e+01    0.2664799    0.2054627 -84.30  0.001152764    1.195    0.163
        23 -11.1755    192.4662      3.1588   3.5383679682e+02   3.6300453988e+01    0.4949598    0.2548099  80.08  0.002554569    1.911    0.477
        24 -12.5451    185.8822     11.7448   3.5664373708e+02   3.6975295309e+01    0.7675765    0.4713382 -40.52  0.003065492    1.414    0.293
        25 -11.6966    175.8939     12.3587   3.5763457532e+02   3.9267383159e+01    0.6614981    0.4044792  26.66  0.002437606    2.625    0.619
        26  -9.7315    142.3080     13.5495   1.5036485563e+00   4.7478911540e+01    0.3338322    0.1798997  78.75 0.0009286667    1.828    0.453
        27 -10.1552    202.4317     11.5024   3.5539215120e+02   3.3255709354e+01    0.2167017    0.1998947 -72.92 0.0007899074    1.168    0.144
        28 -11.2578    242.3101      9.2926   3.5265505979e+02   2.5344766024e+01    0.3066554    0.1891237 -27.50 0.0007087901    1.536    0.349
        29 -10.1539    244.9400      4.5259   3.5150757228e+02   2.5326536337e+01    0.2016063    0.1461006 -20.46  0.001018687    1.560    0.359
        30 -11.0156    155.7588      9.8706   3.5874588670e+02   4.4443221071e+01    0.3033749    0.2315983 -46.77  0.001084321    1.222    0.182
        31 -11.9804    149.1117      8.0845   3.5884207165e+02   4.6283926505e+01    0.6876961    0.3455832  88.74   0.00274693    2.080    0.519
        32  -9.5491    234.3649      9.5467   3.5309087453e+02   2.6836910717e+01    0.2772607    0.1070472  87.51   0.00131817    2.955    0.662
        33 -10.0002     57.9513      6.9014   1.6900213867e+01   6.9128651961e+01    0.1847786    0.1561726  33.97 0.0003037121    1.091    0.084
        34  -9.8188    204.9923      3.1310   3.5309513271e+02   3.3519831660e+01    0.1814193    0.1527747 -60.68 0.0004225817    1.059    0.055
        35 -10.3955    167.8902      2.5838   3.5537885500e+02   4.2131224291e+01     0.351418     0.223775 -88.71  0.001896798    1.482    0.325
        36  -9.3915    215.5134      2.5272   3.5239151308e+02   3.1332448288e+01    0.2100576     0.105761 -87.67 0.0006244433    2.007    0.502
        37 -10.3430    211.9978      1.4065   3.5229563033e+02   3.2178968835e+01    0.2130257    0.1061447  83.97 0.0005856237    2.024    0.506
        38 -10.1089    174.8949      1.8717   3.5464557661e+02   4.0509437141e+01    0.2010403    0.1640695 -60.95 0.0006686671    1.050    0.048
        39 -12.0947    241.8061     22.6403   3.5561845077e+02   2.4041540284e+01    0.4938667    0.2524295 -58.80  0.001877039    1.741    0.426
        40 -10.4459     73.4210      1.3817   8.6060006000e+00   6.6080316349e+01    0.2276323    0.1190938  64.67 0.0004895827    1.774    0.436
        41  -9.7212     12.6497      1.2910   3.9831897312e+01   7.8159518057e+01    0.1089278    0.0991272  66.01 0.0006094724    1.671    0.401
        42 -11.8695    155.0161     75.7772   1.9720517054e+01   3.5492272209e+01    0.8144401    0.6880715  37.46  0.004103285    1.334    0.250
        43 -11.4138    144.6981     75.6792   2.1795167578e+01   3.7921513679e+01    0.6760659    0.4894365 -66.05  0.002389098    1.610    0.379
        44 -12.3997    133.7798     75.3018   2.4112147380e+01   4.0556573738e+01    0.8339584    0.7807598  31.38  0.002788522    1.162    0.139
        45 -11.9576    131.3617     66.9869   2.2007467950e+01   4.2666044199e+01    0.9055921    0.6083602  63.80  0.002410044    1.604    0.376
        46 -10.4629    206.0814     75.6303   1.1521742166e+01   2.4287443287e+01    0.4747511    0.2949906 -81.64  0.002117489    2.434    0.589
        47 -10.9833    198.1458     78.0960   1.3213855452e+01   2.5544110606e+01    0.4651623    0.4011311  42.57  0.002146986    1.355    0.262
        48 -10.5437    193.9195     73.3850   1.2591720401e+01   2.7159558802e+01    0.4683239    0.3064287 -83.29  0.002221006    2.121    0.529
        49  -9.6509     80.3570     81.0283   4.1706517713e+01   5.1046762432e+01     0.227193    0.1987865 -54.82  0.001160222    1.115    0.103
        50 -12.6764    132.7731    113.1717   3.5163174943e+01   3.3052749014e+01     2.379462     1.844409  -0.40   0.01093729    1.716    0.417
        51 -10.5221    109.8927     48.5124   2.0733081563e+01   5.1090704216e+01    0.5178462    0.4144519 -89.01  0.001670098    1.448    0.310
        52 -11.9134    124.7485     57.2716   2.0261688545e+01   4.5980395104e+01    0.4181134    0.3119412  57.59 0.0007053528    1.353    0.261
        53 -12.2869    117.6741     54.0179   2.0808500162e+01   4.8264810637e+01    0.9602189    0.5994018 -50.59  0.003771742    1.685    0.407
        54 -12.9214     96.1108     71.1860   3.3074663246e+01   5.0001300605e+01    0.7436214    0.4770309  32.58 0.0005273066    1.855    0.461
        55 -10.9441     96.3811     66.8691   3.1477387401e+01   5.0835825582e+01    0.2641581    0.2456457 -15.24  0.000525547    1.146    0.128
        56 -11.5418    234.7713     75.1637   8.0583484171e+00   1.8852860810e+01    0.3774448    0.3058864 -51.78  0.001114689    1.161    0.139
        57  -8.9014    110.3332     76.2982   3.0495250781e+01   4.5781844624e+01    0.1555724    0.1243105   7.66 0.0007031076    1.648    0.393
        58  -9.8495    218.8268     72.6253   9.2238722982e+00   2.2192409016e+01    0.2084689    0.1840498 -38.53 0.0007134295    1.074    0.069
        59 -11.4409    177.6256     71.1571   1.4419665712e+01   3.1080812635e+01    0.7441328     0.406884  47.67  0.003304568    2.085    0.520
        60 -11.2858    170.5231     71.1000   1.5558405172e+01   3.2701979406e+01    0.4870111    0.4425316  41.77  0.002761624    1.238    0.192
        61 -11.5273    184.5043     63.3506   1.1235069431e+01   3.0747016200e+01    0.6192665    0.3811924 -16.64  0.001950967    2.093    0.522
        62 -10.1225    190.3873     61.2237   9.8497475187e+00   2.9753851727e+01    0.3541421    0.2444581  41.35  0.001809667    1.811    0.448
        63 -10.3505     59.8804     71.5304   4.6644235074e+01   5.6960087923e+01    0.3424778    0.2899103  21.34  0.001321274    1.280    0.219
        64 -11.1359    210.4253     48.4460   4.1844968406e+00   2.7205479802e+01    0.5407084    0.3212242 -68.46  0.002741389    1.907    0.476
        65 -11.1659    200.8425     64.3150   9.3184952598e+00   2.7040387925e+01    0.4761474    0.3231662 -17.87  0.001352086    1.705    0.413
        66 -11.5456    206.8014     55.3868   6.3268165042e+00   2.7038018727e+01    0.7107553    0.3695221  47.66  0.003324939    2.447    0.591
        67 -12.0933    213.6823     62.4686   7.3375246200e+00   2.4641786474e+01    0.7855716     0.558661  10.63  0.003316376    2.173    0.540
        68 -11.2008    207.1991     61.9434   7.9452726731e+00   2.6044930416e+01    0.4143193    0.3118238 -79.49  0.001351064    1.492    0.330
        69  -9.7181    167.6373     57.8545   1.2185973575e+01   3.5467511148e+01    0.2687095    0.1599556 -39.13 0.0003401205    1.529    0.346
        70 -11.6230    165.8686     63.0486   1.4004810494e+01   3.5077344776e+01     0.576296    0.2717259 -35.78  0.001244857    1.951    0.487
        71 -10.6167    170.0196     62.3333   1.3121806875e+01   3.4217677060e+01    0.3223827    0.2925048  49.76 0.0008299053    1.227    0.185
        72 -12.0462    188.6117    248.7415   4.8106005233e+01   5.9095620805e-01    0.4069871    0.2288534  18.89  0.002653628    1.461    0.315
        73  -9.6317    250.4692     64.7292   4.2423847619e+00   1.7473227165e+01    0.2333245   0.08503988 -36.75  0.001108717    1.987    0.497
        74  -9.2091    229.6226     65.2066   6.3025257083e+00   2.1154178147e+01    0.1768457    0.1061615 -24.66 0.0004423655    1.646    0.392
        75  -9.5773    149.1569     65.0905   1.7626420679e+01   3.8718802911e+01    0.2091376    0.1968362  -8.27 0.0002747784    1.180    0.153
        76 -12.2895      3.6347    139.6855   8.0296048176e+01   4.5031158422e+01    0.7582783    0.3331721 -87.12  0.003377851    2.042    0.510
        77 -10.8961    240.2822     60.5875   4.2294256603e+00   1.9796139838e+01    0.3188668    0.1711885  54.08  0.001739899    2.327    0.570
        78  -9.0023    155.4160     61.4493   1.5328279108e+01   3.7816881711e+01    0.1445245    0.1375971 -45.14 0.0003544403    1.060    0.057
        79 -11.7263    250.3345     58.1307   2.8231128841e+00   1.8328888290e+01    0.2850907     0.139887 -37.43  0.000554992    1.517    0.341
        80 -10.1408    246.0282     54.4972   2.3808527919e+00   1.9537903156e+01     0.294243    0.1242139  73.94  0.001407989    3.199    0.687
        81  -9.8907    221.9731     59.1430   5.6455776362e+00   2.3441365096e+01    0.2728488    0.1995461  16.03  0.001294438    2.066    0.516
        82 -10.2603    174.3213     55.9570   1.0617561995e+01   3.4182302426e+01    0.2269655    0.2041482  68.17 0.0003783161    1.190    0.160
        83 -10.4564     69.1458     54.7710   3.6671813631e+01   5.9028432486e+01     0.333871    0.3041643 -84.15  0.001440697    1.257    0.204
        84 -10.4441    155.1673     51.8787   1.2392652404e+01   3.9371898242e+01    0.3505994    0.2934979 -14.27  0.001192787    1.373    0.272
        85 -11.8054    157.2197     43.4818   9.4077300832e+00   4.0089513807e+01    0.4376237    0.4148773  53.51 0.0005979603    1.167    0.143
        86 -10.8771    195.4655     52.0269   6.7460679019e+00   2.9940111949e+01    0.2570507    0.2119912 -86.21 0.0004132839    1.270    0.213
        87  -9.1484    132.0462     53.4967   1.7318462753e+01   4.4817244717e+01    0.2236022    0.1467122  60.97 0.0006404774    1.545    0.353
        88  -9.0325    149.2828     51.7137   1.3359528277e+01   4.0839273231e+01     0.196465    0.1357552 -25.67 0.0004399318    1.552    0.356
        89 -11.3669    145.3363     50.2439   1.3592626845e+01   4.2037590578e+01    0.5365881    0.3015295 -38.90  0.001668704    1.677    0.404
        90  -9.9953    148.7029     47.3262   1.2036142096e+01   4.1641253382e+01    0.4058012    0.2346153 -65.06 0.0009136451    2.196    0.545
        91  -9.7993    127.8733     51.6567   1.7581808018e+01   4.6148553745e+01    0.4082803    0.2366116  36.10  0.001635127    2.285    0.562
        92  -9.8411    133.1828     48.0186   1.5182231294e+01   4.5403072056e+01    0.3006253    0.2108229  54.32 0.0007832093    1.442    0.307
        93 -10.5455    248.4787     49.1518   1.0138805932e+00   1.9760784609e+01    0.2466906    0.1476478 -56.69  0.001475249    1.551    0.355
        94  -9.8960    101.6648     47.8704   2.2722093048e+01   5.3183736864e+01    0.3277482    0.2367658  -5.56  0.001472029    1.889    0.471
        95  -9.4000    229.2859     48.4547   2.4191378507e+00   2.3404016970e+01    0.1547283     0.111003 -77.45 0.0007512791    1.517    0.341
        96 -10.7107    200.9520    235.5940   4.4170384183e+01   8.1664941238e-01    0.2349398    0.1160017  14.65  0.001308941    2.072    0.517
        97 -10.0467    121.3774     44.4133   1.6404922158e+01   4.8910039610e+01    0.4721254    0.2922744  -6.64  0.001858692    2.585    0.613
        98  -9.5847    222.7181     45.3745   2.2648091760e+00   2.5083663534e+01    0.2058157    0.1202549  78.90 0.0006663099    2.005    0.501
        99 -10.6098    179.7274     40.9844   5.5716642431e+00   3.5011118827e+01    0.4383536    0.2478556 -72.58  0.001946436    2.169    0.539
       100 -11.2201    175.7662     43.3501   6.7533622090e+00   3.5627956026e+01    0.5782605     0.399596 -67.99  0.001058777    1.506    0.336
       101 -10.3076    172.2814     39.6061   6.0981043227e+00   3.6956583551e+01    0.4808118    0.2034041  51.88  0.001886419    2.646    0.622
       102  -8.8297    168.4838     45.4194   8.3482957222e+00   3.7079620561e+01    0.1379841    0.1307241 -61.60 0.0001256537    1.066    0.062
       103 -11.0119    203.6523     43.3499   3.5651779083e+00   2.9307814909e+01    0.3412623    0.2282937  56.70   0.00124468    1.724    0.420
       104 -11.4178    196.9774     40.9211   3.6115640150e+00   3.1081519406e+01    0.4269385    0.2599873 -21.03  0.001754246    1.830    0.454
       105  -9.8828    197.8624     35.3385   2.0331540757e+00   3.1586186341e+01    0.2963935    0.1762941  83.50  0.001314054    1.849    0.459
       106 -11.1097    137.5438     41.3357   1.2006889630e+01   4.5302126189e+01    0.5243465    0.3805523 -69.06  0.002079037    1.512    0.339
       107 -10.1777    226.1585    214.1254   3.6743191860e+01   6.0724741580e-01    0.1770992    0.1183298  -1.73 0.0007333947    1.242    0.195
       108 -11.2130    140.5359     34.4453   9.0822278313e+00   4.5493569486e+01    0.5884467    0.3263628  48.91  0.002357616    1.945    0.486
       109 -10.7831    235.0180     42.7042   6.1064340148e-01   2.3015822252e+01    0.3134551    0.1559955  70.62 0.0008737925    2.348    0.574
       110 -10.0886    229.3681     42.3683   9.8485395656e-01   2.4144050723e+01    0.2900819    0.1967705  38.58  0.001302781    2.156    0.536
       111 -10.8862    225.6654     39.2116   5.4061669073e-01   2.5257191843e+01    0.2804457     0.204677 -54.79 0.0005400903    1.169    0.145
       112  -9.7303    247.0669     42.4903   3.5965896878e+02   2.0813178646e+01    0.1462653    0.1143572  83.15 0.0004309495    1.499    0.333
       113 -12.4952    215.6848     38.4937   1.2043988255e+00   2.7370180991e+01    0.5038716    0.3030325  60.54  0.002770344    1.913    0.477
       114  -9.9254    148.6971     40.2832   9.7190772094e+00   4.2649008163e+01    0.2282158    0.1907032 -57.57 0.0003872718    1.140    0.123
       115  -9.6206    164.7434     39.7594   7.1475613336e+00   3.8756381662e+01    0.2592584    0.1667724  43.33  0.001177862    1.892    0.472
       116  -8.9837    190.5497     39.5610   3.9276489300e+00   3.2698674714e+01    0.1378763    0.1143847 -56.16 8.924527e-05    1.055    0.052
       117 -11.5352    239.2431     35.1667   3.5858286665e+02   2.3113151453e+01    0.4355924    0.3115722  28.79  0.002304563    2.226    0.551
       118 -11.1091    159.7822     35.9818   6.6566571784e+00   4.0470928195e+01    0.2701092    0.2560276 -63.09  0.000479222    1.064    0.060
       119 -12.2715    176.2131     32.6972   3.5785708301e+00   3.6900437084e+01    0.5150456    0.3276708 -72.99  0.001004983    1.679    0.404
       120  -9.9143     96.5512     34.2887   1.8535113326e+01   5.6579927346e+01    0.2863989    0.2398883  11.46  0.001113813    1.375    0.273
       121 -11.4493    150.3869     31.7428   6.6225771431e+00   4.3355211230e+01    0.6552904    0.3148961  68.96  0.002772925    2.078    0.519
       122 -10.4367    249.4547     31.3520   3.5707046669e+02   2.1671622188e+01    0.2267587    0.1769961 -60.42  0.000730966    1.164    0.141
       123  -9.7687    234.1958     31.2009   3.5803046130e+02   2.4532145021e+01    0.1748922    0.1109927 -53.45 0.0006529462    1.306    0.234
       124  -9.5028    224.1477     29.5454   3.5835461244e+02   2.6703115433e+01    0.1804819    0.1592975 -21.64 0.0007895972    1.314    0.239
       125  -8.7769    186.6175     30.7713   1.9036287232e+00   3.4693095502e+01    0.1268524   0.09642527  45.29 0.0006892481    1.620    0.383
       126  -9.6794    215.3878     28.0978   3.5865767046e+02   2.8667410772e+01    0.2008105    0.1610844  72.50  0.001038195    1.407    0.289
       127 -10.8107    168.2657     27.6064   2.9711095534e+00   3.9432410831e+01    0.3988948    0.2031856  56.05  0.001522362    2.072    0.517
       128  -9.6800    160.8147     26.8404   3.6261812607e+00   4.1352908148e+01    0.3125921    0.1628487  70.96  0.001180744    1.906    0.475
       129  -9.9206    212.3761    198.7249   3.6504146922e+01   4.2670614719e+00    0.1539808    0.1469636 -57.75 0.0009229435    1.750    0.429
       130 -10.7629    249.0739    128.8320   1.7881544857e+01   9.0443678760e+00     0.235385    0.1516675 -22.25   0.00144094    1.332    0.249
       131 -10.1428    184.6888     25.5101   6.1510995310e-01   3.5761296596e+01    0.3565021     0.167156 -46.44  0.001102156    1.859    0.462
       132 -10.3751    179.4333     23.2286   4.7500447613e-01   3.7257098130e+01    0.3237689    0.2442462 -57.35  0.001856269    1.178    0.151
       133 -10.1392    178.8684     18.6633   3.5920663018e+02   3.7897078856e+01    0.2494272    0.1947893 -60.30 0.0006283229    1.128    0.114
       134 -10.5943    200.4811     21.9760   3.5826426382e+02   3.2570209556e+01    0.4269341    0.2569454  48.92  0.002219692    2.132    0.531
       135 -10.4712    227.6782    179.4334   3.0643001542e+01   4.9553053605e+00    0.2717982    0.2349484 -59.36    0.0018279    1.953    0.488
       136 -12.7207    115.0839     96.1372   3.5229142755e+01   4.0495992199e+01     1.277281    0.7792034  29.77  0.004665389    2.116    0.528
       137  -9.9715     66.9698    112.9710   5.4961660465e+01   4.5378031967e+01    0.2232935    0.2141301 -76.53 0.0003307024    1.017    0.016
       138  -9.0977    224.0160     20.2226   3.5614468148e+02   2.7772290930e+01    0.1455026   0.09475492  83.02 0.0008669299    1.641    0.391
       139 -11.1401    249.1225    149.8883   2.2002063219e+01   6.1621640839e+00    0.2764341    0.1354917 -42.06  0.001461429    2.007    0.502
       140  -9.5216    212.4716     20.4785   3.5698171192e+02   3.0136470657e+01    0.2031834    0.1681124 -49.63 0.0009881182    1.054    0.051
       141  -9.6346    231.6357    111.3158   1.6474446074e+01   1.4237446556e+01    0.1266971   0.08886611 -58.05 0.0007040218    1.768    0.434
       142 -11.0351    249.6171    108.6162   1.3683378780e+01   1.1751389854e+01    0.2098858    0.1836044 -12.43   0.00149807    1.192    0.161
       143 -10.8055     66.1363    102.6778   5.2913355296e+01   4.8173584835e+01     0.687785    0.3354475  33.29  0.002695556    2.146    0.534
       144  -9.7580    248.7984    162.4289   2.4405593739e+01   4.5296858174e+00    0.1451135   0.09756833  16.28 0.0006429736    1.586    0.370
       145 -10.9037    236.0292     95.8521   1.2544371267e+01   1.5737863318e+01    0.3330051    0.1235546 -45.09  0.001418813    2.512    0.602
       146 -11.4333    245.8222     93.1934   1.0851128478e+01   1.4475379137e+01    0.3966819    0.2107305 -36.08  0.001964231    1.452    0.311
       147 -11.2532    236.5508     87.3874   1.0610526165e+01   1.6843878259e+01    0.4472103     0.311965  64.05  0.002715302    1.824    0.452
       148 -12.7932    247.7097     84.0695   8.6872891043e+00   1.5403905977e+01    0.7907331    0.4981714 -35.93  0.004799538    1.223    0.182
       149 -10.0712    250.4811     74.0564   6.2566619723e+00   1.6267985591e+01    0.2168617    0.1469974 -23.54 0.0005359923    1.406    0.289
       150  -8.7687    132.2624     13.3246   2.7512449782e+00   5.0077106193e+01    0.1349877    0.1022177  33.73 0.0003192812    1.560    0.359
       151 -11.0113    206.4751     91.0173   1.5252213358e+01   2.1856932297e+01    0.6507176    0.3550661 -24.82   0.00171962    1.955    0.489
       152 -10.7671    209.4128     88.2927   1.4185191444e+01   2.1706362368e+01    0.4600783    0.2722041 -50.61  0.001848744    1.685    0.407
       153 -10.1401    190.0747     94.5557   1.8608294317e+01   2.4565033619e+01     0.486594    0.1745347  51.81  0.001831252    3.054    0.673
       154 -11.2692    187.7622     89.9527   1.7812428921e+01   2.5808704836e+01    0.4458933    0.3081567  27.30  0.001261724    1.957    0.489
       155 -10.1847    172.4293     93.0466   2.1253341723e+01   2.8530275456e+01      0.32375    0.2244889  53.51  0.001594929    1.570    0.363
       156 -10.5075    161.2303     92.0886   2.3127372530e+01   3.1143200119e+01    0.4488432    0.3331168  61.68  0.002219528    1.500    0.333
       157  -9.3769     53.9717     95.5477   5.5825647280e+01   5.1838847454e+01    0.2244036    0.1490032  30.86  0.001031553    1.600    0.375
       158  -9.8874    152.3171     87.5986   2.3690093706e+01   3.3964854375e+01    0.2718952    0.2377316 -78.86 0.0006206697    1.253    0.202
       159 -11.2669     87.8489     85.3945   4.0443145779e+01   4.8570856857e+01    0.7835785     0.395404  42.78  0.002485627    2.034    0.508
       160  -9.8989    176.5875     82.2794   1.7636780401e+01   2.9485935919e+01    0.4798149    0.2698678  83.18  0.001742096    3.407    0.707
       161 -10.5690     75.1880     80.8323   4.3539669573e+01   5.2064353362e+01    0.4282521    0.3620836 -71.70  0.001898165    1.267    0.211
       162  -9.0190    216.4503     82.5196   1.1877582832e+01   2.1216320775e+01    0.1338705    0.1109176 -40.10 0.0001972502    1.016    0.016
       163 -11.0172    161.8140     70.2587   1.6824272525e+01   3.4854091791e+01     0.426053    0.3066638 -82.71  0.002016509    1.737    0.424
       164 -11.2693    127.3634     81.3270   2.7541304225e+01   4.0880175554e+01     0.999131    0.4775391  59.39  0.003591884    2.547    0.607
