#   1 NUMBER                 Running object number                                     
#   2 MAG_AUTO               Kron-like elliptical aperture magnitude                    [mag]
#   3 X_IMAGE                Object position along x                                    [pixel]
#   4 Y_IMAGE                Object position along y                                    [pixel]
#   5 X_WORLD                Barycenter position along world x axis                     [deg]
#   6 Y_WORLD                Barycenter position along world y axis                     [deg]
#   7 A_WORLD                Profile RMS along major axis (world units)                 [deg]
#   8 B_WORLD                Profile RMS along minor axis (world units)                 [deg]
#   9 THETA_WORLD            Position angle (CCW/world-x)                               [deg]
#  10 FWHM_WORLD             FWHM assuming a gaussian core                              [deg]
#  11 ELONGATION             A_IMAGE/B_IMAGE                                           
#  12 ELLIPTICITY            1 - B_IMAGE/A_IMAGE                                       
         1  -9.5273     10.8253     26.0062   1.1813971473e+02   6.7904738430e+01    0.5026504    0.1095736 -43.15  0.002210793    3.167    0.684
         2 -10.0548     39.2284      7.6669   9.8665329897e+01   6.7586053560e+01    0.7169051    0.2543458 -24.48  0.003311149    3.050    0.672
         3 -10.0792     51.2778     36.6797   1.0580842175e+02   6.2201273358e+01    0.6802343    0.3418106 -48.82  0.003357528    2.506    0.601
         4 -10.7560     38.9802     29.5617   1.0781240189e+02   6.4751818823e+01    0.7406418    0.3261964 -41.95  0.003890817    2.128    0.530
         5 -11.9378     43.5536     20.9049   1.0260286943e+02   6.5418786437e+01    0.9345572    0.8927409  67.39  0.006498259    1.847    0.459
         6 -11.6033    127.9401     17.8268   7.6662235221e+01   5.0502443887e+01     1.385428    0.8542671  49.16  0.007383786    1.408    0.290
         7 -11.8851    132.1514      3.1490   7.1049128082e+01   5.0891035843e+01     1.954619    0.6480708  67.75  0.007375321    3.155    0.683
         8 -10.8907    121.2317      3.8322   7.3332699556e+01   5.3281354794e+01    0.8785523    0.5865632 -84.07  0.004589973    2.229    0.551
         9 -11.4989    109.9966      4.1043   7.5764837869e+01   5.5687856896e+01     1.878983     0.418615  61.15  0.006055383    4.527    0.779
        10 -12.2417    155.9812     20.6592   7.2295015516e+01   4.3646415992e+01     1.538134    0.6818935  50.70  0.006758989    2.018    0.504
        11 -13.6030    169.1774     16.7108   6.9062767905e+01   4.0867664846e+01     3.178624     1.285033  66.36   0.01334311    2.205    0.546
        12 -13.0767    169.4460      5.2168   6.5852443800e+01   4.1931667934e+01     3.039855    0.7334675  68.58   0.01006868    3.748    0.733
        13 -10.1017     71.2281      5.4612   8.6417204794e+01   6.3037717079e+01    0.4831828    0.3340246  37.25  0.002408892    1.266    0.210
        14 -10.4181     74.6298     26.0680   9.3646396834e+01   6.0215306560e+01    0.5935583    0.5100328  54.36  0.003879374    1.547    0.354
        15  -9.6538     78.8108     12.4947   8.6986191062e+01   6.1032237856e+01     0.381878    0.3022331  25.44  0.002545966    1.065    0.061
        16 -11.1629     84.1593      3.8636   8.2005171596e+01   6.0867525311e+01    0.7665787    0.4659417  37.96  0.003808452    1.382    0.277
        17 -10.2861     76.8703     19.3225   9.0294679035e+01   6.0638681816e+01    0.5665282    0.3258202 -46.42  0.002865345    2.605    0.616
        18  -9.8504    111.7124     15.5694   7.9449554932e+01   5.4284731818e+01    0.5848264    0.2324007  42.39  0.002265991    2.304    0.566
        19  -9.9638    116.8988     18.0937   7.9143175261e+01   5.2918179275e+01    0.7295149    0.3250773 -36.65  0.003318368    2.507    0.601
        20  -9.2594    117.5141     14.0078   7.7592159636e+01   5.3189902640e+01    0.2444787    0.1967234  -7.44 0.0008450479    1.336    0.252
        21  -9.5428     93.7822     17.7063   8.4744451510e+01   5.7713267745e+01    0.3520483    0.3345812 -44.69  0.001873553    1.361    0.265
        22 -10.3136    249.2874     15.5540   5.9746759636e+01   2.2103537306e+01    0.3387898    0.2676433 -37.91  0.002193415    1.437    0.304
        23  -8.6447     64.5251     16.5129   9.3167479430e+01   6.2995175452e+01    0.2610081     0.183553 -44.34  0.001405077    1.987    0.497
        24  -8.5929     20.5734     13.8724   1.0918335899e+02   6.8869932787e+01     0.377859    0.1428917 -31.21  0.001981862    2.328    0.570
        25  -9.6799    103.3906     11.4972   7.9961674926e+01   5.6413974147e+01    0.3875652     0.280853  24.89  0.001706442    1.302    0.232
        26  -8.8953     60.7208     10.3973   9.1912315135e+01   6.4261473770e+01    0.2019542    0.1279536 -31.09  0.001107066    1.678    0.404
        27 -10.7027    249.0106      4.3818   5.7529037718e+01   2.3460111576e+01    0.6001313     0.382199 -55.97  0.003695883    1.356    0.263
        28  -9.3446    230.3060      6.1649   5.9433304332e+01   2.7409015868e+01    0.2443453    0.1786465 -84.20  0.001122871    1.149    0.130
        29  -8.8287     54.8021      7.3487   9.2667054591e+01   6.5479512840e+01    0.3996374    0.1514495  49.78  0.001787838    3.453    0.710
        30  -8.3045     48.9770      6.5241   9.4417475675e+01   6.6408972497e+01    0.2937005   0.09305084  39.28  0.001364026    2.910    0.656
        31  -8.6952     51.9745      2.1983   9.1408132305e+01   6.6414683510e+01    0.2785936     0.161843 -12.55  0.001580247    1.621    0.383
        32 -10.2013    200.0156      8.1613   6.2875306060e+01   3.4279842681e+01    0.3074217     0.165378  71.55  0.001279178    1.612    0.380
        33  -8.5388     26.3107      2.5404   1.0169840609e+02   6.9695021647e+01     0.196741    0.1411389 -15.08  0.001076715    1.146    0.128
        34  -9.7326     61.7302      2.2096   8.8063444928e+01   6.4911539529e+01    0.4601202    0.2247832  33.13  0.002572507    1.809    0.447
        35  -8.8296     16.8666      1.7310   1.0552215125e+02   7.0765991555e+01    0.1968451    0.1235282  29.76  0.001232125    1.787    0.440
        36  -8.4406     16.0526     58.0162   1.2588469654e+02   6.1967414826e+01    0.1534934     0.132795 -82.48 0.0006054718    1.571    0.364
        37  -8.7661    198.4886     54.8165   7.4830715966e+01   2.8752940753e+01    0.2505099    0.1967161  68.57 0.0005060535    1.217    0.178
        38  -7.4113      9.3328     55.6622   1.2774769205e+02   6.2854527842e+01    0.1009239   0.08453085  86.55 0.0007051944    1.742    0.426
        39  -7.4623     34.6760     52.6814   1.1745545084e+02   6.1403935114e+01    0.1264795   0.07537991 -23.62  0.000704486    1.673    0.402
        40 -10.1616     83.8689     47.9780   9.8781323395e+01   5.5573046507e+01    0.5702276    0.4547128  51.28  0.003343594    1.514    0.340
        41  -9.9634     81.1901     38.8706   9.6371658198e+01   5.7391932779e+01    0.5174599    0.2654227 -34.01  0.002560168    1.902    0.474
        42  -7.4711    203.5009     48.5838   7.2475965937e+01   2.8438526867e+01    0.1420918     0.126637 -87.46 6.799525e-05    1.024    0.023
        43  -8.6814    110.7688     46.1575   9.0339862168e+01   5.0749241066e+01    0.2604862    0.1891069  -3.48  0.001351507    1.580    0.367
        44 -10.3140    182.7170    245.9827   1.1994007585e+02  -3.0044733891e+00     0.304833    0.1620897  40.44  0.001588112    1.575    0.365
        45 -10.4531      4.0802     39.6804   1.2539537979e+02   6.6071959010e+01    0.5661148    0.3598746 -42.09  0.002809163    1.155    0.134
        46  -8.9353     12.2426     34.2576   1.2036535298e+02   6.6470288636e+01    0.3932424    0.2044161 -39.19  0.001997392    1.451    0.311
        47  -8.4381     97.6769     44.0743   9.3256481815e+01   5.3654805923e+01    0.2067359    0.1676125 -45.74  0.001186394    1.447    0.309
        48  -9.6196    162.1715    243.8670   1.2351279629e+02   8.5265442514e-01    0.2026243    0.1600447  57.99  0.001252468    1.250    0.200
        49 -10.6256    210.2636    225.1772   1.1134067431e+02  -4.5645297296e+00    0.4051715    0.2576675  22.58  0.002135126    1.650    0.394
        50  -9.1265    239.0031    202.9878   1.0190235567e+02  -6.0615407679e+00    0.2175073    0.1469518   4.38  0.001141931    1.694    0.410
        51 -10.3734      4.2932    145.9535   1.4417337580e+02   4.3942507939e+01    0.3314426     0.174827  80.00  0.001759585    2.005    0.501
        52  -8.4786     27.5759     35.3677   1.1448202839e+02   6.5030680394e+01    0.1967027    0.1611804  -6.05  0.001012287    1.165    0.141
        53 -11.9510     10.8471    140.0638   1.4201222147e+02   4.4772602610e+01     0.750993     0.342542 -73.94  0.003973197    1.744    0.427
        54  -9.7116     40.9948    141.9929   1.3492117084e+02   4.1590083679e+01    0.3871585    0.2083463  65.31  0.001809151    2.473    0.596
        55 -12.7192    240.4860    132.9574   8.6909716273e+01   5.5786031698e+00     1.618036     1.190576  52.13  0.005125816    1.497    0.332
        56 -10.8834     11.7734    129.0647   1.4044167766e+02   4.7177996902e+01    0.3356783    0.2317822 -74.35  0.002184184    1.137    0.121
        57  -8.4771     22.3327    125.3072   1.3722482964e+02   4.7202107602e+01    0.1246595   0.07718723 -44.15 0.0007040294    1.667    0.400
        58 -10.2137     15.0449    119.8886   1.3835119887e+02   4.8998031056e+01    0.4273992    0.1752024  19.79  0.002062374    3.383    0.704
        59  -8.9191    148.5946     38.1846   7.8950628017e+01   4.3346860840e+01    0.1918121    0.1361558 -10.17 0.0009524836    1.738    0.425
        60 -10.1757      9.3787    117.7849   1.3954776189e+02   4.9870806862e+01    0.3101714    0.1725375 -62.18  0.001847631    1.357    0.263
        61  -8.6699     97.3153     28.3885   8.7743562044e+01   5.5816908818e+01    0.4778938    0.2333358  -5.55  0.001746819    3.910    0.744
        62  -8.6678    125.5416     28.5888   8.0762529801e+01   4.9866773121e+01    0.2896595     0.255489   3.61  0.001765816    1.174    0.148
        63  -8.2433     90.3371     28.5083   8.9766541685e+01   5.7133854425e+01    0.2563362     0.155308 -23.22  0.001369098    1.677    0.404
        64  -9.7372     17.5887    104.9025   1.3531441478e+02   5.2147613934e+01    0.6249276    0.3580749 -77.92  0.003464504    1.754    0.430
        65  -9.5734     29.6054    102.2587   1.3133596259e+02   5.1772634219e+01     0.335949    0.2180588 -38.79  0.001971388    1.527    0.345
        66  -9.0983     46.8419     99.3286   1.2555535170e+02   5.0748933643e+01    0.2450701     0.201391 -26.17  0.001523654    1.292    0.226
        67  -7.7812     24.6246     96.2941   1.3168119026e+02   5.3495953293e+01    0.1171768    0.0875194  74.78 0.0007023971    1.739    0.425
        68  -8.7656      2.1859     89.2085   1.3718948321e+02   5.6516045203e+01    0.2529496    0.1567654 -73.50  0.001178254    1.442    0.307
        69  -8.9506    104.1745     25.8982   8.4999118744e+01   5.4745399755e+01    0.3741377    0.2611218  53.41  0.002104227    1.425    0.298
        70  -9.0101     20.5480     23.1229   1.1289550146e+02   6.7561793537e+01    0.3253478     0.250682  47.00   0.00222492    2.290    0.563
        71  -8.4871    226.8689     89.1681   7.8949460753e+01   1.6350277176e+01    0.2151055    0.1809798 -66.83 0.0003097589    1.164    0.141
        72  -8.3138     19.2051     89.0150   1.3192024654e+02   5.5477558520e+01    0.1905866    0.1267659  89.56  0.001084862    2.003    0.501
        73 -11.6188     42.9691     82.5661   1.2285893442e+02   5.4757754381e+01    0.9934739    0.6795449 -34.34  0.005437113    1.368    0.269
        74  -9.3580     66.4853     30.3287   9.7995350562e+01   6.0967317448e+01    0.4701916    0.1895581 -34.85  0.002193243    2.377    0.579
        75 -10.0640     24.4473     65.5454   1.2483114594e+02   5.9888752818e+01    0.7384025    0.2368453 -44.37  0.003045191    2.431    0.589
        76 -10.3820      3.4723     76.0204   1.3437574810e+02   5.9184038907e+01     0.544223    0.4932448  70.27  0.004129958    1.440    0.306
        77 -10.0226     13.9469     77.6945   1.3128138655e+02   5.8212624550e+01    0.5202162    0.2780802  -7.15  0.002816157    2.633    0.620
        78  -8.4184      9.2083     17.8959   1.1585004461e+02   6.9257368852e+01    0.1953573    0.1647275  44.20  0.001483937    2.084    0.520
        79 -10.8257     12.8116     71.2541   1.3025534691e+02   5.9596070897e+01    0.7154512    0.5187193  57.50  0.004631591    2.046    0.511
        80  -9.3035    226.5532     14.3508   6.1555037572e+01   2.7349182761e+01    0.3929756    0.1471038  77.11  0.001608028    2.719    0.632
        81  -9.2420    227.8307     78.9145   7.6356683938e+01   1.7872911346e+01    0.3553429    0.2949715  21.06  0.001830126    1.626    0.385
        82  -8.5580     69.1902     13.7839   9.0504262301e+01   6.2545653028e+01    0.2120597    0.1651394  63.69  0.001309223    1.985    0.496
        83  -8.6606     77.5355     78.0250   1.1046881286e+02   5.1256132402e+01    0.1881602    0.1185685 -67.91 0.0008093397    2.548    0.608
        84  -8.6359     69.4285     36.9132   9.9487027230e+01   5.9591845720e+01    0.2814752    0.2377252  -9.85  0.001847125    1.055    0.052
        85  -9.1892     34.7430     78.8394   1.2464991019e+02   5.6334257881e+01     0.374512    0.1636064 -50.09  0.001854511    1.802    0.445
        86  -7.7488    204.1960     76.6056   7.9512488797e+01   2.3866551968e+01    0.1951476    0.1359419  50.87 0.0004378949    1.489    0.329
        87  -9.2171     74.9975     67.7743   1.0817896330e+02   5.3614745914e+01    0.4770086    0.3102186  -1.00  0.002293423    2.112    0.526
        88  -8.3370     33.5580     68.7543   1.2247961427e+02   5.8476318024e+01     0.249344    0.1605643 -28.14  0.001475245    1.508    0.337
        89  -8.9978     16.3886     63.8125   1.2724888258e+02   6.0829442578e+01    0.2585233    0.1752121 -70.98  0.001608668    1.734    0.423
        90 -10.1671    225.1758     29.1388   6.5017341431e+01   2.5873392216e+01    0.4009622    0.3640005  89.48  0.001613072    1.127    0.112
        91  -8.9750     86.1898     31.7221   9.2191466201e+01   5.7487894368e+01    0.1896579    0.1624404  53.69  0.001182482    1.424    0.298
        92  -9.1369     68.4042     62.3770   1.0863448300e+02   5.5584859934e+01    0.3786799    0.2096381  -1.36  0.001423664    3.735    0.732
        93  -9.4594     47.9729     62.1039   1.1554041289e+02   5.8273312649e+01    0.4137235    0.3054627  14.23  0.002564801    1.461    0.316
        94  -8.2547     76.1305     60.1496   1.0537848379e+02   5.4821198498e+01      0.21231     0.166876  -8.44  0.001228034    1.269    0.212
