#   1 NUMBER                 Running object number                                     
#   2 MAG_AUTO               Kron-like elliptical aperture magnitude                    [mag]
#   3 X_IMAGE                Object position along x                                    [pixel]
#   4 Y_IMAGE                Object position along y                                    [pixel]
#   5 X_WORLD                Barycenter position along world x axis                     [deg]
#   6 Y_WORLD                Barycenter position along world y axis                     [deg]
#   7 A_WORLD                Profile RMS along major axis (world units)                 [deg]
#   8 B_WORLD                Profile RMS along minor axis (world units)                 [deg]
#   9 THETA_WORLD            Position angle (CCW/world-x)                               [deg]
#  10 FWHM_WORLD             FWHM assuming a gaussian core                              [deg]
#  11 ELONGATION             A_IMAGE/B_IMAGE                                           
#  12 ELLIPTICITY            1 - B_IMAGE/A_IMAGE                                       
         1  -8.7678     90.6717      7.6983   9.0457397889e-01   6.1095089839e+01     0.140787   0.09070479  40.33 0.0004096088    1.644    0.392
         2  -8.8292    196.8328    221.3842   3.5161751248e+01   3.4420426381e+00    0.1667867   0.09126098  14.61 0.0009505249    1.784    0.439
         3  -9.4486     66.8376    191.3750   6.0232340179e+01   2.5705475502e+01    0.1979505    0.1266759  14.45 0.0009520481    1.744    0.427
         4  -9.7639    178.0027    184.0000   3.2536964824e+01   1.1682823378e+01    0.2033062   0.06963304  34.78 0.0005632231    2.974    0.664
         5  -9.7585     76.7714    173.7297   5.5268371719e+01   2.8638909124e+01    0.2205245    0.1202677 -79.14 0.0008876595    2.391    0.582
         6  -9.8520    144.8005    165.4082   3.6146487141e+01   2.0174603655e+01    0.2009251     0.130187  21.77 0.0009558504    1.690    0.408
         7  -9.9398    178.4781    161.5065   2.8238584817e+01   1.5596866579e+01    0.1344919     0.116707 -18.33 1.274595e-05    1.003    0.003
         8 -10.0599     95.3899    160.8378   4.7968876033e+01   2.9083198774e+01    0.2175594    0.1299592 -46.56 0.0009538206    1.728    0.421
         9 -10.2696    167.3978    155.1997   2.9198492682e+01   1.8525361857e+01    0.1979022    0.1239548 -50.84 0.0009564366    1.705    0.413
        10  -9.2805     68.2041    154.0470   5.4909712714e+01   3.4742202838e+01     0.253627    0.1639406  73.84  0.001088372    1.963    0.491
        11 -10.0245    119.5953    152.6051   3.9830787550e+01   2.7104701749e+01    0.3034004    0.1117507 -40.19 0.0009613052    3.319    0.699
        12 -10.9777    165.0751    150.2171   2.8656761531e+01   1.9864776433e+01    0.3276875    0.1914877  18.36  0.001402464    2.423    0.587
        13  -9.8374     56.0235    145.7652   5.7533644364e+01   3.8518351855e+01    0.2862047    0.1920857  89.07   0.00129539    1.688    0.408
        14 -11.2818    149.2150    144.2381   3.0839725658e+01   2.3785572786e+01    0.4160012    0.2359908 -60.76  0.001684314    2.435    0.589
        15 -10.4874     90.3139    145.3175   4.6624538983e+01   3.3690156425e+01    0.2807543    0.1778115  52.11 0.0007027795    1.758    0.431
        16 -11.2607    167.7225    143.8246   2.6765207495e+01   2.0647691200e+01    0.2971451    0.2237013  18.96  0.001578119    1.493    0.330
        17  -9.7840    140.5075    143.5261   3.2709973602e+01   2.5475331792e+01    0.1445361      0.13826 -26.25 0.0001550866    1.029    0.028
        18  -9.3555    130.6616    143.3264   3.5073201749e+01   2.7268655578e+01    0.1494589    0.1187925  80.59 0.0003509418    1.727    0.421
        19  -9.7734    124.6656    140.3276   3.5956406759e+01   2.9008438725e+01    0.1519451    0.1196606  79.93 0.0007051768    1.720    0.419
        20 -11.6497    182.2789    134.6843   2.1962052162e+01   1.9857158756e+01     0.386748    0.2627747  -3.48  0.001867638    2.043    0.511
        21 -12.3870    173.1186    130.7504   2.2829758404e+01   2.2189943352e+01    0.4377229    0.3918965  22.97  0.002588902    1.203    0.169
        22 -11.0129    153.4307    125.1298   2.5598585954e+01   2.6924083419e+01    0.3080237    0.2253535 -87.20  0.001384704    2.188    0.543
        23 -11.8678    144.9732    131.5839   2.9004157469e+01   2.7188633777e+01    0.4320917    0.3031503 -39.58  0.002107051    1.362    0.266
        24 -11.4611    196.7412    129.3030   1.8255607851e+01   1.8355129658e+01    0.3617443    0.1935125 -36.65  0.001766904    1.619    0.382
        25 -10.9251     86.5791    132.9743   4.5314544799e+01   3.7408343348e+01    0.4802414    0.1834403  35.01   0.00164706    2.586    0.613
        26 -12.6770    159.2382    118.6191   2.2810739310e+01   2.7107800557e+01    0.7291425    0.4310372  67.54  0.002867937    2.898    0.655
        27  -9.4867     30.1945    123.1930   6.3361878635e+01   4.7572799972e+01     0.268285    0.1413602  59.77  0.001069665    2.223    0.550
        28 -10.5903    180.4713    122.3292   1.9542813246e+01   2.2423604154e+01    0.2278887    0.1306718  46.67  0.001081199    1.967    0.492
        29  -9.6744     58.5126    122.4857   5.2692372449e+01   4.4444354153e+01    0.1515653    0.1458694 -64.63 0.0001074207    1.029    0.028
        30 -10.6193    189.3413    114.8513   1.6282731526e+01   2.2146738289e+01    0.2872764    0.1039824 -45.23  0.001089117    2.563    0.610
        31 -11.3356    142.5599    112.3217   2.4920097433e+01   3.1678599698e+01    0.3785804    0.2587813  13.08  0.001596386    2.275    0.560
        32 -10.2254     93.5331    113.5003   3.8661080456e+01   4.1075999657e+01     0.291596    0.1370387  48.24   0.00103926    2.373    0.579
        33  -9.7526     69.5019    112.4935   4.6594643781e+01   4.5470002080e+01    0.1536511    0.1490448 -75.12 0.0008106385    1.010    0.010
        34 -11.9339    156.4867    104.4916   1.9881417087e+01   3.0406920100e+01    0.7416809     0.185008 -41.85  0.002196108    3.674    0.728
        35  -9.9158     80.4048    114.2127   4.3167883196e+01   4.3230249087e+01    0.2253885    0.1488534 -69.76 0.0008681776    1.718    0.418
        36 -10.1573    130.4003    102.8154   2.5357007738e+01   3.6170467876e+01    0.2272173     0.139565 -34.54 0.0009571415    1.748    0.428
        37 -11.3960    115.9218    101.9753   2.8934816517e+01   3.9372987847e+01    0.6179727    0.2432711  55.09  0.001843229    3.718    0.731
        38  -9.1902     47.3363    103.6567   5.3139468821e+01   5.1019889862e+01    0.1626701    0.1116572  66.07 0.0007049876    1.767    0.434
        39 -11.3916    139.8608    102.1837   2.2912549502e+01   3.4315409290e+01    0.3437572    0.2598152 -14.56  0.001612675    1.702    0.412
        40  -9.4204    121.7579     93.9850   2.5116933334e+01   3.9869908248e+01    0.2114802    0.1260646 -44.18 0.0005596001    1.623    0.384
        41  -8.5144     35.7012     91.6461   5.5506022730e+01   5.5652949806e+01    0.1604129    0.1025356 -36.51 0.0007036238    1.697    0.411
        42 -10.2895    110.3676     84.8065   2.5513329514e+01   4.4271898385e+01    0.3004209    0.1201101  49.70   0.00102581    2.611    0.617
        43 -10.6239    133.5052     75.8220   1.6865357860e+01   4.0860845484e+01    0.2740656    0.1982815  49.39  0.001326721    1.444    0.307
        44 -10.4522    109.5178     72.9921   2.2002946402e+01   4.6871569524e+01    0.4229987    0.1824285  35.60  0.001292415    3.704    0.730
        45  -9.6175     86.6679     73.3153   2.9224788369e+01   5.1787279398e+01     0.156029    0.1216849  88.02 0.0004848449    1.684    0.406
        46  -9.9674     52.6111     70.4338   4.1897382971e+01   5.8770398459e+01     0.359395    0.2118002 -69.64  0.001448001    2.250    0.556
        47 -10.7309    125.4996     67.3100   1.6048437881e+01   4.4263720237e+01    0.3120187    0.2314299  28.37  0.001466133    1.739    0.425
        48  -9.5580    114.6635     65.6798   1.8184885592e+01   4.7085904275e+01    0.1520724    0.1195653  14.72 0.0007049832    1.707    0.414
        49  -9.9056     74.5871     58.7448   2.8347982700e+01   5.7320717851e+01     0.297602    0.1422247 -40.17  0.001153572    2.165    0.538
        50 -10.2352     95.9691     49.5495   1.7522145543e+01   5.4310073950e+01    0.3132423     0.194955 -15.43  0.001268773    2.428    0.588
        51  -9.7530     31.6768     48.6866   4.4918832390e+01   6.6833591919e+01    0.2546439    0.1880065 -86.93  0.001243674    1.972    0.493
        52  -9.8990     84.5339     46.4943   1.9874933564e+01   5.7460304077e+01    0.1439723    0.1398226  38.16 0.0002975416    1.023    0.023
        53  -9.1607     46.0069     44.4942   3.5199885901e+01   6.5577685038e+01    0.1986671    0.1184488  58.46  0.000810305    2.543    0.607
        54 -10.5735     70.7479     41.7957   2.2799326262e+01   6.1307519590e+01    0.3067239     0.204191  57.83  0.001455044    1.615    0.381
        55  -9.4042     81.4921     36.9951   1.6826061187e+01   5.9707950919e+01    0.2017515    0.1150551 -57.58  0.000809397    2.447    0.591
        56 -11.5336    102.6822     28.5926   7.3467294614e+00   5.5821064969e+01    0.3349581    0.2787538  50.73  0.001869762    1.188    0.159
        57  -9.5706     73.4884     28.5277   1.5623224778e+01   6.2799684840e+01    0.1389774    0.1306664  42.75 0.0002593609    1.004    0.004
        58  -9.3541     63.7639     15.9759   1.2627317611e+01   6.6659058092e+01    0.1759594    0.1136293 -26.49 0.0008925375    1.665    0.399
        59  -9.4444     92.6730     14.3309   3.5033114168e+00   5.9953237837e+01    0.1428899   0.09789849 -66.59 0.0007051205    1.710    0.415
