#   1 NUMBER                 Running object number                                     
#   2 MAG_AUTO               Kron-like elliptical aperture magnitude                    [mag]
#   3 X_IMAGE                Object position along x                                    [pixel]
#   4 Y_IMAGE                Object position along y                                    [pixel]
#   5 X_WORLD                Barycenter position along world x axis                     [deg]
#   6 Y_WORLD                Barycenter position along world y axis                     [deg]
#   7 A_WORLD                Profile RMS along major axis (world units)                 [deg]
#   8 B_WORLD                Profile RMS along minor axis (world units)                 [deg]
#   9 THETA_WORLD            Position angle (CCW/world-x)                               [deg]
#  10 FWHM_WORLD             FWHM assuming a gaussian core                              [deg]
#  11 ELONGATION             A_IMAGE/B_IMAGE                                           
#  12 ELLIPTICITY            1 - B_IMAGE/A_IMAGE                                       
         1  -9.2058     63.9595     47.5304   3.6507977464e+01   6.1631501718e+01    0.4610416    0.2817121  -9.20  0.001655791    3.192    0.687
         2  -9.5374     95.6212     35.2442   1.9425507498e+01   5.6550550370e+01     0.456817    0.2671662 -20.18  0.001903205    2.166    0.538
         3  -9.1593    119.5330     32.3206   1.2222390004e+01   5.0765425316e+01    0.3588971    0.1557603 -25.10  0.001314719    2.707    0.631
         4 -10.1422     41.0560     13.8641   3.0655788562e+01   7.1934929069e+01    0.2357849    0.1838427  29.83 0.0002635886    1.182    0.154
         5  -9.4057     97.8200     12.0135   8.4572468926e+00   5.8907043365e+01    0.2906614    0.2019152  -4.41 0.0009434882    1.771    0.435
         6  -9.5287      3.3239     11.9313   5.9249348915e+01   7.7324710176e+01    0.1813248    0.1538514 -71.64  0.001174434    1.433    0.302
         7  -8.1064     65.0024      4.9820   1.3969546779e+01   6.7880021956e+01    0.1602339    0.1413125  44.34            0    1.002    0.002
         8  -9.5293      2.5558      3.0147   5.4816972072e+01   7.9139680266e+01    0.1898082    0.1444286   4.71 0.0007088574    1.230    0.187
         9  -9.0100     67.5458      1.2808   1.0907573511e+01   6.7618797175e+01    0.2164557    0.1087562  62.05 0.0001651661    1.771    0.435
        10  -8.9598     86.3146    247.6528   6.7900278817e+01   1.3087993845e+01    0.1242177   0.07014266  51.93 -1.563364e-05    1.719    0.418
        11 -11.5948    166.5502    247.9734   5.1541026467e+01   2.9969351178e+00    0.7015089    0.2798705  37.02  0.003649311    2.156    0.536
        12 -10.0580    169.5166    224.8438   4.7871722694e+01   5.7664131669e+00    0.3728869    0.2236731  47.56   0.00202984    2.232    0.552
        13 -10.8464    169.6001    234.1808   4.9154037723e+01   4.4510453385e+00    0.4968486    0.4154691  56.05  0.002803476    1.882    0.469
        14 -11.6743    162.1060    227.5252   4.9719713115e+01   6.3676997012e+00    0.8241575    0.5251948 -33.94  0.003429155    1.755    0.430
        15  -9.8248     56.6753    246.6800   7.4157503567e+01   1.6725346579e+01    0.2556356    0.1302938  35.67 0.0009805051    1.431    0.301
        16  -9.2766     39.1886    249.7919   7.8014284888e+01   1.8076110432e+01    0.2119821   0.06274915  52.99 0.0009558848    2.860    0.650
        17 -10.4110     12.8590    249.9946   8.3416630368e+01   2.0617917166e+01    0.3496417    0.1246387  35.42  0.001938833    1.870    0.465
        18 -11.5670     19.0588    247.7033   8.2088308928e+01   2.0442468008e+01    0.5221717    0.2486865  50.62  0.003215811    1.525    0.344
        19 -10.0192      4.1332    248.9931   8.5135875170e+01   2.1572912552e+01    0.2128787    0.1239061  53.68  0.000880958    1.243    0.195
        20 -11.0588     97.9411    241.4771   6.4860176973e+01   1.2661289069e+01    0.4085331    0.2581281  27.61  0.001016426    1.291    0.225
        21 -10.5312      7.2822    242.3760   8.4342016315e+01   2.2471798015e+01    0.2705574      0.15094  54.03  0.001791981    1.321    0.243
        22 -10.1671    250.4259    241.3136   3.6298683508e+01  -5.5153805360e+00     0.193782    0.1297577 -31.82  0.001209423    1.886    0.470
        23 -11.1339    237.7535    239.3198   3.7947210049e+01  -4.0602921854e+00    0.4202346    0.2113698   8.67  0.002654697    1.858    0.462
        24  -9.5011    221.1668    239.5100   4.0639001896e+01  -2.3363028155e+00    0.1958599     0.141147   2.87 0.0005279627    1.047    0.045
        25 -10.8584     53.4778    249.4975   7.5004424451e+01   1.6595985880e+01    0.4008156    0.2253673  24.41  0.001745171    1.644    0.392
        26 -10.1633     12.9527    244.3247   8.3233534943e+01   2.1611030731e+01    0.2346141     0.174669  45.74  0.001043683    1.070    0.065
        27 -10.5660    231.3530    234.3907   3.8242427859e+01  -2.8703178929e+00    0.2731609    0.1888391   5.48 0.0008720089    1.041    0.040
        28 -10.6193    106.3199    223.6244   6.1170422476e+01   1.4610679330e+01    0.5819027    0.3620391  15.23  0.003116405    1.765    0.433
        29 -10.5969    101.1729    233.6051   6.3384943689e+01   1.3565518294e+01    0.4606749    0.2735919  63.46  0.001905088    2.348    0.574
        30 -11.5182     98.8508    225.4850   6.3064060884e+01   1.5285564563e+01     0.511846    0.4324662  31.37  0.001916946    1.064    0.060
        31 -11.8144     95.1262    217.7413   6.3092432101e+01   1.7196650417e+01    0.7242264    0.4571929  18.40  0.002782092    1.659    0.397
        32 -10.3576     99.9996    217.4770   6.1928884263e+01   1.6581894324e+01    0.3050398    0.1868933  42.19   0.00080415    1.388    0.279
        33 -10.8714     90.8227    230.8904   6.5419591999e+01   1.5378328625e+01    0.4376046    0.2979057 -62.00  0.001670499    1.837    0.456
        34 -10.3038     87.4866    227.9832   6.5894287294e+01   1.6327117149e+01    0.2209032    0.1915233  39.55 0.0008128574    1.096    0.087
        35 -10.2842    242.7153    223.9724   3.4904127410e+01  -2.9423149784e+00    0.2269364    0.1243296 -22.67  0.000822001    1.555    0.357
        36  -9.4303    119.5381    228.5081   5.8790005173e+01   1.1979739935e+01     0.201413    0.1898802 -15.80 0.0009226564    1.265    0.209
        37  -9.3261    116.5246    227.0956   5.9287397491e+01   1.2625026891e+01    0.2340718    0.2044094 -27.21 0.0008641505    1.363    0.266
        38 -10.4709    249.7647    226.4682   3.4214786283e+01  -3.9385717853e+00    0.2826784    0.1431272 -17.25  0.001853868    1.701    0.412
        39  -8.8828    144.8862    227.6505   5.3258761049e+01   8.6687385130e+00    0.1952971    0.1262283  18.42 0.0005546942    1.385    0.278
        40 -11.5987    126.5147    221.3123   5.6382805419e+01   1.2223904858e+01    0.4446571    0.3383541 -67.52 0.0008519236    1.832    0.454
        41 -10.7419    121.6440    222.8268   5.7646821946e+01   1.2645176794e+01    0.3065912     0.252907  62.19  0.001965624    1.501    0.334
        42  -8.8586    191.7012    226.9971   4.3960367446e+01   2.6052315485e+00    0.1560092    0.1205049   2.16 0.0003240423    1.077    0.072
        43  -9.5077    181.1990    226.1195   4.5794542021e+01   4.0573084701e+00    0.2029684    0.1741312  29.79 0.0008758266    1.395    0.283
        44  -9.3679     66.4429    223.5878   7.0340645055e+01   1.9785660425e+01    0.2156922    0.1717491  63.32  0.001409481    1.243    0.196
        45 -11.5767    238.9636    230.0220   3.6395770571e+01  -3.2018465499e+00    0.4815037    0.2359648  10.62  0.002462539    2.029    0.507
        46  -9.2390    157.5107    221.6700   4.9833868913e+01   7.8563769586e+00    0.2191333    0.1591516  20.25 0.0007196196    1.122    0.109
        47 -10.5903    130.6168    214.6284   5.4604378214e+01   1.2778726596e+01    0.4565251    0.3310449 -83.82  0.002483168    2.350    0.574
        48  -9.6091    115.0330    220.7935   5.8875995720e+01   1.3911482727e+01    0.1943471    0.1831241   6.96 0.0006099389    1.189    0.159
        49  -9.2918    218.6190    219.3835   3.8071432390e+01   2.7940493721e-01    0.2422926    0.1298581  -1.21 0.0008252177    2.088    0.521
        50  -8.7514    212.7626    220.5865   3.9252056669e+01   8.3038908280e-01    0.1474592   0.09207192  32.87 0.0006855802    1.607    0.378
        51  -8.4253    149.3756    219.7532   5.1252629414e+01   9.2786573058e+00    0.2014787    0.1090823 -32.67  0.001037127    2.218    0.549
        52  -9.2317    151.4620    216.0950   5.0298556011e+01   9.5627450786e+00    0.2494384    0.1648013  11.72 0.0009343319    1.518    0.341
        53  -9.6016     75.1530    219.3213   6.7936140200e+01   1.9521001304e+01    0.2711698    0.1708627  41.66 0.0009701485    1.273    0.215
        54  -9.8990    190.3954    215.9265   4.2539133436e+01   4.2497426520e+00     0.417517    0.2291324 -26.55  0.002368659    1.890    0.471
        55  -8.9237    176.2824    216.2273   4.5279968082e+01   6.0938942967e+00    0.2390299     0.126005 -28.44  0.001264326    2.110    0.526
        56  -8.2240    143.6689    217.3272   5.2125861121e+01   1.0468091142e+01    0.1232948   0.09066308  52.93 0.0007051282    1.711    0.415
        57  -9.9710     84.5658    216.2918   6.5422391971e+01   1.8883787479e+01    0.2092024    0.1295842 -74.97 0.0007983152    2.058    0.514
        58  -9.1838     24.7810    216.8571   7.9615162880e+01   2.5722688672e+01    0.2637165   0.09045459  47.01  0.001243358    2.132    0.531
        59 -10.1343    170.7060    215.2371   4.6230946056e+01   7.0021885344e+00    0.2442439     0.187248  15.93 0.0006671959    1.055    0.052
        60  -9.7310    112.9595    212.7510   5.8363537166e+01   1.5637522877e+01    0.5471244    0.3087195   3.37  0.002240106    3.220    0.689
        61  -9.8654     64.3520    213.3118   6.9977089247e+01   2.2054111999e+01    0.5236263    0.1647988  45.72  0.002112737    2.651    0.623
        62  -8.9496    228.8071    214.2074   3.5580856584e+01  -2.9297174326e-01    0.1590545    0.1270874   1.53  0.000889446    1.188    0.158
        63 -10.8254     19.9069    212.2219   8.0540968897e+01   2.7138725081e+01    0.3407547    0.2589079  20.93  0.001706026    1.441    0.306
        64 -10.1962     78.6650    211.1626   6.6317983128e+01   2.0661802854e+01    0.5010071    0.2059008  23.96   0.00205074    2.601    0.615
        65 -10.5427    238.1770    210.5657   3.3514517621e+01  -9.3878211358e-01    0.1854501    0.1606996 -12.20  0.000848765    1.481    0.325
        66 -10.6164    212.1697    207.9030   3.7355075363e+01   2.5071527615e+00    0.4736955     0.352278  -6.43  0.003290087    1.106    0.096
        67  -9.8829     18.8443    188.6400   7.9668958216e+01   3.2330507779e+01    0.2437212    0.1857661 -81.54 0.0007985865    1.353    0.261
        68 -10.6230     12.2010    206.8026   8.2135333922e+01   2.8973153160e+01    0.3228221    0.2189954 -63.61  0.002005159    1.768    0.434
        69 -11.6975     16.0420    196.7150   8.0777441186e+01   3.0791394763e+01    0.5798279    0.2995559 -45.24   0.00150164    2.921    0.658
        70  -9.5093    130.2998    202.0111   5.2915210774e+01   1.5048265187e+01    0.4035867    0.2660812  76.24  0.001791061    3.108    0.678
        71 -10.4618    166.5391    198.7842   4.4506723845e+01   1.0140247559e+01    0.5014166    0.4508035 -77.57  0.003091837    1.712    0.416
        72 -11.5115    176.2776    185.2690   4.0230211632e+01   1.0845717553e+01    0.7388272    0.4739283 -52.16  0.003855355    2.096    0.523
        73 -10.3927    171.1661    201.1495   4.3944003554e+01   9.0826394404e+00    0.3593022    0.2812589  47.71  0.001352222    1.610    0.379
        74 -11.3224    178.2778    196.9757   4.1834459442e+01   8.6909323075e+00    0.7001211    0.3978374 -16.09  0.002186283    2.235    0.553
        75 -11.4604    172.7761    195.5368   4.2696947294e+01   9.7296344436e+00    0.5444638    0.3258234 -34.10  0.001237381    1.740    0.425
        76  -8.5341     91.4487    201.5251   6.2136021252e+01   2.0852864464e+01    0.1345774     0.114707  36.75 0.0001143027    1.018    0.018
        77  -8.2785    224.4567    205.4389   3.4882094578e+01   1.2922179097e+00    0.1143635   0.08708537  -0.33 9.158183e-05    1.023    0.022
        78  -9.3876    250.4275    199.5973   2.9881316164e+01  -1.0478273833e+00    0.2692623    0.1062175 -29.96  0.001485319    2.161    0.537
        79  -9.7203    249.2825    195.0348   2.9293609265e+01  -3.8729925428e-01    0.2811628    0.1640346  -0.71  0.001784665    1.657    0.396
        80  -8.6950    212.6278    199.1760   3.5839310868e+01   3.5969305223e+00    0.1587014   0.09320423 -21.03 0.0002839873    1.604    0.377
        81  -9.0777     58.5441    200.0000   7.0248941119e+01   2.5529588328e+01    0.2944951   0.06526279  28.60 0.0009330096    3.921    0.745
        82  -8.7978    112.7903    198.0486   5.6470644080e+01   1.8429634364e+01    0.3415469    0.1658254  56.12  0.001308365    3.159    0.683
        83  -8.7066    113.0648    194.2743   5.5875806202e+01   1.9126328156e+01    0.1952475    0.1681919  10.69 0.0003869125    1.188    0.158
        84  -9.4526    105.2672    197.5447   5.8230914712e+01   1.9651251359e+01    0.2385893    0.2044454 -23.87 0.0008464936    1.365    0.267
        85  -8.7064     44.2189    198.5945   7.3778115155e+01   2.7517933169e+01    0.2567365   0.09486745  33.96  0.001118734    2.121    0.529
        86  -8.2882     28.6566    196.2899   7.7581201374e+01   2.9680581710e+01    0.1402729   0.07171015  53.05 0.0007024868    1.652    0.395
        87 -10.1374    126.4125    196.7809   5.3049916096e+01   1.6602196830e+01    0.3486624    0.2057405  22.95  0.001276165    1.689    0.408
        88  -8.4764     66.8128    195.1748   6.7670167720e+01   2.5526679521e+01    0.2526315     0.106256  57.83 0.0009588519    2.982    0.665
        89 -10.4395     93.9159    181.4681   5.8916975936e+01   2.4699121088e+01    0.3920978     0.322348 -36.41  0.001220243    1.426    0.299
        90 -12.0136     98.1380    189.0588   5.8870799933e+01   2.2444465446e+01     0.628898    0.4059027  62.25  0.001199454    1.892    0.471
        91 -10.3362    104.2093    189.3989   5.7379845677e+01   2.1457091541e+01    0.3442452    0.2296003  33.84  0.001062562    1.304    0.233
        92  -9.1912    185.7227    190.0880   3.9207069884e+01   8.6554592620e+00    0.1813129     0.148609  -0.50 0.0009498885    1.054    0.051
        93 -10.1421    204.0234    188.0467   3.5444461720e+01   6.3086277066e+00    0.2908911    0.1879351  45.40  0.001632524    1.974    0.493
        94  -8.1973    128.6683    188.3094   5.1224982910e+01   1.7856755600e+01    0.1375349      0.10132  58.65 0.0005940498    1.670    0.401
        95  -9.6850      1.5818    163.0021   8.3138071534e+01   3.9734872648e+01    0.2147199    0.1574452  88.54 0.0005252847    1.241    0.194
        96 -13.0068      5.1558    171.7786   8.2510800762e+01   3.7381346040e+01     1.860179     1.006584  63.49  0.009864962    1.602    0.376
        97 -11.2090     10.9617    187.1868   8.1636556581e+01   3.3354977452e+01    0.4214042    0.2426742  49.13 0.0009305375    1.404    0.288
        98 -12.1282     12.6903    180.3208   8.0865904831e+01   3.4776817630e+01    0.9729153     0.489673  22.88   0.00490059    1.994    0.498
        99 -10.1525    249.9826    184.3072   2.7372364592e+01   8.1002865324e-01    0.4409216    0.1289832 -34.73  0.002037285    2.935    0.659
       100  -8.5227    165.7980    186.8512   4.2661800446e+01   1.2216789492e+01    0.1705305    0.1510601  44.72 0.0005736339    1.351    0.260
       101 -10.5107     46.9672    180.9778   7.1592603090e+01   3.1166712502e+01    0.8164436    0.1945913 -62.97  0.002832646    3.852    0.740
       102 -10.3640    226.7190    183.1434   3.0721296666e+01   3.8784830033e+00    0.3496025    0.2514216  44.14 0.0008270473    1.876    0.467
       103  -9.8133    183.0812    185.4606   3.8912139230e+01   9.7717048448e+00    0.2172162    0.1803512 -47.15 0.0008926154    1.539    0.350
       104  -9.4918    108.7006    185.3640   5.5666636164e+01   2.1596302696e+01     0.333178    0.2468937  78.49  0.001468313    1.828    0.453
       105  -8.9199    111.3682    184.2950   5.4835245309e+01   2.1398109235e+01    0.2423336    0.1492419  29.49 0.0009140408    1.494    0.331
       106  -9.7147    209.4516    185.0113   3.3949651674e+01   5.9769600762e+00    0.1934994    0.1458402  20.20  0.001248386    1.218    0.179
       107  -9.6309    214.9561    182.2381   3.2507413868e+01   5.5978054647e+00    0.3286819     0.157588  41.62   0.00167715    2.328    0.570
       108  -8.6293    197.2829    181.6538   3.5532412222e+01   8.2236176206e+00    0.1091938    0.1025625 -68.19 0.0004866428    1.643    0.392
       109 -10.3119    181.8781    180.6525   3.8290121972e+01   1.0722081869e+01    0.2463216    0.1853125   1.26   0.00144153    1.288    0.224
       110  -8.8922    138.7607    179.9194   4.7464750634e+01   1.7828047866e+01    0.2696754     0.169443  56.79  0.001227029    2.168    0.539
       111  -9.3924    104.3000    179.5420   5.5922235968e+01   2.3507743294e+01     0.255207    0.1845908 -35.67  0.001304605    1.649    0.394
       112  -9.5180     70.5730    177.8329   6.4743547451e+01   2.8896010899e+01    0.3044154      0.22619 -50.68 0.0009012915    1.543    0.352
       113  -8.6345    240.4407    177.7437   2.7629820989e+01   2.8000068238e+00    0.1584844   0.08940026 -21.08 0.0009053363    1.545    0.353
       114  -9.4397    158.1738    176.9813   4.2551888973e+01   1.5157598812e+01    0.3277494    0.2088339 -27.52  0.001640479    1.746    0.427
       115 -11.3650    207.3076    168.4771   3.1295982826e+01   8.6968706767e+00    0.5402684    0.3817537 -31.68  0.003252666    1.333    0.250
       116 -10.5876    152.0229    174.5022   4.3466079312e+01   1.6633723572e+01    0.3680348    0.2974681 -13.31   0.00157896    1.289    0.224
       117 -10.1838    148.5225    174.5113   4.4259338262e+01   1.7221216237e+01    0.3069604    0.2500945 -41.39  0.001518335    1.329    0.248
       118  -8.9017     89.2085    177.2460   5.9578290419e+01   2.6339761070e+01    0.2043666    0.1509338  57.62  0.001057286    1.387    0.279
       119  -8.8602    118.1392    176.0324   5.1826353538e+01   2.2012616119e+01    0.2085293    0.1818596  -4.78 0.0005166029    1.247    0.198
       120  -8.6926     77.7035    176.0913   6.2557981420e+01   2.8294376431e+01    0.2532999    0.1236437  60.96 0.0009467526    2.831    0.647
       121  -8.1976    101.0455    178.0000   5.6539023399e+01   2.4350729419e+01    0.2945052    0.1015264  33.75 0.0007685455    2.574    0.611
       122 -10.1716     24.2401    174.6531   7.7391020381e+01   3.5065298801e+01    0.2237196    0.1556642  75.61  0.000781289    1.329    0.248
       123 -11.2005     29.9597    170.8055   7.5503288965e+01   3.5425745728e+01    0.5662827    0.3583099 -73.10  0.003013318    1.594    0.372
       124  -9.2410     92.3813    172.3136   5.8004600209e+01   2.6958118232e+01    0.3434284    0.1503478  37.11 0.0009861077    1.989    0.497
       125  -8.4724    193.2636    172.5567   3.4608147143e+01   1.0232579344e+01    0.1735021    0.1106418  21.77 0.0005969378    1.579    0.367
       126  -8.0872    179.6787    169.6695   3.6692740300e+01   1.2874809835e+01    0.1374258    0.1248616   5.78 0.0003846065    1.089    0.082
       127  -9.5596    176.8540    167.8381   3.6911539062e+01   1.3650063155e+01    0.2748196    0.1868655 -40.00  0.000757079    1.516    0.341
       128  -8.3441    135.4862    171.5151   4.6771987026e+01   2.0012580862e+01    0.1419619    0.1287488  29.02 -2.898383e-06    1.042    0.041
       129  -9.0546    121.7109    169.8479   4.9877443927e+01   2.2701254083e+01    0.3130997    0.2154296  61.99  0.001101924    1.884    0.469
       130  -8.7296     55.2622    169.6568   6.8115047346e+01   3.2837268150e+01     0.286677    0.1254424  69.62 0.0009476218    3.752    0.733
       131 -10.1298     19.9107    167.8755   7.8168247225e+01   3.7089871205e+01    0.4143842    0.1509095  78.14  0.001510614    3.353    0.702
       132 -11.2161    218.2704    165.3640   2.8845386090e+01   7.5167702439e+00     0.438447    0.3125585  22.90  0.002054263    1.381    0.276
       133 -10.7920    204.6944    175.4213   3.3053819855e+01   8.0546319307e+00      0.42145    0.3002732   9.38  0.002532826    1.351    0.260
       134  -9.6631    159.3704    164.6760   3.9992541958e+01   1.7188592253e+01    0.1887341    0.1447098 -59.11 0.0009836634    1.684    0.406
       135 -10.7946    247.2525    162.2405   2.3834960056e+01   3.9099366897e+00    0.5254899     0.238429 -19.49  0.002559746    2.469    0.595
       136  -9.0996     38.1179    165.3935   7.2681934644e+01   3.5886781679e+01    0.2798953    0.1595925  76.76  0.001040702    1.881    0.468
       137 -10.3025    149.9683    163.7735   4.1929483872e+01   1.9005166758e+01     0.424826    0.2891615  15.39  0.001845532    1.687    0.407
       138  -8.8461    138.8187    164.7829   4.4737642441e+01   2.0772578093e+01    0.2520784    0.1921418 -89.43  0.001008351    2.068    0.516
       139  -8.7462     98.3332    165.6961   5.5346885826e+01   2.7504831863e+01    0.1523786     0.105387  61.05 0.0004546164    1.660    0.398
       140  -8.3087     74.2558    162.9833   6.1753158648e+01   3.1861149459e+01    0.1733221    0.1247888 -68.55 0.0004766611    1.483    0.326
       141 -10.2132     99.7742    158.8663   5.3805386171e+01   2.8822010294e+01    0.4099469    0.2997287 -63.32     0.002034    1.511    0.338
       142 -10.7579     22.6343    160.1955   7.6841081227e+01   3.8721373271e+01    0.4516345     0.309911  -3.15  0.002327146    1.965    0.491
       143  -8.1209    177.3133    160.6538   3.5419162099e+01   1.4802411856e+01    0.1273362     0.111297 -87.32 0.0007046857    1.714    0.416
       144  -8.7743     92.7368    160.1602   5.6002405796e+01   2.9682059421e+01    0.2529718    0.1415405  65.27 0.0009425935    2.730    0.634
       145  -9.4559    200.0736    166.9458   3.2291139103e+01   1.0042446496e+01    0.1954124    0.1604575  -1.35 0.0004289369    1.069    0.065
       146  -9.9769    142.9863    158.6096   4.2556595757e+01   2.1259029104e+01    0.5667884    0.2066903  45.23  0.001984413    2.857    0.650
       147  -9.2691    105.1730    157.5796   5.2082661523e+01   2.8200908441e+01    0.2851354    0.2178091  78.33 0.0008409493    1.662    0.398
       148  -9.7092    206.7104    142.0284   2.6147333306e+01   1.2850668841e+01    0.2834185    0.2209108   5.55 0.0009526662    1.320    0.242
       149 -10.8614    208.7292    156.0306   2.8642656502e+01   1.0355349373e+01     0.388795    0.2637724 -18.31   0.00220771    1.413    0.292
       150 -11.5980    205.8461    150.2186   2.7975589722e+01   1.1715082677e+01    0.6122794    0.3935316 -37.25  0.003369529    1.471    0.320
       151  -7.9786    188.3207    157.6417   3.2656283326e+01   1.3439811386e+01    0.1258318    0.1087504 -77.88 0.0007044455    1.765    0.433
       152  -8.4271    167.4808    157.4952   3.6824577047e+01   1.7073954326e+01    0.1367023    0.1286595   9.20 0.0001552661    1.083    0.077
       153  -8.5779    127.4802    156.9783   4.6054507478e+01   2.4396480733e+01    0.2110192    0.1461031 -48.01 0.0004503344    1.539    0.350
       154  -9.6294     82.4895    154.9269   5.8115474316e+01   3.2553391702e+01    0.4575216    0.2435766  55.72  0.001825146    2.200    0.545
       155  -9.2081     50.4470    155.4734   6.7915114642e+01   3.6918543612e+01    0.3524365    0.1623008  57.72  0.001361482    2.484    0.597
       156 -10.2511    134.7932    153.8170   4.3597237912e+01   2.3725859789e+01    0.5235706    0.3135488  52.69  0.001767598    1.936    0.483
       157  -8.7509    119.6898    155.1230   4.7714742073e+01   2.6196923178e+01    0.2291959     0.188245 -89.38  0.001156729    1.546    0.353
       158 -10.1004     68.7503    154.1440   6.2120244759e+01   3.4806912534e+01    0.4651626    0.2679296  54.40  0.001335422    1.815    0.449
       159  -9.6195    225.0097    157.0249   2.6165665292e+01   7.7156188848e+00    0.1790516    0.1511404 -56.98  0.001143205    1.736    0.424
       160 -10.1649      4.7058    151.3125   8.1681876983e+01   4.2377601292e+01    0.4816296    0.1725616  52.51  0.001621641    2.472    0.595
       161 -10.4433    223.3049    148.3198   2.4728810613e+01   9.2239044362e+00    0.4172712    0.2997127  30.56  0.002010835    1.469    0.319
       162  -9.2052    189.7567    150.7434   3.0985123187e+01   1.4340143425e+01    0.2259231    0.2164555 -64.67 0.0008088589    1.344    0.256
       163  -8.3637     88.3241    151.3167   5.5789018321e+01   3.2488190556e+01    0.1496832    0.1167091 -15.53  0.000704364    1.669    0.401
       164  -9.4501     28.4811    149.5098   7.4160621836e+01   4.0854159988e+01    0.4800816    0.1730658  64.68  0.001552643    3.843    0.740
       165 -10.1673     39.5109    147.0009   7.0377199300e+01   4.0349296383e+01    0.6607897     0.276696  63.76  0.002302733    3.208    0.688
       166  -8.9403     77.2178    147.2762   5.8453123012e+01   3.5240934858e+01     0.252406    0.2316332   0.87  0.001352705    1.234    0.189
       167 -10.3021     56.1537    145.2728   6.4789052170e+01   3.8772832150e+01    0.5481215     0.279236  54.89  0.001656162    2.136    0.532
       168 -10.7499    244.7654    143.7845   2.0701345927e+01   6.6784795258e+00    0.3935911    0.2083451 -27.07  0.002206759    1.603    0.376
       169  -8.5603    195.3816    146.1467   2.8992845248e+01   1.4126846837e+01    0.1862064    0.1163098 -45.34 0.0004994611    1.713    0.416
       170  -9.5723    149.0711    145.2612   3.8388033688e+01   2.2786027219e+01    0.4180602    0.2945376  82.61  0.001613781    2.652    0.623
       171  -9.4399    106.8452    144.7757   4.9208575919e+01   3.0837950588e+01    0.4593235    0.2775651  75.73   0.00159704    3.262    0.693
       172  -8.7835     13.0764    146.0123   7.8767308017e+01   4.3093262658e+01    0.2290555    0.1269255  58.42 0.0007236909    1.674    0.403
       173  -9.8144    117.8544    144.1029   4.6021068391e+01   2.8965033988e+01    0.7912903    0.2736844  52.02  0.002020706    5.125    0.805
       174  -9.4568    108.5553    138.3417   4.7414267546e+01   3.2012325314e+01    0.5723392    0.2993773  65.91  0.001640899    4.507    0.778
       175  -9.2272    125.3177    143.2393   4.3849623376e+01   2.7747972087e+01    0.3598523    0.2443637  87.71  0.001327282    2.657    0.624
       176  -9.6803     87.9812    143.0411   5.4415474194e+01   3.4544408076e+01    0.4748113    0.2640574 -75.40  0.001815292    2.509    0.601
       177  -9.3797    188.1819    143.6341   2.9798834784e+01   1.5809780529e+01    0.1898379    0.1206196  30.73 0.0005053173    1.663    0.399
       178 -10.4630     70.3725    141.3888   5.9621477913e+01   3.7756107939e+01    0.5573949    0.2877624  63.58   0.00200008    2.810    0.644
       179  -9.3036      3.0335    142.1862   8.1721783908e+01   4.4779922762e+01    0.3320516    0.1219024  65.09  0.001303198    2.743    0.635
       180 -11.0249    197.6863    136.4095   2.6520075742e+01   1.5315360597e+01    0.4960215    0.3555126  10.53  0.002268146    1.634    0.388
       181  -9.5785    202.9547    136.2387   2.5567592370e+01   1.4412704014e+01    0.2298559    0.1898754  39.15 0.0009027802    1.314    0.239
       182  -9.5338     25.1762    127.4603   7.3059036500e+01   4.6897248703e+01    0.3031518     0.285056 -67.80   0.00115608    1.119    0.106
       183 -10.4121     28.5597    122.5835   7.1265226466e+01   4.7876218108e+01     0.553472    0.3205932  62.83  0.002508045    1.844    0.458
       184 -10.1297     28.6147    117.2322   7.0562825489e+01   4.9296587181e+01    0.6864939    0.2295029 -44.69  0.002170085    3.922    0.745
       185 -10.4173    245.8241    136.1956   1.9080932352e+01   7.5461295638e+00    0.3386736    0.2288424 -21.76  0.002144579    1.250    0.200
       186  -8.7157    162.2077    137.8031   3.3799453174e+01   2.1705609819e+01    0.2348928    0.1081546 -32.90 0.0008576146    2.516    0.603
       187  -9.2110     47.0371    137.9958   6.6778097532e+01   4.1804160508e+01    0.3120345    0.1807003  43.54  0.001156069    1.626    0.385
       188 -10.8841     41.3696    134.7950   6.8274123430e+01   4.3306935642e+01    0.4622708    0.3786878 -44.77  0.002111602    1.361    0.265
       189 -10.9564     44.8241    130.6631   6.6510079759e+01   4.3989202840e+01    0.7451962    0.4731524  58.91  0.003464362    1.644    0.392
       190  -9.3287    234.4164    136.5357   2.0716479389e+01   9.2013809499e+00    0.2369435    0.1820372 -13.67 0.0007529226    1.166    0.142
       191  -9.2575     15.1212    135.0762   7.7279669549e+01   4.5744556891e+01    0.1964774    0.1716482 -57.53 0.0003300883    1.236    0.191
       192 -10.0732     23.0724    136.4724   7.4712048341e+01   4.4719531545e+01    0.8069792    0.3224158  85.63  0.002911316    3.054    0.673
       193 -10.0533    118.9136    118.3126   3.9916952267e+01   3.4553241805e+01    0.5354308     0.263611 -46.64  0.001818577    2.080    0.519
       194 -10.3328    117.6701    125.4259   4.1972754529e+01   3.3205386152e+01    0.5489922    0.4122509  50.28  0.001604293    1.340    0.254
       195  -9.9891    110.2140    131.5430   4.5479189426e+01   3.3272750004e+01    0.6239462    0.3694107  38.72  0.002366198    1.625    0.385
       196 -11.4986    107.4141    123.3340   4.4433331379e+01   3.5727360581e+01     1.138398    0.6350015  39.15  0.003171142    1.742    0.426
       197 -11.8650    107.6355    113.0903   4.1884361920e+01   3.8069431678e+01     1.025491    0.6470488 -47.35  0.003487773    1.624    0.384
       198 -11.4470    109.6529     99.8939   3.7783762730e+01   4.0661155079e+01     1.196269    0.5888897 -60.29  0.004011873    2.849    0.649
       199 -10.0537     83.9357    132.1909   5.3599663933e+01   3.7897888868e+01    0.4805412    0.2755109  56.68  0.001355594    2.076    0.518
       200  -9.4032    209.6960    131.8921   2.3514636224e+01   1.3924951072e+01    0.2397922    0.2074158  26.67  0.001153606    1.222    0.181
       201  -8.5470    143.4559    131.9486   3.6778981112e+01   2.6578325162e+01    0.2039969    0.1332613 -69.79 0.0008075648    2.432    0.589
       202  -9.6498    131.9599    130.9693   3.9423002723e+01   2.9103055457e+01    0.4340186    0.2543071 -64.15  0.001665979    2.475    0.596
       203 -10.1917     12.7506    129.1423   7.7608987815e+01   4.7469801619e+01    0.5613657    0.2233257  64.52  0.002130801    2.831    0.647
       204 -10.2829     12.7962    120.8148   7.6874575954e+01   4.9654334827e+01    0.6516971    0.1903174 -50.03  0.002172243    3.771    0.735
       205 -10.9160     22.3861    110.4280   7.2093080841e+01   5.1673214347e+01    0.6108614    0.3363245 -86.67  0.002733173    1.849    0.459
       206 -11.3795     15.9192    112.2546   7.4844678609e+01   5.1697643150e+01    0.7016427    0.3677884  56.27  0.002278465    1.997    0.499
       207 -11.1912     23.7865     92.5157   6.8898056621e+01   5.6336273907e+01    0.6530452     0.475344 -81.12  0.001975797    1.334    0.251
       208 -11.3889     17.5052    103.7689   7.3219050833e+01   5.3841834425e+01    0.6217416    0.3342599 -58.40  0.001806894    1.714    0.417
       209 -11.1490     22.0475    100.7735   7.0925326565e+01   5.4282194465e+01      1.11394    0.4049059  58.23  0.003423754    4.267    0.766
       210  -9.9099    246.8551    128.9614   1.7517899601e+01   8.3694577374e+00    0.3427329    0.1484998 -48.13  0.001512713    3.068    0.674
       211  -9.6030    242.0546    125.5153   1.7450772517e+01   9.5628576598e+00    0.1844028    0.1564093  67.97 0.0007324999    1.677    0.404
       212 -10.1538     99.7229    128.4781   4.7902530757e+01   3.5985832773e+01    0.5854905    0.3749702  77.38  0.002054268    2.598    0.615
       213  -9.4756     73.4782    129.4603   5.6478586963e+01   4.0304196259e+01    0.3585433    0.2070798  65.21  0.001221631    2.385    0.581
       214  -8.7521    153.0586    129.0485   3.3851514820e+01   2.5217950445e+01    0.2292191    0.1856568 -84.96 0.0008138524    1.694    0.410
       215 -10.4160    230.2258    126.6048   1.9283613566e+01   1.1274488868e+01    0.3305469    0.2314047  56.59  0.001449523    1.878    0.468
       216 -10.4136    226.0837    123.5924   1.9243352751e+01   1.2391459539e+01    0.3104563    0.2616644 -71.46    0.0011569    1.642    0.391
       217  -8.9495    192.3123    127.3224   2.5483728220e+01   1.7804328315e+01     0.140478    0.1025951   1.22  0.000400809    1.654    0.396
       218 -10.4439     60.1323    124.4646   6.0122530224e+01   4.3609917753e+01    0.7009482    0.3461975  66.80   0.00226607    3.489    0.713
       219 -10.5373     44.3870    122.8725   6.5502519233e+01   4.6099095813e+01    0.7271385    0.3658495  70.65  0.002590309    2.872    0.652
       220  -9.3926    133.8346    124.5030   3.7427833042e+01   3.0102867979e+01     0.423626     0.245527  19.59  0.001486836    2.924    0.658
       221  -9.5539    181.5712    119.2011   2.5596715794e+01   2.1279179946e+01    0.2902344    0.2010614   2.86 0.0009410764    2.020    0.505
       222  -8.8720     83.8980    121.8976   5.1474343705e+01   4.0471167792e+01    0.2321269    0.2140871 -18.45 0.0005422053    1.211    0.174
       223  -8.3050      1.4306    122.4483   8.1108354743e+01   4.9944444658e+01    0.1318292    0.1154103  87.49  0.000196447    1.027    0.026
       224  -8.2764    158.6770    121.3704   3.0775970369e+01   2.5561541091e+01    0.1522454    0.1184905 -79.80 0.0007034024    1.805    0.446
       225  -9.4603    142.1083    119.3820   3.4121099061e+01   2.9441398801e+01     0.385143    0.2765698 -80.23   0.00163514    2.151    0.535
       226  -9.1879     71.4984    120.0529   5.5287294863e+01   4.3025642105e+01    0.3085927    0.1984479  50.97  0.001226519    1.611    0.379
       227  -8.8993    131.2393    118.6814   3.6682140590e+01   3.1889866291e+01    0.3527322    0.2226529  87.16  0.001125568    3.806    0.737
       228 -10.2704    249.0619    116.9732   1.4840046323e+01   9.6501327998e+00    0.2982191    0.1506005 -26.59  0.001584458    1.757    0.431
       229  -9.8829      2.4398    115.8880   8.0299932327e+01   5.1600647388e+01      0.58671    0.2046728  75.98  0.002068783    3.326    0.699
       230  -9.7709    185.2022    114.1354   2.3728898446e+01   2.1429325864e+01    0.3529417    0.2843733  64.28   0.00176186    1.472    0.320
       231 -10.2416     93.0346    112.8689   4.6393572717e+01   4.1018809345e+01    0.4723599      0.33424  79.91   0.00132691    1.977    0.494
       232 -10.0082     79.2306    112.5265   5.0951532442e+01   4.3639358474e+01    0.5588013    0.3583698  81.34   0.00214199    2.436    0.590
       233  -9.1451    122.4810    112.5111   3.7469153466e+01   3.5091548673e+01    0.3431114    0.2385648  85.79 0.0008942472    2.329    0.571
       234 -10.0995     66.8221    110.6549   5.4958951304e+01   4.6190518700e+01    0.3991821    0.2591749  55.40  0.001735675    1.703    0.413
       235  -9.4834    133.7912    108.7358   3.3491034356e+01   3.3449749908e+01     0.502612    0.2021014 -49.86   0.00167987    2.744    0.636
       236 -11.3170    132.7720    102.3869   3.2056966601e+01   3.5001169995e+01     0.845068    0.4026315  38.99  0.002857715    2.319    0.569
       237  -8.9849     59.4808    109.5047   5.7445089933e+01   4.7613201391e+01    0.2232553    0.1469588 -76.80 0.0007602894    1.694    0.410
       238 -10.2836     61.5364    105.9752   5.5902425064e+01   4.8223174036e+01    0.3175325    0.2389064 -12.34 0.0008377939    1.744    0.427
       239 -11.2548    249.8913    104.1358   1.2127492486e+01   1.1237901653e+01    0.7665824    0.1898134 -31.63  0.002817213    3.554    0.719
       240  -8.9551    184.0029    109.1978   2.2763633151e+01   2.2521497591e+01    0.3068062    0.1607475  52.56  0.001336578    2.075    0.518
       241 -10.7581     45.7369    102.2935   6.1348437885e+01   5.1395152188e+01    0.8542438    0.3939252  61.99  0.002703061    3.733    0.732
       242  -8.8445    140.1992    104.9065   3.0881346680e+01   3.2819228726e+01     0.310196    0.1964761  74.66  0.001156268    2.603    0.616
       243  -9.0519    150.3166    103.7882   2.8210117103e+01   3.0778755973e+01    0.2998014    0.2253668 -66.87  0.001228723    1.633    0.388
       244  -9.2768     40.8296    108.2382   6.4436121197e+01   5.0411696678e+01    0.3240118    0.1147146 -75.48 0.0009938069    3.566    0.720
       245 -10.4531     28.7064     99.3319   6.7888822391e+01   5.4073243811e+01    0.6127192    0.3283156  76.79  0.002452861    2.440    0.590
       246  -9.2843     35.7068    101.3734   6.5299333391e+01   5.2816139051e+01    0.2549255    0.2038389  70.69 0.0006079985    1.307    0.235
       247  -9.4071     82.2687    100.0303   4.6792199920e+01   4.6195030315e+01    0.3451685     0.246037  86.13  0.001141769    1.958    0.489
       248  -8.9313    102.5010     99.9874   4.0006767968e+01   4.2166192042e+01    0.2364091    0.1563591 -46.93 0.0006611678    1.542    0.352
       249 -10.6321     63.9740     95.9321   5.2581696230e+01   5.0421765389e+01    0.5747814    0.3558192  83.00  0.001957961    2.668    0.625
       250  -9.8486     44.7462     91.6993   5.9511796112e+01   5.4306610031e+01    0.4760469    0.2825487   5.68  0.001937161    2.348    0.574
       251  -8.9839    139.2687     92.1619   2.7600242391e+01   3.5580945750e+01    0.2998318    0.2081383  83.18  0.001173291    2.105    0.525
       252  -9.9540    124.8726     91.0638   3.0933174764e+01   3.9152199976e+01    0.4288602    0.2934869 -89.19  0.001403334    2.357    0.576
       253  -9.7914      5.0933     91.8195   7.7113892773e+01   5.7802871685e+01    0.2931956    0.1323491  68.08  0.001081022    2.606    0.616
       254  -9.6288     95.2521     96.8475   4.1470595492e+01   4.4403125358e+01    0.3292697    0.2711382  79.15 0.0008258973    1.425    0.298
       255  -9.7929     34.5793     89.0054   6.3410177710e+01   5.6215482070e+01    0.5530607     0.296367 -87.71  0.002165025    2.478    0.596
       256  -9.5983     36.0116     81.7378   6.1158274756e+01   5.7954570589e+01    0.4463564    0.1927128 -40.59  0.001618531    2.738    0.635
       257 -10.3473     86.9636     86.8099   4.1392828082e+01   4.8440089120e+01    0.4685909    0.3334615  74.29  0.001656407    1.936    0.484
       258  -9.9139     64.4009     87.1569   5.0090489793e+01   5.2558636649e+01    0.3337647     0.244357  -8.59  0.001407157    1.864    0.463
       259 -10.4274    104.9209     83.2094   3.4310167815e+01   4.5385036309e+01    0.5042763    0.3379232 -86.57  0.001619839    2.565    0.610
       260  -9.7699     48.0678     83.5057   5.6073496971e+01   5.5981155386e+01    0.5164449    0.3125411  76.05  0.001983645    2.665    0.625
       261  -9.2792     49.3629     77.0453   5.3738911340e+01   5.7428425195e+01    0.3848382    0.2597878  -4.69  0.001425823    2.049    0.512
       262  -9.7836      7.7147     83.9962   7.4992946182e+01   5.9725154998e+01    0.3577866    0.1596641 -49.50  0.001470051    2.096    0.523
       263  -9.4615    116.8461     82.9358   3.0693214894e+01   4.2698834883e+01    0.3041808    0.2164995 -31.96 0.0003199648    1.562    0.360
       264  -9.2196    119.6671     80.3408   2.9100328290e+01   4.2561962306e+01     0.252492    0.1911431 -83.19  0.001107637    1.726    0.421
       265  -9.7263    185.4624     82.9902   1.5936747902e+01   2.6581313951e+01    0.2682485    0.1901856  41.39 0.0009247321    1.608    0.378
       266  -8.1287    140.6895     82.6978   2.4519821502e+01   3.7067128304e+01    0.1534824    0.1225919  14.89 0.0002946818    1.607    0.378
       267  -9.9451     86.5484     80.7337   3.9663715383e+01   4.9921288321e+01    0.3850343    0.2163267  25.36  0.001377766    2.557    0.609
       268  -9.3934     74.7602     80.2837   4.3930430453e+01   5.2370144690e+01    0.3592186    0.2107498 -67.57   0.00137048    2.310    0.567
       269  -9.5920     24.4287     80.3196   6.6378450723e+01   5.9497294109e+01    0.3926237    0.2246629  65.19  0.001572728    2.273    0.560
       270 -10.2123    176.1396     78.4859   1.6282244458e+01   2.9412872962e+01     0.476914     0.306907  81.47  0.001485498    2.088    0.521
       271  -8.6267    184.4893     77.5027   1.4657903869e+01   2.7672125389e+01    0.1429349    0.1296343 -54.05 0.0008102782    1.039    0.038
       272  -9.9717    128.7398     75.9117   2.5327586593e+01   4.1244641223e+01    0.4077333    0.2697647 -77.33  0.001355266    2.324    0.570
       273  -9.1164    220.1700     74.5965   9.0877197613e+00   2.0562994374e+01    0.1711747    0.1164048  46.17 0.0009433752    1.765    0.433
       274  -8.7268    140.9626     75.4790   2.2289155265e+01   3.8336466879e+01    0.2155663    0.1359011  84.03 0.0007453638    2.446    0.591
       275  -9.3187    195.8983     73.4814   1.1921855658e+01   2.5763069111e+01     0.229871    0.1901335 -12.37  0.001287485    1.382    0.277
       276 -10.1745     82.4536     72.1226   3.8329896611e+01   5.2698750009e+01    0.5109951    0.2945044 -59.70  0.001366466    2.138    0.532
       277  -9.8800     84.0809     64.1520   3.4914881780e+01   5.4061947113e+01    0.4522815     0.298557   3.92  0.001669536    2.801    0.643
       278 -10.0869     27.3237     71.4115   6.2981903987e+01   6.1530478410e+01    0.7400594    0.3110808 -23.06  0.002053731    5.519    0.819
       279  -9.6156     10.0075     74.1029   7.2430189075e+01   6.2182558161e+01     0.199807    0.1810384 -67.38 0.0003739677    1.012    0.012
       280  -8.9756    116.0286     72.5112   2.7590335481e+01   4.4985718819e+01    0.2411013    0.1523723  53.75  0.000635096    1.561    0.359
       281  -9.9214    105.9833     71.5291   3.0183802536e+01   4.7576177035e+01     0.296934    0.2223727 -62.88 0.0008365164    1.543    0.352
       282  -9.7220     95.0796     70.8231   3.3421095646e+01   5.0235503021e+01    0.4319549    0.2207839 -55.29  0.001567111    2.403    0.584
       283  -9.5143     62.4965     71.0098   4.6006331067e+01   5.6792271149e+01     0.387194    0.1103859 -42.90  0.001043745    4.329    0.769
       284  -9.2791     51.2362     68.8647   5.0406743865e+01   5.9153702767e+01     0.441582    0.2401129 -78.89  0.001458892    3.629    0.724
       285 -10.0464      1.4803     68.9561   7.6088168516e+01   6.3932500988e+01    0.2486329    0.1811863 -67.65  0.001101888    1.199    0.166
       286  -8.8665    147.1754     68.1940   1.8721211419e+01   3.8086065126e+01    0.2173849    0.1743212 -69.91 0.0006451627    1.354    0.261
       287  -9.8860    138.8700     66.6942   2.0022814710e+01   4.0415948714e+01    0.3121395    0.1848575 -60.34  0.001228842    2.152    0.535
       288  -9.2340    121.9750     66.0064   2.3830013389e+01   4.4760374374e+01    0.2571205    0.1892221 -75.36 0.0008654165    1.721    0.419
       289  -9.5894    110.3162     63.6421   2.6185559773e+01   4.8072762216e+01     0.329996    0.2513062 -82.24 0.0008861581    1.677    0.404
       290  -9.7690     38.7820     58.1993   5.3157282212e+01   6.3481012358e+01    0.4950852    0.1765249 -41.35  0.001636691    3.290    0.696
       291  -9.1949     95.7699     63.4116   3.0572764550e+01   5.1585942722e+01    0.2318814    0.1411818  38.40  0.000951474    1.746    0.427
       292  -8.8212     51.4025     61.9764   4.8030066705e+01   6.0754345424e+01    0.3299601    0.1872687 -27.89   0.00127894    2.479    0.597
       293  -9.8959     18.1115     61.6402   6.5593733291e+01   6.4821426626e+01    0.3169033    0.1728613 -46.34  0.000835033    1.695    0.410
       294  -9.8945    100.2958     59.7347   2.7775811496e+01   5.1232127372e+01    0.4919026    0.2219156 -53.68  0.001619918    3.027    0.670
       295  -9.1817    100.9659     54.3110   2.5538970524e+01   5.2072720503e+01    0.2525463    0.2202846   6.25 0.0006087294    1.334    0.250
       296  -9.8200     73.0715     58.4398   3.7037064949e+01   5.7575576591e+01    0.7264999    0.2390736 -50.44  0.002220537    3.521    0.716
       297  -9.3659     75.4085     50.3935   3.2886973287e+01   5.8703208279e+01     0.400017    0.2046301  32.87  0.001491626    2.411    0.585
       298  -8.4660    164.5358     59.5256   1.2886815471e+01   3.5186267188e+01    0.1460025    0.1361939 -68.24 0.0002323386    1.003    0.003
       299  -9.1800    110.9088     58.2324   2.4091957159e+01   4.8921304374e+01    0.2894462    0.2098377   1.11 0.0007635927    2.051    0.512
       300  -9.8141      7.4469     57.3289   7.0799528739e+01   6.6612030303e+01    0.2385433    0.1658537  59.92  0.001228282    1.697    0.411
       301 -10.5850      2.2606     55.9484   7.3616543763e+01   6.7204118007e+01    0.4170338    0.2416854 -80.53  0.001908834    1.678    0.404
       302  -9.7655    119.2865     55.6224   2.0929432067e+01   4.7274776666e+01    0.2857018    0.1808598 -48.92 0.0008093843    1.674    0.403
       303  -9.2414     62.4684     53.7738   3.9758222974e+01   6.0643314253e+01    0.4326589    0.1466489 -47.72  0.001436016    3.010    0.668
       304 -10.2514    247.3874    248.1416   3.7721369353e+01  -5.8930217635e+00    0.2290933    0.1422623   5.15 0.0009645273    1.134    0.118
       305  -8.8270     53.5212     52.5393   4.3483639060e+01   6.2522493613e+01    0.2685642    0.1425915 -61.60   0.00103383    2.523    0.604
       306 -10.3192      7.6471     51.0381   6.9320520309e+01   6.8164526894e+01    0.4733032          nan -57.31  0.001369864    4.561    0.781
       307  -9.6920     92.3921     50.0177   2.6581154259e+01   5.4910163178e+01    0.4328807     0.234715 -51.65  0.001389901    2.198    0.545
       308  -9.2388     81.7331     45.7153   2.8510619093e+01   5.8170923801e+01    0.4908556    0.1854162 -40.99  0.001713174    2.735    0.634
       309  -8.9416     84.2014     39.8588   2.5098142168e+01   5.8609970834e+01    0.3219517    0.2101941  20.10  0.001338678    2.191    0.543
       310  -8.9568     26.1743     54.6215   5.9041721986e+01   6.5821034844e+01    0.1956607    0.1286227   2.61 0.0006431631    1.744    0.426
       311 -10.1155    149.9991     44.9617   1.0858455465e+01   4.1013657795e+01    0.3256813    0.1630254 -39.32  0.001351867    1.922    0.480
       312  -9.1688     22.7585     46.5551   5.8499151735e+01   6.8082826633e+01    0.2480028    0.1340296  14.28  0.001128233    2.042    0.510
       313  -9.0329      1.5994     45.9517   7.2084336651e+01   6.9702372065e+01    0.1834172     0.144245 -62.98 0.0004176534    1.133    0.117
       314  -9.0254    130.5123     45.4917   1.4738652827e+01   4.6004713921e+01    0.1502169    0.1424429  71.07 0.0008101719    1.041    0.039
       315 -10.0745    123.4578     40.3427   1.4397628986e+01   4.8612389624e+01    0.3270125     0.251887  24.60 0.0007131994    1.618    0.382
       316  -9.3915     92.8380     43.2403   2.3667603328e+01   5.5974677537e+01    0.2945635      0.20467   2.36  0.001248596    2.150    0.535
       317  -9.4344    113.9725     41.4329   1.7009489986e+01   5.0926496604e+01    0.2595533    0.2153173   1.09 0.0003651326    1.475    0.322
       318  -9.0726      5.5130     42.5155   6.8644825021e+01   7.0351100572e+01    0.1916068    0.1212692 -85.36 0.0008266594    1.792    0.442
       319  -9.1272      4.0000     38.9821   6.8773886819e+01   7.1271168778e+01      0.20093    0.1486615  61.97  0.001025269    1.682    0.405
       320  -9.9672    106.0391     38.4059   1.7839102398e+01   5.3429740903e+01    0.4969085    0.2590477 -22.47  0.001918773    2.456    0.593
       321 -10.0242    213.3598     38.8433   1.2239091966e+00   2.6669143353e+01    0.2799806    0.1927344 -57.62 0.0009046918    1.298    0.229
       322 -11.2711     45.4461     49.2336   4.6293833819e+01   6.4565801287e+01    0.3822225    0.2635778 -31.15  0.001862996    1.553    0.356
       323  -8.4392     36.8021     40.6172   4.7562926148e+01   6.7718007895e+01     0.192535    0.1236886  41.00 0.0005049622    1.660    0.398
       324  -9.3477    195.5866    248.5373   4.6270377206e+01  -5.0956125377e-01    0.2480224     0.143336  26.96  0.001653346    1.383    0.277
       325  -8.7822     26.0337     36.0980   5.2386296439e+01   7.0092039198e+01    0.2071875    0.1660213  68.69  0.001126361    1.731    0.422
       326  -8.5717     38.0224     35.2414   4.4399962520e+01   6.8655251423e+01     0.179523    0.1130138  31.28 0.0004502119    1.575    0.365
       327  -9.0482    112.6826     30.6270   1.3068902700e+01   5.2799545939e+01     0.314525    0.1735196  34.37  0.001225906    2.424    0.587
       328 -10.4065      6.3519     33.4538   6.5427786019e+01   7.2435931003e+01    0.3099739    0.1804871 -26.97  0.001598751    1.705    0.413
       329 -10.7945    173.9539    244.7759   4.9728627773e+01   2.5043582794e+00    0.4654462    0.3177826 -44.68  0.003135559    1.989    0.497
       330  -9.3001     12.5391     31.0640   5.9902117917e+01   7.2542440266e+01    0.1982084    0.1198087 -59.88 0.0008200312    1.585    0.369
       331  -9.3069    147.4795     28.5258   5.8672216517e+00   4.3841716807e+01     0.143525     0.132313  86.97  -3.8357e-06    1.041    0.040
       332  -9.6660    105.6761     51.4577   2.3061293384e+01   5.1415828186e+01    0.4833346    0.1988784 -32.35   0.00165714    2.781    0.640
       333  -8.4750      1.2517     27.9867   6.7660491450e+01   7.3960878364e+01    0.1572121   0.09794974 -64.26 0.0008572998    1.476    0.323
       334  -8.4359     61.3871     27.2973   2.8066708158e+01   6.5791817638e+01    0.1526469    0.1040507  19.76 0.0007015271    1.779    0.438
       335  -8.8311    110.6318     24.4598   1.1020534244e+01   5.4128417582e+01    0.2265239    0.1737816  16.43 0.0006983717    1.623    0.384
       336  -9.8971     44.3832     25.1051   3.5453258729e+01   6.9507020518e+01    0.2323572    0.1867031  38.33 0.0003760617    1.224    0.183
       337  -8.4452    128.0000     30.9542   1.0000501447e+01   4.8697833071e+01    0.2266162   0.08466078 -28.51 0.0006450688    2.848    0.649
       338  -8.2815    137.6752     22.6968   5.3506457634e+00   4.7123411208e+01    0.1471017    0.1037266  40.31 0.0002584091    1.640    0.390
       339  -8.2013     58.7544     21.9988   2.6399053567e+01   6.7169825836e+01    0.1656276    0.1184338 -30.67 0.0008470301    1.466    0.318
       340 -10.1649     13.0907     20.9551   5.5016573356e+01   7.4667096773e+01     0.278089    0.2122514   6.20 0.0006891062    1.276    0.216
       341  -8.6156     84.9291     21.4830   1.6343229708e+01   6.1136332334e+01    0.2125366    0.1347226  61.27 0.0004510273    1.486    0.327
       342  -8.8303     41.0440     21.1239   3.5119944702e+01   7.0782486757e+01    0.2038309    0.1647021   6.06            0    1.242    0.195
       343  -8.4503    188.8258     20.4249   3.5866692483e+02   3.4364465627e+01    0.1811632    0.1118177  62.13 0.0009379252    1.697    0.411
       344  -8.6749    105.6803     20.0118   1.0246901041e+01   5.5966693376e+01    0.2227448    0.1151284   8.09 0.0007032739    4.174    0.760
       345  -9.2061      1.5823     19.7528   6.4447951420e+01   7.5779595561e+01    0.1626731    0.1159758 -74.81 0.0009426725    1.583    0.368
       346  -8.8229     50.9327     15.0399   2.6063967218e+01   6.9819193529e+01    0.2227568    0.1510307  19.32 0.0006565393    1.682    0.405
       347 -11.7672    166.6348    242.0513   5.0770711210e+01   3.7641805966e+00    0.6953349    0.2761497  31.33  0.003408222    1.978    0.494
       348  -9.7227    107.4514    247.7452   6.3432860282e+01   1.0455575968e+01     0.266232    0.2267168 -89.68  0.001466038    1.605    0.377
       349  -9.2368    106.4782    243.4745   6.3222183887e+01   1.1253317529e+01    0.2153594    0.1342234  47.59 0.0007903361    1.535    0.349
       350 -10.4507    107.8232    238.7422   6.2458331582e+01   1.1845235146e+01    0.3669508    0.2624716 -50.63  0.002374647    1.771    0.435
       351 -10.7219     73.6635    244.4608   7.0359728630e+01   1.5144487194e+01    0.2333847    0.2063699  38.62 0.0006002499    1.171    0.146
