#   1 NUMBER                 Running object number                                     
#   2 MAG_AUTO               Kron-like elliptical aperture magnitude                    [mag]
#   3 X_IMAGE                Object position along x                                    [pixel]
#   4 Y_IMAGE                Object position along y                                    [pixel]
#   5 X_WORLD                Barycenter position along world x axis                     [deg]
#   6 Y_WORLD                Barycenter position along world y axis                     [deg]
#   7 A_WORLD                Profile RMS along major axis (world units)                 [deg]
#   8 B_WORLD                Profile RMS along minor axis (world units)                 [deg]
#   9 THETA_WORLD            Position angle (CCW/world-x)                               [deg]
#  10 FWHM_WORLD             FWHM assuming a gaussian core                              [deg]
#  11 ELONGATION             A_IMAGE/B_IMAGE                                           
#  12 ELLIPTICITY            1 - B_IMAGE/A_IMAGE                                       
         1 -14.9565     10.2143    152.7080   1.4703877922e+02   4.0834698540e+01     6.344483     1.952526  88.01   0.02521127    3.536    0.717
         2 -13.1869    193.5870     29.1741   6.9759018368e+01   3.3043636244e+01     1.372861     1.187098 -12.80  0.007143494    1.174    0.148
         3 -13.4377    207.9720     10.1966   6.2809668424e+01   3.1541804482e+01     1.383392    0.9905739  33.31  0.007614973    1.669    0.401
         4 -12.3879      2.2630     15.1288   1.3124581209e+02   7.3899554134e+01     1.691591    0.1686804 -64.30  0.004709012    6.108    0.836
         5  -8.7131     46.0398    248.5405   1.4441568048e+02   1.9726165500e+01    0.2209545   0.06819904  59.16 0.0009991173    3.558    0.719
         6 -11.2150    139.8650    249.3003   1.2731254667e+02   8.9474000199e+00    0.2883023    0.2052794  45.08  0.002121838    1.389    0.280
         7 -10.7915    123.0453    249.7208   1.3043253703e+02   1.0964918636e+01    0.3414529   0.09816029  33.92  0.001617126    2.581    0.613
         8  -9.3142    111.7502    250.6348   1.3258919807e+02   1.2205747118e+01    0.1529063   0.07175258  39.61 0.0003387388    1.576    0.365
         9 -10.8430     97.7321    248.0105   1.3495444833e+02   1.4226136894e+01    0.3345238    0.2353371 -82.06  0.002463787    1.946    0.486
        10 -10.4912    101.2855    245.9972   1.3413056416e+02   1.4094515366e+01    0.2314429    0.1568479 -65.40  0.001057122    1.955    0.488
        11 -10.1038     30.1551    250.1721   1.4727743029e+02   2.0982170987e+01    0.2463687    0.1505147  42.35  0.001281756    1.197    0.164
        12 -10.5877     35.1746    244.8638   1.4618663538e+02   2.1330499650e+01    0.4337745    0.3058995 -72.05  0.003513027    1.728    0.421
        13 -10.3546      2.5490    248.1912   1.5191505967e+02   2.3639474596e+01    0.3178382    0.1766143  87.25  0.002235111    1.771    0.435
        14 -10.1825      1.7839    238.9937   1.5184517604e+02   2.5130761353e+01    0.3475268   0.09289841 -86.78  0.001817519    3.863    0.741
        15 -10.6731    127.9724    245.3029   1.2909709896e+02   1.0946925164e+01    0.1632131    0.1136284  32.73 0.0008172769    1.073    0.068
        16  -9.7010     11.5783    239.4559   1.5016076426e+02   2.4266062382e+01    0.2919079   0.08826229  52.98  0.001065982    2.266    0.559
        17 -14.0246      9.7318    206.5232   1.4948289661e+02   3.0027181636e+01     8.836928          nan  33.38  0.005233803    6.517    0.847
        18 -11.2398    247.6890    246.9690   1.0868309832e+02  -3.7989819607e+00    0.3182111    0.2374065  18.74  0.002651714    1.417    0.294
        19  -8.8889     51.7996    197.4750   1.4024599977e+02   2.7837676157e+01      0.18153    0.1213854  57.45 0.0007862142    1.308    0.235
        20 -10.1332    230.6811    231.9904   1.0921792372e+02  -4.6642440570e-01    0.1965152    0.1615057 -34.52  0.001051782    2.039    0.510
        21  -9.1753    192.6687    194.0156   1.0991171446e+02   9.0449238435e+00    0.1719236    0.1007904 -57.59 0.0007049523    4.452    0.775
        22  -9.6263     41.7359    193.5974   1.4217037076e+02   2.9611835344e+01    0.2705893    0.1126625  61.32  0.001316538    2.526    0.604
        23 -11.5366     69.4728    190.1696   1.3569803502e+02   2.7268157558e+01    0.2501957    0.2283785 -27.97 0.0005422098    1.375    0.273
        24 -10.6028     79.1314    177.4606   1.3211693698e+02   2.8599684756e+01    0.2263162    0.2044979  32.23 0.0004130139    1.127    0.113
        25 -12.8891     66.1282    175.4523   1.3501828326e+02   3.0605236202e+01    0.4530617    0.2663298 -42.28  0.001541372    2.250    0.556
        26  -8.4036    100.4715    176.9525   1.2697320909e+02   2.5832158072e+01    0.1605092    0.1062302  77.42 0.0004826854    2.157    0.536
        27 -11.5690     86.3739    168.1000   1.2920377620e+02   2.9563088718e+01     0.609164    0.5328026  48.17  0.003881273    1.042    0.041
        28  -9.8735     98.8723    152.1147   1.2368609120e+02   3.1139766545e+01    0.2897339    0.2804505   1.83 0.0008102289    1.091    0.083
        29  -9.0990    101.5324    147.9884   1.2230354652e+02   3.1614947525e+01      0.20935    0.1634766 -34.15  0.000529793    1.446    0.308
        30 -11.5646     87.4865    151.3580   1.2654756367e+02   3.2965579509e+01     0.280823    0.2400154 -30.02 0.0005834409    1.347    0.258
        31 -12.5105     66.7772    143.4323   1.3100243164e+02   3.7495655880e+01     1.099432    0.5991756  69.24  0.002950649    2.579    0.612
        32 -12.3616     37.7460    232.2353   1.4515683798e+02   2.3098671106e+01    0.2408728    0.2307931  78.08 0.0007730027    1.348    0.258
        33 -14.2834     43.5808    223.8664   1.4361912913e+02   2.3927991106e+01     4.093441     1.143607  30.05   0.01150431    3.047    0.672
        34  -9.8043    228.5146    228.0328   1.0898670896e+02   1.9238876230e-01    0.2261965    0.2027383 -44.39  0.001703887    2.272    0.560
        35  -9.4062    110.0008    137.2531   1.1810186311e+02   3.2560990793e+01    0.3549697    0.2356917 -20.20  0.001435392    2.152    0.535
        36 -10.2347     97.4429    134.4598   1.2098253792e+02   3.5205560533e+01    0.2608448    0.2218667 -19.13 0.0007128749    1.341    0.254
        37 -10.3399     82.4025    133.5778   1.2505974696e+02   3.7666074956e+01    0.2540193    0.2201192  66.32  0.001458315    1.191    0.160
        38  -9.8895    172.7131    222.5717   1.1801383540e+02   8.0952719852e+00    0.2335998   0.09084971  31.32  0.001142884    2.126    0.530
        39  -8.9017    107.0643    123.9428   1.1618714436e+02   3.5955982943e+01    0.2012839    0.1955911  16.52  0.001156779    1.012    0.011
        40 -11.0837     53.9040    120.9973   1.3151644446e+02   4.4307889749e+01    0.6649781    0.2285497 -77.21  0.001942475    4.955    0.798
        41  -8.5622    152.5355    212.9423   1.2058896443e+02   1.2218532205e+01    0.1442346    0.1171387 -34.51 0.0003591568    1.455    0.313
        42 -10.0011    167.9525    112.9744   9.8275588543e+01   2.6381710440e+01    0.3283331    0.2824642 -77.67 0.0008403102    1.617    0.381
        43  -8.8887    203.4657    111.4783   9.0887934708e+01   1.9423403177e+01    0.1434321    0.1229348  -3.14  0.000200511    1.047    0.045
        44  -9.1645     34.8459    202.3880   1.4418773691e+02   2.8605950574e+01    0.1724758    0.1216405  69.23 0.0002796222    1.247    0.198
        45 -11.3245     63.7066    198.0441   1.3768918120e+02   2.6429113299e+01    0.2973664    0.2318621 -30.94  0.001067695    1.784    0.440
        46  -9.4945     72.1285     85.6168   1.1817430735e+02   5.0488844642e+01     0.241251    0.2083469  82.66 0.0004823669    1.359    0.264
        47  -8.1983    184.6868     77.2996   8.5284715595e+01   2.8705830443e+01    0.1450819    0.1138133 -62.76 0.0002382221    1.607    0.378
        48  -9.3994     34.2592     62.7199   1.2745411375e+02   6.0653282244e+01    0.6987952    0.1864831  40.30  0.002088587    4.634    0.784
        49  -9.7466     27.2310     60.3369   1.3007027226e+02   6.1844764225e+01    0.2232374    0.1969273  56.14 0.0007335773    1.325    0.245
        50 -10.9177     22.0196     58.0173   1.3196017502e+02   6.2805831747e+01    0.4564438    0.2135784  40.12  0.002078623    2.543    0.607
        51 -10.4480    107.1356    247.9715   1.3321045161e+02   1.3122225533e+01    0.2127321    0.1504578 -88.85   0.00151528    2.069    0.517
        52  -9.8530     81.0832    247.9030   1.3801999240e+02   1.6142747521e+01    0.2911092    0.1245959  61.11  0.001486278    3.213    0.689
