#   1 NUMBER                 Running object number                                     
#   2 MAG_AUTO               Kron-like elliptical aperture magnitude                    [mag]
#   3 X_IMAGE                Object position along x                                    [pixel]
#   4 Y_IMAGE                Object position along y                                    [pixel]
#   5 X_WORLD                Barycenter position along world x axis                     [deg]
#   6 Y_WORLD                Barycenter position along world y axis                     [deg]
#   7 A_WORLD                Profile RMS along major axis (world units)                 [deg]
#   8 B_WORLD                Profile RMS along minor axis (world units)                 [deg]
#   9 THETA_WORLD            Position angle (CCW/world-x)                               [deg]
#  10 FWHM_WORLD             FWHM assuming a gaussian core                              [deg]
#  11 ELONGATION             A_IMAGE/B_IMAGE                                           
#  12 ELLIPTICITY            1 - B_IMAGE/A_IMAGE                                       
         1 -14.0062    244.9770     99.8572   1.6286813134e+01   1.2245096160e+01     2.086954    0.3964398 -45.44  0.005890063    5.355    0.813
         2 -15.2180    246.5560     16.4223   3.5801343137e+02   2.3502992600e+01     3.681932     1.052881 -30.63    0.0151156    3.263    0.694
         3 -12.2511      2.6051     40.4871   7.2052014543e+01   7.0627544934e+01    0.5827394    0.1765177 -64.09  0.002417953    2.595    0.615
         4 -13.0954     11.9240     24.0444   5.9803676632e+01   7.3548812379e+01     0.715262    0.3008827 -32.22  0.003153872    2.603    0.616
         5 -12.9023      6.2314     11.5224   5.7963700414e+01   7.6423808179e+01    0.8410198    0.4304866 -30.57  0.004521177    1.856    0.461
         6 -12.1753      8.7721      2.1421   4.9945970041e+01   7.7808000126e+01    0.8437015    0.2066837  29.55  0.003293642    4.068    0.754
         7 -11.8160     13.4077     12.8831   5.2962555712e+01   7.5517458402e+01    0.3063239     0.194984 -32.44  0.001290467    1.393    0.282
         8 -12.1809     15.7386      7.3379   4.7732898095e+01   7.6202707735e+01    0.4332802    0.2447146 -19.70  0.002302443    1.975    0.494
         9 -11.6637     19.8234     14.3281   4.9021238561e+01   7.4559196341e+01    0.3315442    0.1797562 -27.07   0.00170128    1.943    0.485
        10 -12.2563     25.3688      4.0987   3.8497394926e+01   7.5413796830e+01    0.4855297    0.2949181   8.59   0.00259624    1.979    0.495
        11 -11.7845      1.9104     94.6051   8.1913111587e+01   5.7236436796e+01    0.3572924    0.1582954 -80.51  0.001568921    1.945    0.486
        12 -12.4863    236.7180    228.8437   4.1912200871e+01  -5.4997710288e+00    0.6772478    0.3493451 -46.50  0.003674569    3.026    0.670
        13 -12.3527    248.2320    215.6234   3.7987215980e+01  -5.1591462057e+00     1.007505    0.3083673 -25.99  0.003833703    4.540    0.780
        14 -12.3093    234.1147    245.3802   4.4823277172e+01  -7.1752298105e+00    0.6061903    0.2845783 -28.53   0.00374469    1.991    0.498
        15 -11.0106    244.9849    230.4521   4.0845384969e+01  -6.6029244242e+00    0.3595076    0.1396592 -34.44  0.001913718    2.358    0.576
        16 -11.3404    240.1156    239.5952   4.3005622939e+01  -7.1499117041e+00    0.3446324    0.1801884 -19.96  0.001277298    1.751    0.429
        17 -10.6528    243.5561    235.6957   4.1873291878e+01  -7.0645788100e+00    0.2612475    0.1412999 -26.66  0.001723417    1.622    0.384
        18 -11.3678    248.8451    225.3739   3.9451583793e+01  -6.4158013490e+00    0.3713138    0.1922742 -23.44  0.001726969    1.668    0.401
        19 -11.3120    249.9869    232.7615   4.0422781555e+01  -7.4034421165e+00    0.3651317    0.1863121 -25.66  0.001750693    1.681    0.405
        20 -11.2343    248.8266    250.1140   4.3184896174e+01  -9.2114935572e+00    0.4516979    0.1634464  26.31  0.002552216    2.506    0.601
        21 -10.7998    248.8440    245.1372   4.2457507932e+01  -8.6754400884e+00    0.2680437    0.1651714 -12.87  0.001965503    1.306    0.234
        22 -11.9489    243.0736    245.6338   4.3430468761e+01  -8.1432658899e+00     0.512605    0.2315042 -18.43  0.002944348    2.322    0.569
        23 -11.5032    247.2934    239.4054   4.1847529109e+01  -7.8809111642e+00    0.3668673    0.1959273 -15.35  0.001546524    1.697    0.411
        24 -11.5250    225.4176    248.3678   4.6679339672e+01  -6.5797622177e+00    0.2983516    0.1789946 -26.11  0.001890342    1.573    0.364
        25 -12.1978    225.9855    241.3656   4.5568039756e+01  -5.8153013493e+00    0.3176672     0.177019 -16.61  0.001693369    1.739    0.425
        26 -12.2300    212.2059    248.0763   4.8868035427e+01  -5.0636037933e+00     0.453383    0.2575569   3.67  0.002768629    1.821    0.451
        27 -10.4570    183.7581    250.3900   5.4249122580e+01  -1.9549186210e+00    0.1639164   0.08729306  22.19 0.0009444734    1.650    0.394
        28  -9.7438     74.8237    250.6002   7.5880176551e+01   1.2213727036e+01    0.1838533    0.0788965  42.56 0.0009514952    1.739    0.425
        29 -10.5867     50.0775    250.0925   8.0868410569e+01   1.5291519102e+01    0.3152436     0.118806  36.85  0.001603113    1.972    0.493
        30 -11.4466     36.7889    248.6076   8.3449211360e+01   1.7068887313e+01    0.4695492    0.1795139  50.09  0.002471973    1.915    0.478
        31 -12.9351     12.2538    205.5532   8.6589912337e+01   2.8446855349e+01    0.8666807    0.3372613  44.28  0.004320148    1.955    0.489
        32 -12.1655     21.9887    248.9473   8.6381620044e+01   1.8584030905e+01     0.766613    0.2088914  32.26   0.00350684    2.868    0.651
        33 -11.7316     18.8449    222.0305   8.5884578331e+01   2.4238541678e+01    0.4995526    0.2032332  71.55  0.002390308    2.334    0.572
        34 -12.2884     11.9795    216.9217   8.7140679103e+01   2.5993394477e+01     0.584246     0.255353  54.42   0.00231874    1.748    0.428
        35 -12.0603      3.6116    197.2203   8.8208700817e+01   3.1104155924e+01    0.6051407    0.2807066  84.15  0.002592003    1.881    0.468
        36 -13.3554      5.2843    189.5015   8.7493115080e+01   3.2741201765e+01     1.303222    0.4201092  80.63  0.005107858    3.145    0.682
        37 -11.4189      1.9624    178.4250   8.7812191106e+01   3.5643056740e+01    0.4800391    0.1892213 -84.36  0.002201303    2.200    0.545
        38 -11.8355     12.1410    248.9270   8.8283351339e+01   1.9578728670e+01    0.5356805    0.1523055  44.53  0.002094793    2.162    0.537
        39 -12.1705      2.5338    212.7037   8.9019581212e+01   2.7768753245e+01    0.7719719    0.2414827  86.60  0.003303269    3.079    0.675
        40 -11.4695     14.1896    232.0370   8.7277559063e+01   2.2647828867e+01    0.4922378    0.2251312  60.69  0.002621428    1.716    0.417
        41 -11.4665     11.1769    225.8179   8.7661898324e+01   2.4205668978e+01    0.4239688    0.1870358  47.39   0.00167086    1.657    0.396
        42 -12.3488     15.9982    240.2325   8.7224549233e+01   2.0850642610e+01    0.6475264    0.2374926  47.10  0.002689749    1.868    0.465
        43 -12.2139      6.7158    236.3384   8.8934182964e+01   2.2514079766e+01    0.5962427    0.2486088  53.86  0.003371703    1.709    0.415
        44 -11.9865      4.9034    228.2810   8.9040562321e+01   2.4294162843e+01    0.5376639     0.236007  60.63  0.002178078    1.735    0.424
        45 -11.6794      2.3160    220.8540   8.9335262440e+01   2.6059977531e+01    0.4506168    0.2121447  77.44  0.001709601    1.810    0.447
        46 -11.3068      3.5644    250.2896   8.9949465088e+01   2.0149366840e+01    0.3518569    0.1607677  30.56  0.001895083    2.027    0.507
        47 -12.5648      3.3805    243.1234   8.9788217736e+01   2.1513081059e+01    0.5682128     0.267764  68.73  0.003304177    1.697    0.411
        48 -11.6316     29.6107    240.6923   8.4506598599e+01   1.9352241180e+01    0.4405236    0.2121574  60.60  0.001874714    1.710    0.415
        49 -10.4322     38.1564    240.3255   8.2741265082e+01   1.8488960043e+01    0.3156099    0.1275743  50.58  0.001521657    1.873    0.466
        50 -11.1599    214.7295    239.6351   4.7217362319e+01  -4.3118255849e+00    0.1974054    0.1158833 -20.62  0.001123828    1.651    0.394
        51 -10.6567    220.1496    238.8462   4.6175330716e+01  -4.8445533446e+00    0.1598992    0.1308302   1.81 0.0008680929    1.174    0.148
        52 -10.2503    184.3109    238.3354   5.2493928207e+01  -3.7714703652e-01    0.1210115   0.07797524  -0.46 0.0004951291    1.682    0.405
        53 -10.4935     45.1266    237.1686   8.1112416026e+01   1.8312568489e+01    0.3059269    0.1083893  53.07  0.001414896    2.343    0.573
        54 -11.5217    231.4529    234.8557   4.3691971200e+01  -5.6421109420e+00    0.3457675    0.1756025 -28.26  0.001881264    1.815    0.449
        55 -10.1343     32.7155    236.0875   8.3641407872e+01   1.9917367924e+01    0.2847432   0.09640554  59.37  0.001266707    2.698    0.629
        56 -11.0537    206.8847    234.4173   4.7814057555e+01  -2.6951955208e+00    0.2313558    0.1285922 -19.16  0.001227075    1.933    0.483
        57 -10.1083    192.4992    234.4953   5.0422504582e+01  -8.9583386715e-01     0.118795   0.09311192   8.27 -2.530411e-05    1.038    0.036
        58 -11.2030    217.7308    231.7536   4.5522740169e+01  -3.6629785963e+00    0.2819652    0.1318817 -30.16  0.001540911    2.095    0.523
        59 -10.0333     48.3479    230.1617   7.9982174814e+01   1.9329300047e+01    0.2666108    0.1106957  69.98  0.001151541    2.918    0.657
        60  -9.2517    225.4814    230.5017   4.4017027101e+01  -4.4191680276e+00    0.1139213    0.0852029   0.04 4.618482e-06    1.030    0.029
        61 -10.1595     32.3589    229.3424   8.3361345838e+01   2.1309117325e+01    0.2606732    0.1106825  58.10  0.001131264    1.986    0.497
        62 -10.0354    229.4835    227.4385   4.2876369812e+01  -4.4982495705e+00    0.2150919   0.09578454 -34.80  0.001200092    2.129    0.530
        63  -9.9153    223.4979    225.9315   4.3642147763e+01  -3.5989729653e+00    0.1646553   0.09699535 -29.93 0.0007813303    1.585    0.369
        64 -10.6296     39.8274    230.8923   8.1857502060e+01   2.0165552915e+01    0.3268618    0.1522646  65.22  0.001664463    2.043    0.510
        65 -11.7269    239.2515    219.0439   3.9954895559e+01  -4.5669159808e+00    0.3094504    0.1718356 -20.70  0.001769015    1.619    0.382
        66 -10.2073    227.8252    218.8554   4.1792672486e+01  -3.1930601691e+00    0.2899623    0.1253033 -27.49  0.001487082    2.310    0.567
        67 -10.3590     24.1859    217.2638   8.4493334688e+01   2.4703423910e+01    0.3565147    0.1094198  55.88   0.00139506    2.739    0.635
        68 -11.5137     21.6681    211.1452   8.4737287224e+01   2.6288199620e+01    0.3606614    0.1990483  72.25  0.002001614    1.583    0.368
        69 -10.3314    233.3167    211.7505   3.9726180023e+01  -2.9167279119e+00      0.28645    0.1392114 -18.15     0.001456    2.362    0.577
        70 -10.6660     28.9833    211.4672   8.3101818425e+01   2.5455866220e+01    0.2590604    0.1393167  73.46  0.001376318    1.711    0.415
        71 -10.6408    239.9659    206.9536   3.7853581209e+01  -3.0834910731e+00    0.2347462    0.1332449 -31.61  0.001218117    1.549    0.354
        72 -10.5591    246.9779    205.9544   3.6584380830e+01  -3.7852574555e+00     0.229367    0.1292987 -31.12  0.001329665    1.526    0.344
        73  -9.5852    225.0000    206.9707   4.0311098491e+01  -1.2261031340e+00    0.1860934   0.05927818 -38.24 0.0008025501    2.943    0.660
        74 -10.3176    250.5257    200.7017   3.5151718677e+01  -3.5171947841e+00    0.2577859    0.0925394 -36.99  0.001273264    2.449    0.592
        75 -11.9478     25.8518    228.7462   8.4709919372e+01   2.2127317891e+01    0.5571937      0.24288  67.68   0.00282883    2.119    0.528
        76 -11.9059     16.4850    196.2168   8.5151857083e+01   3.0163322423e+01    0.3499833    0.1468208  49.77  0.001702089    1.908    0.476
        77 -10.4835    243.4247    200.1642   3.6155960630e+01  -2.5959150817e+00    0.2607712    0.1178071 -32.44  0.001401972    1.908    0.476
        78 -11.0344    246.1853    192.4602   3.4392585884e+01  -1.8910255590e+00    0.2223586    0.1357275 -30.01  0.001300836    1.374    0.272
        79 -12.5536      2.9827    127.9910   8.4585429429e+01   4.8374575946e+01    0.6401444    0.2170562  86.50  0.002315721    3.056    0.673
        80 -13.7891      5.4120    139.3055   8.4648223071e+01   4.5245350470e+01     1.615344    0.4900554  67.53  0.005105387    4.299    0.767
        81 -12.8087      6.6817    171.6921   8.6281026367e+01   3.6901238210e+01    0.4851807    0.3461887  81.05   0.00261254    1.145    0.127
        82 -12.4261      2.2858    167.5782   8.7218238299e+01   3.8264126339e+01    0.6661892    0.3581405 -74.07  0.003505862    1.674    0.403
        83 -11.9321     17.0122    189.5531   8.4659703002e+01   3.1670006330e+01    0.4127444    0.1737114  68.85  0.001794581    2.255    0.557
        84 -11.2261     11.3743    190.5060   8.6079007050e+01   3.1969447804e+01    0.3122292    0.1618995  84.90  0.001533897    1.702    0.412
        85 -10.4291    249.5615    184.2749   3.2429735501e+01  -1.1863219856e+00     0.219574   0.09430362 -38.66   0.00112716    2.071    0.517
        86 -12.5636     11.6090    184.2714   8.5699761879e+01   3.3424562976e+01    0.5417567    0.2362969 -80.33  0.002584689    2.050    0.512
        87 -11.5407     17.3705    182.1286   8.4135122726e+01   3.3411525170e+01     0.432831    0.1520203  80.23  0.001612328    3.216    0.689
        88 -12.3177     10.8437    166.7594   8.4898832612e+01   3.7781380015e+01    0.3622593    0.1742453  71.72  0.001700437    1.910    0.477
        89 -12.9824      9.0170    178.1318   8.6023575251e+01   3.5130962549e+01    0.5986669    0.3063788 -57.10  0.002967068    2.229    0.551
        90 -10.6611    249.5671    150.9909   2.6201838711e+01   3.6313257147e+00    0.1943681   0.09823513 -36.43  0.001024788    1.603    0.376
        91 -10.0239    244.3934    148.7487   2.6500998061e+01   4.7252774458e+00    0.2454696   0.09801088 -39.72  0.001126225    2.093    0.522
        92  -9.9478    234.5957    146.2677   2.7453255120e+01   6.6048777044e+00    0.2556655    0.1030444 -41.01  0.001130761    2.141    0.533
        93 -13.9745      6.9932    150.5556   8.4945484621e+01   4.2209856063e+01     1.878095    0.5391827  75.63   0.00547238    5.001    0.800
        94 -12.9714      3.4773    154.0778   8.6167405154e+01   4.1566842958e+01    0.8802639    0.2744835 -78.65  0.003475697    2.668    0.625
        95 -10.8606    243.8253    139.5239   2.4737967480e+01   6.2360095801e+00    0.2600344    0.1359909 -46.63  0.001049055    1.897    0.473
        96  -9.9063    236.6744    137.3034   2.5312938213e+01   7.7080024074e+00    0.1230691   0.09401021 -59.53 0.0007032313    1.642    0.391
        97 -10.5101    248.5920    135.2494   2.3213795117e+01   6.1666083323e+00    0.2715368    0.1187173 -44.34   0.00127593    2.084    0.520
        98 -10.8345    248.1036    129.9820   2.2210676027e+01   7.0528616112e+00    0.3307813     0.180497 -44.97  0.001262587    1.658    0.397
        99 -10.5627    242.4244    133.7669   2.3762986818e+01   7.3541726744e+00    0.2501633    0.1007101 -39.94  0.001127009    2.036    0.509
       100 -12.7353      7.5047    125.0072   8.2852813024e+01   4.8872159015e+01    0.6642062    0.2082146  81.73  0.001990784    4.487    0.777
       101 -11.6363    241.7427    125.1117   2.2065321975e+01   8.8283365481e+00    0.3797674    0.1761334 -42.90  0.001598895    1.836    0.455
       102 -10.1229     13.3153    125.6489   8.0964590840e+01   4.8291359096e+01    0.1496785   0.08636802  64.77 0.0007046762    1.731    0.422
       103 -12.9217    242.6060    113.1441   1.9426507079e+01   1.0575264140e+01     0.710345    0.3453746 -57.53  0.002922038    3.137    0.681
       104 -10.3877    249.5028    123.9916   2.0799177874e+01   7.7572346010e+00     0.234253    0.1643484 -36.52  0.001002286    1.135    0.119
       105 -11.7600    248.5458    118.6838   1.9825817580e+01   8.7292302181e+00     0.407676    0.1849804 -38.17  0.001669386    1.741    0.426
       106  -9.9863    227.4384    124.2298   2.3913316694e+01   1.1387791811e+01    0.1985645    0.1066216 -45.70 0.0008493695    1.703    0.413
       107 -12.3810      4.2293    116.1213   8.3187677194e+01   5.1435477487e+01    0.3440443     0.187602 -80.91  0.001573476    1.537    0.350
       108 -10.2834    243.2682    118.7057   2.0516761033e+01   9.5885196507e+00    0.2487925    0.1247164 -44.60  0.001039359    1.733    0.423
       109 -10.2914    230.5915    116.2535   2.1723745948e+01   1.2152646871e+01    0.2640988     0.105722 -40.82  0.001124025    2.064    0.515
       110 -10.4761    202.5559    249.6261   5.0763581952e+01  -4.1315626731e+00    0.2388536    0.1388049  -3.93  0.001111065    1.902    0.474
       111 -12.0164    248.4718     95.9275   1.5033629280e+01   1.2243105459e+01    0.9570577    0.1924427 -42.89  0.003170195    3.820    0.738
       112 -13.7548    248.7104     64.5740   8.2404950947e+00   1.6837875152e+01     1.110554    0.5216466 -42.60  0.005694871    1.616    0.381
       113 -13.6960    247.3371     85.5088   1.2919812284e+01   1.4020045328e+01     1.623026    0.6477252 -57.67  0.005855181    3.994    0.750
       114 -13.4588    248.7164     77.2547   1.0988257548e+01   1.5000803101e+01     1.121834     0.439009 -49.86  0.004960907    2.331    0.571
       115 -13.5576    247.6707     50.9579   5.3739595697e+00   1.8927952860e+01     1.172273    0.4038449 -50.37  0.005101895    2.452    0.592
       116 -10.4748     65.5542    249.0365   7.7659784399e+01   1.3640379737e+01    0.2552631     0.117013  46.44  0.001378994    1.668    0.400
       117 -10.1636    231.4295     91.1997   1.6038567792e+01   1.6063212988e+01    0.2018957    0.1003122 -45.75 0.0009468496    1.704    0.413
       118 -11.1491    236.9951     90.0426   1.5097092113e+01   1.5204111059e+01    0.2123156    0.1662086 -45.42 0.0008442562    1.045    0.043
       119  -9.4269    226.3059     87.6761   1.5880517215e+01   1.7610722897e+01    0.1404274   0.09002133 -59.84 0.0007033902    1.644    0.392
       120 -11.7723      6.1370     85.5529   7.9019203926e+01   5.9381771417e+01    0.2957412    0.1256043 -58.98  0.001323421    1.897    0.473
       121 -12.5487      2.9544     78.4505   7.9424287664e+01   6.1372466461e+01    0.5745841    0.1657852 -74.93  0.002106144    2.921    0.658
       122 -10.6728    230.6895    103.9598   1.8999251203e+01   1.4146433790e+01    0.2002714    0.1486955 -40.38  0.001028327    1.113    0.102
       123 -10.6509      9.4810     68.9926   7.4748966259e+01   6.3430369048e+01     0.212489    0.1133739 -69.12  0.001035316    1.600    0.375
       124 -12.1238      2.1899     60.0852   7.6769026220e+01   6.6010499877e+01    0.5654086    0.1729662 -78.62   0.00198372    3.564    0.719
       125 -12.2841      2.9043     50.6982   7.4424784297e+01   6.8240551211e+01    0.6110098    0.2475734 -62.19   0.00285375    1.923    0.480
       126 -11.6830    194.2575    246.1297   5.1757797698e+01  -2.6874528645e+00    0.3013911    0.1730359 -19.08  0.001796061    1.943    0.485
       127 -11.6430      7.1824     62.7502   7.4677539613e+01   6.5111352871e+01    0.2891165    0.1418898 -58.42  0.001160982    1.631    0.387
       128 -11.7384    243.6292    109.2175   1.8458771483e+01   1.1018733629e+01     0.301555    0.1263812 -39.26  0.001383354    1.890    0.471
       129 -11.3389     11.2314     57.2878   7.1315620700e+01   6.6206397004e+01    0.3502251    0.1109625 -53.37  0.001423021    2.376    0.579
       130 -11.4241    238.5238    102.5290   1.7661878768e+01   1.2961084361e+01    0.2714596    0.1074282 -37.27 0.0008363883    2.048    0.512
       131 -11.4428      8.2058     44.1549   6.9598170560e+01   6.9483670031e+01    0.3494573     0.114557 -55.46  0.001493939    2.269    0.559
       132 -11.3567      3.1616    105.1303   8.2535583113e+01   5.4404364690e+01    0.2140633    0.1596844 -60.97 0.0008158357    1.230    0.187
       133 -12.0018     12.3539     37.8617   6.5007506273e+01   7.0616273743e+01    0.4130169    0.1721377 -42.93  0.001896439    2.086    0.521
       134 -11.0889     18.7790     30.6810   5.8030670054e+01   7.1589612199e+01     0.322708     0.140774 -34.31  0.001403486    2.460    0.593
       135 -10.7374    141.9741    247.5087   6.1899722512e+01   3.8805490271e+00    0.1740485   0.09213111  13.89 0.0008103814    2.621    0.618
       136 -11.8546      1.7296     25.5871   6.7908136673e+01   7.3939986116e+01    0.4510945    0.1560252 -65.44  0.001932445    2.796    0.642
       137 -11.7775    235.6382     95.6041   1.6499584112e+01   1.4579509461e+01    0.2624051    0.1974994 -50.78  0.000984009    1.186    0.157
       138 -10.2063    157.3118    246.3194   5.8730405347e+01   2.0142588967e+00    0.1184245   0.08087768   2.23 0.0004755381    1.647    0.393
       139 -10.6328     44.9192    245.0828   8.1621677839e+01   1.6816561671e+01    0.3533709    0.1445692  52.79  0.001681994    1.946    0.486
       140 -11.4101    201.9436    242.4440   4.9861822595e+01  -3.1440899647e+00     0.385921    0.1218378 -37.50  0.001788482    3.343    0.701
       141 -11.4525    177.9769    244.0112   5.4467305099e+01  -3.5576800478e-01    0.2923908    0.1666533  -1.12  0.001518692    2.422    0.587
       142 -10.7105    218.8807    243.8937   4.7129974005e+01  -5.3183281377e+00    0.1764089    0.1172877  -0.20 0.0007175855    1.286    0.222
       143 -10.6342     57.5020    242.0316   7.8837360727e+01   1.5916064592e+01    0.3662341    0.1500974  47.92  0.001855626    1.888    0.470
