#   1 NUMBER                 Running object number                                     
#   2 MAG_AUTO               Kron-like elliptical aperture magnitude                    [mag]
#   3 X_IMAGE                Object position along x                                    [pixel]
#   4 Y_IMAGE                Object position along y                                    [pixel]
#   5 X_WORLD                Barycenter position along world x axis                     [deg]
#   6 Y_WORLD                Barycenter position along world y axis                     [deg]
#   7 A_WORLD                Profile RMS along major axis (world units)                 [deg]
#   8 B_WORLD                Profile RMS along minor axis (world units)                 [deg]
#   9 THETA_WORLD            Position angle (CCW/world-x)                               [deg]
#  10 FWHM_WORLD             FWHM assuming a gaussian core                              [deg]
#  11 ELONGATION             A_IMAGE/B_IMAGE                                           
#  12 ELLIPTICITY            1 - B_IMAGE/A_IMAGE                                       
         1 -11.8426    243.9917    105.2220   2.5953356194e+01   1.0744817639e+01     1.096119    0.6389475 -27.60   0.00567688    1.522    0.343
         2  -9.3645    172.1004     12.8583   1.0748385232e+01   3.9577492289e+01    0.3062866    0.2875449  32.81  0.001810664    1.199    0.166
         3 -10.1818    165.8329      6.6284   9.5070888605e+00   4.1819960614e+01    0.5631447    0.4004615  83.92  0.002746351    1.329    0.248
         4  -9.3096    167.0402      2.4964   8.0592681747e+00   4.1873278920e+01    0.3596914    0.2243891  76.49  0.001795945    1.472    0.321
         5  -8.1241     79.2972      5.0446   2.5338755852e+01   6.4097117818e+01    0.1916982    0.1721564   6.61  0.001165393    1.097    0.088
         6  -9.1649    235.7672      1.8360   2.4548383901e+00   2.5246656861e+01    0.3543543    0.1653861  86.32   0.00175237    2.204    0.546
         7  -8.1767     79.4330    221.2065   8.0300031230e+01   1.9722870997e+01    0.1539035    0.1057864  84.49 0.0009506522    1.635    0.389
         8  -8.4937    185.4694    249.6523   6.2793169921e+01   4.7535317009e-01    0.2389109    0.1103099  32.40  0.001364263    1.643    0.391
         9  -9.6588    189.8814    216.7939   5.7331140132e+01   3.9670586377e+00    0.2877504    0.2738907 -46.84  0.001792576    1.534    0.348
        10  -8.7224    126.3400    215.6816   6.9852695941e+01   1.3949173225e+01    0.1290193   0.08527747  58.63  0.000704932    1.711    0.416
        11 -10.4416    210.1631    213.5617   5.3108452168e+01   1.3750679003e+00    0.4262987     0.193198  42.69  0.002143786    2.246    0.555
        12  -9.2339    200.0087    206.8900   5.3863648109e+01   3.7613265830e+00    0.4175101    0.2140416   6.27  0.001666267    3.653    0.726
        13  -8.7587     83.5039    208.5252   7.8217791701e+01   2.1515544732e+01     0.125136    0.1026857  50.88 0.0008101171    1.011    0.010
        14 -11.3331     33.5294    204.2276   8.8703733629e+01   2.8477238707e+01    0.6762868    0.2942756  71.71  0.003360962    2.426    0.588
        15  -8.3441     57.6556    205.6764   8.3601626344e+01   2.5437863697e+01    0.1092714   0.09365755 -19.87 3.882166e-07    1.736    0.424
        16  -8.5037    126.4734    203.4759   6.8215343916e+01   1.6034347177e+01    0.1308745    0.1098732  39.88 7.680569e-05    1.011    0.010
        17  -8.9631    249.1009    196.9322   4.3715976581e+01  -2.1276150653e+00     0.299778    0.1702685 -21.57  0.001823852    1.588    0.370
        18  -9.1568    218.4331    196.7401   4.8806478550e+01   2.3013048871e+00    0.2175867    0.1110904 -36.88  0.001143029    2.121    0.529
        19 -10.7088    200.7597    193.8129   5.1500312375e+01   5.4510462545e+00    0.3352532    0.2774922 -50.17  0.002092263    1.717    0.418
        20  -9.5030    229.3255    190.2869   4.5774705453e+01   1.4967803043e+00    0.2731017    0.1671159   4.36   0.00152244    1.722    0.419
        21  -8.1051    245.1443    193.2571   4.3696768305e+01  -1.1536113796e+00    0.1940955    0.1461757 -44.34  0.001229221    2.039    0.509
        22  -8.3428    243.7035    182.6661   4.2008900602e+01   3.3546997449e-01    0.1258419   0.07740011   2.73  0.000277588    1.646    0.392
        23  -8.5597    185.9885    183.7157   5.2538250130e+01   9.3965111738e+00    0.2038637    0.1476899 -81.41 0.0008942094    3.379    0.704
        24  -8.2901    177.6714    181.6669   5.3834391194e+01   1.1156252547e+01    0.1405172   0.09642318   6.07 0.0007051846    1.719    0.418
        25  -9.3052    124.9792    166.2938   6.2784464259e+01   2.3388723943e+01    0.4109531    0.2781267 -53.79  0.002067531    1.627    0.385
        26  -8.6533    198.8078    159.7780   4.5417414330e+01   1.0912733521e+01    0.1720372    0.1676957 -63.74  0.001066459    1.350    0.259
        27  -8.7335    220.5145    154.5154   4.0381095024e+01   7.8470941604e+00    0.1333338    0.1136455  -0.46 -1.114819e-05    1.005    0.005
        28  -8.2012    204.6619    152.3185   4.2767788235e+01   1.1022956085e+01    0.1270584    0.1117945 -81.20  0.000704926    1.706    0.414
        29  -8.9264     80.7074    144.2839   7.0533007051e+01   3.5674869484e+01    0.3954968    0.2528749 -79.91  0.001847886    1.830    0.453
        30 -10.2248     56.6978    128.8451   7.5048353449e+01   4.2765173087e+01    0.6392095    0.3971322 -43.01  0.003069843    1.874    0.466
        31 -11.0692    116.5053    121.1307   5.5786041792e+01   3.4727956941e+01    0.8227209    0.6931343 -23.38  0.004162566    1.355    0.262
        32  -8.3878    188.3343    118.6933   3.8273425295e+01   1.9874611600e+01    0.1439148    0.1178154 -77.12 0.0003333289    1.669    0.401
        33  -9.9589      1.9773    110.6331   9.0100315619e+01   5.2238327891e+01    0.5510928    0.1314768 -70.57  0.002134953    3.024    0.669
        34 -10.0665    228.6664    111.0531   2.9486973407e+01   1.2817048654e+01    0.4987808    0.2722864 -22.36  0.002291566    1.903    0.474
        35  -9.0632    108.8953    246.9119   7.6781275603e+01   1.1484701537e+01    0.2966806    0.2065498 -45.36    0.0020024    1.960    0.490
        36  -9.6599    161.1715     98.1731   3.8615873858e+01   2.9687277856e+01    0.3561895    0.2966714 -78.37  0.001736212    1.479    0.324
        37  -8.9794    181.0738    101.1442   3.5265353384e+01   2.4547259080e+01    0.3762098    0.2244712 -31.35  0.001631743    1.695    0.410
        38  -8.6171     47.6803     99.9078   7.2906807666e+01   5.1016660989e+01    0.3075494    0.1985933 -49.99  0.001542679    1.484    0.326
        39  -9.3308     37.5756     98.5726   7.6284052844e+01   5.2456609021e+01    0.3401558    0.2502271  18.99  0.001874633    1.575    0.365
        40  -9.9916     13.0937     96.7410   8.4855340407e+01   5.4952795285e+01    0.6047245     0.190597 -64.37  0.002522608    2.412    0.585
        41  -8.5844     16.3218     94.6611   8.3407017056e+01   5.5245250409e+01    0.2476473    0.1452402 -88.59  0.001085419    1.693    0.409
        42  -8.1504    107.5481     95.2508   5.1713695675e+01   4.2313429775e+01    0.2215025    0.1452218 -35.16  0.000948814    1.675    0.403
        43 -10.2383    210.9820     87.2986   2.6441304034e+01   2.0079606378e+01    0.8828762    0.3242517 -36.38  0.003316398    2.434    0.589
        44  -9.9971    241.0269     88.7125   2.2558942812e+01   1.3617188585e+01    0.3628623     0.236889 -37.44  0.001871275    1.343    0.255
        45  -7.9702     27.7292     89.2849   7.8281267477e+01   5.5680078213e+01    0.2286189   0.07651985 -56.43 0.0009053057    2.402    0.584
        46  -9.2082    129.1818     83.4350   4.2099997777e+01   4.0042349897e+01    0.4216134    0.2599022  50.90  0.001781431    1.629    0.386
        47  -9.9244     82.4957     83.0149   5.6289049547e+01   4.9902699737e+01    0.4038771    0.2506171 -38.87  0.001499434    1.684    0.406
        48  -9.9475     86.1626     81.8236   5.4671592670e+01   4.9501967046e+01    0.4107193    0.3397829 -26.09   0.00209612    1.301    0.231
        49  -9.8006    213.7682     70.3528   2.1689749727e+01   2.1977618808e+01    0.5569152    0.3394113 -44.33  0.002552244    1.557    0.358
        50 -10.4767      4.4934     69.0435   8.4309768028e+01   6.2164314423e+01    0.4293941    0.2312536 -85.93  0.002200695    1.860    0.462
        51 -10.3852      6.1103     65.5040   8.3015383186e+01   6.2928424196e+01    0.4975061    0.3220465  60.30  0.002797104    1.871    0.466
        52  -9.4278    184.0182     65.8034   2.4992414783e+01   2.9697845178e+01    0.4741754    0.3414017 -11.10  0.002224786    1.676    0.403
        53  -9.5481    184.1866     61.4994   2.3727490534e+01   3.0308339698e+01    0.5884728    0.3801548  41.62  0.002679605    1.731    0.422
        54 -10.8541    139.6332     64.5974   3.3490312155e+01   4.1030417681e+01    0.7912164    0.6544105 -70.24  0.003869735    1.403    0.287
        55 -10.1734     87.2601     64.1415   4.8555974341e+01   5.3091425466e+01    0.4696699    0.4416252   2.40  0.002603316    1.058    0.055
        56  -7.7891    115.2988     62.3280   3.9034333680e+01   4.7345663198e+01    0.1571969    0.1204788  10.12 0.0007028533    1.637    0.389
        57  -9.7410    161.2605    102.8982   3.9874890391e+01   2.8778187288e+01    0.3762433    0.3608388 -33.60  0.001519183    1.048    0.045
        58  -9.4494     19.8836     57.0891   7.4854836453e+01   6.4049293891e+01    0.3659786    0.1744639 -46.22  0.001768756    1.820    0.450
        59  -9.6427     95.9580     53.9504   4.1891473283e+01   5.3269572294e+01    0.5097238    0.4047365  12.86   0.00246725    1.441    0.306
        60  -9.8592    234.5649     47.4766   1.3454361775e+01   2.0449128874e+01    0.4781437    0.3165768  -2.10  0.002381119    2.128    0.530
        61 -10.5282    199.4085     45.3435   1.6919983155e+01   2.8823673263e+01    0.7606539     0.501506 -31.18  0.003778128    1.468    0.319
        62  -8.4553     14.2882     49.1405   7.5595918294e+01   6.6275518633e+01     0.272516    0.0754963 -58.33  0.001086419    2.596    0.615
        63 -10.0502     81.7477     45.9120   4.3657584487e+01   5.7723611562e+01    0.6330771    0.4252347   4.64  0.002766845    2.129    0.530
        64  -9.8347     82.2086     41.5978   4.1710100389e+01   5.8396257857e+01    0.5151803    0.3768819  11.88  0.002513443    1.625    0.385
        65  -9.6388     50.2261     42.5698   5.5400500361e+01   6.3885545979e+01    0.4619772    0.3508331 -20.77  0.002554034    1.325    0.245
        66  -9.8756    140.7038     38.5073   2.4323311531e+01   4.4838133215e+01     0.483203    0.4063901 -67.41  0.002493424    1.303    0.233
        67  -9.4733    172.7354     36.3496   1.7990942295e+01   3.6731737191e+01    0.4130023    0.3261301 -27.02  0.002016576    1.317    0.241
        68  -9.5080     40.6165     34.7006   5.6837533439e+01   6.6778789889e+01    0.5182569    0.2141445 -51.79  0.002160711    2.468    0.595
        69  -9.5229    181.0541     26.1478   1.3725963608e+01   3.5818037785e+01      0.49422    0.3444711  -0.04  0.002384886    1.888    0.470
        70  -9.5182    109.8874     24.3982   2.5865455939e+01   5.4605011138e+01    0.6273246    0.3065437  29.44  0.002226729    3.026    0.670
        71  -8.4016     64.6789     23.3181   4.0162493702e+01   6.4859838025e+01    0.1281026    0.1111284 -74.64 0.0007042828    1.665    0.399
        72  -7.7692    235.6488     19.3156   6.5714601867e+00   2.3494402266e+01    0.1403814   0.07691465 -58.42 0.0007046836    1.732    0.423
        73  -9.1738    202.6460     18.3807   9.1240807910e+00   3.1248770423e+01    0.2990269    0.2666228 -34.02  0.001397369    1.167    0.143
        74  -9.5596    142.7125     17.9697   1.6582504709e+01   4.6829857677e+01    0.4648599    0.3054043  54.12  0.001843582    1.424    0.298
        75  -8.6105    119.4331     17.2841   2.0703454465e+01   5.3017825783e+01    0.2642183    0.1460836 -17.33  0.001139847    2.058    0.514
        76  -7.5603    180.3493    244.2752   6.3013806311e+01   1.8222324583e+00    0.1173394   0.07171772  15.25 0.0005384717    1.634    0.388
        77  -8.5212    123.3288    243.0021   7.3610959240e+01   1.0072947342e+01    0.1598043   0.09224246  88.61 0.0007050656    4.324    0.769
        78  -8.2825    149.6086    238.2084   6.7992094925e+01   7.0048277323e+00    0.1436241    0.1085765 -26.15 0.0007969626    1.663    0.399
        79 -10.3267    218.7301    220.6802   5.2741180195e+01  -7.1190507863e-01    0.5254958    0.2881133  33.59  0.003149516    1.546    0.353
