#   1 NUMBER                 Running object number                                     
#   2 MAG_AUTO               Kron-like elliptical aperture magnitude                    [mag]
#   3 X_IMAGE                Object position along x                                    [pixel]
#   4 Y_IMAGE                Object position along y                                    [pixel]
#   5 X_WORLD                Barycenter position along world x axis                     [deg]
#   6 Y_WORLD                Barycenter position along world y axis                     [deg]
#   7 A_WORLD                Profile RMS along major axis (world units)                 [deg]
#   8 B_WORLD                Profile RMS along minor axis (world units)                 [deg]
#   9 THETA_WORLD            Position angle (CCW/world-x)                               [deg]
#  10 FWHM_WORLD             FWHM assuming a gaussian core                              [deg]
#  11 ELONGATION             A_IMAGE/B_IMAGE                                           
#  12 ELLIPTICITY            1 - B_IMAGE/A_IMAGE                                       
         1 -10.9849      4.9518      6.4943   9.1984668170e+01   7.3406445119e+01     1.012124     0.430574 -35.60  0.003766097    1.830    0.454
         2 -10.2849     10.5628     18.7833   9.4114814279e+01   7.1015719230e+01     1.117972    0.3899299 -21.14  0.003736527    5.647    0.823
         3 -11.0091     37.4690     11.4910   7.6365436359e+01   6.9341434369e+01     1.078436    0.4484882 -41.54  0.005101904    2.813    0.645
         4 -10.7269      6.9747     30.1549   1.0034790170e+02   6.9233964381e+01    0.6156613    0.3551228 -46.79  0.002647272    1.372    0.271
         5 -10.2491     18.5247      5.7044   8.3495838087e+01   7.2349473573e+01     0.593482     0.340263 -44.59  0.003004225    2.072    0.517
         6 -11.1496     23.5607     32.6422   9.2705857003e+01   6.7560382350e+01     1.353483    0.4480133 -37.99  0.003574237    2.622    0.619
         7 -10.9129    134.0187     31.0143   5.2642472592e+01   4.7804411738e+01    0.3825512    0.2810814   8.42  0.001946199    1.654    0.395
         8 -10.1070     69.5713     41.2033   7.5597235623e+01   6.0146900400e+01    0.8985569    0.3792298 -37.52  0.003549056    2.327    0.570
         9 -10.0681     76.2602     32.2025   6.9442350907e+01   6.0337561913e+01    0.5917077    0.4826669  77.74  0.001103936    2.061    0.515
        10 -10.1593     46.2408     29.4908   8.0525892170e+01   6.5556235073e+01    0.5984586    0.3684875 -39.40  0.002242451    1.618    0.382
        11 -10.5066     51.2809     14.9951   7.1691759862e+01   6.6895196673e+01     1.367963    0.6835818   3.09  0.004526779    3.528    0.717
        12  -9.3960    110.3168     32.1229   5.8738382644e+01   5.3283414520e+01    0.6517572    0.2207678 -32.97  0.002407994    3.046    0.672
        13 -10.0858     62.8875      3.2438   6.1285271009e+01   6.6241922472e+01    0.4796583    0.3893808   7.28  0.001796665    1.111    0.100
        14  -9.8567     63.0519     20.8230   6.9518515708e+01   6.4229109835e+01     0.503751    0.3000599 -45.46  0.001407059    2.351    0.575
        15 -10.0805     64.5906     12.8359   6.5243661601e+01   6.4931079730e+01    0.3918121    0.2712951 -27.07  0.001572036    1.520    0.342
        16  -9.3169     91.4446     26.3678   6.1937032188e+01   5.8124258773e+01    0.4327037    0.2550784 -48.48  0.001663895    2.436    0.589
        17  -9.2604     96.1348     15.4404   5.6096336968e+01   5.8363416609e+01    0.5959652     0.273458 -11.47  0.002053719    2.966    0.663
        18  -9.3197    128.8285     24.5969   5.1552583768e+01   4.9817295907e+01     0.524238    0.3173791 -12.06  0.001805675    2.045    0.511
        19  -8.8169    103.9940     15.7530   5.4119664020e+01   5.6588435527e+01    0.4796938    0.2310145  17.52  0.001760574    3.565    0.719
        20  -9.5049    118.7827     21.5785   5.2719370631e+01   5.2557961533e+01    0.2795845    0.2532634  72.16 0.0006432197    1.195    0.163
        21  -8.4279     72.0585      8.5356   6.0537741649e+01   6.4007206425e+01    0.2120884    0.1648937  -4.81 0.0004835502    1.249    0.200
        22  -9.8354     73.3771     18.4480   6.4572886210e+01   6.2669974896e+01    0.6506087    0.2256218 -31.87  0.002407868    2.944    0.660
        23  -7.6305     75.0369     10.5066   6.0427881386e+01   6.3231080813e+01    0.2172661    0.1314874  30.38  0.000983861    1.487    0.328
        24  -8.5295     77.0069      6.7486   5.8072296455e+01   6.3214066980e+01    0.3045754    0.2566509 -58.74  0.001876581    1.785    0.440
        25  -8.7626     78.8604      3.2704   5.5910821430e+01   6.3158259218e+01    0.2779641    0.2199849 -32.59  0.001536852    1.543    0.352
        26 -10.3688    133.1320     14.4133   4.7169034873e+01   4.9827345796e+01     1.392738    0.4624335 -15.67  0.004483032    4.809    0.792
        27  -8.9402    130.9922      5.9779   4.4684125965e+01   5.1114064013e+01    0.2156771    0.1942596  -7.74 0.0006612303    1.271    0.213
        28  -8.9840    125.0722     13.0504   4.8279620860e+01   5.1918016514e+01    0.2821327    0.2159894 -37.52 0.0007948618    1.496    0.332
        29  -9.5199    125.5388      5.5012   4.5520427920e+01   5.2477091319e+01    0.2890877    0.1834699  42.73  0.001263931    1.448    0.310
        30  -9.1814    126.5584      8.5535   4.6399190751e+01   5.1969127643e+01    0.2415746    0.2248765  84.39 0.0005322521    1.169    0.145
        31  -8.8395    109.9992      7.9184   4.9622876347e+01   5.5953416538e+01    0.2824173    0.1807205  -4.19  0.000511868    1.836    0.455
        32  -8.9485    110.3965      3.7198   4.7929125842e+01   5.6214742442e+01    0.3988765    0.2554166  78.37  0.001409197    1.843    0.457
        33  -8.8997    101.9237      8.0008   5.1566646821e+01   5.7792614808e+01    0.2454402    0.2054683 -43.74 0.0007189619    1.479    0.324
        34  -8.5603    104.2671      2.2404   4.8720109546e+01   5.7744819863e+01    0.3835809    0.2038659  33.08  0.001620207    1.886    0.470
        35  -9.5165    114.3950      9.7050   4.9318040322e+01   5.4769152485e+01    0.5306645    0.2265028  38.50 0.0004182133    2.409    0.585
        36  -9.1343    115.2729      4.1271   4.7049600454e+01   5.5040102322e+01    0.3252121    0.2121025 -41.55 0.0009808094    1.855    0.461
        37  -9.4439     85.1515     12.9678   5.8266653476e+01   6.0948770400e+01    0.3749632    0.2774631 -57.56  0.001464772    2.119    0.528
        38  -8.0873     80.4679     12.5433   5.9552513731e+01   6.1946386576e+01     0.240229    0.1714292 -42.80 0.0007517954    1.844    0.458
        39  -8.5077    141.4520     11.7386   4.4776304471e+01   4.8029993535e+01    0.2748112    0.1961116 -21.56 0.0009440801    1.610    0.379
        40  -8.3214    246.8084      9.1725   3.2438692255e+01   2.3319371934e+01    0.1648266    0.1371516  41.79  0.001102926    1.715    0.417
        41 -10.2059     26.6281     11.4088   8.1879388497e+01   7.0681772477e+01    0.6752447    0.3266901  25.12  0.003729868    1.995    0.499
        42  -8.6672    154.8623      6.3620   4.0988588716e+01   4.5183125068e+01    0.3547618    0.1531795 -63.17    0.0011977    4.251    0.765
        43  -8.5540     95.9880      3.0210   5.1025507169e+01   5.9541883711e+01     0.259878    0.2244753  23.41 0.0008294637    1.110    0.099
        44  -8.5204     85.2659      6.4026   5.5382305601e+01   6.1559255369e+01    0.3174183    0.1542905  32.29  0.001486871    2.039    0.510
        45  -8.6855     89.3364      3.1973   5.2845051271e+01   6.0976076218e+01    0.3253394    0.2251492 -35.48  0.001020955    1.753    0.430
        46  -8.0163    142.9895      4.9595   4.2331716910e+01   4.8252199364e+01    0.2049081    0.1456888 -70.05 0.0005021205    1.650    0.394
        47  -8.3142     97.7594      5.9475   5.1780018203e+01   5.8903746389e+01    0.2431701    0.1469567  20.81 0.0008680287    1.806    0.446
        48 -10.9425     20.9561     54.6754   1.0118906916e+02   6.3502028017e+01     1.016688    0.6632525 -54.73  0.003480799    1.363    0.266
        49  -8.1327    126.0206    129.0854   8.4301933279e+01   3.1353788397e+01    0.2514466    0.1973111  85.18   0.00112443    1.704    0.413
        50 -10.6002    202.0163    249.3767   8.9906344091e+01  -5.3768709845e+00    0.6931576    0.2082639  33.59  0.002845318    2.851    0.649
        51  -9.1210    150.8560    249.5755   9.9975682594e+01   2.3504655078e+00     0.227244      0.15048  65.84  0.001202767    2.281    0.562
        52 -10.3227    138.3089     93.0175   7.1365518575e+01   3.6576837410e+01    0.7335153    0.5695729  18.95  0.002685824    1.509    0.337
        53 -10.0592    117.0142    125.2771   8.5884156570e+01   3.4035963556e+01    0.8955189    0.5375324 -69.72  0.002012831    2.531    0.605
        54  -9.9247    140.5731    118.3520   7.7715694701e+01   3.0704130448e+01    0.6761336    0.3482983 -56.17  0.002066309    2.447    0.591
        55  -9.3115    140.4984     82.3537   6.7658291007e+01   3.8161912359e+01    0.6791508    0.2877306 -40.42  0.002228968    2.385    0.581
        56  -9.2247    139.9119     75.5692   6.5748937761e+01   3.9564509171e+01    0.5265261    0.2195768 -40.68  0.001442107    2.437    0.590
        57 -11.2472    120.6454    111.2386   8.1288996001e+01   3.6527471003e+01     1.508013    0.7650354 -55.31   0.00542054    2.301    0.565
        58 -10.6146    127.7409    102.4567   7.6902892952e+01   3.6962105753e+01    0.8327281    0.6181576  37.79  0.002520528    1.358    0.263
        59 -10.5334    131.6701    119.3917   8.0352149614e+01   3.2388545777e+01    0.9382882    0.6378444 -88.93  0.002416714    2.712    0.631
        60 -11.1325    133.5319    109.2374   7.7177403990e+01   3.4233977518e+01     1.506043    0.7347361 -53.95  0.005299392    2.466    0.595
        61 -10.0562    108.6847    114.5049   8.5613593331e+01   3.8164247556e+01     0.692207    0.4760931  89.90  0.001392658    2.506    0.601
        62  -9.4134    110.3402    106.6247   8.3058674811e+01   3.9649004137e+01    0.7053291    0.4101879  21.47  0.002622505    2.479    0.597
        63 -10.3505    107.9710     99.6422   8.1857486639e+01   4.1681668469e+01    0.7782685    0.5795628  81.90   0.00336618    2.060    0.515
        64  -8.0616    199.8418    126.8360   6.6280978491e+01   1.5829670963e+01    0.1990084    0.1786713 -74.46 0.0004199531    1.316    0.240
        65  -9.7971     42.0018    122.8788   1.0813061122e+02   4.5956622250e+01    0.6996266    0.3489816  89.71  0.002611902    3.276    0.695
        66  -9.9935     27.3853    122.9446   1.1262060645e+02   4.7286753637e+01     0.567938    0.3074303  70.76  0.002516366    2.525    0.604
        67  -8.4972    128.9135    124.1921   8.2313323639e+01   3.1881508793e+01    0.2955798     0.248951 -29.51  0.001178968    1.245    0.197
        68  -7.8759    158.0167    121.9815   7.4260621877e+01   2.6062161608e+01     0.252734    0.1993215 -85.47  0.001023268    1.739    0.425
        69  -8.3985     99.9756    118.9418   8.9314846812e+01   3.8743430391e+01     0.539037    0.3216825   2.10  0.001720916    3.820    0.738
        70  -8.3993      1.4772    116.2705   1.1953835259e+02   5.0631085378e+01     0.357017    0.1036327 -76.66  0.001299718    3.000    0.667
        71 -10.1824     92.2070    113.1083   9.0264022193e+01   4.1496921413e+01    0.6683215    0.4954145  71.88  0.001747342    1.841    0.457
        72  -9.0923     92.6634    103.6815   8.7717474368e+01   4.3625786221e+01    0.6739746    0.4226616  15.12  0.002749106    2.232    0.552
        73 -10.2859     78.3047    113.1251   9.4653418500e+01   4.3752557068e+01    0.5583434    0.3614071 -82.51   0.00180274    2.327    0.570
        74  -8.1797    152.7053    115.1834   7.3804793703e+01   2.8692877153e+01    0.2485773    0.1944162 -57.74 0.0008172856    1.421    0.296
        75  -7.6674    167.2060    114.1580   7.0079216804e+01   2.5606879064e+01    0.2173521    0.1867769 -70.43 0.0004861884    1.351    0.260
        76  -9.9703     65.5086    110.8437   9.8277034962e+01   4.6143531450e+01    0.4466759    0.4021617  60.27  0.001214683    1.239    0.193
        77  -9.6609     59.1533    108.6535   9.9892743138e+01   4.7500349026e+01    0.6091723    0.2228052 -56.48  0.001417309    2.389    0.581
        78  -9.6918     66.3794    102.9586   9.6174655748e+01   4.7918473606e+01    0.6741787    0.5150606  13.28   0.00352027    1.491    0.329
        79 -10.4500     62.9781     95.7581   9.5586175787e+01   5.0076475828e+01    0.5969639    0.3958406 -83.59  0.001805563    2.320    0.569
        80  -8.9677     63.5381     87.0885   9.3137683884e+01   5.1995889096e+01    0.8500412    0.4485389  -4.87  0.002654163    4.702    0.787
        81  -9.5902     14.2711    111.3401   1.1503540983e+02   5.1059634150e+01    0.4412032    0.2254686  79.09  0.001982797    2.670    0.626
        82  -8.7282     14.8002    104.5310   1.1389252630e+02   5.2651031054e+01    0.3359982    0.1025964 -45.48  0.001234201    3.072    0.674
        83  -8.4430    158.7811    111.9744   7.1482635040e+01   2.7983414103e+01    0.2588414    0.2308722  40.93 0.0004649183    1.119    0.106
        84  -9.0721     36.2424    111.4022   1.0799743065e+02   4.9324528964e+01     0.292239     0.191453  66.13  0.001395269    1.964    0.491
        85 -10.7315     21.5888    101.9400   1.1123332150e+02   5.2808817602e+01    0.9625477    0.5020548  88.43  0.003414989    2.688    0.628
        86  -9.1015     15.1128     93.4947   1.1204223731e+02   5.5239442383e+01    0.3688404    0.2564957 -28.16  0.002208898    1.537    0.349
        87  -9.6022     30.3606    108.7498   1.0946290696e+02   5.0488222529e+01    0.3713911    0.2415165 -48.83  0.002040231    1.374    0.272
        88  -8.4320    149.0774    109.8021   7.3281728453e+01   3.0648624175e+01    0.3269705    0.2520027  89.03  0.001419926    1.827    0.453
        89 -10.8185     44.6381    102.1211   1.0340899978e+02   5.0743036419e+01    0.8440557    0.4854071  76.80  0.003028993    3.317    0.698
        90  -8.7511     39.9867    106.5908   1.0587761595e+02   5.0135557128e+01    0.2511301    0.1729758 -79.55 0.0005472471    1.558    0.358
        91  -8.2975     81.5531     94.4722   8.8875927077e+01   4.7620264422e+01    0.4007808    0.2504647  -1.53  0.001568934    2.639    0.621
        92  -8.0506     77.8021    105.4312   9.2971548179e+01   4.5668089334e+01    0.3356196    0.2066097 -13.48  0.001302093    2.684    0.627
        93  -9.5039     81.6698    100.5227   9.0451629316e+01   4.6210537124e+01    0.4500737    0.3294041 -74.97  0.001029131    1.768    0.435
        94  -9.3602      6.3493    103.8722   1.1653977225e+02   5.3301791112e+01    0.3848608    0.2440829  69.76  0.001426775    1.879    0.468
        95 -10.0284    149.5458    102.2140   7.1099454956e+01   3.2117371815e+01    0.7797357    0.3267807 -42.07  0.002379288    2.390    0.582
        96  -9.9656    139.5112    102.6914   7.3793065797e+01   3.4308333119e+01    0.8451547    0.4014863 -42.03  0.001708364    2.114    0.527
        97  -8.3277    166.0267    103.9154   6.7641450518e+01   2.7937178464e+01    0.2671892    0.2184467 -43.40 0.0004847448    1.225    0.183
        98  -8.2331     73.8475    103.0322   9.3686645212e+01   4.6833633413e+01    0.2156163    0.1928076 -82.38 0.0005010062    1.265    0.210
        99  -8.8510    158.9977    100.9185   6.8455383497e+01   3.0179496003e+01    0.4569414    0.2028116 -43.06  0.001525615    2.260    0.558
       100  -9.4740     94.3590     97.1238   8.5401632087e+01   4.4819692257e+01    0.3547901      0.28245 -60.98 0.0007249572    1.384    0.278
       101  -8.8771     95.9558     91.0119   8.3154702101e+01   4.5884171280e+01    0.5025035    0.3138655  -9.72  0.001879398    2.734    0.634
       102 -10.1351    239.8450     96.1726   5.2223543321e+01   1.2806213104e+01    0.4203911    0.3290538  56.49  0.002004098    1.427    0.299
       103  -9.6654    111.4800     90.2062   7.8081402096e+01   4.3019440256e+01    0.9389482    0.3279037  37.59  0.002920772    3.207    0.688
       104 -10.5899    123.3119     91.0984   7.4889713205e+01   4.0325658135e+01    0.9571905    0.6377273 -30.87  0.002286212    1.622    0.383
       105  -8.0044    128.2036     82.5810   7.0970896572e+01   4.0954667092e+01    0.3359107    0.1852983  40.99  0.001005223    1.824    0.452
       106  -8.5342    164.2340     93.8256   6.5291788437e+01   3.0327289808e+01    0.4240353    0.2167833 -37.27  0.001128352    1.982    0.495
       107  -8.9351    225.0570    248.5269   8.5463811390e+01  -8.5202519026e+00    0.2187487    0.1606418 -15.63 0.0008299524    1.328    0.247
       108  -9.6265     16.0329     70.4098   1.0723260570e+02   6.0458004271e+01    0.5163832    0.2003983 -62.09  0.001723457    2.131    0.531
       109  -9.7079    172.3950    247.9019   9.5454929913e+01  -7.2314324390e-01    0.2125979    0.2025844  82.46  0.001493293    1.463    0.316
       110  -9.0875    241.6854    247.2644   8.2265381633e+01  -1.0575017011e+01    0.1778624    0.1465036   5.51 0.0004570241    1.253    0.202
       111 -10.4010     25.4672     77.6544   1.0511774163e+02   5.8182745890e+01    0.6963412    0.4225899  87.85  0.003248932    2.692    0.629
       112 -10.6515     32.7538     63.7356   9.8648200083e+01   6.0632635914e+01     1.251558    0.4848661 -29.16  0.004054597    3.828    0.739
       113  -9.9377     34.4922     90.6175   1.0457084873e+02   5.4452612963e+01    0.5476137    0.2959211 -81.53  0.001650281    2.693    0.629
       114 -10.0392     36.5080     81.3589   1.0172428847e+02   5.6405524805e+01    0.7043989    0.3404729 -19.73  0.002763362    3.291    0.696
       115  -9.7945    161.8588    249.8399   9.7816204585e+01   6.1021175550e-01    0.2750547    0.1987298  12.13  0.001663889    1.485    0.327
       116  -9.9758    186.8088    245.4434   9.2253722652e+01  -2.5706567601e+00    0.2967904    0.1973027  55.06  0.001150234    2.175    0.540
       117 -10.1698     12.5851     45.4664   1.0238058166e+02   6.5942227520e+01    0.7702151    0.3527798 -14.55  0.003390918    2.674    0.626
       118 -10.2060      4.6138     42.0307   1.0520937335e+02   6.7071848536e+01    0.5845163    0.2667854 -57.71  0.001875582    1.792    0.442
       119 -10.0618      4.4889     89.6828   1.1514049889e+02   5.6710737303e+01    0.6105115    0.2878583  88.33  0.002280273    2.909    0.656
       120  -9.5635      6.2392     78.9330   1.1274288938e+02   5.9087568956e+01    0.5781614       0.1963 -35.42  0.002424949    3.141    0.682
       121  -8.9640    157.4710     91.0530   6.6064087728e+01   3.2472128773e+01     0.453561    0.2329506 -30.50  0.001652139    2.256    0.557
       122 -10.2333     48.0221     84.5198   9.8156855396e+01   5.4505114438e+01     0.645062    0.3953728 -68.79  0.001611084    1.905    0.475
       123  -9.2149     48.5290     77.3695   9.6087689807e+01   5.6055144279e+01    0.6047362    0.3187973   3.52  0.002470807    2.948    0.661
       124  -7.5932    174.5015     88.9899   6.1730769518e+01   2.8771624836e+01    0.2170678     0.125843 -59.25 0.0006419314    2.353    0.575
       125  -8.7126    150.7732     88.9495   6.7052510049e+01   3.4470543544e+01    0.2765198    0.2086399 -43.30 0.0007118144    1.347    0.258
       126 -10.2146     85.2837     86.6151   8.5394957266e+01   4.8749201979e+01    0.5078217    0.4058031  58.88 0.0008855062    1.559    0.358
       127  -9.6386     87.4363     78.8930   8.2336754678e+01   5.0023379860e+01    0.7182418    0.3992379  18.16  0.001831152    2.695    0.629
       128  -9.8578     81.6310     72.4224   8.2299052380e+01   5.2370846637e+01    0.4602277    0.3386483 -69.35  0.001123466    1.996    0.499
       129  -9.2012     83.5951     64.6663   7.9041120538e+01   5.3558829062e+01    0.5462188    0.3336333  -4.13  0.002024526    2.621    0.619
       130  -9.8184     20.5328     84.0322   1.0835118319e+02   5.7085318051e+01    0.6819994    0.1535532 -53.07  0.002584755    2.898    0.655
       131  -8.3176    163.3486     87.0656   6.3596870811e+01   3.1815218597e+01    0.2215229    0.1934934 -40.14  0.000501178    1.152    0.132
       132 -10.2264    161.1345    242.7650   9.6983830002e+01   1.8125837821e+00    0.2896689    0.2086046  46.49  0.001737169    1.359    0.264
       133  -8.9030    197.7389     83.0925   5.5701913990e+01   2.4259709644e+01    0.3860851    0.2474589 -24.92  0.001717982    1.785    0.440
       134  -7.4532    116.4616     85.4654   7.5179783600e+01   4.2960143302e+01    0.1536029    0.1475252   3.31  0.000169463    1.001    0.001
       135 -10.7024    103.1607     82.7524   7.8389974174e+01   4.6258760465e+01    0.5318344    0.4644186 -41.29  0.002798668    1.154    0.134
       136  -8.8575    157.7888     82.9884   6.3683080478e+01   3.3912358631e+01    0.4632404     0.210579 -32.25  0.001463087    2.462    0.594
       137  -8.0434    170.5755     82.7641   6.0824857022e+01   3.0849152756e+01    0.2979418    0.1520622 -33.12  0.001145247    2.072    0.517
       138  -7.4950     63.5894     81.8008   9.1657524841e+01   5.3172481197e+01    0.1922204    0.1308065 -61.12 0.0005488678    1.627    0.385
       139  -8.8594    149.9005     81.0412   6.4952703025e+01   3.6173235740e+01    0.2999778    0.2170479 -46.67 0.0004917142    1.444    0.308
       140  -8.7985    118.9809     80.4618   7.2910783659e+01   4.3419439937e+01    0.3292306    0.2577759 -57.41 0.0006000972    1.487    0.328
       141  -8.2566    120.0333     75.9399   7.1191650634e+01   4.4064859656e+01    0.3089831    0.2440083  18.17 0.0008246553    1.401    0.286
       142  -8.3769     68.7881     79.5382   8.9104273730e+01   5.2925235161e+01     0.318743    0.1434151 -40.29  0.001088128    2.176    0.540
       143  -8.8755    166.8827     77.9454   6.0237766054e+01   3.2605049257e+01    0.4560224    0.2072048 -35.47  0.001691045    2.256    0.557
       144  -7.8141    184.2890     78.0459   5.6800780235e+01   2.8338388191e+01    0.2092262    0.1905949 -43.55    0.0004639    1.090    0.082
       145  -9.2181     74.2981     79.6912   8.7162507053e+01   5.2053455592e+01    0.5876397    0.2872584 -56.38  0.001851933    2.377    0.579
       146  -8.8068    156.7769     75.7026   6.1785192824e+01   3.5472510405e+01    0.4432117    0.2418365 -51.46  0.001232387    2.170    0.539
       147  -9.3956    127.2490     75.1069   6.8917406956e+01   4.2600326602e+01    0.4113038    0.2853587 -60.22 0.0008930895    1.881    0.468
       148  -8.7057    129.8849     68.5917   6.6143263817e+01   4.3178165019e+01    0.5538341    0.3258521  23.90  0.002084058    2.510    0.602
       149  -8.3162    130.4879     64.5184   6.4674316139e+01   4.3747056750e+01    0.2718059    0.1932449 -33.55  0.000816153    1.456    0.313
       150  -9.2166    115.3342     72.0498   7.1303851553e+01   4.5832390685e+01    0.6180686    0.2903954 -31.95  0.001713817    2.418    0.586
       151  -9.4416    105.0151     71.0461   7.4088333617e+01   4.8210979465e+01     0.676267    0.3279588 -30.91  0.002538559    2.404    0.584
       152  -9.9126     62.9451     60.9456   8.5441552976e+01   5.7633641794e+01    0.6788112    0.2755071  31.02  0.002379706    2.629    0.620
       153 -10.5171     54.8910     70.9141   9.1773701917e+01   5.6689723597e+01    0.6713801    0.3670481  47.55  0.001249136    2.552    0.608
       154  -9.6839     54.8841     63.2458   8.9391544746e+01   5.8286375185e+01    0.4178089     0.292152  -6.84  0.001467454    1.574    0.365
       155  -8.1397    162.8442     73.0842   5.9691751913e+01   3.4440952021e+01     0.235117    0.1976407 -72.23  0.000578608    1.350    0.259
       156  -8.1483    174.5180     72.4773   5.7133116701e+01   3.1668572222e+01    0.3334188    0.1468442  56.69  0.001233871    2.251    0.556
       157  -7.8666    169.4326     71.2647   5.7799667309e+01   3.3125749312e+01    0.2077712     0.139784 -47.15 0.0005527989    1.544    0.352
       158  -9.6927    149.7481     47.0715   5.4566943869e+01   4.1795160233e+01    0.5198257    0.2190659 -28.90  0.001690782    2.651    0.623
       159  -9.6973    153.4430     41.2633   5.2004545121e+01   4.1673015558e+01    0.3934251    0.2634258 -38.19   0.00129891    1.578    0.366
       160  -9.2792    146.9955     69.2024   6.2074391026e+01   3.8990982608e+01     0.419488     0.273692 -59.20 0.0008944556    1.989    0.497
       161  -8.1381    147.5073     63.9766   6.0345003879e+01   3.9747941172e+01    0.3502003    0.2241062  29.00  0.001470938    1.964    0.491
       162  -8.1951    146.6621     59.1527   5.9034878532e+01   4.0738181863e+01    0.3698299     0.227381 -53.10 0.0008291629    1.971    0.493
       163  -8.5971    147.4120     54.0663   5.7269763483e+01   4.1345385295e+01    0.4749933    0.1880751 -27.64  0.001619583    3.070    0.674
       164  -8.1939    156.8068     70.1217   6.0124778618e+01   3.6433159964e+01    0.2290875     0.209027 -77.48 0.0005690738    1.185    0.156
       165  -9.7095     94.7791     68.1966   7.6423434125e+01   5.0801688745e+01    0.4746622    0.2612865 -46.85 0.0008378178    1.938    0.484
       166  -7.8225     95.2796     61.3511   7.3927808070e+01   5.1979042408e+01    0.2542432    0.1871824 -14.25 0.0006102671    1.489    0.328
       167  -8.9809     98.1372     57.0971   7.1510109711e+01   5.2160108247e+01    0.5582753    0.4733494 -40.88  0.003043843    1.276    0.217
       168  -7.5269    163.3596     68.3181   5.8190439419e+01   3.5119442182e+01    0.1603899    0.1158425  23.79 0.0007043528    1.762    0.432
       169  -9.0672    121.1314     66.1418   6.7721812008e+01   4.5622282420e+01    0.3882987    0.2964357 -75.32  0.001150714    1.913    0.477
       170  -8.5056    122.0518     61.4751   6.5923892720e+01   4.6222903841e+01    0.4342621    0.2385305  32.41  0.001555698    2.168    0.539
       171  -9.5387    109.7788     64.1053   7.0323323358e+01   4.8490396523e+01     0.492363    0.2709659 -45.84 0.0007995589    2.002    0.501
       172  -8.7704    110.8244     58.0754   6.7954872629e+01   4.9313145839e+01    0.3444722    0.2514075  21.39 0.0008566692    1.507    0.336
       173  -9.0966    138.1580     66.2337   6.3278778401e+01   4.1633752432e+01     0.344317    0.2496108 -56.75 0.0006322589    1.655    0.396
       174  -8.4269    138.7556     62.2388   6.1864197500e+01   4.2162724809e+01    0.3188327    0.2139766  29.42  0.001406287    1.739    0.425
       175  -8.5511    170.6683     65.5450   5.5912996832e+01   3.3761445295e+01    0.2925668    0.1833756 -38.87 0.0005768693    1.612    0.380
       176  -8.5723    157.5331     63.6790   5.8039526942e+01   3.7325176580e+01     0.378801    0.2282293 -31.23  0.001537724    1.768    0.434
       177  -8.7220     10.7171     61.5028   1.0740903275e+02   6.2714876705e+01    0.3417792    0.2319535  70.63  0.001903338    2.334    0.572
       178  -8.4604    164.6073     60.5479   5.5651943385e+01   3.6065387389e+01     0.340755    0.1294927 -39.34  0.001204578    2.623    0.619
       179  -9.7685     73.1502     59.2874   8.0969743695e+01   5.6371863710e+01    0.4317645    0.2605472 -53.15 0.0009155882    2.015    0.504
       180  -9.6239     75.2076     51.0359   7.7231562963e+01   5.7529487053e+01    0.6812548     0.390406  -3.13  0.002635324    3.012    0.668
       181  -7.6388    152.4360     60.2710   5.8100998356e+01   3.9135819586e+01     0.212541    0.1378664 -46.68 0.0009458269    1.663    0.399
       182  -7.8318    236.2957     59.3465   4.4278359642e+01   1.9215750083e+01    0.1255384    0.1045334  12.86 0.0007032896    1.672    0.402
       183  -8.3582     87.5241     58.4686   7.5523071807e+01   5.3993225222e+01    0.2515995    0.2315712 -43.05 0.0008121608    1.240    0.194
       184  -8.4696     87.8541     54.1730   7.3871090116e+01   5.4691281427e+01    0.2798977    0.1779362  -9.94   0.00100041    2.059    0.514
       185  -8.5161    130.0131     58.0085   6.2668868841e+01   4.4945213016e+01    0.2777238    0.2341673 -56.79 0.0004716723    1.368    0.269
       186  -8.4205    130.4472     53.7597   6.1150719467e+01   4.5518269118e+01    0.2791816     0.197559 -21.39 0.0008225561    1.573    0.364
       187  -9.1494    138.8296     55.4319   5.9660940951e+01   4.3239749377e+01    0.6377791    0.1986395 -36.43  0.001420327    3.233    0.691
       188  -9.2165    118.1514     55.4558   6.4962591941e+01   4.8113306060e+01    0.3565398    0.2901784 -79.29 0.0007178092    1.693    0.409
       189  -8.5836    118.8071     51.3566   6.3369659312e+01   4.8616155760e+01    0.2595902    0.1788804  17.32   0.00118227    1.786    0.440
       190  -8.8975    121.1696     47.1034   6.1261593946e+01   4.8717560708e+01    0.2884046    0.2334004 -46.80 0.0005117778    1.401    0.286
       191 -10.1654     49.9106     53.9376   8.8328724956e+01   6.0771181367e+01     0.635601    0.3417893 -55.81  0.002266328    2.228    0.551
       192  -9.5550     56.2190     43.3843   8.1821370725e+01   6.1863762801e+01    0.7723314    0.4006744  -3.98  0.002711059    4.082    0.755
       193  -9.3933    162.5320     53.4008   5.3939024068e+01   3.7676429918e+01    0.4411119     0.370217 -57.88  0.001595661    1.270    0.213
       194  -8.5182    157.2210     49.1811   5.3706120224e+01   3.9624967714e+01    0.3771621    0.2219661 -48.06  0.001248066    1.889    0.471
       195  -8.9215    105.6255     52.0382   6.7381715190e+01   5.1440394349e+01    0.5643918    0.2775947 -31.81  0.001760251    2.146    0.534
       196  -8.6879     44.2236     54.2052   9.0830713301e+01   6.1405193910e+01    0.3122232    0.1646902 -27.70 0.0008899233    2.031    0.508
       197  -8.9134     39.8762     51.7744   9.1895868942e+01   6.2369073091e+01    0.4007202    0.1614646 -41.58  0.001777009    2.146    0.534
       198  -7.8345    172.1363     50.1137   5.1190663029e+01   3.5747449616e+01    0.2061908    0.1878017  33.94  0.001143828    1.189    0.159
       199 -10.2995     90.6727     37.8405   6.6760615853e+01   5.6740387060e+01     1.044289    0.3895897  33.23  0.003391246    3.718    0.731
       200 -10.2473     85.1653     48.1014   7.2556886886e+01   5.6229265508e+01    0.3968929    0.3113302 -59.48 0.0009949385    1.797    0.443
       201  -8.5374    141.9074     48.1988   5.6613533135e+01   4.3576180577e+01    0.3215279    0.2033077 -40.44 0.0007279065    1.684    0.406
       202  -8.3098    142.3441     44.3493   5.5269475244e+01   4.4016489032e+01    0.2882374    0.1544861  47.52  0.001232881    1.750    0.429
       203  -9.0730    139.4581     39.8370   5.4419646564e+01   4.5344707383e+01    0.4922491    0.3823577  83.07  0.001251409    1.496    0.331
       204  -9.8473    130.4167     46.6451   5.8771152640e+01   4.6597417253e+01     1.175556    0.4179313 -23.96  0.001921551    4.291    0.767
       205  -8.3532    132.8545     35.8205   5.4530468706e+01   4.7489219429e+01    0.2137078    0.2096904  62.00 0.0005393187    1.090    0.082
       206  -8.6856    101.0393    242.9164   1.0923760789e+02   1.1061686812e+01    0.1937463    0.1591572  48.93  0.001285609    1.027    0.026
       207  -8.7854    111.9653     46.9278   6.3704001917e+01   5.0847774327e+01    0.3598922     0.262819 -60.59  0.001719711    1.912    0.477
       208  -8.6878    112.9716     42.5303   6.1841961341e+01   5.1269644021e+01    0.7577057    0.3997114   9.94  0.002254511    4.899    0.796
       209  -7.4850    162.4043     46.2139   5.1811215206e+01   3.8744267832e+01    0.1970981    0.1309256 -45.65 0.0003857079    1.595    0.373
       210  -9.3416     70.6257     26.6443   6.9170450622e+01   6.2133362821e+01    0.5700522    0.3672443  36.83  0.003112678    1.430    0.301
       211  -8.0490    212.4792    236.8727   8.5939184645e+01  -5.2162901617e+00    0.1726808    0.1355855  14.68 0.0004471434    1.017    0.017
       212  -9.1888    188.0486    234.3451   9.0301506766e+01  -1.1333896775e+00    0.2164808    0.1900101 -33.57  0.001089334    1.381    0.276
       213  -9.6836     79.5624     23.9384   6.4801061404e+01   6.0819015405e+01    0.5646202    0.2494595  31.66  0.001418228    2.533    0.605
       214  -9.0203     84.7866     21.7649   6.2138584407e+01   6.0049807869e+01    0.2689959    0.2380055  55.58 0.0007174315    1.341    0.254
       215  -7.3173    250.7565    231.0078   7.7956050504e+01  -9.7771688040e+00    0.1393156   0.08596955 -25.11 0.0003476713    1.502    0.334
       216  -8.6608     42.1229     28.0953   8.1821017328e+01   6.6317605279e+01    0.2177255    0.1521409 -14.40 0.0002566073    1.269    0.212
       217  -8.8776    211.4597    219.4099   8.3182194827e+01  -2.5615487794e+00    0.2308909    0.2251013 -81.07 0.0006137328    1.582    0.368
       218  -9.9153     37.9609     42.2559   8.9403421842e+01   6.4384863751e+01    0.3509398    0.3117849  85.47  0.001403972    1.856    0.461
       219 -10.3479     35.9075     38.0026   8.8759862849e+01   6.5380748004e+01     0.535372    0.2744433 -22.05 0.0003592888    2.209    0.547
       220  -7.4034    241.3316    219.6830   7.7642416203e+01  -7.0338528253e+00    0.1032711    0.1001555  36.68 0.0002694184    1.687    0.407
       221  -8.6750    104.9517     41.2062   6.3632967249e+01   5.3246286717e+01    0.3123832    0.2227001 -50.14 0.0008031309    1.768    0.434
       222  -8.6472    106.3122     36.1767   6.1361638688e+01   5.3650361732e+01    0.3318312      0.22289  30.33  0.001100782    1.495    0.331
       223  -8.0447    122.9852     40.5248   5.8496553714e+01   4.9233180411e+01    0.4023639    0.1890785  25.88  0.001206865    4.405    0.773
       224  -8.0671     53.4575     39.3633   8.1415813512e+01   6.2947049509e+01    0.2280488    0.1137327 -36.12  0.001090359    1.866    0.464
       225  -7.9790    159.8804     39.3084   5.0192353590e+01   4.0313640757e+01    0.2030469    0.1743786 -45.98 0.0008073765    1.232    0.189
       226  -8.8654    144.0881     36.4394   5.2334396909e+01   4.4642497682e+01    0.2527592    0.2003178 -47.15 0.0006115629    1.389    0.280
       227  -8.8190    118.9122     34.5614   5.7400410222e+01   5.0986699643e+01     0.303314    0.1969642 -27.02 0.0007805182    1.657    0.397
       228  -9.1125    153.3644     34.9370   5.0047266585e+01   4.2513086309e+01    0.1894431    0.1862903 -68.44 0.0009100093    1.092    0.084
       229  -9.2255    101.0988     32.2544   6.1366613958e+01   5.5317734512e+01    0.4176583    0.2318706 -30.34  0.001402926    1.897    0.473
       230  -7.3014     56.0000    216.0671   1.1590328841e+02   2.2497193235e+01    0.1932263   0.06525138 -69.91 0.0005260807    2.985    0.665
       231  -9.4100     60.2637     33.5412   7.6183996544e+01   6.2875627675e+01    0.4363995    0.2636689 -45.04  0.001842358    1.960    0.490
       232  -8.5183     62.2468     26.8716   7.2527079824e+01   6.3544274450e+01    0.3751408    0.2165412  22.81  0.001235903    1.783    0.439
       233 -10.3514    231.1036    212.6836   7.8248193570e+01  -4.5774097422e+00    0.2268716    0.1898957  -8.70 0.0004215729    1.143    0.125
       234  -8.6984    199.2862    213.7233   8.4590361400e+01   2.6161388352e-01    0.2511528    0.1895243  25.70  0.001040145    1.154    0.133
       235  -8.0141    168.8641     31.2860   4.6275449857e+01   3.9059408131e+01    0.2256941    0.1787597 -44.88 0.0002319177    1.326    0.246
       236  -8.8488    200.7267    209.1409   8.3481666547e+01   7.5938102078e-01    0.2255903    0.1818784  19.15 0.0005096798    1.071    0.066
       237  -8.5776     92.3209     20.6854   5.9346975516e+01   5.8615344458e+01    0.3929761    0.2122961  25.96  0.001239309    2.130    0.530
       238  -7.6951    122.6320    210.2343   1.0055049427e+02   1.3915036866e+01    0.1774268    0.1272144 -44.85 0.0006903097    1.610    0.379
       239  -7.5033    162.3092     29.6859   4.6867190497e+01   4.0901686246e+01    0.1437295    0.1024834 -70.53 0.0003523215    1.629    0.386
       240  -7.4187    147.6514     28.7107   4.9147949519e+01   4.4700169557e+01    0.1493219   0.09710747  37.03 0.0005673016    1.663    0.399
       241  -9.6800    155.8689     25.3936   4.6643971057e+01   4.3019303168e+01    0.5006109    0.1628986 -35.41  0.001853958    3.057    0.673
       242  -9.6081      7.4645    208.3011   1.2518835737e+02   2.9308304373e+01    0.4563827    0.1537606  49.60  0.002320098    2.401    0.583
       243  -7.3722    119.2567     27.4008   5.4727545355e+01   5.1788676851e+01    0.1456397   0.09796192  21.42 0.0006958413    1.711    0.416
       244  -8.2972    144.1712     25.7058   4.8833545295e+01   4.5914398188e+01    0.2254569    0.1849777 -45.30 0.0006808027    1.347    0.258
       245  -8.1820    101.9618     25.5955   5.8530715359e+01   5.5958876236e+01    0.3352087    0.1823725  33.91  0.001529923    1.872    0.466
       246  -8.9399    103.0979     21.3142   5.6541300049e+01   5.6198695065e+01    0.3016757    0.2634993 -50.43 0.0006234513    1.428    0.300
       247  -9.9270     11.9677    206.9759   1.2423213194e+02   2.9177266645e+01    0.2901262    0.2191316  64.17  0.001301836    1.114    0.102
       248  -7.5530    149.4337     25.2515   4.7720693886e+01   4.4650589764e+01    0.1845711    0.1269733 -43.34  0.000658563    1.594    0.373
       249  -8.1087    140.4259     22.9270   4.8634421763e+01   4.7153624186e+01    0.1884151    0.1033586 -52.37  0.000662485    2.361    0.576
       250  -8.2409    201.1367    204.2317   8.2503507158e+01   1.4912044673e+00    0.1964493    0.1575333  11.22 0.0002827916    1.115    0.103
       251  -7.6714    227.9664    200.7339   7.6617673994e+01  -2.3283653580e+00    0.1738899    0.1448584  10.27 0.0002490502    1.075    0.070
       252 -10.2890    168.6277    199.3125   8.8464973135e+01   8.0245012740e+00    0.2514043    0.2366132   7.12 0.0003279289    1.081    0.075
       253  -9.0426    191.8921    194.2924   8.2543075957e+01   4.7792917051e+00    0.7055629    0.3904921 -64.13  0.002210288    5.432    0.816
       254  -6.9877    133.2083    198.9760   9.6405228610e+01   1.4394098040e+01    0.1585484    0.1153957 -53.88 0.0008112105    1.519    0.342
       255  -8.2354    121.0030    197.3072   9.8978897426e+01   1.6845840190e+01    0.2022938    0.1871909 -26.02 0.0002415539    1.235    0.190
       256  -7.3229    151.4838     20.5035   4.5869035186e+01   4.4655023864e+01    0.1388921    0.1233172  63.81  2.20685e-05    1.006    0.006
       257  -8.0644    139.5466     18.0057   4.7173427541e+01   4.7890273511e+01    0.1854423     0.137215 -24.27 0.0003082565    1.522    0.343
       258  -9.2152     53.1700    189.3850   1.1393913646e+02   2.8668463689e+01    0.2192485    0.1868236 -69.26 0.0003848444    1.219    0.180
       259  -7.8620    121.1862     14.3996   4.9573012705e+01   5.2721991978e+01    0.3007522    0.1250048  62.65  0.001235489    2.209    0.547
       260  -7.4776    222.9853    188.0092   7.5101478100e+01   4.7511818511e-01    0.1574874    0.1333704   4.18            0    1.028    0.027
       261  -8.6830    190.1931    184.0684   8.0913442579e+01   6.9193174117e+00    0.2181709    0.1845975  24.55 0.0002565761    1.095    0.087
       262  -7.5258    175.9911    181.4734   8.3472687529e+01   1.0052257247e+01    0.1932011    0.1242334  60.93 0.0005885498    2.309    0.567
       263  -8.2853    111.2902     21.5857   5.4522501382e+01   5.4308461558e+01    0.3053719    0.1885776  -9.60  0.001485144    1.935    0.483
       264  -7.8075    189.0067     15.9861   3.9281856736e+01   3.5774589124e+01    0.1575826    0.1415493 -81.91   0.00039514    1.054    0.051
       265  -8.1097    100.6245    175.9246   1.0052484092e+02   2.5006011189e+01    0.2368644    0.1767907  32.76 0.0006751269    1.369    0.269
       266  -7.4432    118.0452    174.0587   9.5812877862e+01   2.2454308464e+01    0.1678123    0.1620099  55.47 0.0003418889    1.016    0.016
       267  -8.7060     54.6593    173.9560   1.1184116693e+02   3.2069102358e+01    0.1966536    0.1760117  56.37  0.000469484    1.132    0.117
       268  -8.4886    112.3621     15.6592   5.2021629173e+01   5.4680019984e+01    0.2413662    0.2081658 -56.42 0.0006726596    1.434    0.303
       269  -7.5468    230.2949    167.6709   6.9608173209e+01   2.5748681977e+00    0.1263234    0.1092057 -63.02 0.0007024176    1.631    0.387
       270  -6.8237    210.3083    160.7305   7.1929289619e+01   7.4063637452e+00    0.1298031    0.1167948 -87.27 0.0001817825    1.541    0.351
       271  -8.7513    133.7237    146.4644   8.6265517917e+01   2.5807518739e+01    0.7614121    0.2283849 -54.41  0.002025639    4.399    0.773
       272  -9.4238     66.8460    143.8736   1.0427059940e+02   3.7827621919e+01    0.5267519    0.3465229  64.11  0.002505863    1.800    0.445
       273  -8.9283    237.4364    145.7192   6.3672466546e+01   4.9909524757e+00    0.3489719     0.110558  40.68  0.001216976    3.590    0.721
       274 -10.5303     58.5392    124.7616   1.0333988082e+02   4.3631545547e+01     1.552812    0.8082709  79.31  0.002605614    4.771    0.790
       275 -10.1130     71.2600    125.7919   9.9615023361e+01   4.1694708205e+01    0.5768925    0.4358119 -84.24   0.00127556    1.513    0.339
       276  -9.2053     67.7835    128.6008   1.0123300869e+02   4.1482400285e+01     0.440098    0.2819074  68.06  0.001523387    2.131    0.531
       277  -8.7660    112.3240    133.9076   8.9235033503e+01   3.2905804992e+01    0.3544466    0.2604143  88.35  0.001198639    1.918    0.479
       278  -9.1199     83.2501    131.6044   9.7174610357e+01   3.8485137276e+01     0.662882    0.3914728  74.49  0.002387907    3.144    0.682
       279  -9.3571    135.8292    131.7785   8.2318333152e+01   2.8720491392e+01    0.6454001    0.1894967 -47.11  0.001868653    3.431    0.709
       280  -9.2033    131.9595    131.2505   8.3218364295e+01   2.9642776588e+01    0.3868434    0.2798671 -85.14  0.001593438    2.098    0.523
       281  -8.1339    141.9466    131.1596   8.0572672435e+01   2.7572317935e+01    0.3590965     0.244149  68.02  0.001443536    2.087    0.521
       282  -9.6233    194.5660    130.3787   6.8192717512e+01   1.6285691820e+01    0.2745215    0.2581653 -10.88 0.0002818793    1.025    0.024
       283  -8.7044    234.5286     14.9833   3.4584670641e+01   2.5294192007e+01    0.2171833    0.1615034  83.13 0.0004034099    1.241    0.194
       284  -9.8376     98.5705    128.5625   9.1980379166e+01   3.6689222798e+01     0.642593    0.4014671  71.88  0.002151543    2.740    0.635
