#   1 NUMBER                 Running object number                                     
#   2 MAG_AUTO               Kron-like elliptical aperture magnitude                    [mag]
#   3 X_IMAGE                Object position along x                                    [pixel]
#   4 Y_IMAGE                Object position along y                                    [pixel]
#   5 X_WORLD                Barycenter position along world x axis                     [deg]
#   6 Y_WORLD                Barycenter position along world y axis                     [deg]
#   7 A_WORLD                Profile RMS along major axis (world units)                 [deg]
#   8 B_WORLD                Profile RMS along minor axis (world units)                 [deg]
#   9 THETA_WORLD            Position angle (CCW/world-x)                               [deg]
#  10 FWHM_WORLD             FWHM assuming a gaussian core                              [deg]
#  11 ELONGATION             A_IMAGE/B_IMAGE                                           
#  12 ELLIPTICITY            1 - B_IMAGE/A_IMAGE                                       
         1 -13.4403    247.7788     19.7792   6.4456488349e+01   2.0562010473e+01     2.746742     1.546099  11.82   0.01091824    3.680    0.728
         2 -12.1072    248.8898     59.9217   7.4164313408e+01   1.5360256455e+01     1.700254    0.6539575 -26.01   0.00644658    2.657    0.624
         3 -12.7192    247.0973     42.7343   7.0116448733e+01   1.7999979093e+01     2.433541    0.9427399 -17.21  0.007835018    4.242    0.764
         4 -12.9758    248.9307     84.8111   8.0301803953e+01   1.1886852538e+01     3.420027    0.6117743 -32.34  0.009534565    4.549    0.780
         5 -13.4707    229.7603     56.9349   7.5792748532e+01   2.0176764931e+01     3.258501    0.9730371 -20.81  0.007450034    7.253    0.862
         6 -12.8357    224.5633     19.3966   6.6549208075e+01   2.6085005998e+01     1.345078    0.5828577 -19.53  0.005397632    2.717    0.632
         7 -12.0589    241.3448     10.0143   6.2654484017e+01   2.3091436997e+01    0.5875092    0.3264997 -50.77  0.002992305    1.676    0.403
         8 -10.8334     15.7741     11.2665   1.1538836868e+02   7.0670100112e+01    0.2230851    0.1543739 -21.13 0.0002524795    1.176    0.150
         9  -9.2812    117.1024      9.3442   7.9317537672e+01   5.4025444775e+01    0.2495124    0.1968534 -26.15 0.0007788428    1.335    0.251
        10  -9.6692     20.7291      7.3432   1.1114772296e+02   7.0808766471e+01    0.2035284     0.143823 -45.36 0.0009801043    1.615    0.381
        11 -10.3817     16.4826      5.5795   1.1235612022e+02   7.1481142652e+01    0.2703651    0.1710077   8.35  0.001478227    1.646    0.393
        12 -10.5939    110.7132      4.8711   7.8899904692e+01   5.5898762136e+01    0.3125474    0.2166038 -40.64 0.0003628064    1.696    0.410
        13  -9.1750     12.0418      5.5530   1.1456561397e+02   7.1884025603e+01    0.1634583     0.111477 -30.33 0.0001652109    1.097    0.088
        14  -8.8059     64.5279      5.0328   9.1842156105e+01   6.5138332534e+01    0.1804721    0.1080274 -22.48 0.0003734097    1.525    0.344
        15  -9.7125     50.9486      3.7992   9.6170667842e+01   6.7471187460e+01    0.1933622    0.1421189 -12.53 0.0003252364    1.134    0.118
        16 -12.2515    237.2081     11.9984   6.3487796642e+01   2.3850357817e+01    0.5210952     0.324506 -39.92  0.002791046    1.471    0.320
        17  -8.9690    151.4571    249.5422   1.2979229746e+02   5.6410925206e+00    0.1133777   0.08707949  45.14 0.0002441261    1.009    0.009
        18 -10.3769    230.3168    249.1133   1.1670817870e+02  -6.4474925220e+00    0.3495224    0.1790698  37.95  0.001046873    1.512    0.339
        19  -9.4742    224.6952    249.2389   1.1762902234e+02  -5.6287628330e+00    0.2062975    0.1886736 -14.85   0.00127394    1.464    0.317
        20 -10.3001    218.2754    247.7985   1.1846066350e+02  -4.5180482997e+00    0.3323459    0.2426578 -38.23  0.001961811    1.850    0.460
        21 -11.3446    209.7962    247.6638   1.1982684894e+02  -3.2136437891e+00    0.4959579    0.4059165 -31.50   0.00375316    1.573    0.364
        22 -10.3271    206.3102    236.8598   1.1884900174e+02  -1.4556659810e+00    0.3382582    0.3071309 -62.13  0.002502655    1.668    0.400
        23  -9.9024    202.2636    232.3509   1.1886561690e+02  -2.7260235554e-01    0.2492697    0.2012597 -41.83 0.0009843793    1.622    0.384
        24 -10.6430    193.5156    247.5784   1.2250534636e+02  -6.8578504564e-01    0.4516607     0.256507 -40.82  0.002817164    2.275    0.561
        25  -9.7856    186.9920    247.3443   1.2356135866e+02   3.6164401957e-01    0.2315079    0.1735733 -28.88  0.001644334    1.678    0.404
        26 -10.3561    168.4694    249.5030   1.2693718406e+02   2.9992557513e+00    0.3262244     0.199704  20.29 -7.295372e-05    2.199    0.545
        27 -10.4602    175.7451    247.3614   1.2544781592e+02   2.1256926059e+00    0.2429046    0.2168884 -38.89   0.00188466    1.452    0.311
        28 -12.1576    241.3681    115.4704   8.8859846874e+01   8.9773380440e+00      1.27368    0.7003723 -20.28  0.005589849    1.962    0.490
        29 -11.3635    247.7044    217.0086   1.0878873616e+02  -5.7270558591e+00    0.5808043     0.308363 -31.86  0.003236449    2.060    0.515
        30 -11.3851    244.7447    203.3896   1.0687180034e+02  -3.7201454638e+00    0.8840371    0.4701028 -48.53  0.004022892    3.618    0.724
        31 -11.6864    250.1584    153.2951   9.6040813669e+01   1.7774359221e+00     2.248155    0.1467431 -33.68  0.004476005   10.799    0.907
        32 -12.4995    242.5606    134.5944   9.3132528677e+01   5.8898312370e+00     1.797603     0.573485 -40.55  0.006284591    3.274    0.695
        33 -11.2615    245.5302    191.8254   1.0460174174e+02  -2.4585357768e+00    0.6996911     0.399096 -47.22   0.00343666    2.785    0.641
        34 -11.1033    241.6125    181.2715   1.0322021087e+02  -4.5592408567e-01    0.5723137    0.3623672 -48.57  0.002600265    2.353    0.575
        35 -12.5890    246.3224    163.6351   9.8858778862e+01   1.0591020882e+00     2.439224      0.33334 -35.74  0.006474391    6.452    0.845
        36 -11.2100    243.2227    150.9090   9.6658554813e+01   3.4000436176e+00    0.7058571    0.4262654 -19.94  0.003449358    1.656    0.396
        37  -9.8797    239.4416    239.4036   1.1378317978e+02  -6.8245828974e+00    0.3660287    0.2226246 -51.20  0.001938538    3.723    0.731
        38  -8.9592    219.7420    240.3329   1.1712808767e+02  -3.9462211322e+00    0.1693656     0.140281 -39.89 0.0009157255    1.694    0.410
        39  -9.2406    214.1653    240.8068   1.1811903416e+02  -3.1362594007e+00    0.1660782    0.1532254 -18.09   0.00128772    1.408    0.290
        40  -9.1864    183.7926    240.7010   1.2320729630e+02   1.6754665907e+00    0.1904342    0.1501523  87.58  0.001230539    2.089    0.521
        41 -10.4825    190.4786    234.9390   1.2126052154e+02   1.3170943842e+00    0.4404911    0.3068171 -56.19  0.002750271    2.173    0.540
        42  -9.1530    190.5559    226.2610   1.1997683833e+02   2.4118766291e+00    0.2787135    0.1162221 -42.68  0.001356727    2.959    0.662
        43  -8.9272    145.7075    230.3032   1.2846054409e+02   9.2473578420e+00    0.1592688    0.1483425  69.25 0.0003455134    1.189    0.159
        44  -9.1762    144.8783    227.1915   1.2821264008e+02   9.8464571761e+00     0.196732    0.1656803  10.11  0.000981189    1.530    0.346
        45 -11.4139      3.6213    227.4574   1.5217253016e+02   2.8259705774e+01    0.3257256    0.2194436  81.43  0.002746212    1.113    0.101
        46  -9.2181    211.8626    227.9022   1.1655159300e+02  -1.2903232407e+00    0.1838552    0.1607634 -24.24  0.001009312    1.385    0.278
        47  -9.8347    206.2424    225.8599   1.1719462608e+02  -1.2825516831e-01    0.2600293    0.2025738 -38.73  0.001321671    1.614    0.380
        48  -9.3018    198.8893    226.9045   1.1862407996e+02   9.5023807121e-01    0.1865898    0.1652216 -33.45 0.0008365568    1.408    0.290
        49  -9.3078    216.7973    223.3857   1.1499743101e+02  -1.5513594637e+00    0.2414593    0.1592474 -50.87  0.001388617    2.409    0.585
        50  -9.9726     18.3618    223.0149   1.4966884799e+02   2.7606493840e+01    0.1990636   0.09444616  62.46  0.001326773    1.643    0.391
        51  -9.9066    215.4876    233.9448   1.1687116044e+02  -2.5733407794e+00    0.2705946    0.2074308 -47.14  0.001823663    1.905    0.475
        52  -8.5193    201.5188    221.5150   1.1733272021e+02   1.1983459599e+00    0.1218079   0.09929898  31.48 0.0001088525    1.038    0.036
        53  -9.1849    211.0715    218.7522   1.1523109995e+02  -4.4124074171e-02    0.2704982    0.1523682 -43.46  0.001483569    2.300    0.565
        54  -9.4770    193.4876    219.5505   1.1843510087e+02   2.8046502064e+00    0.2552925    0.1179159 -45.51  0.001249985    2.790    0.642
        55  -8.9901    219.5587    217.3205   1.1353580124e+02  -1.2717548235e+00    0.1947603    0.1141718 -38.18  0.001107867    2.043    0.510
        56  -9.5062    227.6382    216.8127   1.1207792036e+02  -2.5309610265e+00    0.2119946    0.1433101 -35.17  0.001078974    1.755    0.430
        57  -8.6104    200.6854    215.3358   1.1649223154e+02   2.1426707322e+00    0.1138411   0.09511326  69.69 0.0006741763    1.691    0.409
        58  -9.5720    216.9694    211.9664   1.1308355866e+02  -1.7814687845e-01    0.2601987    0.1776464 -37.85  0.001575061    1.749    0.428
        59 -12.5617      8.3775    205.7686   1.5036097798e+02   3.1638962919e+01     0.723568    0.2773187 -85.43  0.004187768    2.253    0.556
        60  -9.1739    192.8160    209.9712   1.1702309871e+02   4.2263997553e+00    0.1795872    0.1457521 -75.56  0.001007707    1.940    0.484
        61  -9.7165    229.4069    207.7508   1.1022083729e+02  -1.7317105945e+00    0.3336369    0.1519707 -36.63  0.001664864    2.471    0.595
        62  -8.8808    227.7730    201.9724   1.0947442798e+02  -7.3943386017e-01    0.1745047    0.1443011 -56.48  0.000807118    1.892    0.472
        63  -9.2606    224.7575    208.2891   1.1110910459e+02  -1.0236495026e+00    0.2501738    0.1521458 -46.51  0.001252335    2.360    0.576
        64  -9.3730    206.1350    207.1882   1.1417227628e+02   2.2931702095e+00    0.3042468    0.1569422 -17.49  0.001338517    3.081    0.675
        65  -8.4961    186.3473    210.3194   1.1825114334e+02   5.3046999352e+00    0.1300179   0.08852826  16.27 0.0007048923    1.732    0.423
        66  -9.4215    223.3939    201.4794   1.1014164258e+02   6.9047074031e-02    0.2194347    0.1494167 -32.02  0.001237471    1.609    0.379
        67  -9.2461    231.0041    198.9957   1.0838207706e+02  -9.1070964347e-01    0.2059869    0.1760191 -48.51  0.001320238    1.672    0.402
        68  -9.6556    231.0998    194.0794   1.0745980884e+02  -2.9926928686e-01    0.3362649    0.1650639 -31.36  0.001520804    2.130    0.531
        69  -8.9538    215.4345    197.7215   1.1086045361e+02   1.9459359097e+00    0.2173636    0.1200891 -39.16  0.001119056    2.065    0.516
        70  -9.1788    202.1529    197.6941   1.1323800503e+02   4.3078941240e+00    0.2287356    0.1474465 -50.84  0.001202709    2.124    0.529
        71  -8.7175    226.6683    197.3316   1.0882358908e+02   4.2822262613e-02     0.112918    0.1023519  80.88 0.0007052091    1.723    0.420
        72  -9.4744    224.2592    192.1312   1.0828117919e+02   1.1458152403e+00    0.3514384    0.1777044 -33.08  0.001752329    2.092    0.522
        73  -8.5321    219.5180    194.4825   1.0954886260e+02   1.6644764099e+00    0.1274578    0.1096215  21.53 0.0008094683    1.059    0.055
        74  -9.0035    209.4530    194.1089   1.1127324134e+02   3.5057822795e+00    0.1819956    0.1242281 -30.62 0.0007789088    1.582    0.368
        75  -8.9042    215.0484    192.0304   1.0988865784e+02   2.7931513817e+00    0.1804126    0.1622548 -81.12 0.0008375065    1.677    0.404
        76  -8.4786    198.6791    191.3259   1.1273096024e+02   5.8610102456e+00    0.1228712    0.1041596  78.25 0.0007047172    1.683    0.406
        77  -8.8121    210.4618    189.0140   1.1015144761e+02   4.0448276020e+00    0.1856972    0.1258134 -33.93 0.0008482963    1.596    0.373
        78  -9.7683    230.0968    187.2444   1.0634273522e+02   7.7112027693e-01    0.2965707    0.1720549 -34.31  0.001075268    1.824    0.452
        79  -9.7449    232.5179    174.5304   1.0342832807e+02   2.0641442019e+00    0.2820618    0.1529762 -29.79  0.001038472    1.851    0.460
        80 -11.3931    238.8653    160.6599   9.9479364278e+01   2.8349706884e+00      1.22957    0.5376115 -47.25  0.004609686    3.596    0.722
        81  -9.0282    229.6641    182.3043   1.0546329184e+02   1.5124847689e+00    0.2070942    0.1171988 -38.89 0.0009700013    1.969    0.492
        82  -8.9974    231.0000    178.9660   1.0457587646e+02   1.7283182605e+00    0.1921837    0.1747023   0.28 0.0007362145    1.147    0.128
        83  -8.7675    220.4330    187.9888   1.0817489164e+02   2.3872337709e+00    0.1833569    0.1222754 -30.95  0.000744948    1.579    0.367
        84  -8.9602    215.2149    187.0610   1.0892848872e+02   3.4582909128e+00    0.1906136    0.1482365 -59.44 0.0009164406    1.953    0.488
        85  -9.2292    223.7828    183.7532   1.0677293319e+02   2.3697889664e+00    0.2440301      0.16904 -39.19  0.001068985    1.650    0.394
        86  -8.9764    203.3498    183.8938   1.1048761587e+02   6.1030916946e+00    0.2500241     0.118399 -44.62  0.001098722    2.529    0.605
        87  -8.8337    217.8319    183.3663   1.0775399016e+02   3.5043854154e+00    0.1748606    0.1572018 -10.85 0.0007121888    1.159    0.137
        88  -9.3844    210.9355    182.2245   1.0877758905e+02   4.9387221650e+00    0.2773564    0.1768032 -40.90  0.001457313    1.773    0.436
        89  -9.4136    227.8253    171.5497   1.0364127190e+02   3.3428646395e+00    0.2910718    0.1603042 -42.48  0.001295987    2.118    0.528
        90  -9.6908    226.4502    177.4115   1.0506088073e+02   2.7685295181e+00    0.4139915    0.2399802 -15.93  0.002005619    2.027    0.507
        91  -9.7207    223.2796    173.3834   1.0481389286e+02   3.9251645404e+00     0.317005    0.1951357 -42.71   0.00130346    1.895    0.472
        92  -9.5789    219.0632    178.1367   1.0651348814e+02   4.0246149221e+00    0.2781691    0.1812271 -36.20  0.001487932    1.641    0.391
        93  -8.5856    197.6067    176.7856   1.1019379084e+02   8.2771042757e+00    0.1769715    0.1276142 -46.56 0.0007212447    1.628    0.386
        94  -9.0019    210.4804    175.4933   1.0754443642e+02   6.0209045787e+00    0.2604378    0.1300997 -34.67  0.001045371    2.102    0.524
        95  -8.4704    215.6676    173.3091   1.0616311212e+02   5.3646386325e+00    0.1243357    0.1096071  88.32 0.0007041807    1.670    0.401
        96  -9.9514    218.6746    168.2575   1.0459308687e+02   5.5433626618e+00    0.3855545    0.2599751 -39.69  0.002036172    1.622    0.383
        97  -8.9839    212.1671    169.4822   1.0602596390e+02   6.6063831572e+00    0.2357212    0.1493759 -53.44  0.001101918    2.278    0.561
        98  -9.1611    205.2648    169.6076   1.0732799064e+02   7.9214703898e+00    0.2501538    0.1601149 -46.23  0.001238562    1.845    0.458
        99  -9.6152    228.9269    166.1386   1.0233641461e+02   3.9116850326e+00    0.2668387    0.2111532 -29.82 0.0008853837    1.300    0.231
       100  -9.1882    191.4861    165.5392   1.0912202928e+02   1.1286321562e+01    0.2831302    0.1367605 -39.23  0.001214949    2.185    0.542
       101  -9.7723    212.8859    163.3814   1.0463373897e+02   7.4011774538e+00    0.3829586    0.1813424 -36.47  0.001670782    2.164    0.538
       102  -8.8475    199.4740    164.9806   1.0747254424e+02   9.7916393166e+00    0.2055472    0.1350912 -36.52  0.001029709    1.592    0.372
       103  -9.5511    205.3171    161.4738   1.0563787246e+02   9.1941870230e+00    0.3999264    0.2251175 -31.59  0.001859292    1.858    0.462
       104  -8.9024    221.4979    161.6280   1.0270498244e+02   5.9915881875e+00    0.2667324     0.129964 -33.37  0.001182259    2.065    0.516
       105  -9.1800    196.7118    157.1713   1.0636359554e+02   1.1626182275e+01    0.3138266    0.1260834 -35.36  0.001191864    2.645    0.622
       106  -9.0389    222.0000    156.0712   1.0142941672e+02   6.7331373301e+00    0.3041314    0.1689985 -42.28  0.001094289    1.985    0.496
       107  -9.1459    221.3059    152.6534   1.0081167515e+02   7.3926760948e+00    0.2315997    0.1904891 -49.17   0.00113971    1.475    0.322
       108  -9.1815    216.2031    156.2496   1.0251255840e+02   7.8512109634e+00    0.2989778    0.1787261 -35.13  0.001442934    1.689    0.408
       109  -9.2580    211.6160    151.8538   1.0239772784e+02   9.4640337849e+00    0.2880597     0.118431 -42.53  0.001100901    2.656    0.623
       110  -8.9850    205.5431    154.4964   1.0410584702e+02   1.0271341490e+01    0.1398016    0.1302233  12.89 0.0002815684    1.039    0.038
       111  -8.2687    202.3011    151.6393   1.0409661436e+02   1.1401058281e+01     0.138745    0.1145798 -74.77 0.0004481837    1.720    0.419
       112  -9.2368    215.5127    149.4320   1.0114940317e+02   9.0582295161e+00     0.277793    0.1941706 -50.95  0.001169504    1.790    0.441
       113  -9.0506    207.5638    144.9944   1.0162668737e+02   1.1406818066e+01    0.2195203    0.1365896 -33.93  0.001030382    1.608    0.378
       114  -8.8941    200.1648    145.1968   1.0307422264e+02   1.2919239931e+01    0.1969357     0.171975 -58.85  0.001045224    1.382    0.277
       115  -9.4274    155.8566    144.2775   1.1196163606e+02   2.2387447041e+01    0.2819885    0.1698603 -58.61  0.001203416    2.078    0.519
       116  -9.1449    218.5263    144.1848   9.9431430392e+01   9.2731844623e+00    0.2057532    0.1977242 -56.01 0.0007005809    1.259    0.206
       117  -9.0930    194.4849    143.5309   1.0379806542e+02   1.4399835534e+01    0.2498647     0.131835 -47.75  0.001022093    2.200    0.546
       118  -9.2954    138.5288    144.0000   1.1574960156e+02   2.5931633680e+01    0.2200181    0.1411216 -49.37  0.001031031    1.595    0.373
       119 -11.6675    236.4282    185.6811   1.0495612410e+02  -1.3026718961e-01     1.612797    0.3914658 -38.17   0.00553616    4.477    0.777
       120  -8.8607    181.6821    142.3401   1.0608302541e+02   1.7328830489e+01    0.1461454     0.118103 -82.67 0.0007049134    1.710    0.415
       121 -10.1481    218.7057    138.5016   9.8105471772e+01   1.0137641503e+01    0.4138238    0.2419959 -38.07  0.001629913    1.709    0.415
       122  -9.1009    208.2460    137.8302   9.9863068482e+01   1.2444378048e+01    0.2617765     0.171551 -37.28  0.001107169    1.528    0.346
       123  -9.7198    234.2443    135.5173   9.4718733651e+01   7.4133407777e+00    0.3439362    0.2435421 -46.84  0.001431875    1.635    0.388
       124  -8.4105    192.6598    137.3149   1.0273040310e+02   1.5868491600e+01    0.1454164    0.1188733 -82.80 0.0007047717    1.703    0.413
       125  -9.2003    163.3866    136.2076   1.0852125861e+02   2.2371215646e+01      0.21194    0.1380695 -51.89 0.0009517996    1.691    0.409
       126  -9.4954    225.4521    133.3696   9.5726659551e+01   9.5453449462e+00    0.3255523    0.1640804 -28.69  0.001351263    1.986    0.496
       127  -9.9306    201.0225    131.8488   9.9823681154e+01   1.5001821921e+01    0.4084725    0.2319747 -13.06  0.001527077    2.756    0.637
       128  -9.1099    142.9883    132.1984   1.1214493115e+02   2.7434916344e+01    0.2178488    0.1657088 -70.91 0.0009124639    1.606    0.377
       129  -9.7056    177.3463    243.3075   1.2465114291e+02   2.3777497221e+00    0.2365291    0.1336748  34.26  0.001326664    1.528    0.346
       130 -10.1722    233.7191    129.0884   9.3318969584e+01   8.4976253460e+00    0.3763477    0.1830059 -37.36   0.00129709    1.975    0.494
       131  -9.3650    220.9458    128.9374   9.5475196886e+01   1.1192805897e+01    0.3375225    0.1970552 -39.41  0.001454527    1.710    0.415
       132  -8.9570    192.4194    129.6946   1.0097823108e+02   1.7257871197e+01    0.2795161    0.1381522 -41.49 0.0009517189    2.054    0.513
       133  -8.4456    212.2980    129.6435   9.7193677103e+01   1.2929030889e+01    0.1448522    0.1148676 -65.68 0.0004620175    1.702    0.412
       134  -9.5372    227.7976    125.1807   9.3397072947e+01   1.0335497940e+01    0.3544481    0.1855423 -38.18  0.001353649    1.855    0.461
       135  -8.7515    179.7524    133.5742   1.0445374885e+02   1.9336695121e+01     0.208817     0.142066  58.35 0.0009485949    1.651    0.394
       136  -9.7648    180.1551    124.9798   1.0230577286e+02   2.0823123571e+01    0.4132547    0.2985625 -56.94  0.001923922    1.658    0.397
       137  -8.7934    187.8790    123.8147   1.0045150835e+02   1.9309288964e+01    0.2052915    0.1830917 -74.63 0.0009375195    1.343    0.255
       138  -8.7246    212.6053    122.7802   9.5487033831e+01   1.3992837094e+01    0.2148878    0.1298044 -43.14 0.0009514305    1.723    0.420
       139 -10.7956    230.5957    116.2883   9.0792996486e+01   1.1127035076e+01     0.546395    0.1606118 -36.76  0.001816412    3.098    0.677
       140  -8.7056    203.2854    121.6555   9.6930739918e+01   1.6242089215e+01    0.1474345    0.1167325 -65.80 0.0004835811    1.645    0.392
       141  -8.3640    194.3168    121.6630   9.8649135080e+01   1.8247361055e+01    0.1506657    0.1196337 -72.77 0.0005368468    1.700    0.412
       142  -8.6523    157.3185    120.3242   1.0605810298e+02   2.6767184874e+01     0.154882    0.1196233   5.70 0.0007044887    1.673    0.402
       143  -9.0441    219.5723    115.0005   9.2345057352e+01   1.3728377217e+01    0.2298219    0.1363983 -32.83  0.001027414    1.608    0.378
       144  -8.7755    185.6298    115.2213   9.8751570011e+01   2.1360083675e+01    0.2137714    0.1422501 -26.30 0.0008667641    1.604    0.377
       145 -10.5514    234.4182    111.8178   8.9084283092e+01   1.0998466492e+01    0.3186955    0.2223313 -85.30   0.00138993    2.541    0.607
       146  -9.1078    177.2267    111.2250   9.9440215321e+01   2.4014702640e+01    0.2480188    0.1121912 -47.15 0.0008766745    2.459    0.593
       147  -8.7651    218.5772    109.7503   9.1211495108e+01   1.4795924182e+01    0.2369886    0.1927871 -47.63  0.001227539    1.315    0.240
       148 -11.1280    213.7080    105.4544   9.0970471360e+01   1.6593252541e+01    0.6157079    0.3193887 -42.45  0.002536725    1.949    0.487
       149 -10.1298    213.5093     97.5239   8.8961392113e+01   1.7926776542e+01    0.4044656    0.2534788 -61.80  0.001649081    2.337    0.572
       150  -8.3284    201.3119    109.6572   9.4286492186e+01   1.8733611007e+01    0.1531266    0.1181433 -67.54 0.0006627386    1.702    0.412
       151  -9.1880    189.4313    109.2243   9.6452098651e+01   2.1553680476e+01    0.2166612    0.1391495 -45.66 0.0007805223    1.629    0.386
       152  -8.8759    183.0000    108.9883   9.7673772485e+01   2.3087454845e+01    0.2555541    0.0857302 -36.68 0.0008035322    2.950    0.661
       153 -11.0948    158.8756    106.7973   1.0222894545e+02   2.9049059305e+01    0.5125101    0.3484351 -70.80  0.002095837    2.239    0.553
       154 -10.0122    160.0556    100.6179   1.0029817481e+02   2.9958668777e+01    0.4454193    0.2283423 -38.23  0.001641305    1.932    0.482
       155  -8.3192    196.3062    107.6489   9.4712239052e+01   2.0234129781e+01    0.1549278    0.1186236 -67.32 0.0007042288    1.708    0.415
       156 -10.1228    222.2264    104.7914   8.9344873473e+01   1.4771480963e+01    0.3883792    0.1889392 -32.92  0.001198982    1.942    0.485
       157  -8.8263    205.6129    104.8690   9.2261648832e+01   1.8549855891e+01    0.2250682    0.1305083 -43.79 0.0009487467    1.773    0.436
       158  -9.0372    218.3403    104.1897   8.9849004253e+01   1.5744433943e+01     0.217922    0.1248411 -40.72 0.0007915485    1.715    0.417
       159  -9.2328    185.0867    102.7329   9.5602580107e+01   2.3717809079e+01    0.3657991    0.2009762 -48.99  0.001233318    2.063    0.515
       160  -9.6102    229.7841    102.8866   8.7627657064e+01   1.3385159236e+01    0.2551642    0.2308894 -10.42 0.0009251313    1.051    0.048
       161  -9.3322    149.6091    101.8318   1.0300134174e+02   3.2101792130e+01    0.2263467    0.1393295 -50.13 0.0009507507    1.736    0.424
       162  -9.8570    216.5838     99.2323   8.8879185252e+01   1.6941520903e+01    0.3111238    0.2384948 -11.69  0.001095701    1.397    0.284
       163 -10.5660    223.8912     83.0931   8.3498418276e+01   1.7772293685e+01    0.7785614    0.4314718  12.29  0.002490229    4.089    0.755
       164 -10.0285    225.9173     87.6502   8.4367814514e+01   1.6607650297e+01    0.4053099     0.225244 -23.96 0.0008670523    1.875    0.467
       165 -11.5117    216.8239     91.8329   8.6917379777e+01   1.8065263493e+01    0.8676249    0.5775941 -17.11  0.003967703    1.662    0.398
       166  -9.8122    217.9921     84.9952   8.4929079986e+01   1.8863061022e+01    0.3051535    0.2094298 -25.66 0.0009169108    1.439    0.305
       167 -11.4391    232.0654     74.5365   8.0060557779e+01   1.7145960666e+01     1.297283    0.4476388 -44.31  0.004409624    3.044    0.671
       168  -9.9380    195.4938     96.0335   9.1795798940e+01   2.2414949954e+01    0.4267894    0.2267765 -31.55  0.001722754    1.876    0.467
       169 -10.2903    176.5746     94.9980   9.5219839257e+01   2.7112144628e+01    0.6117493    0.1649715 -28.70  0.001147568    8.776    0.886
       170  -8.6342    235.3974     95.2419   8.4838170784e+01   1.3312226571e+01    0.2051527    0.1228523 -39.62 0.0007700669    1.583    0.368
       171  -9.8429    229.0537     95.3235   8.5840628729e+01   1.4715960592e+01    0.1980536    0.1908993  39.83 0.0008425916    1.106    0.096
       172  -8.9884    164.4796     93.4660   9.7341014953e+01   3.0260910184e+01    0.2955596    0.1333885 -47.03  0.001038316    2.443    0.591
       173 -10.2746    224.5772     92.5675   8.5846495136e+01   1.6158093802e+01    0.3790377    0.2579038 -64.49  0.001408711    2.016    0.504
       174  -9.3570    188.8296     93.1376   9.2273598296e+01   2.4502694406e+01    0.2408101    0.2119747 -64.23  0.000938885    1.273    0.215
       175  -9.3572    231.0852     90.6681   8.4343115900e+01   1.4968940258e+01    0.2704141    0.1768468 -39.04  0.001030159    1.447    0.309
       176  -9.0649    250.5721    245.2793   1.1292612537e+02  -9.0019968166e+00    0.1384181   0.08849323  -4.54 0.0008506539    1.549    0.355
       177 -11.3187    229.9594     81.4166   8.2143119245e+01   1.6618245073e+01    0.7606652    0.2829711 -34.63  0.002812146    2.408    0.585
       178  -9.5539    225.0866     99.5801   8.7554958759e+01   1.4949561747e+01    0.2634289    0.1834042 -39.48 0.0008864728    1.389    0.280
       179 -10.2179    188.0622     86.8833   9.0690212901e+01   2.5753206724e+01     0.301455     0.260218 -48.62 0.0009875165    1.198    0.166
       180 -10.5255    185.4831     82.5822   8.9970826462e+01   2.7105861117e+01    0.4933113    0.1803283 -33.56  0.001418915    2.683    0.627
       181 -10.0889      9.6943     84.0342   1.3842163636e+02   5.6845726634e+01    0.1654285    0.1187598 -66.15 0.0006264512    1.067    0.063
       182  -9.8513    200.9024     77.8105   8.5830026837e+01   2.4100821772e+01    0.4185953    0.2302751 -36.94  0.001229737    1.740    0.425
       183  -8.8169    174.3740     77.8162   9.0766401881e+01   3.0635828127e+01    0.2233593    0.1459817 -20.47 0.0009473611    1.728    0.421
       184  -8.8974    166.7199     77.4900   9.2234277082e+01   3.2566689480e+01    0.2817389    0.1352316 -33.88  0.001058464    2.067    0.516
       185  -9.3329     28.9718     75.4872   1.3061358277e+02   5.7261104909e+01    0.1514269    0.1227855  18.59 0.0004080156    1.524    0.344
       186  -8.9221    200.6338     82.8056   8.7258486987e+01   2.3368357746e+01    0.3023282    0.1552795 -48.94 0.0008794459    2.241    0.554
       187  -9.3905    192.6116     88.7795   9.0358961296e+01   2.4330983658e+01    0.2223346    0.1360571 -42.53 0.0009480608    1.639    0.390
       188  -9.6486    116.6391     72.8071   1.0269931675e+02   4.4882076357e+01    0.3222831    0.1776204 -60.01  0.001163178    2.938    0.660
       189 -11.7962    230.9467     45.2508   7.2588330893e+01   2.1448062710e+01     0.560323     0.467472 -57.87   0.00316299    1.174    0.148
       190  -9.0392    214.5499     70.1749   8.1500754880e+01   2.1943278340e+01    0.2735146    0.1332328 -35.06 0.0009031643    1.914    0.478
       191  -9.0620    163.4530     70.9829   9.0955418973e+01   3.4469850926e+01    0.2411097    0.1488671 -33.46  0.001032118    1.602    0.376
       192  -9.5645    194.8651     67.3372   8.3910337046e+01   2.7227449155e+01    0.2999759    0.2230762 -23.38  0.001370611    1.378    0.274
       193  -8.6051    160.1730     67.5957   9.0601875914e+01   3.5838377393e+01    0.2066475    0.1381474  41.87 0.0003310379    1.536    0.349
       194  -9.5283     13.3192     65.7988   1.3377969979e+02   6.0520242896e+01    0.1522201    0.1310277 -64.11 0.0005517349    1.143    0.125
       195  -9.2240    206.5299     58.9783   7.9642640785e+01   2.5554538361e+01    0.3724124    0.1435056 -29.10   0.00131866    2.570    0.611
       196  -8.8365     32.7787     57.9965   1.2491173555e+02   6.0595219941e+01    0.1721835    0.1284867 -49.06   0.00109906    1.084    0.077
       197 -10.6382    210.9119     51.6470   7.6944855726e+01   2.5491080254e+01    0.5333332    0.1731228 -28.64  0.001776417    3.030    0.670
       198  -8.6189     99.8498     54.2164   1.0117079394e+02   5.1633058771e+01    0.1874315    0.1531934  -3.20 0.0002556586    1.268    0.211
       199  -8.5512    202.7246     97.9837   9.0984344933e+01   2.0374309532e+01    0.2003291    0.1296802 -32.15 0.0008916443    1.502    0.334
       200  -9.4643    225.4957     40.4908   7.1994759705e+01   2.3368385314e+01    0.1392957    0.1308311 -56.91 0.0008106091    1.003    0.003
       201  -9.0277    133.3993     36.2243   8.5940879306e+01   4.7091920631e+01    0.2082828    0.1293671 -37.94 0.0009515552    1.663    0.399
       202  -9.3631    225.0496    243.5332   1.1673587660e+02  -5.0954801060e+00    0.1734897    0.1587789 -35.29 0.0009006003    1.605    0.377
       203  -9.7709     54.7105     30.3212   1.0699959165e+02   6.3198065607e+01    0.2322154    0.2007838 -60.04  0.001471973    1.640    0.390
       204  -8.3966     21.2897     30.6729   1.2074522216e+02   6.6891074974e+01    0.1028998   0.08758361 -70.62 0.0003659807    1.616    0.381
       205  -9.3027     42.1727     27.9337   1.1092064393e+02   6.5218905902e+01    0.1729483    0.1450035 -35.32 0.0003106328    1.221    0.181
       206 -10.0232      9.1206     27.0900   1.2482331409e+02   6.8476030074e+01    0.1674566     0.145705 -34.47  0.001297241    1.202    0.168
       207  -8.9006      4.5251     27.5096   1.2703033758e+02   6.8695598084e+01    0.1130063   0.08319589 -42.31 0.0002279971    1.017    0.017
       208  -8.7272    136.6710     25.1605   8.1221409644e+01   4.7696780711e+01    0.1969004    0.1302079  -8.38 0.0003347385    1.685    0.407
       209 -10.1485     83.6243     21.0167   9.3017428629e+01   5.9797161953e+01    0.3730315    0.2706265  82.60  0.001806618    2.710    0.631
       210  -8.6707    155.4858     21.4813   7.6372169224e+01   4.3425844392e+01    0.1432604    0.1333887  42.06 0.0004010951    1.019    0.019
       211  -8.5421     59.9827     20.9876   1.0100245567e+02   6.3850939908e+01    0.1523494    0.1253585  -8.10 0.0004330782    1.008    0.008
       212  -8.7553    155.5870     16.2090   7.4559889735e+01   4.3958127240e+01    0.1938299    0.1357561  -1.68 0.0008473083    1.632    0.387
       213  -8.9223     23.2858     15.9337   1.1393647319e+02   6.9230449547e+01    0.1644031    0.1163016 -28.18 0.0004678539    1.081    0.075
       214  -8.4637      2.3869     16.2509   1.2401753245e+02   7.0847058490e+01    0.1130618   0.06140604 -26.72 0.0006954374    1.668    0.400
       215  -9.8842    202.0056    242.4055   1.2037312476e+02  -1.4177435502e+00    0.2926988    0.1602383 -45.60  0.001703133    2.565    0.610
       216 -10.6424    169.5311    241.9827   1.2580805076e+02   3.7916996070e+00    0.2497586    0.1883792 -14.03  0.001670947    1.828    0.453
       217 -11.2614    234.6537    165.2384   1.0115755871e+02   2.9709976852e+00     2.033471     1.026639 -56.78  0.005210215    8.896    0.888
       218 -12.7301    226.5847    144.6481   9.8105393154e+01   7.5662680110e+00     1.603477      1.26969 -36.89  0.008886136    1.316    0.240
       219 -11.1479    239.4242    207.6652   1.0851969953e+02  -3.3627895548e+00    0.7421999    0.5271211 -63.98  0.003663918    3.608    0.723
       220 -12.5524    243.3038    222.4355   1.1042439672e+02  -5.6388577269e+00     1.760201      1.04391 -43.47   0.01006381    2.555    0.609
       221 -10.3555    250.0358    200.8633   1.0554328545e+02  -4.2750962514e+00     0.389616    0.1976831 -26.27  0.001622378    1.984    0.496
       222  -8.9755    242.3604    248.6211   1.1472222283e+02  -8.1477130358e+00    0.1408067    0.1195651  42.64 0.0008816043    1.590    0.371
       223 -11.2176    248.4391    121.2027   8.9111528829e+01   6.6847785087e+00    0.9688907    0.2642482 -37.52  0.003265329    3.311    0.698
       224  -9.7538     29.7156     13.0665   1.0970513989e+02   6.9010228906e+01    0.1928605    0.1428273  -0.51  0.000289744    1.263    0.208
