#   1 NUMBER                 Running object number                                     
#   2 MAG_AUTO               Kron-like elliptical aperture magnitude                    [mag]
#   3 X_IMAGE                Object position along x                                    [pixel]
#   4 Y_IMAGE                Object position along y                                    [pixel]
#   5 X_WORLD                Barycenter position along world x axis                     [deg]
#   6 Y_WORLD                Barycenter position along world y axis                     [deg]
#   7 A_WORLD                Profile RMS along major axis (world units)                 [deg]
#   8 B_WORLD                Profile RMS along minor axis (world units)                 [deg]
#   9 THETA_WORLD            Position angle (CCW/world-x)                               [deg]
#  10 FWHM_WORLD             FWHM assuming a gaussian core                              [deg]
#  11 ELONGATION             A_IMAGE/B_IMAGE                                           
#  12 ELLIPTICITY            1 - B_IMAGE/A_IMAGE                                       
         1 -14.5207    151.9036     56.5616   2.9033341175e+02   6.2507393151e+00   0.05788297   0.04753441 -35.53 0.0009609343    1.260    0.206
         2 -14.8367    163.3658     41.9564   2.9011210614e+02   6.3536302914e+00   0.06394637   0.04349305 -51.30  0.003542123    1.438    0.304
         3 -14.6775    178.5648      8.7363   2.8973524835e+02   6.6504605115e+00   0.07424567    0.0511133  12.43  0.006563653    1.618    0.382
         4  -9.9095    150.7874    244.9294   2.9147404968e+02   4.0692279355e+00  0.008517369  0.005235645 -60.33 0.0004925492    1.592    0.372
         5 -20.0415     74.4780    174.7468   2.9194327218e+02   5.3260965327e+00    0.8975477    0.3405069 -65.28   0.06923951    2.784    0.641
         6 -12.1497    125.0381    243.6008   2.9176553864e+02   4.2335843190e+00   0.01356211  0.008739336 -60.76 0.0006104218    1.525    0.344
         7 -11.5436    139.1982    200.7230   2.9134490252e+02   4.6500025032e+00   0.01677771   0.01493047 -83.56 0.0008639678    1.187    0.157
         8 -11.5994    169.8180    195.1892   2.9095562228e+02   4.5369883912e+00   0.01133724   0.01106345  60.41 0.0008408717    1.051    0.048
         9 -13.1007    180.3928    193.1201   2.9082026327e+02   4.4997447710e+00   0.02139657   0.01687369  67.76  0.001559946    1.457    0.314
        10 -14.0664    165.5602    188.6182   2.9096584852e+02   4.6380025730e+00   0.03922251   0.02129162  28.05  0.003544983    1.830    0.453
        11 -13.8575    174.5177    192.8920   2.9088722293e+02   4.5364449780e+00   0.03377164   0.01947984 -76.85  0.002672748    2.114    0.527
        12 -13.8851    175.2305    185.9948   2.9083767373e+02   4.6124410232e+00   0.03549557   0.02133076 -89.14  0.002701964    2.384    0.581
        13 -12.0084    154.1953    195.7718   2.9114083100e+02   4.6207144986e+00   0.02038752   0.01197892  61.18  0.001822479    2.312    0.568
        14 -10.6020    135.6620    196.3547   2.9135995051e+02   4.7212332060e+00    0.0134298   0.01016938 -87.71  0.001429831    1.533    0.348
        15 -12.6038    153.6952    185.2758   2.9108389548e+02   4.7455713538e+00   0.01521074   0.01210639 -74.38  0.001638162    1.325    0.245
        16 -12.6434    119.1082    240.4886   2.9181595046e+02   4.3040327602e+00   0.02042656   0.01082668 -74.06  0.001786885    2.271    0.560
        17 -11.8827     30.8810    183.3348   2.9250238935e+02   5.4777010788e+00   0.01708675   0.01375831  48.41  0.001088512    1.298    0.230
        18 -11.2600     25.9113    184.9164   2.9256971179e+02   5.4879378522e+00  0.009569683  0.008986138 -17.18 0.0003986059    1.086    0.079
        19 -11.2461    139.1462    249.8359   2.9163866494e+02   4.0795493047e+00   0.01487107   0.01241582 -31.87  0.001722316    1.251    0.201
        20 -10.5622     36.7256    186.0777   2.9245063898e+02   5.4121313749e+00   0.01342772   0.01042415 -23.78 0.0005656845    1.436    0.304
        21 -13.8601    207.2966    178.0397   2.9041718679e+02   4.5188820281e+00   0.04698831   0.02782948 -69.91  0.004535298    1.823    0.451
        22 -13.6297    195.6820    170.4256   2.9050662900e+02   4.6746977748e+00   0.03869667   0.02375161 -81.23  0.001828987    2.051    0.512
        23 -12.1559    193.8291    165.3238   2.9049762125e+02   4.7447015649e+00   0.01562599   0.01432037 -14.01  0.001125764    1.130    0.115
        24 -11.7500      4.6544    178.3954   2.9277856993e+02   5.6861243370e+00   0.01629851   0.01454513  -7.90  0.001547787    1.179    0.152
        25 -10.7022     28.2566    179.3304   2.9250910954e+02   5.5393803983e+00   0.01153741  0.008977741   5.74  0.001036352    1.415    0.293
        26 -11.1970     35.7457    177.2630   2.9240952676e+02   5.5202701409e+00    0.0309194   0.01169584  14.00  0.001898564    4.743    0.789
        27 -12.2377    203.4064    172.5172   2.9042933805e+02   4.6055900410e+00   0.02642848   0.01787443 -50.91  0.002785806    1.447    0.309
        28 -13.2227    177.8100    170.6845   2.9071604245e+02   4.7753446012e+00   0.02378631   0.01554342 -63.80  0.002374905    1.534    0.348
        29 -11.3720    170.4235    185.2227   2.9088896608e+02   4.6492705956e+00   0.01390609    0.0108878  73.83 0.0006548756    1.496    0.332
        30 -10.5634     34.6166    169.6595   2.9237736096e+02   5.6151811443e+00   0.01127732   0.00812299   5.57 0.0006402083    1.590    0.371
        31 -11.9470    230.2273    166.6025   2.9008214320e+02   4.5185755116e+00   0.01258892  0.008513878 -79.38  0.001088591    1.718    0.418
        32 -11.5343    201.2446    164.3987   2.9040584481e+02   4.7124178494e+00   0.02215009   0.01519288 -74.87  0.002295609    1.608    0.378
        33 -10.7374     25.1911    165.1854   2.9246053832e+02   5.7215046994e+00   0.00986129  0.008530291 -23.46 0.0005771786    1.219    0.180
        34 -10.8940    222.4532    161.6789   2.9014298239e+02   4.6208850341e+00   0.01385618  0.009673767  74.01 0.0008163841    1.840    0.456
        35 -12.1620    168.0525    244.0085   2.9126785091e+02   3.9800124322e+00   0.01009939  0.009744333 -32.43 0.0003446617    1.031    0.030
        36 -12.9006    163.8966    156.0680   2.9079041949e+02   5.0258008535e+00   0.01610287   0.01532531 -89.73 0.0009217758    1.088    0.081
        37 -12.6063    160.0733    151.6777   2.9080862930e+02   5.0989641759e+00   0.01578884   0.01240892 -60.13  0.001279026    1.256    0.204
        38 -15.0018    134.2822    146.4532   2.9107761205e+02   5.3090928703e+00    0.0789784   0.02748996 -68.66  0.005427351    3.600    0.722
        39 -11.0418     22.8483    156.0328   2.9243328283e+02   5.8414107270e+00   0.01106713  0.009632751  22.56  0.000525117    1.161    0.139
        40 -12.5518    134.6824    109.6459   2.9085252283e+02   5.7343478229e+00   0.05311498  0.007798101 -63.52  0.002456386    7.616    0.869
        41 -14.2355    143.9757    144.2966   2.9095183120e+02   5.2779986239e+00   0.04596022   0.02365502 -83.19  0.003582194    3.083    0.676
        42 -12.5672    173.8792    148.4894   2.9062886566e+02   5.0559497641e+00   0.01783868   0.01498334  50.76  0.001827244    1.248    0.199
        43 -10.4044     21.8985    242.3163   2.9295790282e+02   4.8435627952e+00   0.01157025  0.008100014 -65.53   0.00122276    1.443    0.307
        44 -10.8786    138.6781    246.3117   2.9162308901e+02   4.1232102784e+00   0.01020168  0.008733496  79.02  0.000446956    1.294    0.227
        45  -9.4648    131.4301    236.0098   2.9164592519e+02   4.2848491019e+00   0.01969593  0.008918424 -62.12  0.001692755    2.173    0.540
        46 -10.3934      1.5991    140.0513   2.9258575974e+02   6.1495204776e+00  0.009076114  0.008027074 -58.77 0.0004747674    1.117    0.105
        47 -10.9149    126.5119    236.1938   2.9170422537e+02   4.3111497053e+00   0.01799447  0.007956656 -52.09   0.00124214    2.151    0.535
        48 -11.1577      6.9902    138.5009   2.9251364392e+02   6.1365244475e+00   0.01479724   0.01191361  23.48 0.0009248127    1.258    0.205
        49  -9.8223     11.3582    138.2526   2.9246122458e+02   6.1142709187e+00  0.006795257  0.004966977 -19.54 0.0003647534    1.610    0.379
        50 -11.5936     27.2929    136.2221   2.9226328864e+02   6.0461065244e+00   0.01746075  0.009912613  14.25  0.001601619    2.072    0.517
        51 -13.6769    135.7553    128.2420   2.9095142847e+02   5.5121302295e+00   0.05710297    0.0135605 -66.31  0.003107274    5.628    0.822
        52 -12.6052    160.7154    128.0432   2.9065958292e+02   5.3697677709e+00   0.01878709   0.01571921  79.31   0.00210171    1.344    0.256
        53 -11.1470    201.3126    232.3309   2.9081156354e+02   3.9230276037e+00  0.007085293  0.004880216 -29.26 0.0004422562    1.675    0.403
        54 -11.9535    140.4238    120.7586   2.9085222716e+02   5.5720069752e+00    0.0133179  0.009881373  56.99 0.0007173574    1.513    0.339
        55 -10.1886     25.6223    230.2757   2.9284299820e+02   4.9621416712e+00  0.008041536  0.006058181 -52.14 0.0001934745    1.299    0.230
        56 -10.7545     25.4132    225.0283   2.9281423189e+02   5.0243655261e+00  0.009532485  0.006190583 -57.11 0.0006000866    1.494    0.330
        57 -10.8474    167.4740    112.5720   2.9048815546e+02   5.5102302490e+00   0.01375421  0.008844721  72.65  0.001280382    2.163    0.538
        58  -8.2407     16.3793    250.4960   2.9307071562e+02   4.7802095068e+00  0.006506737  0.006297332 -77.36 0.0002002426    1.049    0.047
        59 -10.9042    205.2430    110.1734   2.9003420198e+02   5.3187842521e+00   0.01389895  0.009875918  22.81 0.0009470472    1.440    0.306
        60 -10.1264     22.3486    221.3008   2.9282774559e+02   5.0853557027e+00  0.007057951   0.00492528 -25.36 0.0007038227    1.689    0.408
        61 -12.8120     11.9160    205.7698   2.9285686433e+02   5.3260141787e+00   0.02816718   0.01761229   5.99  0.002692505    1.995    0.499
        62 -12.6490    161.4642    197.5682   2.9106701353e+02   4.5577433493e+00   0.01938605   0.01423672  78.00  0.001825434    1.681    0.405
        63 -12.2900    163.8127    202.9962   2.9107214582e+02   4.4810720443e+00    0.0156695   0.01197816  81.59 0.0006579045    1.562    0.360
        64 -12.6724    157.5813    201.8484   2.9113776545e+02   4.5304981255e+00   0.02849899   0.01700986  63.50  0.001762101    2.321    0.569
        65 -10.0539    159.8871    247.1827   2.9138170986e+02   3.9903924631e+00  0.009368822  0.007297037 -39.08 0.0005363979    1.322    0.244
        66 -11.8326    133.8546    246.4916   2.9168024883e+02   4.1490134063e+00   0.01103165  0.008855044 -57.64 0.0003071415    1.224    0.183
        67 -13.0521    167.1901     33.6708   2.9001774637e+02   6.4275105262e+00   0.02080544    0.0169283 -47.54 0.0008999764    1.217    0.178
        68 -10.9897     13.4404     59.8872   2.9196881036e+02   7.0128040745e+00   0.01090138  0.008843407  41.63 0.0004302337    1.254    0.203
        69 -10.4934    144.0752     33.8148   2.9028801993e+02   6.5600581887e+00   0.01037841  0.008508247  52.64 0.0007745704    1.295    0.228
