#   1 NUMBER                 Running object number                                     
#   2 MAG_AUTO               Kron-like elliptical aperture magnitude                    [mag]
#   3 X_IMAGE                Object position along x                                    [pixel]
#   4 Y_IMAGE                Object position along y                                    [pixel]
#   5 X_WORLD                Barycenter position along world x axis                     [deg]
#   6 Y_WORLD                Barycenter position along world y axis                     [deg]
#   7 A_WORLD                Profile RMS along major axis (world units)                 [deg]
#   8 B_WORLD                Profile RMS along minor axis (world units)                 [deg]
#   9 THETA_WORLD            Position angle (CCW/world-x)                               [deg]
#  10 FWHM_WORLD             FWHM assuming a gaussian core                              [deg]
#  11 ELONGATION             A_IMAGE/B_IMAGE                                           
#  12 ELLIPTICITY            1 - B_IMAGE/A_IMAGE                                       
         1 -13.3581    233.5918     23.6973   6.0785029423e+00   2.4052828950e+01     0.845328    0.7091941 -54.32  0.004599563    1.022    0.021
         2 -10.4486     71.6133      7.1886   2.7109778055e+01   6.5488059700e+01    0.2591692    0.1004779  58.01  0.001021475    2.646    0.622
         3 -10.3869     20.6644      4.6765   5.1230858277e+01   7.4575073960e+01    0.1284072    0.0798392 -10.57 0.0007050878    1.713    0.416
         4 -10.4746     69.2212    245.7940   8.2193006445e+01   1.6204452673e+01    0.3347431    0.2168774  82.29  0.001063693    1.734    0.423
         5  -9.6919    139.3175    250.3158   6.8968181586e+01   6.2398884996e+00    0.1127822   0.07875425  10.47 0.0007038481    1.652    0.395
         6  -9.6986    101.0445    250.2352   7.6354426167e+01   1.1431307441e+01     0.169347    0.1325916  27.21 0.0006861849    1.272    0.214
         7  -9.3443     74.8950    250.1019   8.1404304807e+01   1.4797246875e+01    0.1259881    0.1203726 -86.76 0.0008126281    1.365    0.267
         8  -9.3913     75.9177    244.9459   8.0823344887e+01   1.5518521114e+01    0.2798207    0.1375895 -59.48 0.0007899275    2.513    0.602
         9 -15.0279     26.5108    175.9322   8.6458542505e+01   3.4833484123e+01     3.333533     1.280386  71.70   0.01327594    3.182    0.686
        10 -14.4448     31.4508    246.7464   8.9443007097e+01   2.0328175911e+01      0.88916    0.5976083  -0.45  0.005241249    3.121    0.680
        11 -18.6219     10.6373    225.3444   9.2502237249e+01   2.6207054571e+01     6.364084     3.112594 -82.84      0.02632    1.989    0.497
        12  -9.9460    176.1577    230.8224   5.9462112045e+01   3.7625295858e+00    0.1632945    0.1202777   7.77 0.0005076783    1.316    0.240
        13 -10.9521     93.6520    238.1041   7.6723372801e+01   1.4368564999e+01    0.2637259    0.1947589 -66.16  0.001645761    1.666    0.400
        14 -11.6865    148.3287    228.2058   6.4544049114e+01   8.2026810512e+00    0.2578665    0.2292317 -29.92  0.001817943    1.347    0.258
        15 -12.3889     97.5287    222.8529   7.4435359201e+01   1.6475386165e+01    0.5446389    0.4481459 -67.60  0.002804993    1.447    0.309
        16  -8.8373    215.0000    227.0074   5.1808797128e+01  -1.1526620447e+00     0.163329   0.06105578 -35.91 0.0007915862    2.893    0.654
        17 -11.8193     81.3341    220.6926   7.7671406020e+01   1.9080781978e+01    0.7104777    0.3091902  39.87  0.002328099    1.805    0.446
        18 -11.4756     89.8556    224.8371   7.6257549122e+01   1.7178316369e+01     0.463788    0.2974708  83.23  0.002100378    1.991    0.498
        19 -11.2292     90.0380    217.3116   7.5468824131e+01   1.8525367392e+01    0.4015004    0.2749343  17.73  0.001473501    1.806    0.446
        20 -10.4245     71.6240    224.8410   8.0094438688e+01   1.9580937069e+01    0.3037695    0.1305653  38.56  0.001267792    1.820    0.451
        21 -10.4130    174.8169    223.1600   5.8625021415e+01   5.0304127956e+00    0.1703684    0.1243947  10.86 0.0005011605    1.316    0.240
        22 -10.7189    135.4556    237.6906   6.8285539740e+01   8.6263678673e+00    0.1875043    0.1224263 -60.41  0.001138237    2.097    0.523
        23 -10.1307    118.2791    221.6229   6.9905897325e+01   1.3712841325e+01    0.2018368    0.1579166  51.24 0.0005001441    1.202    0.168
        24 -10.3555    139.0332    215.8435   6.4805198672e+01   1.1572580517e+01    0.2575648    0.1852577 -55.01 0.0008778573    1.724    0.420
        25  -9.9450     67.0851    221.2235   8.0751577365e+01   2.0827244289e+01    0.1806899    0.1525671  85.30 0.0005160041    1.243    0.196
        26 -10.0890    125.3102    209.1538   6.6833023888e+01   1.4836059834e+01    0.2323116      0.10902 -45.63  0.001080734    2.574    0.611
        27  -9.1945    132.4840    208.5441   6.5198821562e+01   1.3831453670e+01    0.1303378    0.1095302  34.84 8.120214e-05    1.006    0.005
        28 -10.6227    131.1060    203.3320   6.4769680648e+01   1.4972904903e+01    0.2188222    0.1916546 -66.38 0.0006233241    1.376    0.273
        29  -9.8190    136.7640    200.7778   6.3163677447e+01   1.4528591670e+01    0.1763173    0.1437241  56.98 0.0007599867    1.332    0.249
        30  -9.8074    210.9420    198.6704   4.7925013604e+01   3.0897493635e+00    0.1718927    0.1347163  19.65 0.0004532214    1.102    0.092
        31 -10.8945     68.9735    195.5979   7.7994663719e+01   2.5659011414e+01    0.4108891     0.237031 -62.38  0.002204055    1.875    0.467
        32 -10.2831    194.3229    196.2936   5.0598537222e+01   5.9798620155e+00    0.2225446       0.1564 -59.82  0.001168598    2.448    0.592
        33 -11.0564    101.9306    195.1452   7.0242467076e+01   2.1071233142e+01    0.2742488    0.1906812 -54.63  0.001511401    1.633    0.388
        34  -9.6161     72.1875    186.3607   7.6248243220e+01   2.7185384280e+01     0.186778    0.1016842  43.92 0.0005292682    1.590    0.371
        35  -9.1537     78.4206    184.1674   7.4477386043e+01   2.6797551783e+01    0.1709155    0.1207698 -89.93 0.0004248341    1.556    0.357
        36 -10.8869    124.9881    243.5195   7.1008307812e+01   9.2161430188e+00    0.2535359    0.1617084 -55.02   0.00109409    2.024    0.506
        37 -10.4054     97.4992    180.6752   6.9352461098e+01   2.4726214246e+01       0.3217     0.196913  55.84 0.0008654753    1.687    0.407
        38  -9.3917     73.2247    179.1544   7.5162014615e+01   2.8611299010e+01    0.1895276    0.1360739  67.54 0.0005103173    1.384    0.278
        39 -10.4119    172.7184    177.4202   5.1548005486e+01   1.2592395632e+01    0.2709617    0.1661144 -55.03  0.001282027    2.208    0.547
        40  -9.8406     96.8425    175.8439   6.8827808369e+01   2.5860772492e+01    0.1895477    0.1844965  20.26 0.0003769396    1.152    0.132
        41  -9.5941     74.9435    175.2399   7.4252828860e+01   2.9239203975e+01    0.2210189    0.1694007  83.86 0.0009836062    1.342    0.255
        42 -11.0491     73.7045    169.2606   7.3810331787e+01   3.0756071522e+01    0.4788684    0.2420193  56.73   0.00150021    2.167    0.538
        43 -10.4085    104.7487    173.0296   6.6439511452e+01   2.5206882953e+01    0.1903259    0.1803458  79.57 0.0004765459    1.090    0.083
        44  -9.9977     68.8259    172.3858   7.5460655949e+01   3.0720087209e+01     0.216597    0.1669323  82.64 0.0006188298    1.296    0.229
        45 -10.9795    179.7827    168.4643   4.8395135711e+01   1.2886751211e+01    0.4670683    0.3443535 -66.52  0.002337964    2.128    0.530
        46  -9.5828    139.7644    171.5922   5.7750539136e+01   1.9507599247e+01    0.1959033     0.122457  47.14 0.0003355985    1.564    0.361
        47 -11.4331     81.4602    165.7458   7.1311870966e+01   3.0438957807e+01    0.5600686    0.3435602  10.28  0.002303985    2.696    0.629
        48 -11.7049     89.6439    164.9130   6.9051040343e+01   2.9390146091e+01    0.4039044    0.2598152  32.80   0.00132112    1.537    0.349
        49 -11.3177     85.9135    160.1610   6.9314833940e+01   3.1044277249e+01    0.3516849    0.2852068 -86.79 0.0005342892    1.291    0.225
        50 -10.0032    110.5985    166.8458   6.3987630450e+01   2.5567410762e+01     0.193683    0.1360611 -74.34 0.0009451618    1.733    0.423
        51 -10.4417    101.5434    166.8713   6.6284057262e+01   2.7063529737e+01    0.2286241    0.1802354  60.40 0.0005161663    1.275    0.216
        52  -9.8298     40.1567    166.6396   8.2250666254e+01   3.5542080163e+01    0.2469539    0.1541359  62.87  0.001020905    1.506    0.336
        53 -12.9687     71.8455    159.1874   7.2951628070e+01   3.3335668721e+01    0.9020681    0.6396605 -11.51  0.004314035    2.266    0.559
        54 -12.5639     47.9881    121.6081   7.4429704649e+01   4.5577290137e+01    0.9907489    0.4804472 -88.49  0.003210608    2.992    0.666
        55 -13.7354     67.7552    131.5181   6.9852998709e+01   4.0561043480e+01     1.984962    0.9643414  63.65    0.0069347    3.341    0.701
        56 -12.8122     58.0599    126.5642   7.2018611215e+01   4.3100215975e+01     0.905435    0.5849842 -82.61  0.004355546    1.676    0.403
        57 -11.8305     55.0877    147.8159   7.6064517104e+01   3.8262525294e+01    0.5293952    0.4310282 -14.00  0.002781519    1.651    0.394
        58 -11.1649     55.3842    141.9750   7.5184344733e+01   3.9643755315e+01    0.3517631    0.3185067   3.28 0.0004202988    1.342    0.255
        59 -12.8831     31.6708    109.5727   7.8035436577e+01   5.0310562510e+01    0.9629642    0.3365948  45.55  0.001186873    3.152    0.683
        60 -12.8350     24.2430    105.2780   8.0005373426e+01   5.2039040014e+01    0.7561316    0.4300347 -28.66  0.002951876    2.372    0.578
        61 -11.5288     81.1280    149.9305   6.9016926171e+01   3.4154565609e+01    0.7119403    0.2921689  54.70  0.002142926    3.316    0.698
        62 -13.7544     69.3813    144.5347   7.1492662653e+01   3.7161669408e+01     1.314217    0.6946633  58.92  0.002774948    2.257    0.557
        63 -10.2726    100.1528    244.0595   7.5970284759e+01   1.2524584489e+01    0.2609908    0.1779694  73.64  0.001392695    1.800    0.444
        64 -10.7845    147.0121    243.5392   6.6712034945e+01   6.1306528635e+00    0.1870808    0.1636244  72.89 0.0007413549    1.561    0.359
        65 -12.5383     64.7525    154.4583   7.4241127838e+01   3.5422447096e+01    0.4751456     0.373211  37.92  0.001034078    1.263    0.208
        66  -9.4029    167.4833    156.0547   4.8517307380e+01   1.7372281156e+01    0.2038897    0.1394684 -40.70 0.0004645568    1.517    0.341
        67  -9.8374     92.5095    155.9557   6.6885112913e+01   3.0974869415e+01    0.2060966    0.1808043  49.54 0.0003264843    1.068    0.064
        68 -11.0629     60.6638    153.2808   7.5217258366e+01   3.6242081112e+01    0.3258628    0.2034944 -84.37 0.0006818366    1.717    0.418
        69 -12.2650     87.8293    148.7192   6.6954640487e+01   3.3399078871e+01    0.6456218    0.3681582 -62.23  0.001421881    1.814    0.449
        70 -12.2415     91.5969    143.7855   6.5042212318e+01   3.3948548341e+01    0.4343368    0.3521844  37.36  0.002090477    1.219    0.179
        71 -11.4300    133.5726    145.3536   5.4193955411e+01   2.6027395653e+01     1.095234    0.2713218 -53.74  0.002672682    6.025    0.834
        72  -9.7521     39.4386    148.8351   8.0632150753e+01   3.9824378985e+01    0.2340828    0.1516148 -68.83  0.001023286    1.450    0.311
        73 -10.9204    108.7626    145.2684   6.0605180677e+01   3.0662717792e+01    0.2961489    0.2836147 -74.49 0.0006691812    1.075    0.070
        74  -9.8988    148.0184    144.9979   5.0613753121e+01   2.3286230813e+01    0.1760556    0.1710249  -0.16 0.0003956365    1.040    0.038
        75 -10.0964     46.9482    144.0477   7.7920012470e+01   4.0151060497e+01    0.3369359    0.1862984  71.17  0.001514581    2.131    0.531
        76 -10.9376     36.7629    142.6181   8.0705567471e+01   4.1611559671e+01    0.3244571    0.2094748 -79.53  0.001086184    1.438    0.304
        77 -10.5079     27.1883    138.1538   8.3020862109e+01   4.3633649378e+01    0.4962594    0.1566019  44.38  0.001961134    2.956    0.662
        78  -9.5762    128.1356    138.1795   5.4055910598e+01   2.8619921604e+01    0.2029482    0.1780584  80.43 0.0004547212    1.294    0.227
        79 -10.0225     80.8411    138.1881   6.7116227225e+01   3.6997181033e+01    0.2161124    0.1837295  71.68 0.0005265377    1.185    0.156
        80  -9.8178    242.1189    136.6882   3.0756366336e+01   6.9783792654e+00     0.223412     0.150045 -36.88 0.0006857162    1.390    0.281
        81 -12.1486    104.7306    131.8004   5.9003776043e+01   3.4478026592e+01    0.6511676    0.4417796 -24.83  0.002108693    2.101    0.524
        82 -11.5102     90.5838    132.3965   6.3187630746e+01   3.6812568272e+01    0.2612782    0.2560043 -53.75 0.0002610503    1.081    0.075
        83 -11.0727     35.4749    126.0723   7.9084425151e+01   4.5819284387e+01    0.4159269    0.2442079  75.94  0.001827425    1.917    0.478
        84 -10.2957     40.5078    128.5168   7.7828869418e+01   4.4690522471e+01    0.2641786    0.2068618  62.75  0.000645778    1.256    0.204
        85  -9.7059    151.1777    131.1429   4.6794970585e+01   2.5458364012e+01    0.1992023    0.1791537 -87.37 0.0004126627    1.309    0.236
        86 -12.4212    133.7733    123.6510   4.9319275478e+01   3.0629562350e+01    0.7558854    0.4453827 -69.49  0.002678613    2.927    0.658
        87 -10.5953    111.8311    126.4163   5.5842720296e+01   3.4393799869e+01    0.3121324    0.2483004  12.91 0.0009964068    1.537    0.349
        88 -11.3043    116.5774    125.2466   5.4263489960e+01   3.3742668544e+01     0.380537    0.2805945 -47.57  0.001310235    1.385    0.278
        89  -9.9591    146.7913    123.9956   4.6161221123e+01   2.7834353027e+01    0.2557254    0.1838008 -77.83  0.001087832    2.097    0.523
        90 -10.3985     99.3222    121.3595   5.8299796825e+01   3.7900406859e+01    0.2970819    0.2355329  -7.53  0.000815807    1.670    0.401
        91 -11.0992     58.2981    119.8653   7.0789928846e+01   4.4734576682e+01    0.5004437    0.2144667  45.85    0.0019612    2.463    0.594
        92 -11.3655     43.6464    130.3127   7.7098074067e+01   4.3902827448e+01    0.4835393    0.3160341  71.83  0.001762629    1.649    0.393
        93 -11.3362     15.4973    117.1070   8.4424422700e+01   4.9776762026e+01    0.2544836     0.198121 -81.20 0.0007261411    1.105    0.095
        94 -10.3670    238.6327    115.7697   2.6798751194e+01   1.0615331821e+01    0.1920299     0.104562 -39.71  0.000871538    1.667    0.400
        95  -9.8134    108.0064    116.2806   5.4586024122e+01   3.7451348526e+01    0.2113966    0.1940348  48.23 0.0003015657    1.077    0.072
        96 -10.8498     59.1821    111.8990   6.9015935555e+01   4.6600301387e+01    0.3804486    0.1989481  40.49  0.001670711    1.936    0.483
        97  -9.4979    104.6808    109.0093   5.3784831317e+01   3.9766752713e+01     0.212619    0.1917515 -54.48 0.0004050568    1.112    0.101
        98 -10.5711    115.7911    108.6042   5.0452389755e+01   3.7640332946e+01     0.227196    0.1425177  52.36 0.0009566429    1.693    0.409
        99 -10.4108    102.9550    238.7255   7.4906919706e+01   1.3011235939e+01    0.2251396    0.1700461 -61.88 0.0008152205    1.657    0.396
       100 -11.3110     23.7690     98.6156   7.9201835526e+01   5.3739386492e+01    0.5246917   0.07981721  29.31  0.001668898    4.816    0.792
       101 -10.7130     23.0392     94.0208   7.8761110603e+01   5.4940908810e+01    0.2304213    0.1855016  54.01 0.0007711672    1.341    0.254
       102 -10.8301     27.1842     95.8060   7.7490826215e+01   5.4153444587e+01    0.2867231    0.1957636 -83.22 0.0008411055    1.436    0.303
       103 -11.0919     38.1471     99.8612   7.4135235012e+01   5.2103933953e+01    0.3480772    0.2663022  12.64  0.001089608    1.536    0.349
       104 -11.9181     33.0225     97.8844   7.5669438905e+01   5.3105916930e+01    0.4937789    0.3470782  44.03  0.001456538    1.526    0.345
       105 -10.5168     60.1498     94.9161   6.5057845815e+01   5.0661251204e+01    0.2172526    0.1886123  79.14 0.0004830443    1.252    0.201
       106  -9.4888     64.9672     94.2921   6.3167683493e+01   5.0121706426e+01    0.1883774    0.1852124 -52.58  0.000264303    1.037    0.036
       107  -9.8404     49.6680     90.2931   6.7889959697e+01   5.3171086469e+01    0.1419746    0.1046616  67.82 0.0002684241    1.634    0.388
       108  -9.0321     90.9736     88.2807   5.2546616852e+01   4.7142572929e+01    0.1808346    0.1336883  41.30 0.0003421398    1.369    0.270
       109 -10.3947     33.9193     87.3221   7.3358334707e+01   5.5639832823e+01    0.3054556    0.1459275  41.80  0.001349114    2.302    0.566
       110  -9.9498     56.5271     84.1982   6.3796140557e+01   5.3756314364e+01    0.2849617     0.172823  50.41  0.001292416    1.940    0.485
       111 -12.4971    107.3922    231.7617   7.3303291145e+01   1.3553016134e+01    0.5565534    0.3686303 -52.42  0.002177208    1.879    0.468
       112 -12.0287    114.5105    229.1460   7.1554809449e+01   1.2984628741e+01    0.3784767    0.2442907 -58.95  0.002284291    1.923    0.480
       113 -10.4486     69.6577    232.5412   8.1121890007e+01   1.8436664153e+01    0.3005211    0.1798001  37.15 0.0009176972    1.381    0.276
       114 -11.4026    185.8748     62.7779   2.1724362239e+01   2.9945670911e+01    0.3410142    0.3048948 -68.43 0.0007881576    1.116    0.104
       115  -8.9339     83.3049     64.6261   4.7776992215e+01   5.3750463060e+01    0.1502481    0.1188579 -85.67 0.0007030677    1.764    0.433
       116 -13.3224    202.3439     50.6325   1.6033079634e+01   2.7763933638e+01     1.204592    0.8548698  35.09  0.004524583    1.790    0.441
       117 -12.5062    208.5630     45.8978   1.4016007983e+01   2.6947106195e+01    0.6227026    0.5594539 -30.68  0.001763512    1.156    0.135
       118 -11.3002     11.0787     50.1409   7.5422020979e+01   6.6307220811e+01    0.2037107    0.1464669 -39.15 0.0009021927    1.249    0.199
       119 -10.2691     17.0087     40.9680   6.9698559995e+01   6.7951571339e+01    0.1527558    0.1305662 -37.20 0.0004288205    1.027    0.026
       120 -10.4582    145.1008    248.0919   6.7611257817e+01   5.7545901936e+00    0.1729803    0.1332631  17.33 0.0004920401    1.248    0.199
       121 -10.2926     60.8566     21.1791   3.8584485238e+01   6.5840879829e+01    0.1922006    0.1886865  59.60 0.0008933315    1.275    0.216
       122 -12.7105    132.8477    230.1424   6.7911819935e+01   1.0173000125e+01    0.5037724    0.3381314  10.47   0.00286725    1.884    0.469
       123  -9.9216     57.0955    247.6781   8.4657181833e+01   1.7335584691e+01    0.1638928     0.141414 -87.07 0.0004963141    1.372    0.271
