#   1 NUMBER                 Running object number                                     
#   2 MAG_AUTO               Kron-like elliptical aperture magnitude                    [mag]
#   3 X_IMAGE                Object position along x                                    [pixel]
#   4 Y_IMAGE                Object position along y                                    [pixel]
#   5 X_WORLD                Barycenter position along world x axis                     [deg]
#   6 Y_WORLD                Barycenter position along world y axis                     [deg]
#   7 A_WORLD                Profile RMS along major axis (world units)                 [deg]
#   8 B_WORLD                Profile RMS along minor axis (world units)                 [deg]
#   9 THETA_WORLD            Position angle (CCW/world-x)                               [deg]
#  10 FWHM_WORLD             FWHM assuming a gaussian core                              [deg]
#  11 ELONGATION             A_IMAGE/B_IMAGE                                           
#  12 ELLIPTICITY            1 - B_IMAGE/A_IMAGE                                       
         1 -13.2129    183.4199     23.4766   7.3880679928e+01   3.6350279965e+01     1.572909     1.098813 -16.76  0.005819918    1.406    0.289
         2 -13.1598    190.3529     16.4428   7.0755684240e+01   3.5330331104e+01     1.234007    0.8990012 -40.57  0.004371508    1.332    0.249
         3 -13.2743    196.8815      8.5237   6.7582745229e+01   3.4450543801e+01     1.586423    0.7666708  51.55  0.001207888    2.124    0.529
         4 -10.9115    146.2341    240.3901   1.2985501993e+02   1.0175165133e+01    0.3182255    0.1413595  41.80 0.0003301717    1.841    0.457
         5 -10.1050    143.7962    249.4250   1.3121145179e+02   9.3858933907e+00    0.2018595    0.1398032  42.89  0.001442095    1.294    0.227
         6 -10.6716    134.4518    249.4103   1.3282168192e+02   1.0531074254e+01     0.360202    0.1436234  40.94  0.002112481    1.905    0.475
         7 -12.1206    126.2095    242.1530   1.3357426130e+02   1.2452639729e+01    0.6237482    0.3235663 -50.63  0.004091108    2.524    0.604
         8 -11.1621    115.4943    249.7493   1.3613425756e+02   1.2764709322e+01    0.4678916    0.1884896  34.36   0.00277098    1.869    0.465
         9 -10.8601    109.5732    248.3262   1.3704352498e+02   1.3645794484e+01      0.36615    0.2168172  39.21  0.002002371    1.240    0.194
        10 -16.3727     25.1755    247.9542   1.5135892562e+02   2.2430869424e+01     4.042972     2.364732  18.79   0.02022731    2.345    0.574
        11 -10.4931    142.6159    228.4954   1.2920039913e+02   1.2161542275e+01    0.2405366    0.1758704 -81.25  0.001210479    2.419    0.587
        12 -10.2130    119.1827    236.3068   1.3427750629e+02   1.4094171274e+01    0.2077625    0.1513586  86.89  0.001167327    2.036    0.509
        13 -10.1523    164.1311    225.7167   1.2495716451e+02   9.6657820324e+00    0.1924029    0.1471261 -43.34 0.0006433522    1.719    0.418
        14  -8.6416    163.5119    221.4751   1.2453058350e+02   1.0285414164e+01    0.1140877   0.08754826  25.44 6.796041e-05    1.004    0.004
        15 -11.7254    134.6846    235.5186   1.3140099645e+02   1.2258731532e+01    0.2596289    0.2490753 -79.17  0.002225557    1.404    0.288
        16 -10.2630    116.6734    224.3550   1.3357324044e+02   1.6087848017e+01    0.2623648    0.1852034  40.53   0.00186769    1.131    0.116
        17 -11.2743    142.2574    221.1651   1.2842078546e+02   1.3197991554e+01    0.3042964    0.2666285  43.90  0.002348805    1.234    0.189
        18  -9.2208    149.8529    222.1842   1.2712981563e+02   1.2040499331e+01    0.1474542    0.1098119  14.87 0.0002267555    1.301    0.231
        19  -9.1168    110.9691    222.5059   1.3446553581e+02   1.7079833174e+01    0.1708266   0.08832922  34.60  0.001019973    1.558    0.358
        20  -9.5712    126.5712    220.5850   1.3130836997e+02   1.5358035468e+01    0.2343476   0.09148731  24.95 0.0009624604    3.585    0.721
        21 -10.1011     90.7787    219.2302   1.3801036747e+02   2.0057779040e+01     0.284619    0.1531504  60.88  0.001640516    2.140    0.533
        22  -9.4802    177.2529    218.0432   1.2158145148e+02   8.8373850654e+00    0.1568855    0.1337749  70.63 0.0008870122    2.010    0.503
        23  -8.3196    155.9920    218.2104   1.2549711851e+02   1.1737548818e+01    0.1503205   0.07364986  35.17 0.0002926608    1.618    0.382
        24  -9.4578    134.0933    217.8035   1.2956684164e+02   1.4762397818e+01     0.175239    0.1285697  45.80 0.0006340373    1.280    0.219
        25  -9.0179    233.0648    216.3422   1.1179091617e+02   1.5423380108e+00    0.1543568     0.105221  19.86 0.0004091706    1.119    0.106
        26  -9.2254    151.2732    213.5001   1.2577825609e+02   1.3027739009e+01    0.2580931    0.1547749 -34.47  0.001006458    2.044    0.511
        27 -10.7096    101.5649    212.1080   1.3525184009e+02   1.9863401394e+01    0.3555613    0.2380215  45.40  0.002387575    1.250    0.200
        28  -9.4161    181.1356    213.6740   1.2026982805e+02   8.8408800231e+00    0.2309384   0.08378316  41.44  0.001088302    2.505    0.601
        29  -9.1375    141.0381    212.6488   1.2762149952e+02   1.4560559707e+01    0.1876419    0.1191448  43.77  0.001159304    1.425    0.298
        30 -10.2636    121.0430    244.0637   1.3466495581e+02   1.2834989331e+01    0.2521431    0.1151235  48.80  0.001205134    2.108    0.526
        31 -18.0894      2.4473    136.0304   1.5132717388e+02   4.4775926421e+01     16.99679     1.316417 -81.00   0.03681595   11.935    0.916
        32  -9.0512    173.0945    238.8837   1.2499273908e+02   6.9220563454e+00    0.1520454    0.1202212  32.55 0.0005067222    1.225    0.184
        33  -9.2855    125.9054    205.4200   1.2969311733e+02   1.7718620358e+01    0.1732491    0.1564015  60.65 0.0006139197    1.247    0.198
        34  -8.3810    114.4829    206.4971   1.3209623561e+02   1.9088441192e+01    0.1150332   0.09569038  35.66 -4.388693e-05    1.031    0.030
        35  -9.7418     93.5044    204.7412   1.3612821554e+02   2.2076064784e+01    0.2936806    0.2004186 -49.35  0.001928295    1.791    0.442
        36  -9.7935    247.5050    204.9987   1.0769257663e+02   8.0355958379e-01     0.156108   0.09120601 -19.24 0.0006420583    1.577    0.366
        37  -8.8809    175.1424    205.3887   1.2017124944e+02   1.0750336615e+01    0.1588393   0.09267469  41.21 0.0003361022    1.599    0.375
        38  -9.8470    166.8112    202.7821   1.2135712272e+02   1.2305370067e+01    0.1792432    0.1470234  24.35 0.0005374343    1.053    0.050
        39  -8.6942    169.5416    200.4151   1.2048942209e+02   1.2233829473e+01    0.1621849    0.1155828 -35.35 9.805782e-05    1.613    0.380
        40  -7.9764    107.3146    205.2757   1.3339819977e+02   2.0227455384e+01    0.1070376   0.08386111   6.74 0.0003408813    1.564    0.360
        41  -9.9106    102.9097    203.2363   1.3406846580e+02   2.1133818924e+01    0.2338354    0.1933781  -1.16  0.001050923    1.522    0.343
        42 -10.0300     71.4626    202.4406   1.4038384542e+02   2.5099518150e+01    0.4155257     0.146148  48.19  0.002020003    2.496    0.599
        43  -9.4087    122.9941    200.9743   1.2973564241e+02   1.8819030370e+01    0.2222482    0.1329183  35.80 0.0008729409    1.396    0.284
        44  -9.2925    250.6065    199.6586   1.0632116735e+02   9.2724717380e-01    0.2042543   0.08921239 -20.63  0.001133122    2.167    0.539
        45 -10.0159    197.1997    199.9194   1.1529680254e+02   8.2641272636e+00    0.3520328    0.1633606  30.26   0.00155265    1.848    0.459
        46  -9.4041    141.4835    198.3373   1.2567150704e+02   1.6624189534e+01    0.2485238      0.17103  -4.60  0.001117389    1.952    0.488
        47  -8.6741     58.4095    199.2407   1.4278349175e+02   2.7106200594e+01    0.2020589   0.09793754 -84.55 0.0009531663    2.452    0.592
        48 -10.0522     56.8724    193.6190   1.4267392441e+02   2.8288942692e+01    0.3003717    0.1820129 -70.96  0.001666333    1.743    0.426
        49  -9.2750     79.2059    182.0786   1.3683580852e+02   2.7887432173e+01    0.2511887    0.1510676  50.94 0.0004031499    1.528    0.346
        50 -11.1908     76.7866    194.2191   1.3855929406e+02   2.5938471631e+01    0.3765162    0.2467733 -43.96  0.002321368    2.008    0.502
        51 -11.1775     80.8485    187.4517   1.3703376877e+02   2.6682843870e+01    0.2826274     0.243413  -3.14 0.0009852583    1.497    0.332
        52  -9.2887    113.7645    195.8654   1.3100271859e+02   2.0920814167e+01    0.2302635     0.122296  52.01  0.001207735    2.009    0.502
        53  -9.3203     89.0602    204.7611   1.3702812178e+02   2.2621238846e+01     0.225437    0.1183539  40.09 0.0008081502    1.551    0.355
        54 -10.4347    159.9825    194.0179   1.2138006358e+02   1.4557456543e+01    0.3035353    0.2027116  40.12 0.0004127714    1.366    0.268
        55 -10.1255    155.4463    232.0513   1.2728611582e+02   1.0024496909e+01    0.2043201    0.1241603  33.84 0.0003971595    1.256    0.204
        56  -9.4912     62.0148    193.4321   1.4158644899e+02   2.7767037424e+01    0.3235974    0.1641274  85.10  0.001704488    2.549    0.608
        57  -9.1106     46.5942    193.0752   1.4476591833e+02   2.9451862634e+01     0.241717    0.1555262 -48.00  0.001068913    2.085    0.520
        58  -8.8110    102.4352    192.0211   1.3291844064e+02   2.3103855980e+01    0.3307969     0.127226  53.27  0.001309021    3.580    0.721
        59  -9.8695    191.5855    191.2648   1.1491299382e+02   1.0193897534e+01    0.2287472       0.1856  19.77 0.0005691499    1.086    0.079
        60  -9.2049    175.0204    191.0221   1.1799228842e+02   1.2726013958e+01    0.1863077    0.1493205  19.82 0.0004464665    1.015    0.015
        61 -10.2876    250.3009    187.0440   1.0418514615e+02   2.2399164630e+00    0.3039913    0.1179948 -19.88  0.001478699    2.621    0.618
        62  -9.8369    245.3998    227.6013   1.1156241499e+02  -1.0449954295e+00    0.1670816   0.08319835 -38.43  0.000960374    3.280    0.695
        63  -9.8613     67.8236    186.0701   1.3971490386e+02   2.8482606649e+01    0.1930636     0.148684  35.70 0.0004188557    1.240    0.193
        64  -9.6967     89.6902    184.8468   1.3483703814e+02   2.6055740348e+01     0.258972      0.15315  55.38 0.0004129505    1.719    0.418
        65  -8.8014     52.5575    198.2143   1.4389995262e+02   2.7906264483e+01    0.1676647    0.1173572  33.32 0.0008175766    1.375    0.273
        66  -9.7846     47.5012    179.8655   1.4361579434e+02   3.1868597063e+01    0.2546167    0.1794939  18.17  0.001297024    1.741    0.426
        67  -9.3596    128.9866    179.1130   1.2553561789e+02   2.1598542690e+01    0.1840663    0.1627702  27.69  0.000345659    1.029    0.028
        68 -10.2156    181.8002    176.8137   1.1429589147e+02   1.3699650985e+01    0.3969834    0.2002989  26.05  0.001551784    2.024    0.506
        69 -10.9791     88.0572    175.8722   1.3416567988e+02   2.7953146605e+01    0.3991524    0.2746738   3.78  0.001846393    2.185    0.542
        70  -8.7514    210.4314    176.6941   1.0894889056e+02   9.2118287447e+00    0.2229982    0.1244664  19.93  0.001171411    1.770    0.435
        71  -8.7049     95.8017    175.4118   1.3236074443e+02   2.7016337506e+01    0.1742444    0.1113939  23.94 0.0009518092    1.708    0.415
        72 -10.1474     75.5257    174.1337   1.3681194834e+02   2.9867558229e+01    0.2932015     0.236925 -53.57  0.001465208    1.400    0.286
        73 -10.8074    248.8139    171.8135   1.0162852806e+02   4.0685979053e+00    0.3546708    0.2404324  40.10  0.002250546    1.750    0.429
        74 -10.2506     47.6261    170.0220   1.4279657373e+02   3.3813571878e+01    0.3565273    0.2042783  75.22  0.002022975    1.829    0.453
        75 -10.6785    152.1763    242.9487   1.2908763459e+02   9.1136178143e+00    0.2498004    0.1646649  57.03  0.001668204    2.115    0.527
        76 -11.5058     94.2719    166.9287   1.3161163408e+02   2.8861948952e+01    0.5553942    0.4281758 -22.14  0.001987494    1.724    0.420
        77 -10.0834     96.9450    159.0390   1.2988039981e+02   3.0059935180e+01    0.3759525    0.2104077 -38.81  0.001125825    2.320    0.569
        78  -8.6711    113.1674    169.4122   1.2760634917e+02   2.5699098216e+01    0.1909594    0.1029345  46.12 0.0007356978    1.783    0.439
        79  -9.0924    107.9647    168.2414   1.2862393630e+02   2.6679657670e+01    0.1841291    0.1563458  19.80 0.0004215387    1.227    0.185
        80  -9.0536     58.9334    167.1139   1.3991575059e+02   3.3204939426e+01    0.1747967    0.1540253  74.61 0.0005513423    1.041    0.039
        81  -9.1459    175.8457    166.1070   1.1353276320e+02   1.6265809536e+01    0.1829676    0.1666007  34.29 -0.000430966    1.256    0.204
        82  -9.5283    128.9032    165.7097   1.2347538517e+02   2.3991313741e+01    0.1977967      0.18699 -55.96 0.0002964718    1.193    0.162
        83  -8.9888     80.0094    164.4903   1.3465638170e+02   3.1232270435e+01    0.1886013   0.08069762  51.80 0.0008101899    2.565    0.610
        84 -11.1432    245.0299    162.0069   1.0033492197e+02   5.7210796972e+00    0.2431789    0.1727822 -10.79  0.001522339    1.162    0.140
        85 -11.4811    242.3208    153.1460   9.8993740509e+01   7.1690544161e+00     0.477454    0.3848099 -60.87   0.00273413    2.600    0.615
        86  -8.9301     63.8454    162.9512   1.3832812157e+02   3.3506434197e+01    0.1626322    0.1542582 -56.30  0.001141328    1.218    0.179
        87 -10.1718     43.3843    161.5337   1.4306412605e+02   3.5986877861e+01    0.2481753    0.1155242  56.07 0.0008800025    2.116    0.527
        88  -8.3091    171.4126    159.1738   1.1312335144e+02   1.8100187835e+01    0.1596179    0.1262533 -45.63  0.000294513    1.518    0.341
        89  -9.8277     82.6431    159.0966   1.3334139948e+02   3.1994138564e+01    0.2102603    0.1690642  31.94 0.0002822373    1.249    0.199
        90 -10.4448     46.0000    157.0167   1.4203383543e+02   3.6678714133e+01    0.2622927    0.1690087 -76.59  0.000984577    1.478    0.324
        91 -10.3766     42.9075    156.3464   1.4272406818e+02   3.7128733943e+01    0.2233191     0.162235 -85.95 0.0004373368    1.279    0.218
        92  -8.6861    115.8824    157.5128   1.2513415809e+02   2.7559842180e+01    0.1880927    0.1211686  35.13 0.0004207549    1.454    0.312
        93  -9.6860     88.9561    156.8795   1.3150583668e+02   3.1608027147e+01    0.1908843    0.1763589 -76.00 0.0002614533    1.116    0.104
        94  -9.0260    134.6815    155.6836   1.2045274171e+02   2.4904431537e+01    0.2320658    0.1588907 -34.12 0.0006128258    1.618    0.382
        95  -9.6453     72.6164    156.2450   1.3542814193e+02   3.3861098638e+01    0.3065243    0.1825918  28.67  0.001636887    1.753    0.430
        96  -9.3105    113.9982    152.2736   1.2471318529e+02   2.8879768971e+01    0.2200029    0.1903545 -54.61 0.0005688668    1.230    0.187
        97 -10.0051    104.6111    150.5864   1.2671630032e+02   3.0655464507e+01    0.3909415    0.2658534 -18.71  0.001910005    2.200    0.545
        98  -9.2286    107.2456    145.9749   1.2529345254e+02   3.1197867794e+01    0.2645497    0.1938561 -22.55  0.001382733    1.763    0.433
        99 -10.5766    249.7420    149.5901   9.7115374974e+01   6.4434579600e+00    0.2521565    0.2205589 -24.39  0.001724239    1.493    0.330
       100  -9.8671     93.1601    150.4542   1.2953074701e+02   3.2354484893e+01    0.2986788     0.213496  23.15  0.001642447    1.543    0.352
       101 -11.4614     57.1628    148.4994   1.3837711583e+02   3.7333323413e+01    0.4776423    0.2872631 -43.33  0.002522317    2.067    0.516
       102 -10.3096     46.7741    150.5621   1.4122410239e+02   3.7987117529e+01    0.2957812    0.1005448  32.43  0.001306502    2.715    0.632
       103  -9.8865    143.1589    148.5128   1.1718110637e+02   2.4798329581e+01    0.3017158    0.2600697  79.58  0.001159617    1.548    0.354
       104 -12.1651     67.7369    143.9362   1.3508903359e+02   3.7105355695e+01    0.7381397    0.4519234  60.00  0.003168424    1.774    0.436
       105 -11.7897     72.1609    137.9397   1.3308711336e+02   3.7883080736e+01    0.8203681    0.5289992  55.97  0.003033519    1.634    0.388
       106 -10.6878    133.6228    142.2864   1.1818370071e+02   2.7614318442e+01    0.7743498    0.2789707 -51.54  0.002805178    3.216    0.689
       107 -11.5331     58.8532    133.9970   1.3613709626e+02   4.0373597887e+01    0.5532094    0.3128495 -77.40  0.001144604    1.834    0.455
       108 -11.1310    248.3481    140.8059   9.5502118660e+01   7.6936131397e+00    0.4619102     0.258509  27.54  0.002511945    1.756    0.430
       109 -10.4145    248.1979    135.8037   9.4460207337e+01   8.3158965708e+00    0.3661726    0.2090975  50.51  0.001920928    2.310    0.567
       110 -11.2770    248.6042    132.2015   9.3621988306e+01   8.6838440215e+00    0.4522204    0.2783784 -24.74  0.002576613    1.402    0.287
       111 -10.9462     26.8133    140.9322   1.4542765384e+02   4.1947883259e+01    0.3559268    0.2037142  66.69  0.001373855    1.689    0.408
       112  -8.5236    194.2889    140.3715   1.0468924955e+02   1.7008623485e+01    0.1718333     0.123955  43.44  0.000391803    1.482    0.325
       113 -11.8277     45.3206    130.5697   1.3943441210e+02   4.2607911022e+01    0.5552101    0.2946532  63.01  0.002086879    2.153    0.536
       114 -12.3553     49.5547    137.8483   1.3913650708e+02   4.0516391671e+01    0.6108047    0.3439117  31.27  0.003260299    1.829    0.453
       115  -9.7986     51.6578    133.1379   1.3799833871e+02   4.1363553983e+01    0.2723978    0.1474106 -71.26 0.0008744434    1.744    0.427
       116  -8.0209    127.6645    139.3322   1.1903292151e+02   2.9214042936e+01    0.1396834    0.1092919  74.37 0.0007052178    1.735    0.424
       117 -10.2202    114.0130    136.2219   1.2181892566e+02   3.2133519575e+01    0.3029835    0.2904378  49.29   0.00145652    1.053    0.051
       118 -11.1952     40.0986    145.4141   1.4241304919e+02   3.9771128297e+01    0.4062638       0.1702  54.92  0.001865087    2.515    0.602
       119  -8.3134    129.9816    131.9952   1.1697085025e+02   3.0267518978e+01    0.1634302    0.1559989   8.33            0    1.009    0.009
       120 -10.9561     66.3619    127.5730   1.3312904456e+02   4.0951749380e+01    0.4637929    0.2290517 -69.32  0.002106962    2.070    0.517
       121 -11.9437     32.0954    126.6072   1.4268537657e+02   4.4755948247e+01    0.4519981    0.2838407  81.13  0.002186228    1.564    0.361
       122  -9.5757    209.8065    125.6614   9.8493597020e+01   1.6338442189e+01    0.2457819    0.1917448 -16.82 0.0005491838    1.147    0.128
       123  -9.0311    190.8593    228.0170   1.2053977370e+02   5.8319678616e+00    0.1545001    0.1231483  29.57 0.0003638789    1.270    0.212
       124 -10.1741     50.7095    122.6371   1.3688743806e+02   4.3893210882e+01    0.2210176    0.1547501  46.62 0.0007932223    1.444    0.308
       125  -8.2720    238.3247    122.3006   9.2984446997e+01   1.1644010295e+01    0.1372771   0.08732718   8.67 0.0002497383    1.634    0.388
       126 -10.7202    249.5077    117.9001   9.0321264578e+01   1.0270533348e+01    0.4478953    0.2072207 -15.23  0.001998603    2.233    0.552
       127 -11.3903    248.5352    112.5234   8.9235817657e+01   1.1095718014e+01    0.6866999    0.2991007 -18.66  0.003004053    2.246    0.555
       128 -10.6734     32.6546    105.1761   1.4000043108e+02   4.9784902856e+01    0.3529806    0.1540581 -75.03  0.001585915    2.103    0.524
       129 -10.9476     32.4986    109.9946   1.4067247915e+02   4.8639280596e+01    0.2986824    0.2304784  61.40  0.001832465    1.311    0.237
       130 -11.4159     32.6805    118.3420   1.4161784251e+02   4.6638359053e+01    0.3359812    0.2436567  50.03  0.002039202    1.395    0.283
       131 -11.4875     33.0027    114.9874   1.4113008443e+02   4.7404875454e+01    0.4468632    0.2539811 -43.37  0.002147334    2.032    0.508
       132  -9.4715    130.8815    119.1169   1.1389992555e+02   3.2690947530e+01    0.2052223    0.1956389  85.26  0.001163358    1.209    0.173
       133  -9.7480     70.4273    117.1637   1.3024071165e+02   4.2847562984e+01    0.2299544    0.2203436  31.20 0.0003819881    1.129    0.114
       134  -8.8807     85.4357    117.4608   1.2590847956e+02   4.0700125705e+01    0.1362505    0.1298861 -83.53 -2.471929e-06    1.037    0.036
       135  -9.1919    168.4860    113.3134   1.0363840373e+02   2.6409636864e+01    0.2971504    0.2326991 -72.44  0.001416675    2.004    0.501
       136  -8.5632    134.5071    113.5419   1.1165821794e+02   3.3127243514e+01    0.1454915    0.1391123   1.17 0.0002055667    1.017    0.017
       137 -11.2927     61.0831    112.0496   1.3215853133e+02   4.5218673221e+01    0.4911909    0.3066728  52.82  0.002471496    1.762    0.433
       138  -8.2746    149.5612    111.4991   1.0747048792e+02   3.0566056855e+01    0.1464204    0.1386577  -5.53 0.0001380511    1.042    0.040
       139 -10.3313     70.3023    110.6473   1.2908871681e+02   4.4390439182e+01    0.3315195     0.232742  69.95  0.001136749    1.732    0.423
       140 -10.1837    114.8375    107.0498   1.1525611742e+02   3.8163412862e+01    0.2447908    0.2085051  36.49            0    1.189    0.159
       141  -9.3835    134.5163    103.9778   1.0924348431e+02   3.5040452329e+01    0.2310043    0.1439148 -41.48 0.0008399179    1.581    0.368
       142 -11.1032    247.9280    100.6610   8.6554595800e+01   1.2663291687e+01    0.6534104    0.2906315 -21.22  0.002929905    2.032    0.508
       143  -8.1430    130.7306    100.3119   1.0925440052e+02   3.6531839974e+01    0.1422343     0.120245 -79.16 0.0001863378    1.547    0.354
       144  -8.4322     76.5271     99.0454   1.2476274709e+02   4.6265402447e+01    0.2032782    0.1314698 -57.29  0.000108662    1.453    0.312
       145  -8.7955     63.3374     98.0124   1.2880846693e+02   4.8291257890e+01     0.192381    0.1683369 -65.14 0.0005182122    1.053    0.050
       146  -8.4730     80.4834     97.5498   1.2316437021e+02   4.6035767903e+01    0.1406935     0.133183 -72.63 8.355466e-05    1.063    0.059
       147 -10.6093     33.0000     93.4756   1.3820612587e+02   5.2599664477e+01    0.5865753   0.06499093 -69.11   0.00132729    7.767    0.871
       148  -9.8750    123.6626     89.2609   1.0808703610e+02   4.0200031918e+01    0.2618082    0.2392987   0.72 0.0002911442    1.093    0.085
       149  -8.3247    101.9801     87.9616   1.1399121673e+02   4.4650147513e+01     0.179569    0.1607074 -40.01 0.0003722133    1.064    0.060
       150  -8.5733     99.9485     83.5038   1.1335070300e+02   4.5995859441e+01    0.2068334    0.1479178  39.05 0.0003205745    1.464    0.317
       151  -8.6365    150.7655    238.9774   1.2890288048e+02   9.7728809017e+00    0.1452099    0.1159291  25.78 0.0005013542    1.081    0.075
       152  -8.5105    136.7084     93.7138   1.0590240082e+02   3.6629103878e+01    0.1508925      0.11579   2.08 0.0002147937    1.539    0.350
       153  -8.5524    113.8245     80.8961   1.0839778718e+02   4.3900728665e+01    0.2001965    0.1802313 -70.35 0.0004296823    1.298    0.229
       154 -10.4203    115.6398    239.7481   1.3523287614e+02   1.4061806034e+01    0.2252713    0.1633486  54.41   0.00100379    1.386    0.279
       155 -10.1472    249.5103    242.9883   1.1316024667e+02  -2.8367230625e+00    0.1363434   0.08160983 -15.21 0.0009254836    1.596    0.373
       156 -11.6925    134.2884    225.4399   1.3039448631e+02   1.3663806226e+01    0.4656878    0.3128413 -88.16  0.002742963    2.937    0.660
       157 -12.1190    135.6425    241.0267   1.3179303532e+02   1.1427989069e+01    0.7026668    0.2215818  46.62  0.003153812    3.458    0.711
