#   1 NUMBER                 Running object number                                     
#   2 MAG_AUTO               Kron-like elliptical aperture magnitude                    [mag]
#   3 X_IMAGE                Object position along x                                    [pixel]
#   4 Y_IMAGE                Object position along y                                    [pixel]
#   5 X_WORLD                Barycenter position along world x axis                     [deg]
#   6 Y_WORLD                Barycenter position along world y axis                     [deg]
#   7 A_WORLD                Profile RMS along major axis (world units)                 [deg]
#   8 B_WORLD                Profile RMS along minor axis (world units)                 [deg]
#   9 THETA_WORLD            Position angle (CCW/world-x)                               [deg]
#  10 FWHM_WORLD             FWHM assuming a gaussian core                              [deg]
#  11 ELONGATION             A_IMAGE/B_IMAGE                                           
#  12 ELLIPTICITY            1 - B_IMAGE/A_IMAGE                                       
         1 -12.4329    185.1294     29.9979   6.6362898326e+01   3.5039777665e+01    0.9467259    0.8921763  15.91  0.003337448    1.048    0.046
         2 -12.3263    192.9215     18.4767   6.1561906633e+01   3.4257092513e+01    0.7695281    0.6939207  -4.73  0.001530752    1.145    0.127
         3 -10.2945     40.3323      8.1644   1.0081000041e+02   6.9879917165e+01    0.2657547   0.09075021 -36.97  0.001094583    2.591    0.614
         4 -12.7833    131.3789    246.8668   1.2398239418e+02   1.0978654442e+01     1.184069    0.3787814  32.67   0.00518289    3.328    0.700
         5 -11.9866    121.2237    249.2070   1.2594890001e+02   1.2043892789e+01    0.7461854    0.3033158  47.95  0.001675272    1.956    0.489
         6 -10.4502    114.3249    250.0818   1.2720444728e+02   1.2837729660e+01    0.4216715    0.1397703  35.28  0.002115925    2.564    0.610
         7 -11.8855    138.6990    249.7156   1.2299112264e+02   9.6202097885e+00     1.293398    0.2729006  34.50  0.004063805    6.217    0.839
         8 -10.7801     98.1448    249.8458   1.2993206982e+02   1.4935533399e+01    0.5269229     0.128809  43.58   0.00155013    2.705    0.630
         9 -11.0088     96.5193    243.9709   1.2976342032e+02   1.5947417085e+01    0.2339342    0.2140991 -10.24  0.001202234    1.637    0.389
        10 -10.4432     72.5985    250.4608   1.3422811467e+02   1.7910393586e+01    0.4151362    0.1006827  39.85   0.00211881    2.727    0.633
        11 -10.1130     70.1628    245.9164   1.3435563303e+02   1.8832197810e+01    0.2920372    0.2555816  61.98   0.00239791    1.274    0.215
        12 -10.7509     62.0260    249.8302   1.3591597111e+02   1.9185395366e+01    0.4252806    0.1367532  43.45 0.0009396378    2.056    0.514
        13 -19.3096     16.1440    127.9781   1.3715193176e+02   4.5802812088e+01     16.26419     1.250444 -76.17   0.03447225   12.496    0.920
        14 -10.7197    103.3344    236.4841   1.2796913323e+02   1.6135172944e+01    0.2320136    0.1552203  46.83  0.000653104    1.110    0.099
        15  -8.3018     88.6809    235.6895   1.3049207324e+02   1.8114328657e+01   0.09263519   0.07718319  16.21 0.0004984447    1.643    0.391
        16 -10.2822     82.8664    230.9957   1.3116448350e+02   1.9531608449e+01     0.300242    0.1866371  74.31  0.002072188    1.739    0.425
        17  -9.0917     41.0200    232.4083   1.3847416608e+02   2.3989081955e+01     0.172145    0.1116161  74.37 0.0006644385    1.335    0.251
        18  -9.0499    105.3274    245.3051   1.2835269328e+02   1.4643013956e+01   0.09573347    0.0735263  19.89 0.0006628287    1.650    0.394
        19 -13.5808    112.0080    228.5924   1.2569927287e+02   1.6124201411e+01     1.940153    0.4191511  41.00  0.008043275    3.231    0.691
        20  -8.6397     67.8286    226.2454   1.3349807298e+02   2.2052875454e+01    0.1839083   0.07201084  60.75 0.0007031315    2.751    0.636
        21 -11.6225     85.5014    223.7002   1.3012275307e+02   2.0328411516e+01    0.5395374    0.2864612  54.51  0.003074691    1.600    0.375
        22 -10.8974     80.0537    220.2763   1.3084977655e+02   2.1543623817e+01    0.3578398    0.2315578  53.62  0.001830826    1.225    0.183
        23 -10.4073     46.0190    216.3041   1.3676402617e+02   2.6052396870e+01    0.5180332    0.1416379  45.96   0.00271188    2.511    0.602
        24  -9.6991     40.7131    219.9767   1.3790232125e+02   2.5992892969e+01    0.3167743    0.1261127  36.67  0.001386717    2.104    0.525
        25  -8.6770    110.4643    204.5258   1.2353349683e+02   2.0072501430e+01    0.1882903    0.1034141 -45.28  0.001037496    2.436    0.589
        26  -9.8171    170.7485    242.6202   1.1666370372e+02   5.9517243169e+00    0.1729422    0.1300018 -12.53  0.001261884    1.710    0.415
        27 -10.6077     81.4333    182.6301   1.2714964809e+02   2.7893743794e+01    0.3647088    0.2434909 -38.94  0.002116869    2.186    0.542
        28 -10.2803     84.9383    177.0741   1.2578769298e+02   2.8482648236e+01    0.2912304    0.2359487 -40.41 0.0008945863    1.595    0.373
        29  -8.3485     90.5272    184.0332   1.2536197247e+02   2.6427494064e+01    0.1563539   0.09228552  77.49 0.0003817494    2.245    0.555
        30  -8.3998    200.2186    180.2728   1.0198255177e+02   9.1630982309e+00    0.1773465    0.1010284 -44.82 0.0008749516    2.373    0.579
        31  -8.7639     93.0582    178.2189   1.2414599389e+02   2.7162884307e+01     0.194902    0.1374191  56.10 0.0008068251    1.299    0.230
        32  -8.8581     72.1687    175.4020   1.2839755684e+02   3.0440463749e+01    0.2429275     0.116652  48.63  0.001280493    1.846    0.458
        33 -10.4288     91.9292    167.2791   1.2304584872e+02   2.9420855611e+01     0.298671    0.2039803  49.37 0.0004455424    1.319    0.242
        34 -12.0754     80.4276    162.5660   1.2509858350e+02   3.1921725636e+01    0.4511186    0.3860624 -70.49  0.001218403    1.217    0.178
        35 -10.8335     96.9711    159.6112   1.2084402622e+02   3.0216233392e+01    0.5540355    0.3398815 -33.00   0.00146134    2.509    0.601
        36  -9.4706     71.6377    236.7066   1.3352716119e+02   2.0009801205e+01    0.1957774    0.1441605  79.51 0.0007658441    1.364    0.267
        37 -10.6161     96.6000    143.5643   1.1851287930e+02   3.3556110336e+01    0.2441875    0.2342886 -10.99 0.0005495213    1.190    0.160
        38  -8.5487    133.6648    143.3148   1.0933951883e+02   2.7435492982e+01     0.141544    0.1079815  71.22 0.0005132378    1.690    0.408
        39  -9.6609    108.8931    141.7941   1.1513591761e+02   3.2003500372e+01     0.391156    0.1966824 -39.79  0.001653568    2.541    0.606
        40  -9.3282    115.1300    132.3006   1.1180136573e+02   3.2929167126e+01    0.2370499     0.186352 -38.06 0.0007427225    1.388    0.280
        41 -10.0038    103.9342    129.4156   1.1415650753e+02   3.5405580904e+01    0.4492263    0.2920204  61.09 0.0008011296    1.864    0.464
        42 -12.1089    147.1035    228.9055   1.1929436791e+02   1.1103530444e+01    0.5629256    0.2952227  34.80  0.003330081    1.521    0.343
        43  -8.9013    110.2507    120.5585   1.1071132973e+02   3.6242047767e+01    0.2169424    0.1636546 -45.72 0.0004911218    1.358    0.264
        44 -11.4884     42.1192    115.6205   1.2893825997e+02   4.6436302144e+01    0.3875722    0.3055094 -74.72   0.00250095    1.115    0.103
        45  -8.5606    168.8469    113.8228   9.4442162750e+01   2.5962779168e+01    0.2003062    0.1857838  87.91 0.0005816764    1.360    0.265
        46 -13.2937    135.2554    228.9241   1.2146934038e+02   1.2822245650e+01     1.256004    0.6308692  34.32  0.007270227    1.658    0.397
        47  -9.4387    164.2367     56.9601   7.9096048147e+01   3.6805342377e+01    0.2108316    0.1291702 -29.65 0.0007008635    1.637    0.389
        48  -9.1206    164.0000     50.9385   7.7167951055e+01   3.7777417758e+01    0.2539774   0.08794361 -29.13 0.0006732703    2.919    0.657
        49 -11.7186    176.0841     38.5817   7.0695734728e+01   3.6360741728e+01    0.5731887    0.4671659  31.72  0.001691739    1.220    0.181
        50 -10.7183     83.8536    245.8185   1.3205612070e+02   1.7243629058e+01    0.2956016    0.2227939  82.09  0.001825199    1.438    0.304
        51 -10.1439     88.8110    243.0629   1.3101844694e+02   1.7032324392e+01    0.1954436    0.1584934 -46.94 0.0004498689    1.824    0.452
