#   1 NUMBER                 Running object number                                     
#   2 MAG_AUTO               Kron-like elliptical aperture magnitude                    [mag]
#   3 X_IMAGE                Object position along x                                    [pixel]
#   4 Y_IMAGE                Object position along y                                    [pixel]
#   5 X_WORLD                Barycenter position along world x axis                     [deg]
#   6 Y_WORLD                Barycenter position along world y axis                     [deg]
#   7 A_WORLD                Profile RMS along major axis (world units)                 [deg]
#   8 B_WORLD                Profile RMS along minor axis (world units)                 [deg]
#   9 THETA_WORLD            Position angle (CCW/world-x)                               [deg]
#  10 FWHM_WORLD             FWHM assuming a gaussian core                              [deg]
#  11 ELONGATION             A_IMAGE/B_IMAGE                                           
#  12 ELLIPTICITY            1 - B_IMAGE/A_IMAGE                                       
         1 -13.2161    231.9574    100.6160   2.5235365842e+01   1.4009741410e+01     3.705819     1.499053 -50.40  0.007961218    3.810    0.738
         2 -13.5277    237.7229     61.8401   1.5340964103e+01   1.8268811150e+01     1.995958     1.639092  46.03   0.00486514    1.405    0.288
         3 -13.9915    247.1513     42.2328   9.8260544522e+00   1.8807535464e+01     4.410693     1.362748 -47.65  0.003520048    3.092    0.677
         4 -13.7184    245.6000     65.2085   1.5263722244e+01   1.6245084432e+01     2.958699     1.396658 -44.37  0.007596023    1.910    0.476
         5 -13.0890    248.5113     11.4651   2.8020281254e+00   2.1940890033e+01     1.854829      1.06686 -54.40   0.01083141    1.493    0.330
         6 -11.2843     10.4768     11.6618   6.3600948189e+01   7.4029675961e+01    0.6270027    0.4985866  74.73  0.003806017    2.270    0.559
         7 -11.5267     15.0742      4.0987   5.6235784852e+01   7.4957857752e+01     1.000597    0.4748629  43.36  0.004579226    3.478    0.712
         8 -10.6227     23.1858      2.4556   4.9588437980e+01   7.4301284588e+01    0.5868345    0.2034195  37.16  0.002573456    3.058    0.673
         9 -10.6396      2.9732      2.4088   6.4491575597e+01   7.6292392617e+01     0.861344    0.2615632 -52.94  0.003840363    2.810    0.644
        10  -7.4522    207.2853      8.3158   4.9943167267e+00   3.1334214724e+01    0.1226331    0.0965327  36.59 0.0006995433    1.584    0.369
        11 -10.2570     32.2938      2.1957   4.3666318344e+01   7.3096968073e+01    0.3221464    0.2602765  43.15   0.00205412    1.583    0.368
        12  -9.5375     56.2106      4.2441   3.2734001463e+01   6.8747671355e+01    0.3137147    0.1883546 -52.47  0.001414265    2.931    0.659
        13 -10.1988     41.3518      3.5789   3.9445597420e+01   7.1492739802e+01    0.3908951    0.2669158 -55.92  0.001975115    2.674    0.626
        14  -8.6566     63.9956      2.0000   2.8285270537e+01   6.7441211807e+01    0.2163213   0.06893898  54.11 0.0008050617    2.961    0.662
        15  -7.4895    234.4240    147.4554   3.5214289677e+01   6.7204381605e+00    0.1301971    0.1082749  -8.78 6.710871e-05    1.009    0.009
        16  -7.6595    186.3745    146.7510   4.3822032200e+01   1.5507206051e+01    0.1944278    0.1279236 -25.62 0.0003770672    1.576    0.365
        17  -8.2794    250.2977    140.7080   3.1353441924e+01   5.0686512523e+00    0.2247076    0.1264209 -35.95 0.0008515673    1.636    0.389
        18  -9.2287    239.3295    140.2725   3.2928779359e+01   6.9225667098e+00    0.2689214    0.2235383 -16.06  0.001289158    1.050    0.047
        19  -7.9309    244.5833    137.7057   3.1581659848e+01   6.4093897477e+00    0.1665473    0.1062235 -35.67 0.0003839086    1.468    0.319
        20 -11.2644    226.1842    110.3388   2.8356385840e+01   1.3684615653e+01    0.5150501    0.4966874 -35.76  0.003270129    1.168    0.144
        21 -12.2493    241.4585    127.8259   2.9945715712e+01   8.3281304276e+00    0.7631831    0.6674691  60.55  0.001464985    1.527    0.345
        22 -10.1659    233.8184    125.3601   3.0570881189e+01   1.0028756717e+01    0.2635542     0.224996 -10.08 0.0003591922    1.034    0.033
        23  -8.4965    197.0026    242.9713   5.8653916831e+01  -3.9790279611e-01    0.1444107      0.10457  19.90  0.001010953    1.018    0.017
        24 -12.0649    246.0874     98.1960   2.2743042594e+01   1.1686184230e+01     1.494171     0.633529 -30.91  0.001513326    2.044    0.511
        25  -8.7334    250.0597    200.8852   4.2872657018e+01  -2.5406101185e+00    0.1874755    0.1394708 -13.72 0.0009508912    1.200    0.167
        26  -7.8342    243.1585    200.8327   4.3978622371e+01  -1.6190426043e+00     0.160824    0.1067939  -2.87 0.0003738737    1.281    0.220
        27 -11.8078    243.3386    111.6875   2.6133735094e+01   1.0290195727e+01    0.9706861    0.8153343 -13.00  0.002619766    1.078    0.072
        28  -8.2839    222.0721    130.7005   3.3646572996e+01   1.1367393153e+01    0.1844901    0.1623279  21.09 0.0004249713    1.149    0.130
        29  -9.6237      3.3037    129.4568   9.0331122304e+01   4.7215299319e+01    0.2287864    0.1212714  75.38  0.001196849    1.797    0.444
        30  -7.7262    192.5191    129.4900   3.8716570438e+01   1.7278706527e+01    0.1445224    0.1319236  -2.38 0.0008102947    1.004    0.004
        31  -8.7539    224.9915    123.6792   3.1594703375e+01   1.1894562297e+01     0.256557     0.178329 -37.03 0.0006854538    1.368    0.269
        32  -8.2013    200.3072    124.6535   3.6105952991e+01   1.6530273685e+01     0.139648    0.1128695 -66.33 0.0007043282    1.700    0.412
        33 -10.8140      2.8004    112.9649   8.9179214507e+01   5.1203503835e+01    0.4112853    0.2742427  89.68  0.002453144    1.303    0.233
        34  -9.5394    216.8040    116.9730   3.1404442055e+01   1.4492843959e+01    0.2616195    0.2282347  48.38 0.0007598361    1.291    0.225
        35  -9.8795    216.9560    111.9019   3.0191803900e+01   1.5254277481e+01    0.3683191    0.2138587 -18.88  0.001056385    1.942    0.485
        36  -7.2268     51.5291    117.4912   7.3873381444e+01   4.5899915103e+01    0.1379539    0.1274531 -79.85 -6.973545e-06    1.005    0.005
        37  -7.3253     34.3367    109.2723   7.8286414470e+01   4.9780621719e+01    0.1341435   0.09445254 -36.40 0.0003511553    1.602    0.376
        38  -8.5220    190.0146    108.0331   3.4016562697e+01   2.1494405971e+01    0.2348959    0.1828264 -68.09  0.001140416    1.720    0.419
        39  -9.1971    216.3045    105.9522   2.8885259398e+01   1.6310989468e+01    0.1997724    0.1642622 -21.55 0.0003925165    1.124    0.111
        40  -9.9194    211.3706    105.6057   2.9610900606e+01   1.7373670568e+01    0.2681466    0.2542931 -41.90 0.0007030511    1.135    0.119
        41 -10.1629    210.0211     98.6451   2.8132182782e+01   1.8753110668e+01    0.3499459     0.286679 -56.75 0.0004012093    1.384    0.277
        42 -10.4325    209.3743     92.6354   2.6743365971e+01   1.9831643235e+01    0.5357914    0.2515487 -48.34  0.001829731    2.459    0.593
        43 -12.1793    237.5627     90.0454   2.1999797182e+01   1.4441571412e+01     1.025277    0.4950242 -41.81 0.0008073566    1.907    0.476
        44 -10.7092    204.3283     96.9568   2.8658307400e+01   2.0234669089e+01    0.5637244    0.2567658 -45.23  0.002178156    2.322    0.569
        45 -10.8184      5.4523     94.8767   8.6491203836e+01   5.5463432132e+01    0.4266474    0.2158702 -75.73  0.002183589    1.655    0.396
        46  -8.3558    164.5611     94.2442   3.5556730415e+01   2.9667506527e+01    0.2492614    0.2291147 -42.60  0.000833649    1.104    0.094
        47 -10.4461    199.1594     84.9725   2.6454837056e+01   2.3280374812e+01    0.3358286    0.2962976   2.80  0.001828897    1.208    0.172
        48 -10.3066    205.3806     85.5244   2.5581926738e+01   2.1806835646e+01    0.3689099    0.2695242  70.44   0.00186157    1.642    0.391
        49 -10.4532    208.6856     79.0530   2.3404984374e+01   2.2063908427e+01    0.4576527    0.2559979 -45.84  0.001272298    1.792    0.442
        50 -10.9790    203.9668     75.7792   2.3277566701e+01   2.3614414666e+01    0.5535294    0.4111161  -3.35  0.002766248    1.642    0.391
        51  -8.6727    175.5059     76.0010   2.8207075648e+01   3.0247701372e+01    0.2403617     0.145646 -32.94  0.001045103    1.628    0.386
        52  -7.7893    157.7946     74.7903   3.1424992655e+01   3.4748043789e+01    0.2650279     0.163788  15.89 0.0009514316    2.797    0.643
        53  -7.4829    180.3124     73.6441   2.6648721652e+01   2.9475578382e+01    0.1574478    0.1122724 -64.67 0.0007044157    1.736    0.424
        54  -8.3778    170.0307     70.9872   2.7805302941e+01   3.2397181509e+01    0.2293017    0.2234931 -34.18  0.000458507    1.015    0.015
        55  -9.2255    204.2185     66.4815   2.0789913072e+01   2.4933410606e+01    0.3635929    0.1757811 -33.95  0.001026316    1.905    0.475
        56  -9.0657    195.4966     67.9838   2.2514612811e+01   2.6740831166e+01    0.2696117    0.2175615  59.86 0.0006156591    1.291    0.226
        57  -9.5931    215.0882     58.9152   1.7325705708e+01   2.3526090067e+01    0.3355964    0.2535606 -52.58  0.001266206    1.295    0.228
        58  -9.5005    210.3309     59.3553   1.8061664924e+01   2.4542620035e+01    0.3154373    0.2175443 -27.72 0.0007531142    1.412    0.292
        59  -8.6761    245.1617    191.9013   4.2073538165e+01  -8.1655397707e-01    0.2709067    0.1272027 -32.60   0.00145616    2.036    0.509
        60  -7.9900    198.6345     55.3079   1.8587147356e+01   2.7828764777e+01    0.1520408    0.1021602 -65.38 0.0007037746    1.750    0.428
        61  -8.6567    213.1264     53.0898   1.6070591308e+01   2.4756221788e+01    0.2456454    0.1817226 -45.20  0.000665955    1.252    0.201
        62  -8.0551    207.7201     53.4860   1.6863432933e+01   2.5945595368e+01    0.3021733    0.1334047 -42.49 0.0009332843    2.103    0.525
        63  -8.4523    218.0334     47.3128   1.3997754418e+01   2.4399210489e+01    0.2984676    0.1734463  31.17  0.001295147    2.656    0.623
        64  -8.3609    249.5009    185.0745   4.0140070305e+01  -5.8032913647e-01    0.2103503    0.1673191  -1.41  0.001113411    1.087    0.080
        65  -7.7123    229.5018    134.4730   3.3251686401e+01   9.4563296866e+00    0.1341486     0.114429  -9.59 0.0008100558    1.009    0.009
        66  -7.5255    201.2832     34.6484   1.2604252253e+01   2.9885626439e+01    0.1476871   0.09227055 -57.40 0.0007017567    1.656    0.396
        67  -9.5366    215.5298     29.3953   9.6844958573e+00   2.7154713662e+01    0.4398079    0.1592502 -46.22  0.001754756    2.573    0.611
        68  -8.6891    213.5753     21.1291   7.7529156617e+00   2.8533713391e+01    0.2908585    0.1261233 -24.11  0.001098228    2.415    0.586
        69  -8.5844    217.6886     20.2281   7.1549873525e+00   2.7683627556e+01     0.272618    0.1596495 -50.72  0.001253797    1.565    0.361
        70  -9.8283      3.3784     16.3358   7.0660228797e+01   7.3608121079e+01    0.2185232    0.1971489 -42.93  0.001585655    1.210    0.174
        71  -7.4191    220.6492    179.6823   4.3978844156e+01   4.3810804114e+00    0.1361829   0.08502828   5.79 0.0007047566    1.737    0.424
        72  -8.4225    231.2613    175.5771   4.1357422142e+01   3.3017057576e+00    0.2221658    0.1521351 -27.03 0.0008038076    1.370    0.270
        73  -8.1639    192.0317    167.9738   4.7082343364e+01   1.0907625846e+01    0.1863106     0.169746 -87.16 0.0004436792    1.641    0.391
        74  -8.4912    234.4863    163.1606   3.8397924342e+01   4.5006543423e+00    0.2078342    0.1889028 -38.93 0.0009206572    1.480    0.325
        75  -7.6001    213.2581     10.6641   5.1109728404e+00   2.9702476256e+01    0.1361823    0.0803685 -54.99 0.0003314302    1.575    0.365
        76  -7.6672    246.0019    157.9765   3.5512998834e+01   3.4108201876e+00    0.1487817    0.1182642  -8.90 0.0004467494    1.019    0.019
        77  -8.8889    244.7459    147.7129   3.3634278267e+01   4.9990640247e+00    0.2464443    0.1442062 -35.73 0.0008118448    1.612    0.380
        78  -7.5442    229.2932    148.7132   3.6320123594e+01   7.4012124483e+00    0.1151165    0.1027092 -53.55 0.0002258734    1.543    0.352
        79  -8.0785    249.9681    146.9921   3.2692026083e+01   4.2708147856e+00    0.1801873    0.1403294 -44.03  0.001109681    1.590    0.371
        80  -8.5113     33.4987    134.5208   8.1932717125e+01   4.3630850698e+01    0.1314025    0.1147598  84.51 4.175976e-05    1.025    0.025
