#   1 NUMBER                 Running object number                                     
#   2 MAG_AUTO               Kron-like elliptical aperture magnitude                    [mag]
#   3 X_IMAGE                Object position along x                                    [pixel]
#   4 Y_IMAGE                Object position along y                                    [pixel]
#   5 X_WORLD                Barycenter position along world x axis                     [deg]
#   6 Y_WORLD                Barycenter position along world y axis                     [deg]
#   7 A_WORLD                Profile RMS along major axis (world units)                 [deg]
#   8 B_WORLD                Profile RMS along minor axis (world units)                 [deg]
#   9 THETA_WORLD            Position angle (CCW/world-x)                               [deg]
#  10 FWHM_WORLD             FWHM assuming a gaussian core                              [deg]
#  11 ELONGATION             A_IMAGE/B_IMAGE                                           
#  12 ELLIPTICITY            1 - B_IMAGE/A_IMAGE                                       
         1 -11.7088     80.3425     23.3679   8.8632341461e+01   5.9585363590e+01    0.5725702    0.2531684  34.63 0.0005041372    2.262    0.558
         2  -9.3660     61.8756     26.7272   9.5966281909e+01   6.2253571496e+01    0.3116153    0.1761812  -6.06  0.001192212    2.176    0.540
         3  -8.7833     28.9911     21.0371   1.0628072092e+02   6.7279534329e+01    0.3015466    0.1891468 -18.87  0.001638491    1.341    0.254
         4  -8.9216     46.5472     20.1587   9.8875647267e+01   6.5279562842e+01    0.3470423    0.1814773 -24.76  0.001736952    1.775    0.437
         5  -8.6400    231.0185     17.0007   6.0310264473e+01   2.6011300413e+01    0.2829896     0.176692 -39.36  0.001057789    1.629    0.386
         6  -9.2570     71.3850      8.9228   8.5589774837e+01   6.2669721140e+01    0.2774745    0.1805471  28.75  0.001721071    1.319    0.242
         7  -9.3100     79.3031     12.9417   8.4844885055e+01   6.0878674902e+01    0.4222264    0.2262204  41.26   0.00232817    1.611    0.379
         8  -9.7905     74.2461     13.5851   8.6616567577e+01   6.1716921125e+01    0.4487674    0.2413643   9.58  0.001929984    2.388    0.581
         9  -9.4475     64.2778     14.3904   9.0128076280e+01   6.3315192164e+01    0.4043881    0.2151703  16.11  0.001886409    2.227    0.551
        10  -9.4012    134.0324     13.5959   7.2229278363e+01   4.9393245841e+01    0.2373504    0.1961612  42.86 0.0002824437    1.116    0.104
        11  -9.8588     46.6002      6.5223   9.2967093908e+01   6.6819256990e+01    0.6011198    0.2562002  22.87 0.0001133312    2.914    0.657
        12  -8.9885     41.3931      5.7679   9.4609720006e+01   6.7617612041e+01    0.3886865    0.1958519  -7.58    0.0020994    2.282    0.562
        13  -9.3657     31.8232     11.0339   1.0082692108e+02   6.8238883010e+01    0.3734404    0.2044563   8.75 0.0003868109    1.954    0.488
        14  -9.6257     31.9903      6.1554   9.8564830748e+01   6.8778897077e+01    0.2605468    0.1612561  -3.22 0.0003521903    1.434    0.303
        15  -8.9216    112.7265     11.4203   7.5793133327e+01   5.4349162605e+01      0.23172    0.1624736  36.70  0.001361819    1.287    0.223
        16  -9.1677    125.1554     10.3823   7.2877419156e+01   5.1704602339e+01    0.2359662    0.1638042  34.92 0.0006576759    1.400    0.286
        17  -9.7452    131.0123      7.9233   7.0976347550e+01   5.0593071618e+01    0.3990239    0.2741442 -19.19  0.001242857    1.677    0.404
        18  -8.1998    134.2883      2.9697   6.8833688432e+01   5.0254321279e+01    0.1653638    0.1480992  44.02 0.0002254951    1.098    0.089
        19  -8.2993    155.6970      7.7788   6.6875654537e+01   4.4839365129e+01    0.2702878    0.1556798 -24.68  0.001411238    2.025    0.506
        20  -8.6926     96.4384     13.0606   8.0219350706e+01   5.7590713204e+01    0.3576366    0.1892354  16.53  0.001672309    2.496    0.599
        21  -9.2282    119.1267      6.7874   7.2868162587e+01   5.3354323183e+01    0.2252581    0.1873983  53.84  0.000285186    1.067    0.063
        22  -8.3372    100.7947      6.4814   7.6723585986e+01   5.7288538582e+01    0.2718274    0.1639781   7.39  0.001066707    1.944    0.486
        23  -8.9070    105.1158      1.8713   7.4076392187e+01   5.6759692268e+01    0.5902238    0.1735497  50.53  0.002513362    2.512    0.602
        24  -8.6649    110.7327      4.6470   7.3856211146e+01   5.5352507758e+01    0.1981218    0.1489651  36.75 0.0006085787    1.171    0.146
        25  -8.8333    110.3340      1.6986   7.2907807656e+01   5.5668243459e+01    0.2296639    0.1815224  73.81   0.00135643    1.395    0.283
        26  -9.4597     84.2556      5.5906   8.0538355322e+01   6.0631299241e+01    0.3119735    0.1865762  -5.34 0.0006028336    1.812    0.448
        27  -9.1905     76.5281      5.2966   8.2573471337e+01   6.2086399552e+01    0.3608505    0.2381396 -21.40  0.001511697    1.586    0.369
        28  -9.9733      7.8969      5.3157   1.0898590949e+02   7.1353887390e+01    0.4503446    0.1994083   7.84  0.002432256    2.863    0.651
        29  -8.0041     91.4490      4.9297   7.8409146594e+01   5.9297602047e+01    0.1959912    0.1371831  47.01 0.0006190491    1.231    0.188
        30  -7.6892    175.5156      3.9555   6.3159513062e+01   4.0446845730e+01    0.1656629    0.1271754 -31.25 0.0004732285    1.513    0.339
        31  -8.9178    152.3159      3.2190   6.6066373515e+01   4.6036749104e+01    0.2788101    0.1651621  78.71  0.001453289    1.662    0.398
        32  -8.3229     56.3985      2.9116   8.7869423638e+01   6.5702008517e+01    0.2291856    0.1504584  19.00   0.00150131    1.296    0.229
        33  -8.2866     15.8505      2.6639   1.0402883863e+02   7.0948059928e+01    0.1869056    0.1078401 -19.43 0.0006701246    1.397    0.284
        34  -8.4814    143.0869      2.0782   6.7127352562e+01   4.8293864102e+01    0.1865101    0.1592759  66.36 0.0003215476    1.041    0.040
        35  -7.4806    159.4918      1.5214   6.4574671602e+01   4.4480897343e+01     0.128211    0.1073751  68.78 0.0003570407    1.010    0.010
        36  -8.0915      3.0090      1.4480   1.0960798780e+02   7.2239102406e+01    0.1416332   0.08311117  13.69  0.000551686    1.590    0.371
        37  -7.5550    109.3705    106.3129   1.0709304872e+02   3.9987062844e+01    0.1562314    0.1186631  -4.56 0.0007035116    1.777    0.437
        38 -10.0991    199.3531    248.0461   1.1560456390e+02  -6.4484319694e+00    0.2828111    0.2710436  64.42  0.001977633    1.346    0.257
        39  -8.1258     65.9878    105.5075   1.1949854786e+02   4.7340150380e+01    0.1849756    0.1188944  -4.14 0.0008101751    2.513    0.602
        40  -9.6802    248.2766    103.6635   7.7418395343e+01   9.2045874028e+00    0.4224173     0.178878 -56.14  0.001468644    3.246    0.692
        41  -7.6486     93.9758    103.4958   1.1069938784e+02   4.3437629874e+01    0.2056757    0.1298761  11.10 0.0008099762    2.638    0.621
        42  -7.6190    129.9845     96.8260   9.8964326985e+01   3.7751905240e+01    0.2525108    0.1759486  19.03 0.0009071231    1.975    0.494
        43  -9.3198     16.1129     95.1343   1.3260930405e+02   5.4767978729e+01    0.2145288     0.200824  61.47   0.00101555    1.333    0.250
        44 -10.3976     12.3141     93.7161   1.3351884571e+02   5.5336736456e+01    0.5056129    0.2465579 -29.06  0.002143424    2.566    0.610
        45  -8.5434     43.7246     92.3540   1.2328607161e+02   5.2936424886e+01      0.30776    0.1446771 -33.75  0.001326488    2.567    0.610
        46  -8.3244     96.4625     90.2707   1.0633475723e+02   4.5810316935e+01    0.4419287    0.2689364   6.67  0.001621551    3.233    0.691
        47  -7.9511    109.8078     90.8681   1.0268379380e+02   4.3163254951e+01    0.3614059    0.2007261  19.03  0.001201824    3.577    0.720
        48  -7.7676     56.5689     91.2462   1.1890363231e+02   5.1696483569e+01     0.202358    0.1059911 -43.99 0.0009597428    1.684    0.406
        49  -7.5645    250.6247     94.6945   7.5097904757e+01   1.0252299771e+01    0.1337569    0.1089156  12.57  0.000702965    1.769    0.435
        50  -8.4454      2.3808     90.6531   1.3603879124e+02   5.6598990852e+01    0.1675583    0.1246048  81.76  0.001111235    1.648    0.393
        51 -10.3853     37.2920     81.0621   1.2263953524e+02   5.5981899448e+01    0.6334763     0.344147 -11.11  0.002878048    2.949    0.661
        52  -7.7688    126.4365     83.8210   9.6131121498e+01   4.1097426797e+01    0.2068781    0.1424385 -26.42 0.0006252194    1.628    0.386
        53  -7.7692     66.3198     84.3647   1.1393834258e+02   5.1858443951e+01    0.2135245    0.1461774 -20.39  0.001090216    1.680    0.405
        54  -7.8053     83.4569     93.5190   1.1112560025e+02   4.7361475946e+01    0.2448947     0.137099  24.14  0.001031662    2.346    0.574
        55  -8.7951     88.3956     78.8682   1.0539372162e+02   4.9516839095e+01    0.4455879    0.2659845  11.32  0.001590878    2.825    0.646
        56  -9.6773      7.9425     77.7978   1.3178556160e+02   5.8967879736e+01    0.3431529    0.1503834 -37.06  0.001485529    2.165    0.538
        57  -7.8077    184.2468     78.0079   8.1630494806e+01   2.8473774514e+01    0.2087837    0.1898311 -54.14 0.0006042687    1.087    0.080
        58  -9.0693     49.0700     77.3059   1.1766928338e+02   5.5493472219e+01    0.4093954    0.2247672   1.45  0.001765641    3.088    0.676
        59  -7.2827    119.9801     76.2373   9.5548004837e+01   4.3904460234e+01    0.1914966    0.1218395  47.31 0.0006389417    1.573    0.364
        60  -9.1335     32.6570     62.6256   1.1928299880e+02   6.0086063602e+01     0.591878    0.1933542 -53.63  0.002490509    2.805    0.643
        61  -8.0251     23.4821     69.5016   1.2447118492e+02   5.9555099196e+01    0.1987424    0.1591026 -55.15 0.0006118472    1.211    0.174
        62  -9.1605     24.0004     73.5081   1.2530122171e+02   5.8712791266e+01     0.361423    0.1519134 -36.37  0.001711619    2.350    0.574
        63  -9.3733     28.4316     69.4259   1.2269289267e+02   5.9154866196e+01    0.4414402    0.2331118 -13.34  0.002136382    2.718    0.632
        64  -7.9538     74.9585     74.3108   1.0821934166e+02   5.2593678102e+01    0.1849586    0.1626222  11.88 0.0003728354    1.154    0.134
        65  -8.1892    105.2592     68.7298   9.7252619628e+01   4.8275303729e+01    0.4124561    0.2188571 -13.84  0.001307293    4.235    0.764
        66  -7.6806    128.6786     69.6534   9.1277497982e+01   4.3179996592e+01    0.1538271    0.1135482  11.75 0.0007049504    1.736    0.424
        67  -9.5189    239.3581     65.9962   7.0175848698e+01   1.7376955282e+01    0.2536172    0.2252809 -53.09 0.0003188866    1.122    0.109
        68 -10.1991    243.5242     62.2046   6.8820817776e+01   1.7041138720e+01    0.3986382    0.3252693 -35.55  0.002334859    1.335    0.251
        69  -8.6874     82.9579     64.8909   1.0269779004e+02   5.3044040116e+01    0.4748279    0.2746957  -7.99  0.001864099    3.078    0.675
        70  -9.2553     17.7821     62.9751   1.2482906911e+02   6.1269694058e+01    0.4080657    0.1749477 -25.54  0.001842153    3.093    0.677
        71  -7.2697    148.3556     63.3138   8.4725018044e+01   3.9687744407e+01    0.1550056    0.1116371  23.91 0.0004728033    1.739    0.425
        72  -9.7379     62.8165     61.3377   1.0816287669e+02   5.6788615314e+01      0.65052    0.2525078  27.69  0.002531446    3.362    0.703
        73  -9.4723     36.6414     59.7306   1.1696645346e+02   6.0238095511e+01    0.3898148    0.1781449 -34.12  0.001896325    2.104    0.525
        74  -9.3260     27.0970     60.2994   1.2065599733e+02   6.1030734163e+01    0.2605538     0.109473  28.47  0.001313416    2.689    0.628
        75  -7.9840     96.3770     59.8059   9.6923592197e+01   5.1518846280e+01     0.201231    0.1234804 -25.26 0.0009493603    1.752    0.429
        76  -8.1212    111.3067     58.2506   9.2183785345e+01   4.8814598836e+01    0.3386309    0.1908248  24.86   0.00137599    2.478    0.596
        77  -8.0444     99.0346     56.1721   9.4932192646e+01   5.1604301114e+01    0.2351915    0.1477928  19.04  0.001074887    2.028    0.507
        78 -10.2987     74.7645     50.4717   1.0046742455e+02   5.6824653410e+01    0.4605424    0.2939276 -10.26 0.0004425297    1.863    0.463
        79  -8.2954    118.5186     51.1477   8.7954753554e+01   4.8380194126e+01    0.2391629    0.1805054  45.92 0.0002876111    1.258    0.205
        80  -9.1019     45.1323     49.1552   1.1041413609e+02   6.1184132409e+01    0.3923075    0.2039834 -20.43  0.001520675    2.383    0.580
        81  -8.1838    106.5481     49.1234   9.0433414432e+01   5.1195907734e+01     0.343837    0.1825709  21.28   0.00128746    3.152    0.683
        82  -9.6407     12.7154     45.6481   1.2186515842e+02   6.4834019875e+01    0.5670813    0.2639526 -22.84   0.00253865    2.419    0.587
        83  -9.2919     56.3159     43.3402   1.0426745539e+02   6.0704276336e+01    0.4941092    0.2478813 -14.21   0.00201457    3.325    0.699
        84  -8.9558     58.5264     40.5317   1.0244804428e+02   6.0826560286e+01    0.2521981    0.1725492  -3.52  0.001117704    1.497    0.332
        85  -8.5500     92.1252     37.1861   9.0311324164e+01   5.5706291248e+01    0.2862803    0.1782935 -35.85 0.0009574879    1.689    0.408
        86 -10.7152     83.2258     40.0337   9.4020960732e+01   5.6951900620e+01    0.3828873    0.2478169 -10.27 0.0002118143    1.728    0.421
        87  -8.8462     87.9607     37.9557   9.1819840753e+01   5.6381854489e+01    0.2997316     0.218545  28.39  0.000846158    1.283    0.221
        88  -7.9537    113.3385     42.2186   8.6292563696e+01   5.0757512236e+01    0.3374604    0.1717231  20.20  0.001145433    3.939    0.746
        89  -9.2029      3.4501     39.6599   1.2382093910e+02   6.6482604843e+01     0.270572    0.1249139 -59.45  0.001476941    2.325    0.570
        90  -8.4688    136.3846     39.5078   7.9998031153e+01   4.5969070381e+01    0.2313134    0.2086413  46.06 0.0002376674    1.020    0.020
        91  -7.6341    123.7289     39.6391   8.2881474951e+01   4.8836016461e+01    0.2153885    0.1461559  24.17 0.0006266284    1.690    0.408
        92  -8.8847     35.7521     38.0262   1.1008853815e+02   6.4057708526e+01    0.3144148       0.1559 -42.79  0.001203975    1.829    0.453
        93  -8.7098     38.7381     35.4199   1.0795473599e+02   6.4130032248e+01    0.2597497     0.159898  20.18 0.0009738193    1.644    0.392
        94  -9.8199     69.4671     36.2234   9.7047015330e+01   5.9801971841e+01    0.6197894     0.322522  23.84  0.002960947    2.259    0.557
        95  -7.9776    106.2247     36.5762   8.6192510495e+01   5.2991693103e+01    0.1963265    0.1098753  39.88 0.0009441805    1.683    0.406
        96  -9.3651     56.5441     34.7599   1.0099125527e+02   6.1953549794e+01    0.3337579    0.2139769  12.77  0.001136852    1.624    0.384
        97  -7.7683     19.2837     35.7088   1.1593613842e+02   6.6009642053e+01    0.1623985     0.102752 -20.39 0.0004386923    1.378    0.274
        98  -8.8841     23.0901     35.8504   1.1441146704e+02   6.5655913177e+01    0.2445797     0.216166  12.90  0.001326619    1.399    0.285
        99  -8.9816     22.0965     32.1747   1.1350124691e+02   6.6326858327e+01    0.2800497    0.1696772  18.24 0.0004136316    1.713    0.416
       100  -9.5382      6.6704     33.6220   1.2054574937e+02   6.7299178086e+01     0.367068    0.2025413   4.22  0.001637287    1.974    0.493
       101  -9.0774      1.8965     30.2608   1.2148944430e+02   6.8153830844e+01    0.2737543     0.163127 -61.32   0.00170092    2.198    0.545
       102  -9.0535     42.0328     27.0998   1.0345080854e+02   6.4948203604e+01    0.2853084    0.2285756 -23.75  0.001010223    1.219    0.180
       103  -9.5746    215.7342    249.7217   1.1283530216e+02  -9.3176342812e+00    0.3968258   0.08527984  35.84  0.001216382    5.035    0.801
       104  -9.7458     69.4642     25.8138   9.3032403847e+01   6.1164655821e+01    0.3715765    0.2628209  74.32     0.001801    3.353    0.702
       105  -9.1762     14.6839    105.1552   1.3484220728e+02   5.2671819874e+01    0.3898579     0.177984 -31.04  0.001794657    3.031    0.670
       106  -8.8217     25.6785     24.9942   1.0926745739e+02   6.7066038896e+01    0.3903728    0.1552018 -26.66  0.001845551    2.761    0.638
       107  -9.0893    179.2038    248.3664   1.1945892629e+02  -3.1306197071e+00    0.1894377    0.1008835  47.48  0.000952914    1.725    0.420
       108  -7.9016    102.3339     25.3330   8.3212312413e+01   5.5138173123e+01     0.139743   0.08730448  23.88 0.0007052235    1.733    0.423
       109  -8.4117    144.7798     23.4473   7.3321406035e+01   4.5893326647e+01    0.2029967    0.1847091 -17.53 0.0003201864    1.235    0.190
       110  -7.9864    118.3122     24.2653   7.8974705344e+01   5.1865234098e+01    0.1946647    0.1511993  13.84 0.0006655142    1.370    0.270
       111  -8.3298    129.1451     22.4284   7.6027495748e+01   4.9636847864e+01    0.2539242    0.1069897  54.19 0.0007759567    2.003    0.501
       112 -10.0320    164.2917    247.1402   1.2212521013e+02  -3.9333256784e-01    0.3402329    0.1290296  36.59  0.001399625    2.535    0.606
       113  -8.7895     92.8616     20.6545   8.4000451077e+01   5.7538927583e+01    0.2125732    0.1590495   6.18 0.0006839266    1.332    0.249
       114  -8.4178    140.2163     19.9619   7.3084846976e+01   4.7333748206e+01    0.2231217    0.1672883  59.91 0.0004850476    1.179    0.152
       115  -8.5686      9.4184     19.8844   1.1437908643e+02   6.9242510827e+01    0.2551237    0.1497609   2.20 0.0009632226    1.680    0.405
       116  -8.3236      5.4693     18.9812   1.1582966294e+02   6.9669218353e+01    0.1513236   0.08242656 -40.92 0.0003219822    1.502    0.334
       117  -8.2024    117.8149     19.8351   7.7576098589e+01   5.2438506525e+01    0.1693635    0.1555618 -76.74  0.001076677    1.325    0.245
       118  -7.8400    111.7542    246.4485   1.3207148334e+02   8.6063337501e+00    0.1635741    0.1088341  37.67 0.0003463782    1.531    0.347
       119  -8.8456    127.6326     17.0440   7.4575154482e+01   5.0526228469e+01    0.2354984    0.1631704  50.54 0.0003919647    1.245    0.197
       120  -8.0342    117.1476    241.3691   1.3043293219e+02   8.6511528577e+00    0.1984933    0.1697247 -56.41 0.0006750127    1.406    0.289
       121  -7.3976     36.4278    239.5181   1.4503712599e+02   2.0761378974e+01    0.1135585   0.08604571  78.82 0.0001002873    1.068    0.064
       122  -7.4827    248.3045    237.7021   1.0493786922e+02  -1.2659740003e+01    0.1003193   0.09632156  46.95 0.0001784617    1.586    0.369
       123  -9.5502    188.0202    234.2942   1.1555068289e+02  -2.4344503195e+00    0.3224514    0.1908618 -57.05  0.001570997    2.418    0.586
       124  -7.2732    147.5135     14.5050   7.0134705460e+01   4.6156883354e+01    0.1319158    0.1143645  60.19 -3.653908e-05    1.007    0.007
       125  -7.0432     19.3273    219.3247   1.4652811870e+02   2.6765732228e+01    0.1027129   0.07961126 -58.70 0.0007049491    1.695    0.410
       126  -8.3327    105.5470     13.9476   7.8316689335e+01   5.5642027105e+01    0.1743294   0.09612579  13.91 0.0008072593    2.425    0.588
       127  -9.9725    167.7277    209.3699   1.1539078488e+02   5.6296489641e+00    0.2399324    0.2274459  59.48 0.0002580063    1.082    0.076
       128  -7.5238     42.1589    210.5981   1.4159046427e+02   2.5987163568e+01     0.138103    0.1146072  38.55  0.000374331    1.544    0.352
       129  -7.8432     10.9981    207.3353   1.4714947577e+02   3.0111300667e+01    0.1441721   0.09580934  -7.55 0.0004097528    4.406    0.773
       130  -7.5469    168.8448    194.8126   1.1249780119e+02   8.2472842383e+00    0.1875543    0.1637997  74.62  0.000239891    1.283    0.220
       131  -8.1878    115.0610    153.6131   1.1673865150e+02   2.7981789469e+01    0.2415003    0.1969258 -72.96  0.000564798    1.246    0.197
       132  -7.2169    203.5018     11.5602   6.1834308445e+01   3.3009371249e+01    0.1315856     0.105922 -84.95 5.787261e-05    1.070    0.066
       133  -7.4043    180.5236    146.5316   9.9758205126e+01   1.5815133817e+01    0.1540347    0.1504507 -10.29 0.0001622123    1.052    0.050
       134  -7.5694    137.4708     10.4801   7.0628105990e+01   4.8884344076e+01    0.1296406    0.1114991  56.10  3.79776e-05    1.001    0.001
       135  -9.1211     67.3820    144.7974   1.2723573238e+02   3.7937292679e+01    0.4395288    0.2900684  75.24  0.002116235    1.901    0.474
       136  -9.1134    226.4462    140.5703   8.9309591288e+01   7.0573371131e+00    0.2712904    0.2488565 -50.63  0.000554778    1.089    0.082
       137  -7.6799    139.6700    138.6888   1.0732502197e+02   2.6505248792e+01    0.1574343    0.1269271  -3.12 0.0004829771    1.670    0.401
       138  -7.5868    187.7048    133.6334   9.5178930772e+01   1.6892786655e+01     0.159719    0.1244671  -2.33 0.0006567616    1.720    0.419
       139  -8.0693      5.1945    133.6296   1.4149580098e+02   4.6935193812e+01     0.136026     0.112215 -13.38 0.0009486133    1.670    0.401
       140  -7.7508    193.4878    127.9329   9.2612739053e+01   1.6739189004e+01    0.2447174    0.1493662 -41.68 0.0009392189    1.589    0.371
       141  -7.4983    132.0173    125.3236   1.0599740967e+02   3.1157329771e+01    0.2547373    0.1280452  25.17 0.0007050896    4.360    0.771
       142  -8.7327    244.9968    121.8560   8.1973738905e+01   6.6771912591e+00    0.2080603    0.1924315 -43.85 0.0004165231    1.036    0.035
       143  -8.1113    230.5138    121.4606   8.4231302557e+01   9.7607005554e+00    0.1470043    0.1333932 -52.95 0.0001146315    1.047    0.045
       144  -7.3233    180.3089    121.3098   9.3706274190e+01   2.1134122199e+01    0.1563608    0.1263597   5.83 0.0003702274    1.619    0.383
       145  -7.1563     85.6785    121.6514   1.1755003446e+02   4.0710455026e+01    0.1506897    0.1092615 -24.84 0.0007049006    1.741    0.426
       146  -8.1855     12.6212    120.7036   1.3786822336e+02   4.9334600036e+01    0.1250961   0.07338718 -42.58 0.0007022914    1.754    0.430
       147  -7.2481    195.3086    119.6942   9.0232161327e+01   1.7972517431e+01    0.1571205    0.1204163 -77.03 0.0007018904    1.610    0.379
       148  -7.4131    119.5118    118.5783   1.0754069740e+02   3.5260546875e+01    0.1510289    0.1475431 -41.82  0.000282304    1.034    0.033
       149  -7.6979    100.2764    118.6151   1.1275845783e+02   3.8924692585e+01    0.2020347    0.1445599  28.44  0.000897612    1.622    0.384
       150  -7.5034    142.6461    111.7034   9.9836840578e+01   3.1838665113e+01    0.1597337    0.1258367   7.43 0.0007034192    1.692    0.409
       151  -8.5433      2.1856    109.5472   1.3910312859e+02   5.2514282229e+01    0.2975783   0.09059665 -45.42  0.001285882    3.105    0.678
       152  -8.0338    133.9128    106.1792   1.0054018056e+02   3.4946591025e+01    0.2940945    0.2058337 -15.03 0.0009521434    2.043    0.511
       153  -7.6985    124.3212    107.2955   1.0332246580e+02   3.6760830845e+01    0.1535009    0.1225104  -0.47 0.0003593908    1.615    0.381
