#   1 NUMBER                 Running object number                                     
#   2 MAG_AUTO               Kron-like elliptical aperture magnitude                    [mag]
#   3 X_IMAGE                Object position along x                                    [pixel]
#   4 Y_IMAGE                Object position along y                                    [pixel]
#   5 X_WORLD                Barycenter position along world x axis                     [deg]
#   6 Y_WORLD                Barycenter position along world y axis                     [deg]
#   7 A_WORLD                Profile RMS along major axis (world units)                 [deg]
#   8 B_WORLD                Profile RMS along minor axis (world units)                 [deg]
#   9 THETA_WORLD            Position angle (CCW/world-x)                               [deg]
#  10 FWHM_WORLD             FWHM assuming a gaussian core                              [deg]
#  11 ELONGATION             A_IMAGE/B_IMAGE                                           
#  12 ELLIPTICITY            1 - B_IMAGE/A_IMAGE                                       
         1 -13.7949    201.8652     49.2613   2.2557673253e+01   2.8342415175e+01     1.230355    0.9639987  35.61  0.004724994    1.674    0.403
         2 -12.8781    230.6831     23.8616   1.3887632806e+01   2.5255696204e+01    0.7930149    0.4499477 -61.54  0.003994449    1.572    0.364
         3 -12.5439    234.6402     19.4227   1.2648938189e+01   2.4946300964e+01    0.8255363    0.3984144 -61.41  0.003782794    1.900    0.474
         4 -11.1201     17.0904     11.3681   6.1773739420e+01   7.4368245591e+01    0.2183001    0.1661311 -39.24 0.0005782319    1.368    0.269
         5 -11.3191    246.0898      6.2783   9.2420871712e+00   2.4081951998e+01    0.5478473    0.0941506 -42.66   0.00230203    3.134    0.681
         6  -8.6101    158.2978      8.6958   1.6423896523e+01   4.3595585770e+01    0.1389226   0.08782054 -64.84 0.0002970671    1.585    0.369
         7 -10.9857     55.5114      8.0082   3.8532990674e+01   6.8539899206e+01    0.2420642    0.1795723  65.97  0.001190448    1.659    0.397
         8 -10.3586     90.8963    235.8067   8.4421872580e+01   1.4144978266e+01    0.4763179    0.2101824  50.72  0.001701424    2.256    0.557
         9  -9.8164    241.9366    249.5037   5.6900319300e+01  -7.4889673853e+00    0.1604844    0.1110783 -10.15  0.000719882    1.178    0.151
        10 -10.9569    139.7979    249.1725   7.5593310880e+01   5.2201315498e+00    0.3473919    0.2008059  58.90  0.001707293    2.900    0.655
        11  -9.5068    101.1112    250.1692   8.3661269601e+01   1.0274434952e+01    0.1702352     0.144756  19.44  0.001086055    1.231    0.188
        12 -11.4194    102.1691    241.1047   8.2528718308e+01   1.1678079374e+01    0.7284611    0.2797144 -47.19  0.002543117    3.433    0.709
        13 -10.1761     75.0000    249.9633   8.9070381608e+01   1.3670215633e+01    0.2755996    0.1628004 -77.84  0.001137763    2.119    0.528
        14 -10.7318     76.0000    244.9934   8.8455417844e+01   1.4424020145e+01    0.4568462    0.3160588  16.36  0.002757583    1.711    0.415
        15 -16.0970     56.2039    233.2943   9.1766490010e+01   1.9042124151e+01     4.841999     3.322512  -9.76   0.02609169    2.595    0.615
        16 -10.6397     75.9738    181.9695   8.1870039391e+01   2.7398726137e+01    0.5220586    0.2824985  65.06  0.001740323    2.414    0.586
        17 -10.5680    176.8780    185.2924   5.8198799774e+01   1.0210907350e+01    0.2603556    0.1915937 -27.98  0.001204988    1.364    0.267
        18 -11.5520    115.0867    182.5861   7.1873612072e+01   2.1182123667e+01    0.3038805    0.2490677  11.45   0.00163618    1.349    0.259
        19 -10.9759    127.5748    178.5424   6.8105727467e+01   1.9931187168e+01    0.4009395    0.2580744  83.08  0.001552198    3.133    0.681
        20 -10.6011    172.7637    177.9875   5.7696059938e+01   1.2201656980e+01     0.301083     0.267841  -8.24 0.0007312575    1.064    0.060
        21 -11.7467     97.8424    180.8685   7.5989429031e+01   2.4356073918e+01    0.5678799    0.3268101  39.45  0.001696477    1.574    0.365
        22 -11.6802    181.1738    173.5693   5.5107864819e+01   1.1555130854e+01    0.4965739    0.4056742 -19.60  0.002522973    1.183    0.155
        23 -10.5031    179.0155    167.7662   5.4412455511e+01   1.2970222472e+01    0.3115805    0.2065361  30.89  0.001253849    1.497    0.332
        24 -18.5277      8.1388    232.7421   1.0187158933e+02   2.4248859714e+01     8.381164     3.132641 -79.40   0.02186981    2.654    0.623
        25 -10.1214    198.6743    170.9343   5.1159562845e+01   9.0627119869e+00    0.4291264     0.215856 -53.79  0.001719219    3.164    0.684
        26 -11.2793    103.4820    171.1137   7.2961182068e+01   2.5647068135e+01    0.4214966    0.2931839  72.58  0.001460416    1.877    0.467
        27 -12.1117     84.4914    167.0358   7.7434305826e+01   2.9643281396e+01    0.8349844    0.7098122  13.64  0.003380174    1.336    0.251
        28 -10.4111    110.5599    167.0733   7.0401885090e+01   2.5367499231e+01    0.3175699     0.242124 -74.89  0.001019446    1.553    0.356
        29 -11.5943    247.0103    164.9204   4.1860926901e+01   2.5822899906e+00    0.5235633    0.2180952 -41.61  0.002508828    2.338    0.572
        30 -11.4493     62.4320    154.5965   8.1866263316e+01   3.5895810089e+01     1.186977      0.58671  40.41  0.004536244    1.901    0.474
        31 -11.0749     82.6090    151.4920   7.5411920587e+01   3.3697784238e+01     0.401598    0.2889321  69.85 0.0005012527    1.612    0.380
        32 -14.2606     68.8367    143.9753   7.8253340233e+01   3.7662478305e+01     2.110104     1.230014  84.99  0.003233348    2.532    0.605
        33  -8.5237     97.2746    156.6802   7.2139798855e+01   3.0044661306e+01    0.1495111    0.1125335  72.24 0.0002546096    1.572    0.364
        34  -9.4064     91.4833    154.6123   7.3400858585e+01   3.1505317649e+01    0.2692292    0.1844562  77.74  0.001089859    1.932    0.482
        35 -15.8347      8.5980    207.5886   1.0073425087e+02   2.9332513098e+01     1.018902    0.6296693 -10.30  0.005270908    3.053    0.672
        36 -11.1294    133.7435    145.3312   6.0097809523e+01   2.5962294369e+01     1.121705    0.2954857 -54.01  0.002724438    5.702    0.825
        37 -11.4794     89.5584    146.4799   7.2468400174e+01   3.3796882314e+01    0.6339307    0.4475886 -10.55  0.002743618    2.148    0.534
        38 -11.0306     55.2156    146.4670   8.2849189493e+01   3.8899800532e+01    0.6038941    0.4831398 -31.68  0.003194679    1.504    0.335
        39 -11.2997    133.1599    222.1010   7.3530383167e+01   1.0600656812e+01    0.3966914    0.2317891  57.75  0.001868403    2.442    0.591
        40  -9.4817     47.5221    145.0732   8.5032274719e+01   4.0209293434e+01    0.2595463    0.2043396  -0.71  0.001362121    1.611    0.379
        41 -11.9534     70.7059    162.9272   8.0682695980e+01   3.2683039282e+01    0.5213887    0.3654424 -27.92  0.001689782    1.968    0.492
        42 -11.7145     74.8480    158.7885   7.8870481178e+01   3.3093806958e+01     0.346441    0.3254751  20.00  0.001628306    1.162    0.140
        43 -11.0197    104.9126    131.9900   6.4995626847e+01   3.4572554993e+01    0.6719927    0.3967306 -33.83  0.002183338    2.183    0.542
        44 -10.8027    126.4939    213.5926   7.3835320683e+01   1.3144413537e+01    0.2733028    0.2182098  48.75 0.0009943409    1.256    0.204
        45 -11.6654     90.8740    133.0031   6.9394357656e+01   3.6872665053e+01    0.2873899    0.2729757 -35.61 0.0003617845    1.111    0.100
        46 -10.9148     44.6275    130.7693   8.3864703227e+01   4.4223323107e+01    0.4955828       0.2516 -82.45  0.001987642    2.342    0.573
        47 -10.8445    135.0000    122.4904   5.4504675788e+01   3.0695761093e+01    0.8213938   0.08784246 -45.77  0.001463807    9.411    0.894
        48  -9.4213     75.1933    127.4937   7.3175666116e+01   4.0855218841e+01    0.2919224    0.1851655  74.12  0.001051205    2.280    0.561
        49 -10.7146    112.1586    126.8080   6.1725365106e+01   3.4398158658e+01    0.3248286    0.2461606  27.72 0.0008431566    1.427    0.299
        50  -9.3629    139.5508    130.7069   5.5333615929e+01   2.7972317898e+01    0.2024586    0.1477164 -58.17 0.0009251151    1.523    0.343
        51 -10.9161    106.6146    123.5014   6.2548543994e+01   3.6255335802e+01    0.2844177    0.2551197  79.89 0.0003596169    1.211    0.174
        52  -9.5745     73.5880    122.5614   7.2678049863e+01   4.2350033666e+01    0.2942747    0.1981336  69.62 0.0008772473    1.930    0.482
        53 -10.3999    117.9500    122.0194   5.8946182355e+01   3.4342111008e+01    0.2532743    0.1960296  -5.57  0.001105674    1.729    0.422
        54 -10.3233     99.3262    121.8759   6.4339619840e+01   3.8036643620e+01    0.2775283     0.237963   7.91 0.0005014429    1.349    0.259
        55 -10.5076    230.6492    165.1749   4.4444156371e+01   4.9189736694e+00    0.2741815    0.1329242  20.02  0.001105086    3.483    0.713
        56 -10.0600     54.2600    162.1759   8.5294130214e+01   3.5080096335e+01    0.4153093    0.1936636  30.60  0.001766272    2.106    0.525
        57 -10.3264     33.6106    118.6809   8.5782043810e+01   4.8544829960e+01    0.3325976    0.2287729 -21.42  0.001272079    1.861    0.463
        58  -9.3032    108.0377    116.5000   6.0426485999e+01   3.7612078594e+01    0.2179535    0.2091885 -53.57 0.0003046544    1.050    0.047
        59 -10.6710    141.2172    211.0409   7.0180814791e+01   1.1348927636e+01    0.2467748    0.2208399 -51.42 0.0007152827    1.327    0.246
        60  -9.7734    205.3533    110.3326   3.6941243559e+01   1.8174969077e+01    0.2531217    0.2145685  46.37 0.0009742487    1.291    0.226
        61 -11.2382     53.0717    108.5062   7.6866442878e+01   4.8901928751e+01    0.4850368    0.2016108 -59.74  0.001401945    2.230    0.552
        62  -9.9472    115.2053    108.6018   5.6310807824e+01   3.7944569273e+01    0.2258104    0.1477744  32.70 0.0009510001    1.679    0.404
        63  -9.8229    133.8262    106.2156   5.0626065356e+01   3.4430757667e+01    0.2210617    0.1895203  -1.34  0.001079189    1.380    0.275
        64 -11.4834     42.0725    104.0077   8.0067041193e+01   5.1408639823e+01    0.4789506    0.2845405  46.21  0.001568959    1.837    0.456
        65 -10.7158    192.2720    193.7842   5.6655171837e+01   6.3299088365e+00    0.7326991    0.4051303 -63.44  0.002137146    7.701    0.870
        66  -9.4425     70.2319    194.3950   8.4866897428e+01   2.5370502531e+01    0.2424235    0.1462511  62.56   0.00117719    1.779    0.438
        67 -10.1117     46.8091     90.6418   7.5256014638e+01   5.4194523478e+01    0.2009818    0.1263831  39.29 0.0005011629    1.675    0.403
        68 -10.1388     77.4659    187.0346   8.2132861625e+01   2.6025496055e+01    0.2818052    0.2370443 -76.56 0.0004602829    1.248    0.199
        69 -11.0496     33.8781     86.9983   7.9771568034e+01   5.6586911786e+01    0.3726377    0.1834552  36.40  0.001639201    2.136    0.532
        70  -8.6604     64.5014     81.4989   6.5692808945e+01   5.3829397012e+01    0.1441831    0.1420934 -54.84 -9.796379e-06    1.056    0.053
        71  -9.0860    184.5018     77.4635   3.2246771298e+01   2.8121114901e+01    0.1417473    0.1337519 -57.97 5.597592e-05    1.019    0.018
        72 -11.6023     37.3896     70.1953   7.3963120673e+01   6.0252197284e+01    0.3176411    0.2876693  21.34 0.0003911177    1.167    0.143
        73  -9.9730    146.7012     67.3268   3.6381138397e+01   3.8834569133e+01     0.399692    0.2333873 -53.51  0.001673604    1.927    0.481
        74 -12.3580    185.4986     61.3607   2.7838892576e+01   3.0396456220e+01    0.4998823    0.4362122 -24.26 0.0008376802    1.266    0.210
        75 -10.4560    134.7326     59.3750   3.6488442216e+01   4.3108086082e+01    0.4299365    0.2708152  88.62   0.00170241    2.409    0.585
        76 -10.2338    115.2355    248.6382   8.0571582695e+01   8.6388202533e+00    0.2688209    0.1987076  62.91  0.001214459    1.622    0.384
        77 -12.6733    207.8077     44.2574   2.0653210767e+01   2.7674588990e+01    0.5608864    0.4925045 -54.70  0.001701249    1.064    0.060
        78  -9.4010     45.1251     39.1232   5.9113973558e+01   6.5776804724e+01     0.167509    0.1586816  45.79  0.000337758    1.280    0.219
        79  -9.4222     93.7234    248.6797   8.5058733547e+01   1.1497481998e+01    0.2461839    0.1477635 -63.76  0.001458436    2.079    0.519
        80 -10.8791    124.9759    244.4481   7.8081550241e+01   7.9910640188e+00    0.3152133     0.167579 -52.60  0.001404614    2.324    0.570
        81  -8.6688     58.3049     24.2842   4.5972812395e+01   6.5926968711e+01    0.1357786   0.09531622  15.47  0.000283847    1.560    0.359
        82 -10.0282     60.3789     21.1142   4.3509919488e+01   6.5962347981e+01    0.2743672    0.1743269  28.89 0.0004235831    1.604    0.376
        83 -10.6019    125.3542    238.7618   7.7335478315e+01   8.8729373681e+00     0.318606    0.1714145 -38.14  0.001208174    2.443    0.591
        84 -10.9768    161.5805    186.8519   6.1723275768e+01   1.2477916898e+01     0.401117    0.2398896 -55.28  0.001679603    2.143    0.533
        85 -10.6576    108.5353    239.6982   8.1019356540e+01   1.1052555077e+01    0.2823936    0.2054565 -46.99  0.001764976    1.693    0.409
