#   1 NUMBER                 Running object number                                     
#   2 MAG_AUTO               Kron-like elliptical aperture magnitude                    [mag]
#   3 X_IMAGE                Object position along x                                    [pixel]
#   4 Y_IMAGE                Object position along y                                    [pixel]
#   5 X_WORLD                Barycenter position along world x axis                     [deg]
#   6 Y_WORLD                Barycenter position along world y axis                     [deg]
#   7 A_WORLD                Profile RMS along major axis (world units)                 [deg]
#   8 B_WORLD                Profile RMS along minor axis (world units)                 [deg]
#   9 THETA_WORLD            Position angle (CCW/world-x)                               [deg]
#  10 FWHM_WORLD             FWHM assuming a gaussian core                              [deg]
#  11 ELONGATION             A_IMAGE/B_IMAGE                                           
#  12 ELLIPTICITY            1 - B_IMAGE/A_IMAGE                                       
         1 -14.1384    156.7916     53.4747   8.3325105414e+01   3.8987501119e+01     1.205789    0.9593558  27.18  0.003747257    1.340    0.254
         2 -14.4492    168.8006     37.7911   7.5955698039e+01   3.8159499287e+01     1.274576     1.008472   6.15  0.004396788    1.406    0.289
         3 -14.0366    184.2516      6.3015   6.3841892795e+01   3.7636077631e+01    0.9844972    0.8694224 -74.86  0.004861275    1.113    0.101
         4 -11.9236    161.2143    198.6562   1.1679823457e+02   1.3072785514e+01    0.2688277    0.2233546  67.69  0.001677446    1.830    0.454
         5 -19.1322     71.4665    240.1073   1.3927529355e+02   1.8375627274e+01     5.602314     4.821299  53.46   0.04100215    1.151    0.131
         6 -13.1530    137.8931    198.2920   1.2156004765e+02   1.6577782362e+01    0.6074893      0.32464  54.03  0.002856735    2.590    0.614
         7 -11.4119    175.2185    193.8081   1.1324024877e+02   1.1688674463e+01    0.2489639    0.2069296 -69.48  0.001303091    2.060    0.515
         8 -10.8641    180.1682    192.4917   1.1205379794e+02   1.1130543210e+01    0.2070151    0.1911702  46.84 0.0006716293    1.482    0.325
         9 -12.4660    167.4472    190.9543   1.1432956699e+02   1.3293487133e+01    0.3896503    0.2619596  22.36   0.00167667    1.326    0.246
        10 -18.8135     57.9834     94.9246   1.2544267373e+02   5.0183591602e+01     18.24585    0.7929326 -61.09   0.02300444   22.409    0.955
        11 -11.8870    158.7409    204.7116   1.1819638458e+02   1.2535330512e+01    0.3001649     0.215678  55.55  0.001772897    1.894    0.472
        12 -11.1385    176.8192    188.2307   1.1200333712e+02   1.2261125291e+01     0.196498    0.1702633 -32.23 0.0008104661    1.374    0.272
        13 -11.0255    184.1633    186.8359   1.1032361752e+02   1.1333345408e+01    0.1892003    0.1612762  28.34 0.0009029311    1.230    0.187
        14 -11.2264     25.8776    230.9704   1.4730730559e+02   2.4406061902e+01    0.1967195    0.1249055  86.24  0.001311314    1.571    0.364
        15 -11.7659    176.0224    234.0495   1.1893302298e+02   6.2161030116e+00    0.1986776    0.1492249 -26.19  0.001448512    1.547    0.354
        16 -12.4563    155.8335    197.7236   1.1775006788e+02   1.4015518921e+01    0.4440466    0.3045395 -86.52  0.001956297    4.110    0.757
        17 -12.1818    205.5059    180.4793   1.0516521571e+02   8.9421936315e+00    0.4583043    0.2600389  29.84  0.002110167    1.560    0.359
        18 -12.2256    208.5295    178.5072   1.0425447897e+02   8.7454278887e+00    0.3955621    0.2803497  11.22  0.002196743    1.223    0.183
        19 -12.5894    196.0534    171.3939   1.0525160745e+02   1.1691658550e+01    0.6560727    0.3599266 -42.20  0.002917102    2.149    0.535
        20 -11.9904    141.4727    174.4985   1.1713852328e+02   2.0068865988e+01    0.2306121    0.2017858  27.00 0.0006783331    1.031    0.030
        21 -13.3953    137.7648    170.9591   1.1737917756e+02   2.1296417000e+01    0.6799043    0.3293781  35.49  0.002686368    1.860    0.462
        22 -12.6999    144.5776    168.5125   1.1542111471e+02   2.0627815847e+01    0.4370297    0.3103271  52.81  0.002334222    1.643    0.391
        23 -10.9592    198.8999    222.6720   1.1324926737e+02   4.5560274664e+00    0.1651453    0.1136516  24.05 0.0006053223    1.133    0.117
        24  -9.9437    201.6143    165.3070   1.0303625649e+02   1.1668724549e+01    0.1167929    0.1061346  71.84  0.000701873    1.803    0.445
        25 -10.7552    223.7521    163.8880   9.8790578141e+01   8.3372544533e+00    0.2058352    0.1586562 -34.75 0.0005409523    1.544    0.352
        26 -11.9583    162.8591    154.8449   1.0881011672e+02   1.9924875502e+01    0.4751643    0.3696934 -79.33  0.002378971    2.259    0.557
        27 -10.4633     20.7686    219.3614   1.4781094886e+02   2.6822971895e+01    0.1086301   0.07774183  46.68 0.0002211379    1.121    0.108
        28 -14.1376    132.9425    145.4050   1.1384401883e+02   2.6949589489e+01    0.9439959     0.625576 -60.76  0.004517203    1.920    0.479
        29 -13.7762    193.7895    193.6927   1.0964712391e+02   8.9223766621e+00    0.9508199    0.5440444 -50.32  0.004033328    2.907    0.656
        30 -10.9198     14.3666    151.3070   1.4590441195e+02   4.0845668265e+01    0.2373566    0.1643168 -25.49  0.001424438    2.070    0.517
        31 -11.8764    163.4676    203.8956   1.1713448168e+02   1.1966194917e+01    0.2460987    0.2034517 -21.86  0.000524985    1.322    0.244
        32 -11.0834    174.6662    148.9355   1.0508075024e+02   1.8835218382e+01    0.2317887    0.2261719  85.77 0.0008810019    1.374    0.272
        33 -12.5773    144.7464    145.8049   1.1109241312e+02   2.4781794305e+01    0.3990461    0.3193158 -82.68  0.002039993    1.887    0.470
        34 -12.9719      5.6347    139.5451   1.4749341733e+02   4.4083184042e+01    0.4984962    0.4071735  69.48  0.002073462    1.072    0.067
        35 -13.0406      2.8656    126.2324   1.4748441770e+02   4.7310065670e+01     1.030267    0.2703413 -87.09  0.003760305    3.767    0.735
        36 -11.9281      3.1497    112.4171   1.4649796182e+02   5.0556008805e+01     0.298006    0.2591431 -49.92  0.001370547    1.282    0.220
        37 -12.0189     10.9776    110.8891   1.4391415429e+02   5.0485813319e+01    0.4398018    0.2110899  -2.16  0.002012875    3.149    0.682
        38 -11.3382     20.9686    141.0958   1.4345640913e+02   4.2653715491e+01    0.1868117    0.1584159  72.13 0.0006169286    1.044    0.043
        39  -9.7993    172.3112    138.6715   1.0338317432e+02   2.1010623521e+01    0.1315714    0.1162817 -86.53 0.0003309319    1.666    0.400
        40 -12.5368    106.0504    130.8650   1.1790663361e+02   3.4604993809e+01    0.4105711    0.3528872 -71.11  0.001300699    1.285    0.222
        41 -11.6935    108.9594    124.9727   1.1587958932e+02   3.5403613563e+01    0.3026667    0.2577223  -7.70 0.0007066129    1.319    0.242
        42 -12.5178    119.6586    129.0752   1.1385728510e+02   3.2642286723e+01    0.3959161    0.3503399  51.61  0.001197062    1.187    0.158
        43 -12.6303    135.6884    122.3966   1.0819537310e+02   3.1054025199e+01    0.6473264     0.246916 -49.87  0.002227748    2.983    0.665
        44 -13.2626    125.1318    126.0430   1.1175006751e+02   3.2289320055e+01    0.6966599    0.4478295 -70.13  0.002900294    2.445    0.591
        45 -11.4647    100.4662    126.8425   1.1864850017e+02   3.6418772303e+01    0.2663155    0.2031158  35.70 0.0008583535    1.293    0.226
        46 -11.2099    114.0011    118.3420   1.1300901650e+02   3.5960081327e+01    0.2357038    0.2012879 -30.23  0.000370468    1.207    0.171
        47 -10.9748    116.1076    115.3413   1.1172491336e+02   3.6225076605e+01    0.2752669    0.2013781  55.36  0.000910099    1.562    0.360
        48 -11.2378    167.5092    113.0055   9.8380054565e+01   2.6467456260e+01    0.4269228    0.3178945  79.94   0.00190818    2.279    0.561
        49 -11.3354    160.7608    128.0700   1.0352331655e+02   2.5096785779e+01    0.3559188    0.2014186 -41.72  0.001583578    1.810    0.448
        50 -12.1965     31.4552    112.6529   1.3749887043e+02   4.8572358857e+01    0.2614999    0.1998507  80.34 0.0008855565    1.276    0.217
        51 -12.1411     96.7371    110.2312   1.1613640935e+02   4.0795821015e+01    0.4204111    0.3038799  -0.35  0.001703825    1.897    0.473
        52 -10.6976    205.5005    110.1543   9.0205055025e+01   1.9223382839e+01    0.2988098     0.194295  34.94 0.0009879764    1.582    0.368
        53 -12.8176     27.7994    118.1650   1.3931930899e+02   4.7533890804e+01    0.3352726    0.2396414 -38.80  0.001287676    1.616    0.381
        54 -11.0707     41.7612     91.9531   1.3073166782e+02   5.2738660708e+01    0.2115785    0.1979278  22.69 0.0004609381    1.189    0.159
        55 -10.2218    118.0566     67.0570   9.7359800067e+01   4.5861135801e+01    0.2288173    0.1908836 -78.64 0.0004135532    1.586    0.369
        56 -10.9293    196.8881    245.8342   1.1678002418e+02   2.2328842895e+00     0.168807    0.1104553  14.42 0.0009342073    1.199    0.166
        57 -11.0262     13.5208    244.8262   1.4997545429e+02   2.3260685579e+01    0.2409512   0.06962986 -72.94  0.001341981    3.691    0.729
        58 -12.5458    172.4202     30.6514   7.3057148358e+01   3.8118909170e+01    0.4285152    0.3368869  -7.42 0.0009791184    1.355    0.262
        59 -10.0786     13.3819     59.8897   1.3639184321e+02   6.2898662652e+01    0.1863946    0.1358875 -64.19 0.0004540015    1.137    0.121
        60 -10.2909    136.0392     30.5396   7.9447106262e+01   4.7430950296e+01    0.2240296    0.1460766  62.80 0.0006646187    1.565    0.361
