#   1 NUMBER                 Running object number                                     
#   2 MAG_AUTO               Kron-like elliptical aperture magnitude                    [mag]
#   3 X_IMAGE                Object position along x                                    [pixel]
#   4 Y_IMAGE                Object position along y                                    [pixel]
#   5 X_WORLD                Barycenter position along world x axis                     [deg]
#   6 Y_WORLD                Barycenter position along world y axis                     [deg]
#   7 A_WORLD                Profile RMS along major axis (world units)                 [deg]
#   8 B_WORLD                Profile RMS along minor axis (world units)                 [deg]
#   9 THETA_WORLD            Position angle (CCW/world-x)                               [deg]
#  10 FWHM_WORLD             FWHM assuming a gaussian core                              [deg]
#  11 ELONGATION             A_IMAGE/B_IMAGE                                           
#  12 ELLIPTICITY            1 - B_IMAGE/A_IMAGE                                       
         1 -13.3054     66.4894    143.0740   1.3085721666e+02   3.8512343489e+01     2.232511     1.029261  88.68  0.003315005    4.869    0.795
         2 -13.7700      5.5341     12.1880   1.2013000124e+02   7.2629474548e+01     2.571635    0.5392494 -47.21   0.01123764    3.080    0.675
         3 -13.4081    205.2006      8.4945   6.3291726051e+01   3.2829375228e+01     1.350121    0.6287896  50.62  0.001408492    2.353    0.575
         4 -14.3234    200.2596     14.8228   6.5559852757e+01   3.3415483706e+01      2.80718     1.735082  29.13   0.01116464    2.333    0.571
         5 -14.8272     50.8842    220.4691   1.4257262068e+02   2.4061074595e+01     1.961394     1.361763  88.53  0.009445361    1.247    0.198
         6 -11.5323    141.3858    249.9983   1.2925057278e+02   6.0312357550e+00    0.5163603    0.1350636  40.55  0.002080571    3.182    0.686
         7 -11.3261    125.2825    250.0807   1.3205306606e+02   8.5036985981e+00    0.3847449    0.1317868  42.99  0.001846065    2.260    0.558
         8 -10.5601    111.8850    250.1364   1.3437095081e+02   1.0513499320e+01    0.2317035    0.1469166  59.21  0.001442988    1.318    0.241
         9 -12.1896    106.5136    247.3108   1.3502959635e+02   1.1750292391e+01    0.4300765    0.2842185  42.25  0.002059165    1.357    0.263
        10 -11.7081     98.0146    248.2661   1.3658037533e+02   1.2838777620e+01    0.4271737    0.2243039  59.37  0.001361305    1.647    0.393
        11 -11.3815    101.2931    246.0081   1.3581181198e+02   1.2724351053e+01    0.2880328    0.2034101 -83.98 0.0003877067    1.553    0.356
        12 -10.6040     88.8630    249.1526   1.3821606574e+02   1.3997890001e+01    0.2410362    0.1328498  49.17 0.0006766659    1.381    0.276
        13 -11.5501     81.4040    248.7250   1.3944129836e+02   1.5100970515e+01    0.4089327    0.1996761  61.27  0.002412747    1.781    0.438
        14 -12.1901     82.4133    243.5730   1.3885475966e+02   1.5811074291e+01    0.6055339    0.2913654  75.93  0.003128919    2.656    0.623
        15 -14.7875     33.4263    246.8730   1.4716374891e+02   2.1421673397e+01     8.334933     2.938792  30.78    0.0323445    6.397    0.844
        16 -11.1450    119.7458    237.7483   1.3173193778e+02   1.1272627159e+01     0.303445    0.1782983 -82.29  0.001670111    2.410    0.585
        17  -9.9362    229.6659    229.5479   1.1110780833e+02  -5.3115046678e+00    0.1670642    0.1434494 -51.02  0.000877382    1.789    0.441
        18 -10.8860     33.6910    228.8950   1.4612113857e+02   2.4535403737e+01    0.2304261    0.1502715 -87.43 0.0008034412    1.342    0.255
        19 -11.8635    124.2991    243.5510   1.3154200088e+02   9.6497470781e+00    0.3631907     0.225879  71.07  0.002157252    1.866    0.464
        20 -15.6739      3.3502    233.5547   1.5126900394e+02   2.6861286249e+01     11.50516    0.4076482 -75.07   0.03708105    8.621    0.884
        21  -9.8710     94.5513    216.5504   1.3412105524e+02   1.8814206428e+01    0.2565369    0.1635158  67.32 0.0008081062    1.463    0.316
        22  -8.9277    152.7446    212.9378   1.2244532331e+02   9.9128925132e+00    0.1654522     0.148079  53.55 0.0003374222    1.066    0.061
        23 -10.4071    193.2758    195.2471   1.1180885117e+02   5.5071731861e+00    0.5299261    0.2648668 -61.09  0.001731184    5.451    0.817
        24 -11.5335     68.6193    196.4271   1.3709432762e+02   2.6471726202e+01    0.3215273    0.2401163 -49.63  0.001397325    1.814    0.449
        25 -11.6734     73.7727    188.9696   1.3523789091e+02   2.7298524712e+01    0.2658237    0.2203883 -60.80 0.0007780048    1.421    0.296
        26 -10.9680     82.6098    176.6774   1.3184938978e+02   2.8633022786e+01    0.2385346    0.2053902 -88.59 0.0004184566    1.088    0.081
        27 -13.2452     70.0936    174.3771   1.3431237566e+02   3.0931558540e+01    0.4638469    0.2699598 -47.03  0.001657605    2.279    0.561
        28  -9.9464    119.7730    174.5795   1.2333245550e+02   2.2989886003e+01    0.2044007    0.1172342  53.23 0.0009539838    1.682    0.405
        29 -12.3239     89.1279    167.5438   1.2912072861e+02   2.9635144385e+01     1.385948    0.5186273  52.10  0.005343283    2.852    0.649
        30 -11.4379    245.1579    248.5450   1.1152062725e+02  -9.6230654793e+00    0.3454259    0.1664488  28.45  0.002051683    1.739    0.425
        31  -9.2940    104.0981    146.8190   1.2214388922e+02   3.1818104445e+01    0.3199613     0.181477 -36.54  0.001169766    2.617    0.618
        32 -11.9700     90.0787    150.7314   1.2625676873e+02   3.3263577444e+01    0.2733757    0.2456724 -49.60 0.0004946177    1.284    0.221
        33 -11.8947     44.3219    149.0122   1.3713219690e+02   3.9877544829e+01    0.3846772    0.3124871 -10.75  0.002353085    1.961    0.490
        34  -8.7157    192.3533    144.1887   1.0171853726e+02   1.4477434830e+01     0.197496    0.1342033 -48.14 0.0004180697    1.568    0.362
        35  -9.8297    111.5225    136.7929   1.1834548229e+02   3.2766209746e+01    0.3277876    0.2428792 -21.74  0.001302797    2.018    0.505
        36 -10.4700     99.2172    133.8814   1.2087098576e+02   3.5625700568e+01    0.2781399    0.2230642 -38.81 0.0004483565    1.444    0.308
        37 -14.1856     10.1674    207.1173   1.4894418549e+02   3.1069300641e+01     2.193565     1.481099 -37.05   0.01345201    3.297    0.697
        38 -11.0363     50.1577    129.8011   1.3302935528e+02   4.3673793754e+01    0.2738763    0.2053014  58.63 0.0006006286    1.379    0.275
        39 -11.3010     43.9685    128.9915   1.3454656918e+02   4.4560614774e+01      0.33591    0.1694459 -76.08  0.001621876    1.852    0.460
        40  -8.9172    117.3170    129.3308   1.1529467505e+02   3.3366432647e+01    0.1469891    0.1196898 -13.81 0.0005693551    1.685    0.406
        41  -9.3235    108.2127    123.7836   1.1639657289e+02   3.6342913580e+01    0.2047756    0.1848318 -83.72 0.0003558164    1.077    0.072
        42 -13.5519     46.0998    230.9144   1.4414127935e+02   2.2726010923e+01    0.8866184    0.2930823  47.28  0.001657373    2.259    0.557
        43 -10.9961    168.2692    113.3300   9.9275789036e+01   2.5829210116e+01    0.3796696    0.3161263 -86.77 0.0008081846    1.423    0.297
        44 -11.1495     33.0915    157.3895   1.4069175477e+02   3.9187589569e+01    0.2357627    0.1570346  74.00  0.001079815    1.338    0.253
        45  -9.8858    101.4226    151.4572   1.2363417901e+02   3.1228834007e+01    0.2931632    0.2543686 -58.76 0.0007650822    1.194    0.162
        46 -10.2503    162.9092    249.1599   1.2541234877e+02   2.7661766874e+00    0.1862806    0.1347959  54.43  0.001250896    1.303    0.233
        47  -9.2762    186.2964    238.6880   1.1995218951e+02   4.2362620683e-01    0.1101913   0.08516686  62.14 0.0002063322    1.598    0.374
