#   1 NUMBER                 Running object number                                     
#   2 MAG_AUTO               Kron-like elliptical aperture magnitude                    [mag]
#   3 X_IMAGE                Object position along x                                    [pixel]
#   4 Y_IMAGE                Object position along y                                    [pixel]
#   5 X_WORLD                Barycenter position along world x axis                     [deg]
#   6 Y_WORLD                Barycenter position along world y axis                     [deg]
#   7 A_WORLD                Profile RMS along major axis (world units)                 [deg]
#   8 B_WORLD                Profile RMS along minor axis (world units)                 [deg]
#   9 THETA_WORLD            Position angle (CCW/world-x)                               [deg]
#  10 FWHM_WORLD             FWHM assuming a gaussian core                              [deg]
#  11 ELONGATION             A_IMAGE/B_IMAGE                                           
#  12 ELLIPTICITY            1 - B_IMAGE/A_IMAGE                                       
         1 -15.1649      6.6338    147.0141   2.9267433537e+02   6.0366253357e+00    0.3164079    0.1264306 -73.55   0.02295945    3.385    0.705
         2 -13.5287    193.8095     28.2850   2.8969204513e+02   6.3481900269e+00   0.06882745   0.06280607  -5.33   0.00684152    1.115    0.103
         3 -13.7223    207.9084      9.2380   2.8941221832e+02   6.4881739706e+00   0.07557768   0.05419001 -15.32   0.00777918    1.640    0.390
         4 -12.6820      2.4555      5.2171   2.9195914204e+02   7.7086991862e+00   0.06092066   0.02945946 -71.69   0.00515356    2.458    0.593
         5 -11.2763    196.7527    242.5990   2.9082031896e+02   3.8409769565e+00   0.03170569    0.0162384  78.72  0.002212757    3.938    0.746
         6 -11.0633    248.6728    249.1398   2.9020986126e+02   3.4678927324e+00   0.02626356   0.01321772  23.65   0.00233079    1.886    0.470
         7 -11.9714    238.9364    248.1316   2.9032546441e+02   3.5353381482e+00   0.02781171   0.01737681  25.58  0.002766408    1.492    0.330
         8 -11.0607    126.4130    250.3581   2.9173823462e+02   4.1525041521e+00   0.02390974  0.007818265  24.28  0.001703846    2.897    0.655
         9 -10.3469    110.6674    250.5772   2.9193558827e+02   4.2397453399e+00   0.01810135  0.005914676  27.19  0.001320146    2.707    0.631
        10 -11.4282     99.9807    248.7310   2.9205878234e+02   4.3221325894e+00   0.02491999   0.01602807  -8.97   0.00234197    1.971    0.493
        11 -10.0945     29.0717    249.6331   2.9294741983e+02   4.7150286096e+00   0.01431675   0.01158754 -49.32  0.001177786    1.292    0.226
        12 -11.0584     34.7032    245.7596   2.9285637329e+02   4.7281216103e+00    0.0367655   0.02049201 -53.64  0.003481473    1.834    0.455
        13 -10.4303      2.8619    248.7793   2.9326953537e+02   4.8736933083e+00   0.01999717    0.0147715 -42.42  0.002147982    1.438    0.305
        14  -9.4505     23.1351    245.7036   2.9300027879e+02   4.7944650644e+00   0.01141118  0.007460442  40.32  0.001146937    1.469    0.319
        15 -11.4292    139.4935    250.0125   2.9157342397e+02   4.0818906911e+00   0.01903917    0.0140227  37.53  0.002051736    1.286    0.222
        16 -10.0754      5.7134    241.0703   2.9319254762e+02   4.9472416502e+00   0.01265135  0.009379147   7.97  0.000421263    1.404    0.288
        17 -10.6554    249.1234    238.2517   2.9014519392e+02   3.5918142155e+00   0.02189524   0.01018153  87.51  0.001286504    5.498    0.818
        18  -9.3587     12.8467    240.5574   2.9310085516e+02   4.9127466214e+00   0.01354767  0.006628249  18.59  0.001143466    2.106    0.525
        19 -10.4563    183.6144    238.3505   2.9096086398e+02   3.9654892869e+00   0.01436746  0.008947928 -25.39  0.001036836    2.026    0.507
        20  -9.8885    119.7453    238.9634   2.9175974120e+02   4.3230869261e+00  0.008781756   0.00591962 -63.40 0.0008882972    1.569    0.363
        21  -9.7567    233.8006    236.8121   2.9032795423e+02   3.6962696493e+00  0.009680678  0.007662645  53.61 0.0006243132    1.332    0.249
        22 -14.3011      9.5351    206.6161   2.9295947476e+02   5.3265589050e+00    0.7108101          nan  31.35   0.01165761    8.575    0.883
        23 -10.0501    161.9472    249.4989   2.9129100029e+02   3.9596653615e+00   0.01077915  0.006425212  24.13  0.000775774    1.578    0.366
        24 -11.6594     63.4451    199.0978   2.9224635298e+02   5.1077223390e+00   0.01790048   0.01209814 -36.47 0.0006248124    1.647    0.393
        25 -11.3270     20.8034    200.1572   2.9278408572e+02   5.3377795101e+00   0.01309419   0.01154903  22.36 0.0004072331    1.067    0.062
        26 -11.7784     17.0131    198.0104   2.9281980926e+02   5.3842797881e+00   0.03364987   0.01122692  37.57 0.0004067673    2.675    0.626
        27  -9.7491    191.8849    193.0182   2.9061214357e+02   4.4452570457e+00   0.02037743   0.01060348  73.10   0.00147309    3.589    0.721
        28  -9.7087     47.8091    199.5938   2.9244410082e+02   5.1908978626e+00   0.01046612  0.005519766  36.73  0.000945907    1.752    0.429
        29  -8.5576     51.5449    197.4403   2.9238587017e+02   5.1947132102e+00  0.006870259  0.006292368  36.48 0.0002956783    1.056    0.053
        30 -11.9214     69.3886    190.9281   2.9212807430e+02   5.1689571018e+00   0.01567552   0.01297537 -24.95 0.0004964058    1.300    0.231
        31  -8.5744     47.6774    192.7311   2.9240870581e+02   5.2715096825e+00  0.006894661  0.005062066 -19.02 0.0002453161    1.567    0.362
        32 -10.6183    173.8682    222.4414   2.9099606270e+02   4.2061930243e+00    0.0221111   0.01413883  56.95  0.002136905    1.824    0.452
        33 -10.9728     79.1077    178.1249   2.9193760071e+02   5.2625817878e+00   0.01258376    0.0115283 -12.39 0.0003429765    1.121    0.108
        34 -13.3116     66.0788    176.0857   2.9208916455e+02   5.3605069209e+00   0.02721347   0.01400793 -40.04  0.001679202    2.270    0.559
        35 -11.9021     86.8868    168.5197   2.9178856770e+02   5.3300092174e+00    0.0356522   0.02894233   0.60  0.004000179    1.288    0.223
        36  -8.9123     97.9339    172.0000   2.9166955513e+02   5.2265371842e+00   0.01142042  0.003701328  24.63  0.000795376    2.894    0.654
        37 -12.7438     37.6900    233.5484   2.9275337899e+02   4.8532622457e+00   0.01881702   0.01516396 -40.09 0.0007570386    1.313    0.238
        38 -10.0863     98.8425    152.5294   2.9155278844e+02   5.4478609231e+00   0.01670019   0.01373632 -26.75  0.000835899    1.309    0.236
        39  -9.1944    101.5630    148.3306   2.9149608746e+02   5.4811822159e+00  0.008983968  0.006270732 -49.55 0.0009256512    1.494    0.331
        40 -12.1572     87.3886    151.8203   2.9169191352e+02   5.5214258765e+00   0.01442641   0.01200603 -26.38 0.0005948236    1.288    0.224
        41  -9.4300    187.6119    150.8565   2.9043650007e+02   4.9598816788e+00   0.02133132   0.01015322  61.92  0.001491052    3.665    0.727
        42 -12.6460     67.0177    143.9126   2.9190343177e+02   5.7294865261e+00   0.03997915   0.02625865  56.20  0.003955363    1.739    0.425
        43  -9.8315     39.3394    146.8732   2.9226508611e+02   5.8525291544e+00     0.012964  0.008661275  34.66  0.001326251    1.391    0.281
        44  -8.7587    182.0203    145.4735   2.9047695590e+02   5.0544801212e+00     0.010097  0.006329506  26.88 0.0004097341    1.478    0.323
        45 -14.6195     43.3231    225.4755   2.9263963808e+02   4.9152002976e+00    0.2474223   0.09457731  22.16  0.006754229    2.595    0.615
        46  -9.7163    110.0679    137.5904   2.9133172256e+02   5.5575673965e+00   0.02067069    0.0102823 -34.94  0.001479842    2.646    0.622
        47  -8.4484    191.9851    144.0337   2.9034492725e+02   5.0141413363e+00  0.007783208  0.007732537  13.81 0.0004183429    1.060    0.057
        48 -10.5539     97.3480    134.6816   2.9147473970e+02   5.6639882269e+00   0.01277921   0.01046996 -21.64 0.0003420913    1.322    0.243
        49  -9.7760     93.0476    132.8590   2.9151855223e+02   5.7097174829e+00   0.01260186  0.009216137  51.51 0.0006619135    1.442    0.306
        50 -10.3387     82.9589    134.1336   2.9165142782e+02   5.7524176042e+00    0.0141759  0.009731688  42.39 0.0005911708    1.424    0.298
        51 -11.3650     57.5833    131.9092   2.9195628739e+02   5.9228362070e+00   0.02738616   0.01264833 -80.09  0.002037652    3.305    0.697
        52  -8.8088     94.5904    216.7981   2.9195352113e+02   4.7243834731e+00  0.008865211  0.006604635  89.68  0.000356022    1.611    0.379
        53  -9.2846    107.0433    124.0076   2.9129582450e+02   5.7328009957e+00  0.009637429  0.009040859  18.78            0    1.014    0.014
        54 -11.1159     34.8498    133.4361   2.9224851861e+02   6.0343802291e+00   0.01777853   0.01138787  43.45  0.001178171    1.546    0.353
        55 -10.0498      2.0870    215.8556   2.9310213104e+02   5.2612678857e+00   0.01129732  0.008765142  51.19  0.001231101    1.340    0.254
        56 -10.3393    167.8119    112.9965   2.9047764959e+02   5.5133597578e+00   0.01485356   0.01160902  49.05 0.0006988487    1.309    0.236
        57  -9.4400    203.2385    111.5626   2.9002810255e+02   5.3269967748e+00  0.009328972  0.006404104   8.23  0.000419968    1.562    0.360
        58  -9.6807    123.6435    227.3229   2.9164824198e+02   4.4362639550e+00  0.007477512  0.004779851  54.38 0.0001528988    1.766    0.434
        59  -8.8784     72.0667     85.5659   2.9152421437e+02   6.3792947945e+00   0.01100823   0.00419596  44.07 0.0008060284    2.768    0.639
        60  -8.3675     67.2277     82.6542   2.9156890045e+02   6.4407201072e+00  0.006685791  0.005022427  66.08 0.0002384014    1.548    0.354
        61  -9.4423    156.9749     76.0091   2.9041172529e+02   6.0052471706e+00  0.008357223  0.007882799  23.32 0.0005235043    1.006    0.006
        62 -10.5693     11.9838     64.5091   2.9216133731e+02   6.9658243853e+00   0.01888984   0.00507383  30.57  0.001298369    3.031    0.670
        63 -11.4129     24.0789     58.9268   2.9197978843e+02   6.9620244328e+00   0.04848058  0.008308602  38.64  0.002724063    4.740    0.789
        64  -8.7841    152.5053    212.9601   2.9121085118e+02   4.4385468326e+00  0.009266309   0.00687506 -67.35 0.0003472377    1.453    0.312
        65 -10.7910      2.8496     47.0943   2.9218128007e+02   7.2200467662e+00   0.01292186  0.009758641  76.18  0.001365704    1.593    0.372
        66 -11.2227      3.1575     38.5119   2.9213091942e+02   7.3180218107e+00   0.02339976   0.01253209  84.80  0.001800205    3.220    0.689
        67  -9.7072     46.8999    248.6116   2.9271969495e+02   4.6256263084e+00   0.01568372   0.01161104  47.39  0.001135331    1.372    0.271
        68 -10.1560    152.4769    248.4974   2.9140352090e+02   4.0253951942e+00  0.006832103  0.006406835  24.39 -4.633955e-06    1.004    0.004
