#   1 NUMBER                 Running object number                                     
#   2 MAG_AUTO               Kron-like elliptical aperture magnitude                    [mag]
#   3 X_IMAGE                Object position along x                                    [pixel]
#   4 Y_IMAGE                Object position along y                                    [pixel]
#   5 X_WORLD                Barycenter position along world x axis                     [deg]
#   6 Y_WORLD                Barycenter position along world y axis                     [deg]
#   7 A_WORLD                Profile RMS along major axis (world units)                 [deg]
#   8 B_WORLD                Profile RMS along minor axis (world units)                 [deg]
#   9 THETA_WORLD            Position angle (CCW/world-x)                               [deg]
#  10 FWHM_WORLD             FWHM assuming a gaussian core                              [deg]
#  11 ELONGATION             A_IMAGE/B_IMAGE                                           
#  12 ELLIPTICITY            1 - B_IMAGE/A_IMAGE                                       
         1 -14.0386    165.2733     40.8594   7.7477438022e+01   3.8794281643e+01     1.325117     1.048552   0.92  0.004113295    1.504    0.335
         2 -13.2079    178.8890     11.2427   6.6115943233e+01   3.8597605570e+01    0.7780782    0.5340096  85.65  0.003036148    1.436    0.304
         3 -13.7318    180.2590      6.5348   6.4544200058e+01   3.8684953295e+01     1.567918    0.6620521  68.94  0.006440453    2.057    0.514
         4 -10.6253    125.0108    246.9227   1.3154229925e+02   9.2035268930e+00    0.2252663    0.1345823 -58.76  0.001371236    2.144    0.534
         5 -19.8345     67.0891    167.4150   1.3430155203e+02   3.3067294457e+01     18.45343     5.058226 -66.17   0.06567422    3.665    0.727
         6  -9.5789     10.2197    211.2068   1.4969231408e+02   3.0440899602e+01   0.08049909   0.06753385  88.94 0.0003483334    1.321    0.243
         7 -12.2566     11.9118    205.9931   1.4912430456e+02   3.1269739364e+01    0.3438264    0.2259377  35.22  0.002083481    1.760    0.432
         8  -8.5111      9.0415    202.0179   1.4943753363e+02   3.2298512729e+01    0.1396966    0.1036861  82.81            0    1.100    0.091
         9 -11.2340    163.7973    203.0135   1.1806422869e+02   9.6499904252e+00    0.2544923    0.2274735  83.63 0.0003827645    1.372    0.271
        10  -9.9608    154.6749    196.2357   1.1885126889e+02   1.2512812485e+01     0.384855    0.2403808  76.37  0.001568229    3.109    0.678
        11 -10.6777    157.6060    202.0500   1.1918469123e+02   1.0954948187e+01    0.5083203    0.3098899  66.31  0.002276731    2.464    0.594
        12  -9.5985    139.2977    200.9506   1.2284224687e+02   1.4485596315e+01    0.1901473     0.155131 -86.53 0.0005506164    1.474    0.322
        13  -9.6401    139.0258    249.8538   1.2929840746e+02   6.5573062852e+00    0.2056234    0.1042218  56.86 0.0004910405    2.084    0.520
        14 -10.8428    161.3026    197.8674   1.1773257267e+02   1.0989173459e+01    0.2556138     0.166523  48.44   0.00131962    1.390    0.280
        15 -12.7361    165.5620    188.7484   1.1527149187e+02   1.1773121994e+01    0.6541779    0.3932311  38.55   0.00318464    1.481    0.325
        16 -12.0721    180.5281    193.1508   1.1294764721e+02   8.1535735892e+00    0.3442158    0.2772422 -81.99  0.001855559    1.877    0.467
        17 -10.6617    170.4237    185.2457   1.1361414769e+02   1.1448325087e+01    0.2447043    0.2285884  62.99 0.0007277579    1.192    0.161
        18 -12.7113    174.8933    193.2928   1.1412878926e+02   9.2026555410e+00    0.5672666    0.3458779 -56.43    0.0021463    2.263    0.558
        19 -12.7780    175.5508    186.1952   1.1271253384e+02   1.0284558547e+01    0.6005976    0.4098159 -65.98  0.002501185    2.268    0.559
        20 -10.5966     14.0000    240.9367   1.5042266097e+02   2.4751343636e+01     0.193747   0.04696915 -78.68 0.0007505143    3.836    0.739
        21 -10.3578    153.4415    184.7865   1.1716867739e+02   1.4824252200e+01    0.2450313    0.1412226 -52.99  0.001131184    2.043    0.510
        22 -10.4030     29.8367    183.8835   1.4423153148e+02   3.3921542100e+01    0.2866721    0.1384215  54.43  0.001091816    1.822    0.451
        23 -12.1852    207.4159    178.4794   1.0478150954e+02   5.3521273465e+00     0.577639    0.4091617   4.15  0.002887575    1.627    0.386
        24 -11.2072    116.4743    179.9704   1.2460511558e+02   2.2625618935e+01    0.8734685    0.3978104  65.35  0.002481729    5.493    0.818
        25  -9.3808      4.8968    179.9849   1.4901571055e+02   3.7029505609e+01    0.1420889    0.1089922 -57.63 0.0005820409    1.637    0.389
        26  -9.4566     25.7970    232.0118   1.4806409850e+02   2.5077953851e+01     0.129761   0.09053255  70.91 0.0009898406    1.037    0.036
        27  -9.6680     24.4121    227.0616   1.4803856754e+02   2.6108013523e+01    0.3529273    0.1090838 -65.51  0.001810224    3.281    0.695
        28 -12.3763    195.6653    170.2665   1.0546285485e+02   9.0138208596e+00    0.5827386    0.4330859 -43.57  0.001827111    1.519    0.342
        29 -10.7085    193.6095    164.7998   1.0475173013e+02   1.0366576186e+01    0.2966525    0.2478734  -7.84 0.0008763492    1.262    0.207
        30 -10.1785      9.8670    174.9763   1.4770799167e+02   3.7643651685e+01    0.1639171    0.1250689  65.39 0.0008064877    1.162    0.140
        31 -11.1674    203.2819    171.8561   1.0425996016e+02   7.2249998912e+00    0.3311554     0.292639 -15.86  0.001553627    1.160    0.138
        32 -12.1713    137.8399    170.7514   1.1814365628e+02   2.0557937484e+01    0.5388079    0.3701983  47.16   0.00269049    1.328    0.247
        33 -11.0993    125.7582    171.8557   1.2113050410e+02   2.2619674036e+01    0.2984628    0.2388037 -84.09  0.001088106    1.425    0.298
        34 -10.4909    169.4349    195.2448   1.1559800795e+02   9.9087424187e+00    0.1691195    0.1353779 -61.10  0.000939356    1.593    0.372
        35  -9.6209    219.0057    224.0189   1.1086435033e+02  -3.1428151490e+00    0.1482571    0.1184208  18.53 0.0003385186    1.048    0.046
        36 -11.4372    143.1304    167.6053   1.1634492581e+02   2.0159013697e+01    0.3118868    0.2308068  87.94  0.001483319    1.860    0.462
        37 -11.6320    122.3856    221.8008   1.2916512452e+02   1.3701350338e+01    0.4064093    0.2278889  53.90  0.001735604    1.598    0.374
        38 -10.3707    201.1590    164.2011   1.0309613639e+02   8.9223927453e+00    0.4698242    0.2687984 -38.16  0.002148413    1.849    0.459
        39  -9.9948    110.2449    222.9637   1.3170422000e+02   1.5460785000e+01    0.1563747    0.1364999  68.86 0.0003900994    1.131    0.116
        40  -9.3167      2.0866    165.0831   1.4869054278e+02   4.0330902487e+01    0.1166536   0.09507229  69.00 0.0003465278    1.178    0.151
        41 -10.0933     15.3044    164.0608   1.4578898641e+02   3.9481302232e+01     0.268856    0.1612697  -4.57   0.00136195    3.746    0.733
        42  -9.6197    222.5164    161.9605   9.8491638599e+01   5.0057940789e+00    0.2028428    0.1327533 -34.39  0.001013455    1.558    0.358
        43 -10.6240    129.8718    161.0884   1.1821734278e+02   2.4088298996e+01    0.2232186    0.1874508  71.37 0.0002902701    1.249    0.199
        44 -13.8421    134.9611    128.6810   1.1011041792e+02   3.0006087119e+01     1.641389    0.5862412 -45.47  0.005434634    2.892    0.654
        45 -13.5430    133.4461    144.8641   1.1410469144e+02   2.6834015561e+01     1.361101    0.4662738 -56.37  0.003988393    4.126    0.758
        46 -12.5345    128.2919    143.1673   1.1502690094e+02   2.8235830488e+01    0.5835837    0.2910399  53.18  0.002152885    2.199    0.545
        47 -11.4343    162.1494    153.9361   1.0924089074e+02   1.8983022083e+01    0.4578084    0.3430035 -86.74  0.002079111    1.983    0.496
        48  -9.8558    174.8690    149.1170   1.0535063080e+02   1.7184899186e+01    0.2289138    0.2067319  77.42 0.0005907064    1.287    0.223
        49 -12.5079    144.2143    145.8791   1.1169872940e+02   2.4401926346e+01    0.6717747    0.3907054 -66.42  0.002559395    2.619    0.618
        50  -9.9452     19.6375    222.9711   1.4864528944e+02   2.7342974341e+01    0.1171473   0.07927835 -71.40 0.0008522582    1.624    0.384
        51 -10.0475      6.2292    137.0599   1.4569947499e+02   4.6065851898e+01    0.1778124    0.1272701 -64.57  0.001215258    1.303    0.233
        52 -10.9716    160.6322    128.3599   1.0375953961e+02   2.4429081366e+01    0.3396124     0.258952 -44.35  0.001609508    1.367    0.268
        53 -11.3903    116.1150    212.0317   1.2921052977e+02   1.6467189375e+01    0.2493571    0.1846563  81.86 0.0008635494    1.517    0.341
        54 -11.1600    134.7066    110.0645   1.0554356147e+02   3.4048537402e+01    0.9599453    0.1399091 -44.71  0.001987642    6.980    0.857
        55  -9.6563    167.7461    112.8751   9.8203250766e+01   2.5856663286e+01    0.3114342    0.2163042  80.25  0.001239785    2.194    0.544
        56 -10.0762    108.3958    207.4972   1.3023079471e+02   1.8569709085e+01    0.2066819    0.1744042 -88.00 0.0005407746    1.244    0.196
        57  -9.4536    111.6288    213.2979   1.3028415316e+02   1.6970110954e+01    0.1842683     0.127572  66.53 0.0005765232    1.439    0.305
        58  -9.8353    205.5170    110.1790   8.9640005199e+01   1.7348874996e+01    0.2764004    0.2132458  49.45 0.0006653495    1.299    0.230
        59 -10.3955    109.5112    210.5483   1.3037926509e+02   1.7819255705e+01    0.2101188    0.1550425  63.85 0.0006288987    1.250    0.200
        60  -9.1011    153.1055    212.1828   1.2167653317e+02   1.0056071563e+01    0.1769521    0.1377984  61.18 0.0004771458    1.356    0.263
        61  -9.8452     13.7666     60.0411   1.3252576913e+02   6.2678259430e+01    0.1694247    0.1409814 -74.16  0.000542901    1.259    0.206
        62 -13.3011    153.9030     55.7452   8.4579957058e+01   3.9612473544e+01     1.068023    0.7217008  43.79   0.00105341    1.453    0.312
        63  -9.2851    160.1065    249.1251   1.2535684521e+02   3.2757006721e+00    0.1543494    0.1204097  55.29 0.0004341338    1.301    0.231
        64 -12.1423    169.5401     32.8714   7.4182063895e+01   3.8692195761e+01    0.4228322    0.3726299   4.89 0.0009155786    1.284    0.221
        65  -9.8418    140.0322     32.3069   7.9669396651e+01   4.6492236074e+01    0.3776084    0.1878366  76.48  0.001286557    3.173    0.685
        66 -10.2124    133.7380    247.8243   1.3003922887e+02   7.6936079407e+00    0.1455939    0.1309168  48.08 0.0006220386    1.200    0.167
