#   1 NUMBER                 Running object number                                     
#   2 MAG_AUTO               Kron-like elliptical aperture magnitude                    [mag]
#   3 X_IMAGE                Object position along x                                    [pixel]
#   4 Y_IMAGE                Object position along y                                    [pixel]
#   5 X_WORLD                Barycenter position along world x axis                     [deg]
#   6 Y_WORLD                Barycenter position along world y axis                     [deg]
#   7 A_WORLD                Profile RMS along major axis (world units)                 [deg]
#   8 B_WORLD                Profile RMS along minor axis (world units)                 [deg]
#   9 THETA_WORLD            Position angle (CCW/world-x)                               [deg]
#  10 FWHM_WORLD             FWHM assuming a gaussian core                              [deg]
#  11 ELONGATION             A_IMAGE/B_IMAGE                                           
#  12 ELLIPTICITY            1 - B_IMAGE/A_IMAGE                                       
         1 -16.4027    243.7169     95.8953   7.8086048690e+01   1.1279408716e+01     15.39941     2.915473 -35.68   0.03736382    6.055    0.835
         2 -12.7005    154.2035      3.7314   6.7881793805e+01   4.5765567959e+01    0.6564378     0.313673  82.61  0.002743756    2.672    0.626
         3 -14.0737    136.2546      2.9779   7.0600541584e+01   5.0053125181e+01     2.545294    0.2982551  63.27  0.006536811    6.330    0.842
         4  -9.5773    197.3207    247.4354   1.1750959348e+02  -5.7250118391e+00    0.1813139     0.155903 -82.52 0.0009955774    1.733    0.423
         5  -9.9192    243.1959    249.4344   1.0949863932e+02  -1.3230090691e+01     0.201347    0.1598887  47.62 0.0009543942    1.662    0.398
         6  -9.4415    219.0583    250.0338   1.1391345074e+02  -9.6217508648e+00    0.1729559    0.1426096  59.39 0.0008683293    1.690    0.408
         7 -10.6911    247.2445    245.5545   1.0814185941e+02  -1.3350867846e+01    0.3036804    0.2385792  77.75   0.00166317    3.224    0.690
         8  -9.1323    219.6419    245.7630   1.1312051527e+02  -9.1504769710e+00      0.17997   0.08653539  47.50 0.0007925463    2.204    0.546
         9  -9.1096    210.2777    244.6189   1.1465825025e+02  -7.4777618777e+00    0.1118324   0.09690142  74.74 0.0005304794    1.713    0.416
        10  -9.4668    178.0167    243.7128   1.2058142049e+02  -1.8827577230e+00    0.2263086    0.1583847 -84.75  0.001126872    2.613    0.617
        11 -10.2735    248.9521    241.0047   1.0707156368e+02  -1.3040458426e+01    0.2680772      0.15037  42.68  0.001261239    1.850    0.459
        12 -10.6668    226.7137    240.4068   1.1094696906e+02  -9.5610364450e+00    0.1871719    0.1504404 -43.60  0.001002059    1.620    0.383
        13  -9.4292    219.7629    240.5936   1.1225089919e+02  -8.4707659635e+00    0.1694567    0.1035624  45.58 0.0005847528    1.637    0.389
        14  -9.1676    194.7973    239.6060   1.1675904936e+02  -4.1547708053e+00    0.1827314    0.1044715  47.99 0.0007614907    1.671    0.402
        15 -10.5638    226.0296    232.0493   1.0965147247e+02  -8.3047557812e+00    0.2360769     0.172164 -62.61  0.001276695    2.453    0.592
        16 -10.0257    231.5061    238.4640   1.0974872101e+02  -1.0059144895e+01    0.1888279    0.1470208 -11.48 0.0008328948    1.273    0.214
        17 -10.4592    244.4311    237.0661   1.0719200214e+02  -1.1869232467e+01    0.2513175    0.1786474  54.43  0.000909177    2.101    0.524
        18 -10.2044    241.2994    233.0238   1.0704815226e+02  -1.0862640709e+01    0.2296745    0.1834279  55.45 0.0008035579    1.810    0.448
        19  -8.9671    216.6363    237.2935   1.1227982224e+02  -7.5009795823e+00    0.1182016   0.09550112  61.17 0.0007029354    1.708    0.415
        20  -9.3917    249.0170    235.0000   1.0602362229e+02  -1.2291976971e+01    0.1540846    0.1345658  31.51 0.0006193657    1.352    0.260
        21  -9.1010    246.1447    232.3619   1.0606934977e+02  -1.1517545152e+01    0.2121871    0.1788028  79.36  0.001278677    2.320    0.569
        22 -10.6451    219.9967    233.8636   1.1107778690e+02  -7.5708400743e+00    0.3047043    0.2156512  58.63  0.001493672    2.008    0.502
        23  -8.9321    170.3537    235.6703   1.2084378459e+02   7.4216972225e-01    0.1331229   0.09527691  68.22 0.0007046274    1.777    0.437
        24  -9.8012    213.5061    233.5139   1.1222910336e+02  -6.4394586410e+00    0.1879136    0.1217675 -50.07  0.001014479    2.069    0.517
        25 -10.4872    235.3914    231.8593   1.0790851996e+02  -9.7824737956e+00     0.251058    0.2194184  59.08  0.001243192    1.653    0.395
        26  -9.8982    195.6751    232.4690   1.1543901719e+02  -3.2220577927e+00    0.2798607    0.1820009 -53.29  0.001496759    2.031    0.508
        27  -9.1359    249.7734    231.3670   1.0525325894e+02  -1.1935700059e+01    0.1626208   0.09630277  27.38 0.0005013479    1.517    0.341
        28 -10.4705    229.4362    228.2112   1.0835629146e+02  -8.3198547525e+00    0.3165252    0.2325644  66.17  0.001694055    2.390    0.582
        29 -10.7282    225.7879    210.3220   1.0579331499e+02  -5.0526779001e+00    0.5616185    0.1706839 -40.90  0.002073247    3.485    0.713
        30 -11.6634    229.9876    219.5521   1.0670894510e+02  -7.1624843554e+00    0.6001061    0.3367301  56.11   0.00268263    2.818    0.645
        31 -10.4060    248.4843    227.2977   1.0475813794e+02  -1.1203926355e+01    0.5420046    0.2150233  40.08  0.002539734    2.366    0.577
        32  -9.8936    242.7605    223.2767   1.0505590780e+02  -9.7683196162e+00    0.3597253    0.2720501  63.15  0.002025456    2.244    0.554
        33 -10.0718    237.5913    222.0458   1.0576692803e+02  -8.7705512039e+00    0.2954462    0.2112356 -53.48  0.001651467    2.104    0.525
        34 -10.5558    234.1033    216.8266   1.0545352039e+02  -7.4466676773e+00    0.2868347    0.2409506  71.46  0.001330165    1.890    0.471
        35  -9.6291    211.3493    227.9694   1.1169068631e+02  -5.2548502088e+00    0.1822446    0.1601856 -52.42  0.001092467    1.474    0.322
        36  -8.9393    162.6766    228.3464   1.2123130351e+02   3.3567611229e+00    0.1353763   0.09825829  71.86 0.0007049888    1.740    0.425
        37 -10.5863    239.2491    226.5849   1.0628114873e+02  -9.6704701323e+00    0.2751849    0.1732545  43.91  0.001294359    1.667    0.400
        38  -9.9096    218.6650    225.9859   1.0996652233e+02  -6.2069706017e+00    0.2156936    0.1739884  59.93 0.0009107591    1.658    0.397
        39  -9.3587    206.4541    224.4937   1.1202364878e+02  -3.8753201796e+00    0.2265787    0.1130724  49.44  0.001025103    2.143    0.533
        40  -9.0967    185.3240    223.6807   1.1599667821e+02   3.3468417648e-02    0.1305719    0.1020787  70.65  0.000399567    1.674    0.403
        41 -13.3318    242.8554    207.1140   1.0204596653e+02  -7.4588966813e+00     1.796218     1.354764 -57.17   0.01005707    2.006    0.502
        42 -10.7649    233.6301    247.4463   1.1086669577e+02  -1.1553700302e+01    0.2378422    0.2075112  55.38  0.000952106    1.649    0.394
        43  -9.5706    160.9827    212.4382   1.1902977452e+02   6.5377428487e+00      0.29231    0.1590823  56.75  0.001271373    2.077    0.519
        44 -10.5246    231.5240    210.5189   1.0476032493e+02  -6.0695890684e+00     0.335618    0.2508546  76.83  0.001659944    2.671    0.626
        45  -8.9089    199.3050    211.6403   1.1114000931e+02  -5.1325591160e-01    0.1309582    0.1083151  82.36 0.0006846679    1.727    0.421
        46  -9.0444    193.4759    211.4792   1.1226655711e+02   5.9395617595e-01    0.1368475    0.1226144  30.27 0.0008098171    1.008    0.008
        47  -8.7688    176.6489    209.3229   1.1528055595e+02   4.1437413079e+00    0.1413988     0.106718  73.53 0.0007048215    1.752    0.429
        48 -12.3264    243.4201    180.4934   9.6697745637e+01  -3.3835885557e+00     1.223544    0.7153462 -58.03  0.005147295    2.953    0.661
        49  -9.5683    139.4738    207.9888   1.2278694250e+02   1.1428451498e+01    0.1916311    0.1193198 -83.94 0.0008096084    2.529    0.605
        50  -8.7424    203.3454    209.6456   1.0998152304e+02  -9.2304591382e-01    0.1340471    0.1084998  79.90 0.0007037385    1.825    0.452
        51  -9.9357    149.9660    206.4689   1.2033259371e+02   9.7628805539e+00    0.2752212    0.1670102  85.17  0.001026163    3.356    0.702
        52  -9.3369    175.9715    204.7940   1.1461779980e+02   5.1033397037e+00    0.2338488    0.1541587  65.32  0.001069718    2.019    0.505
        53  -9.6065    160.8529    203.7995   1.1759056239e+02   8.2043649610e+00    0.1994428    0.1602476  67.62 0.0008206344    1.353    0.261
        54  -9.0486    129.3123    204.6334   1.2440787190e+02   1.3978404651e+01    0.1478246     0.101186  76.69 0.0007038165    1.764    0.433
        55 -10.3586    223.8193    221.3141   1.0817321362e+02  -6.3865170879e+00    0.3598078    0.2591294  71.75   0.00177144    2.708    0.631
        56  -9.2734    216.9764    201.9876   1.0589404709e+02  -2.1483733986e+00    0.3735486    0.2639603  86.85  0.001577264    3.286    0.696
        57  -9.6257    193.5096    202.5479   1.1062814029e+02   2.1446845284e+00    0.2244011    0.1341353 -54.74 0.0008547484    2.137    0.532
        58  -9.1050    134.4649    203.4925   1.2313096211e+02   1.3265213848e+01    0.1422834    0.1245787  65.17 6.215564e-05    1.048    0.045
        59  -8.7656    202.2843    202.6236   1.0888710833e+02   4.6824200568e-01    0.1327776    0.1108342 -88.50 0.0007014651    1.717    0.418
        60  -9.7879    186.4241    201.7187   1.1191228064e+02   3.6530693666e+00    0.2534155    0.1376719 -49.37  0.001125343    2.095    0.523
        61  -9.8461    210.6433    200.8154   1.0689820743e+02  -7.8602412487e-01    0.2402598    0.2062532 -86.87 0.0009182133    1.661    0.398
        62  -9.2635    124.4835    199.9884   1.2471461231e+02   1.5823344920e+01      0.19589    0.1181614 -85.81 0.0008099112    2.504    0.601
        63 -10.1175    220.0972    195.9379   1.0412490321e+02  -1.7134680765e+00    0.5028838    0.1870849 -50.89  0.001597971    4.549    0.780
        64  -9.3054    180.4240    199.2490   1.1268909727e+02   5.2714200723e+00     0.190585    0.1372902 -58.64 0.0009489551    1.671    0.401
        65  -9.0072    162.6534    199.2949   1.1641896107e+02   8.7314265384e+00    0.1458963    0.1081003  72.39 0.0007032018    1.671    0.401
        66  -9.8086    202.4980    198.0265   1.0797154318e+02   1.2283677285e+00    0.3393567    0.2136866  62.85  0.001490447    2.346    0.574
        67  -9.3789    167.3885    198.1801   1.1521794399e+02   8.0237598694e+00    0.1903888    0.1368277 -61.24 0.0007219446    1.643    0.391
        68  -9.7586    144.5788    197.7874   1.2001856500e+02   1.2528668784e+01    0.1940201    0.1361833 -68.42  0.000947764    1.663    0.399
        69  -9.7004    215.6915    196.5686   1.0509691479e+02  -1.0048528959e+00    0.2503102    0.2007557 -86.58  0.001143515    2.001    0.500
        70  -9.7167    214.5262    192.4934   1.0452450574e+02  -8.9887039119e-02    0.2462558    0.2041537 -33.36 0.0008162914    1.236    0.191
        71  -9.8197    195.8286    196.5089   1.0901962131e+02   2.7790575342e+00    0.2566646    0.1875978 -64.65  0.001040127    1.877    0.467
        72  -9.7505    209.6785    195.4014   1.0604302937e+02   3.2289274987e-01    0.2337334    0.1706717 -49.79 0.0008010597    1.583    0.368
        73 -10.0183    185.9649    195.1303   1.1077159386e+02   4.9553018847e+00    0.2826157    0.2320693 -80.43   0.00128122    1.609    0.378
        74  -9.3953    162.2488    194.9733   1.1572698130e+02   9.6623578337e+00     0.177905    0.1245755 -49.87 0.0008732339    1.542    0.351
        75 -10.2579    223.4931    192.5105   1.0280201581e+02  -1.7640332237e+00    0.5055399    0.3395889  74.71  0.002091062    3.231    0.690
        76  -9.2882    124.6635    194.3085   1.2376833361e+02   1.6995910773e+01    0.1493518    0.1028757  73.36 0.0007042805    1.679    0.404
        77  -9.4497    190.9578    191.7738   1.0909934273e+02   4.5972018418e+00    0.3710779    0.1965545 -66.22  0.001120056    5.000    0.800
        78  -9.0691    148.6508    192.3060   1.1818014942e+02   1.2869300472e+01     0.151009    0.1088314  74.06 0.0007042334    1.703    0.413
        79  -9.9317    205.9398    191.1138   1.0594179630e+02   1.7907740612e+00    0.2111116    0.1901568  70.23 0.0008198508    1.344    0.256
        80  -9.6322    194.4736    190.5026   1.0813197044e+02   4.1394660306e+00    0.2387604    0.1358137 -54.38 0.0009528556    2.213    0.548
        81  -9.2890    138.3325    191.6360   1.2031957268e+02   1.5002654350e+01    0.1542814    0.1079131  78.28 0.0007036694    1.815    0.449
        82  -9.0059    161.3216    190.6560   1.1513318476e+02   1.0710114316e+01    0.1500071    0.1126672  80.19 0.0007050075    1.729    0.422
        83  -9.5370    155.1287    190.3873   1.1642445023e+02   1.1992311100e+01    0.2132317    0.1262292  53.74 0.0006727519    1.718    0.418
        84  -9.9084    210.9048    189.1440   1.0456897775e+02   1.1839025372e+00    0.2102463    0.1928766  81.12 0.0009246774    1.368    0.269
        85 -11.0451    210.5684    184.1610   1.0363360527e+02   2.1359831958e+00    0.4835413    0.2206039 -43.46  0.001976037    2.279    0.561
        86  -9.3527    174.4973    189.0020   1.1200102235e+02   8.4060429058e+00    0.1957421    0.1290828 -73.93 0.0008091758    2.432    0.589
        87  -9.7843    120.5997    188.8179   1.2376644526e+02   1.8927056609e+01    0.2037137    0.1321774 -71.46 0.0009542575    1.735    0.423
        88  -9.5598    215.9133    187.5317   1.0326697075e+02   5.0860971896e-01    0.2478693    0.1993543  66.00  0.001313283    1.621    0.383
        89  -9.7221    166.2071    187.6635   1.1351818699e+02   1.0336903562e+01    0.2313406    0.1743146  58.33 0.0006536293    1.378    0.274
        90  -9.4656    183.5524    186.8093   1.0966582313e+02   7.0126744964e+00    0.1965429    0.1392657 -59.90 0.0009045515    1.717    0.418
        91 -10.0361    142.3876    186.6630   1.1854556222e+02   1.5273067150e+01    0.2737525    0.1408281 -57.32  0.001123646    2.161    0.537
        92  -9.4278    205.5384    186.5273   1.0510930440e+02   2.6920462215e+00    0.1407443    0.1327596  18.35 0.0001572121    1.024    0.024
        93  -9.2901    192.1127    186.1944   1.0776607525e+02   5.4121029368e+00    0.1949584    0.1727981  75.02 0.0006767539    1.332    0.249
        94  -9.3239    157.7637    186.5843   1.1514568315e+02   1.2249601927e+01    0.2148658    0.1299305  54.14 0.0008257197    1.699    0.412
        95  -9.7620    188.4852    184.9753   1.0827409722e+02   6.3716454669e+00    0.1886138     0.128965 -71.65 0.0007395613    2.291    0.563
        96  -9.5377    177.5022    184.9824   1.1058325908e+02   8.5905891030e+00    0.2141059    0.1458057 -47.42  0.001018963    1.560    0.359
        97  -9.3183    162.5788    184.7542   1.1374905043e+02   1.1657951772e+01    0.1985577    0.1411873 -63.02 0.0007301171    1.643    0.391
        98  -9.9760    134.3328    184.4611   1.1994765547e+02   1.7304260120e+01    0.2830835     0.178288 -58.99   0.00126642    1.683    0.406
        99 -10.1657    121.7935    182.8011   1.2248427136e+02   2.0032246297e+01    0.2110009    0.1638791  75.73  0.001083435    1.355    0.262
       100  -9.8249    204.5292    181.5207   1.0429824225e+02   3.8053218012e+00    0.2990645     0.219798 -89.00   0.00133494    2.340    0.573
       101 -10.5332    184.5288    182.5130   1.0860941427e+02   7.6474708998e+00    0.2110403     0.135739  53.39 0.0001827443    1.636    0.389
       102  -8.8869    158.6497    182.3120   1.1414040232e+02   1.2955463657e+01    0.1538316    0.1141926  77.37 0.0007045635    1.721    0.419
       103  -9.9013    145.4857    180.4866   1.1671763472e+02   1.5982591433e+01    0.2538869    0.1421716 -63.13  0.001026906    2.207    0.547
       104  -9.3183    175.3917    180.1312   1.1007316927e+02   9.9858870156e+00    0.2035173    0.1400262 -58.97 0.0006992997    1.702    0.413
       105 -10.4289    194.9774    179.2907   1.0578356980e+02   6.1437421389e+00    0.2031925    0.1850829  39.44 0.0006140409    1.067    0.063
       106 -10.2808    189.7174    177.5693   1.0652074322e+02   7.5491599112e+00    0.2401834      0.18714 -71.56  0.000813193    1.678    0.404
       107 -10.0662    163.9868    177.9589   1.1211752919e+02   1.2772343199e+01    0.2406473    0.1826403  80.96 0.0009656483    1.710    0.415
       108 -10.4212    198.8686    182.7406   1.0568995091e+02   4.7082869749e+00    0.2568002    0.1885103 -71.18 0.0008218234    1.999    0.500
       109 -10.4927    197.3018    187.5739   1.0697814421e+02   4.1220478464e+00    0.4057264    0.2599586 -81.34  0.001400421    4.085    0.755
       110 -10.7574    205.0256    177.3360   1.0333805524e+02   4.4810095259e+00    0.2074903    0.1859668  35.76  0.001074342    1.088    0.081
       111 -11.0095    200.5665    176.6532   1.0409714784e+02   5.5095445162e+00    0.2797724    0.2119485  -8.74  0.001140771    1.615    0.381
       112  -9.0964    184.6890    177.3341   1.0752799438e+02   8.6295596515e+00    0.1481963    0.1182678  87.75  0.000513789    1.679    0.404
       113  -9.3713    178.4937    177.0023   1.0877746246e+02   9.9749077388e+00    0.2026288    0.1314104 -71.18 0.0008090952    2.431    0.589
       114  -9.9065    170.6037    176.7258   1.1042426184e+02   1.1663034503e+01    0.2018738    0.1423378 -58.55 0.0006954442    1.607    0.378
       115 -10.1525    158.5235    176.0115   1.1293941137e+02   1.4301338432e+01    0.2218347    0.1484452 -48.33 0.0008852156    1.560    0.359
       116  -9.4821    217.3436    220.4743   1.0924096077e+02  -5.1527795720e+00     0.191068    0.1585427 -61.95 0.0007487081    1.724    0.420
       117  -9.2895    195.6672    175.3048   1.0481948457e+02   6.7660804712e+00     0.145543    0.1180457  85.16  0.000703808    1.661    0.398
       118 -10.5229    152.7793    174.7897   1.1398272505e+02   1.5736119178e+01    0.2102492    0.1732965  74.50 0.0007611903    1.333    0.250
       119 -11.2660    204.2710    155.6532   9.8833320028e+01   8.7743514716e+00    0.3676171    0.1982093 -43.34  0.001528116    1.848    0.459
       120  -9.5531    192.4736    172.9446   1.0498807419e+02   7.8814975434e+00     0.220459    0.1456309 -42.40 0.0006406356    1.553    0.356
       121  -9.6788    164.4868    173.0343   1.1101943239e+02   1.3696455374e+01    0.2239161     0.149343 -48.85 0.0006524803    1.562    0.360
       122  -9.4992    183.6250    172.2841   1.0671072719e+02   9.8538676777e+00    0.1522212    0.1177879  78.60 0.0007015221    1.714    0.416
       123 -10.2178    142.4901    171.9518   1.1576276314e+02   1.8435385122e+01    0.2252737    0.1477251 -52.25 0.0007470495    1.570    0.363
       124 -10.0812    118.7033    172.0964   1.2130578306e+02   2.3008670992e+01    0.2429867    0.1809332 -81.16   0.00119307    1.484    0.326
       125 -11.2740    197.7402    169.6750   1.0321049578e+02   7.4244505746e+00    0.4510432    0.1718033 -45.93  0.001582412    2.758    0.637
       126 -10.9514    208.2080    153.2359   9.7508487936e+01   8.4042206591e+00    0.4335363    0.2000328 -56.34  0.001398666    3.467    0.712
       127 -12.5756    207.7055    160.5298   9.9220835997e+01   7.1077001577e+00    0.7094133    0.2346766 -43.83  0.002344034    3.043    0.671
       128 -10.3657    212.6026    160.6896   9.8288019090e+01   6.0584038937e+00     0.397093    0.2498088 -62.49  0.001641379    2.346    0.574
       129  -9.8833    212.8129    164.9976   9.9181244991e+01   5.2056861409e+00    0.2910324    0.2414756  82.01  0.001006065    1.598    0.374
       130 -10.4081    212.3227    169.6538   1.0027431593e+02   4.4377563000e+00    0.2221998      0.18422 -61.39 0.0006384877    1.440    0.305
       131  -9.8380    210.2980    166.6711   1.0003669138e+02   5.4064787761e+00    0.2650693     0.221617 -87.11 0.0007593564    1.597    0.374
       132 -10.0634    158.4948    170.0574   1.1174958674e+02   1.5572118189e+01    0.2265124    0.1498723 -50.50  0.001022853    1.569    0.363
       133  -9.8707    173.6120    173.7721   1.0917015305e+02   1.1643471178e+01    0.2076018    0.1415389 -58.16 0.0009126785    1.682    0.405
       134  -9.2538    176.2717    169.6562   1.0774049208e+02   1.1929637340e+01    0.1494184    0.1192327 -85.89 0.0003711072    1.616    0.381
       135 -11.9500    204.5676    163.6281   1.0052407228e+02   7.1691891261e+00    0.7411445    0.1948706 -49.30  0.001812883    5.793    0.827
       136 -10.6353    128.8196    168.7218   1.1830817770e+02   2.1854933458e+01    0.2844402    0.1744382 -64.42  0.001234318    1.816    0.449
       137 -10.0351    164.9189    167.9501   1.0987894319e+02   1.4676661324e+01    0.2417194    0.1868951  88.74 0.0008898545    1.679    0.404
       138  -9.4944    195.2601    221.3345   1.1364628215e+02  -1.3803589221e+00    0.2609689    0.1472219  57.72  0.001152602    2.408    0.585
       139  -9.9542    190.3515    167.1659   1.0420938504e+02   9.4625400748e+00    0.2129434    0.1376002 -52.83 0.0007112138    1.718    0.418
       140 -10.4115    179.6572    167.1030   1.0647045824e+02   1.1736916641e+01    0.2371103     0.187822 -66.69 0.0006758256    1.487    0.327
       141 -11.2451    200.8031    165.9112   1.0177959610e+02   7.5149507966e+00    0.2895824    0.1733782 -60.72 0.0006366055    2.398    0.583
       142 -11.0214    138.5363    164.4875   1.1520043740e+02   2.0886820208e+01    0.3093844    0.2473915  87.86  0.001209883    1.433    0.302
       143 -10.8280    186.1635    169.4639   1.0558018766e+02   9.8860879175e+00    0.3645718    0.2074244 -61.28  0.001392305    2.558    0.609
       144  -9.4269    187.5199    163.9278   1.0411057478e+02   1.0709878643e+01    0.2256609    0.1485518 -43.26 0.0007632832    1.547    0.354
       145 -10.4857    146.4094    163.6905   1.1320407510e+02   1.9460121812e+01    0.2816114    0.1473523 -54.00 0.0008307678    2.019    0.505
       146  -9.4859    119.3074    164.6592   1.1978337066e+02   2.4596041565e+01    0.1553676    0.1119115  81.83  0.000516225    1.686    0.407
       147 -11.0214    192.2011    161.9102   1.0268820879e+02   1.0116457461e+01    0.4409983    0.1659024 -46.03  0.001507187    2.757    0.637
       148 -10.3312    182.5976    162.3275   1.0481371944e+02   1.2086218226e+01    0.2830434    0.1456427 -47.95 0.0008753944    2.028    0.507
       149 -10.2600    153.1478    161.9168   1.1128022626e+02   1.8449714729e+01    0.2393678    0.2065948  86.77 0.0008193888    1.270    0.213
       150  -9.6316    124.2757    161.6444   1.1801323540e+02   2.4343317470e+01     0.154322    0.1137967  87.05  0.000700618    1.649    0.394
       151 -10.4002    197.2347    159.9377   1.0121235983e+02   9.4345946526e+00    0.1962261    0.1244255 -43.11 0.0008667459    1.587    0.370
       152 -10.4996    159.4881    160.0405   1.0943271002e+02   1.7518803552e+01    0.2313464    0.1517701 -47.79 0.0007413054    1.558    0.358
       153  -9.6098    187.6032    158.8074   1.0297687629e+02   1.1726564055e+01    0.2942644    0.1428417 -53.72  0.001062286    2.515    0.602
       154  -9.5350    187.4909    155.5082   1.0227055916e+02   1.2421288485e+01    0.2228022    0.1467402 -53.05 0.0004026187    1.650    0.394
       155  -9.9546    179.4065    158.8038   1.0473439997e+02   1.3498250354e+01    0.2098485    0.1453832 -32.25  0.000680909    1.607    0.378
       156 -11.1734    167.8501    157.9389   1.0709182163e+02   1.6178174932e+01    0.4256577     0.201108 -57.61  0.001452095    2.836    0.647
       157 -10.1322    136.4862    159.0560   1.1457846905e+02   2.2522381185e+01    0.2333503    0.1487301 -51.09  0.001029671    1.582    0.368
       158  -9.6537    114.2894    159.6307   1.2003000048e+02   2.6692072797e+01    0.1557432    0.1115785  85.22 0.0005995783    1.712    0.416
       159 -10.5210    200.1379    157.1951   1.0001267746e+02   9.3550268415e+00     0.440369   0.09344012 -45.27  0.001104072    5.020    0.801
       160  -9.1894    172.3150    158.6716   1.0625879382e+02   1.5059027632e+01     0.156698    0.1221762  89.33 0.0005011111    1.675    0.403
       161  -9.9571    130.4674    158.5078   1.1590217222e+02   2.3851288407e+01    0.1517928    0.1425896  83.45 3.591098e-05    1.019    0.019
       162  -9.6913    152.5820    156.7360   1.1030965407e+02   1.9706297371e+01    0.2141308    0.1470243 -59.74 0.0007306295    1.589    0.371
       163 -10.0000    146.5382    155.5120   1.1145770053e+02   2.1249831406e+01    0.1530975    0.1473015  79.33 0.0001342728    1.006    0.006
       164 -11.0369    183.8580    151.5983   1.0217006463e+02   1.4016924454e+01    0.4843986    0.1938593 -43.92  0.001684052    2.515    0.602
       165  -9.3430    142.6702    153.6815   1.1197895141e+02   2.2466304158e+01    0.1539448    0.1248753  -2.89 0.0007047416    1.686    0.407
       166 -10.2275    137.6279    152.8462   1.1300372882e+02   2.3695670052e+01    0.2202974    0.1423081 -61.98 0.0009418105    1.707    0.414
       167 -11.4245    176.0988    151.1505   1.0375525710e+02   1.5817285613e+01    0.3210728    0.2036187 -40.09 0.0009132239    1.627    0.385
       168 -11.5576    169.9678    151.1420   1.0511302139e+02   1.7166404703e+01     0.356236    0.2672863 -16.01  0.001589064    1.773    0.436
       169 -10.7218    128.5683    151.7186   1.1495684531e+02   2.5782454586e+01    0.2939586    0.1434266 -47.15  0.001133641    2.077    0.518
       170 -12.0857    202.3027    146.0812   9.7072129630e+01   1.1076885767e+01    0.5344974      0.27499 -55.02  0.001976914    2.482    0.597
       171  -8.7848    188.2781    151.6561   1.0124028709e+02   1.3034444633e+01    0.1536447    0.1214942 -79.34 0.0006078247    1.628    0.386
       172 -10.7723    163.1858    150.9163   1.0659334738e+02   1.8698319550e+01    0.2434675    0.2141992 -85.76 0.0008615612    1.250    0.200
       173 -10.1119    122.4923    150.9510   1.1628576570e+02   2.7152488878e+01    0.2356473    0.1462035 -54.23  0.001005784    1.593    0.372
       174  -9.8729    198.0000    149.9299   9.8823052200e+01   1.1254288101e+01     0.247437   0.08556403 -41.80  0.000587502    2.876    0.652
       175 -11.5705    208.1820    143.9015   9.5402101625e+01   1.0219922038e+01    0.2811545    0.2375551  64.30  0.001267795    1.309    0.236
       176 -10.5555    132.6868    148.1356   1.1318691243e+02   2.5776157970e+01     0.308715    0.1379752 -56.83   0.00108224    2.504    0.601
       177  -9.5924    158.2875    148.3278   1.0713623270e+02   2.0328502670e+01     0.154082    0.1253678  -4.62 0.0004808467    1.613    0.380
       178 -10.6495    158.1859    154.1325   1.0845026112e+02   1.9081671863e+01    0.2334892    0.2173729  -8.55 0.0006987866    1.205    0.170
       179  -9.9398    186.5966    145.7106   1.0024232218e+02   1.4623530304e+01    0.2874576    0.1488392 -39.12  0.000963485    1.989    0.497
       180 -10.4306    117.2464    145.7359   1.1649795443e+02   2.9371612866e+01    0.2775924    0.1845649 -56.94  0.001269425    1.482    0.325
       181  -9.8739    151.3810    152.1877   1.0960116484e+02   2.0965853598e+01    0.2219372    0.1448024 -59.30 0.0006478756    1.690    0.408
       182 -10.1272    155.4507    144.9961   1.0704057284e+02   2.1677411642e+01    0.2382829    0.1529029 -47.64 0.0006579282    1.569    0.363
       183 -10.7096    195.4889    143.9786   9.7978675569e+01   1.2998298898e+01    0.2362722    0.1495073 -41.76 0.0006736095    1.568    0.362
       184 -10.4704    183.0106    142.6849   1.0031000039e+02   1.6049716131e+01    0.2181525    0.2044502  40.89 0.0005984557    1.074    0.069
       185 -10.2933    211.4289    218.9125   1.1008861020e+02  -3.8796571496e+00    0.2815578    0.2293407 -79.75  0.001258063    1.981    0.495
       186 -10.9098    191.8655    147.8705   9.9625433327e+01   1.3014671593e+01    0.2384596    0.2299203 -51.65 0.0006547581    1.048    0.046
       187  -9.2844    159.4981    141.4915   1.0529214141e+02   2.1557728872e+01    0.1551867    0.1524669  80.25 -7.936089e-05    1.007    0.007
       188 -10.3427    138.3025    143.0527   1.1069474921e+02   2.5776916372e+01    0.2256374    0.2029563 -60.92 0.0009671488    1.103    0.093
       189 -10.3276    175.1506    139.7862   1.0134728955e+02   1.8424950284e+01    0.2153301    0.1892428  -1.33 0.0007745583    1.328    0.247
       190 -10.0382    166.9646    139.6870   1.0315782679e+02   2.0286742541e+01    0.2248589    0.2060401  54.08 0.0006037249    1.085    0.078
       191 -10.9345    148.3522    142.9667   1.0825256827e+02   2.3664509851e+01    0.3351686    0.1910371 -40.92  0.001347457    1.861    0.463
       192 -10.9078    209.5313    137.0076   9.3547079526e+01   1.1264495234e+01    0.2368001    0.1454285 -39.88  0.001016152    1.586    0.369
       193  -9.8912    200.4017    136.7482   9.5292886531e+01   1.3347930669e+01    0.2157364    0.1448407 -30.15 0.0006732003    1.625    0.385
       194 -10.0124    142.6395    137.1971   1.0829794612e+02   2.6181423923e+01     0.223307    0.1439795 -39.02 0.0007939099    1.666    0.400
       195  -9.3234    180.0000    140.0031   1.0033476833e+02   1.7285403279e+01    0.2548828   0.08846334 -43.08 0.0007938977    2.884    0.653
       196  -8.9873    172.6484    136.6961   1.0117231236e+02   1.9644454693e+01    0.1606434     0.125979   8.57 0.0007040604    1.704    0.413
       197 -10.6423    149.0181    135.7065   1.0640751052e+02   2.5135437837e+01    0.2184886    0.2119124  55.28 0.0006356175    1.040    0.038
       198  -9.8459    219.8746    215.8410   1.0792613183e+02  -4.8800915055e+00    0.2430058    0.1699535  45.78  0.001210931    1.469    0.319
       199  -9.9205    155.4545    135.0057   1.0471190492e+02   2.3872670974e+01    0.2469366    0.1539029 -45.99  0.001034158    1.607    0.378
       200 -10.3454    132.5214    134.9994   1.1028241276e+02   2.8808485187e+01    0.2409248    0.1504652 -49.55  0.001029458    1.582    0.368
       201  -9.5796    164.5132    133.9656   1.0235871731e+02   2.2069200068e+01    0.2423991    0.1549218 -44.05 0.0009477418    1.570    0.363
       202  -9.8721    121.5241    134.4849   1.1294507111e+02   3.1150449259e+01    0.1530229    0.1448478 -82.65 0.0003145972    1.032    0.031
       203  -9.5884     96.6733    134.6555   1.1945506296e+02   3.5688424389e+01    0.1493811    0.1136834 -23.21 0.0007050646    1.744    0.427
       204 -10.8193    218.1679    210.0880   1.0719210597e+02  -3.6775749286e+00    0.4526239    0.2548563 -43.01   0.00222849    1.962    0.490
       205  -9.4188    145.3114    132.3441   1.0650322744e+02   2.6690089763e+01    0.1591391    0.1268169  -4.92 0.0004334975    1.704    0.413
       206 -10.1269    103.5193    131.9785   1.1706794017e+02   3.5120865121e+01    0.2349684    0.1401107 -53.67  0.001034304    1.596    0.373
       207  -9.1417    200.3965    216.2353   1.1174873236e+02  -1.4761944683e+00    0.1701649    0.1287736 -52.25 0.0008120463    1.622    0.383
       208  -9.6886    182.5100    133.9613   9.8358689060e+01   1.7972468113e+01    0.2389527    0.1534291 -41.63 0.0007011227    1.557    0.358
       209  -9.5712    173.5213    128.9805   9.9119166707e+01   2.1075129056e+01    0.2190224    0.1409805 -17.76 0.0008090551    2.446    0.591
       210  -9.5656    153.3401    129.3071   1.0384019560e+02   2.5591239197e+01     0.159591    0.1273674   4.67 0.0003507367    1.684    0.406
       211  -8.9357    178.6610    130.6881   9.8403969607e+01   1.9535101339e+01    0.1603514    0.1261352   8.22 0.0007045821    1.693    0.409
       212  -9.3050    186.3588    128.3040   9.6173316002e+01   1.8252599104e+01     0.160883    0.1247563  11.43 0.0007039067    1.722    0.419
       213  -9.2813    154.7095    215.3358   1.2079364084e+02   7.1705732812e+00    0.1374222    0.1025116  75.58 0.0007022272    1.637    0.389
       214 -10.0595    137.0000    125.9767   1.0701377798e+02   2.9901244328e+01    0.2611026   0.08782201 -46.79 0.0008024055    2.942    0.660
       215  -9.3486    181.6135    125.1559   9.6414419417e+01   1.9998202838e+01    0.2253347    0.1486444 -30.72 0.0009434665    1.711    0.415
       216  -9.8638    146.4966    124.4846   1.0430246210e+02   2.8168060249e+01    0.1551284    0.1534002  -9.33 4.115665e-05    1.063    0.059
       217  -9.8747    170.3259    214.2186   1.1741343282e+02   4.4515856310e+00    0.2658383    0.1667442  62.77  0.001226708    2.035    0.509
       218  -9.7042    140.5230    121.5149   1.0503295548e+02   3.0131313323e+01    0.1544324    0.1524866 -68.04 0.0001889923    1.020    0.019
       219  -9.9646    116.4916    121.4938   1.1120338885e+02   3.5112380369e+01    0.1507488    0.1456067 -58.46  3.49075e-05    1.015    0.015
       220  -9.6397    157.5159    119.9441   1.0052829907e+02   2.6672297846e+01    0.2488748    0.1545469 -45.98  0.001034768    1.607    0.378
       221 -11.7850    245.5758    192.5623   9.8736678203e+01  -5.6926727573e+00     1.001342    0.6264848 -60.20  0.004410958    3.048    0.672
       222  -9.3679    224.4476    248.2870   1.1265572225e+02  -1.0242443090e+01    0.1399274    0.1157301 -39.66   0.00082648    1.553    0.356
