#   1 NUMBER                 Running object number                                     
#   2 MAG_AUTO               Kron-like elliptical aperture magnitude                    [mag]
#   3 X_IMAGE                Object position along x                                    [pixel]
#   4 Y_IMAGE                Object position along y                                    [pixel]
#   5 X_WORLD                Barycenter position along world x axis                     [deg]
#   6 Y_WORLD                Barycenter position along world y axis                     [deg]
#   7 A_WORLD                Profile RMS along major axis (world units)                 [deg]
#   8 B_WORLD                Profile RMS along minor axis (world units)                 [deg]
#   9 THETA_WORLD            Position angle (CCW/world-x)                               [deg]
#  10 FWHM_WORLD             FWHM assuming a gaussian core                              [deg]
#  11 ELONGATION             A_IMAGE/B_IMAGE                                           
#  12 ELLIPTICITY            1 - B_IMAGE/A_IMAGE                                       
         1 -14.1803    225.3582      4.9694   3.6596673355e+01   2.8352113485e+01     1.981919     1.182611  49.89  0.007962603    2.058    0.514
         2 -14.0733    182.3160     49.3351   5.3355763014e+01   3.3382401400e+01     2.032723     1.367753  23.04 0.0009953636    2.178    0.541
         3 -14.1014    193.8148     39.7721   4.8891214678e+01   3.1830441010e+01     1.307094     1.049135 -44.57    0.0033596    1.229    0.186
         4 -14.5756    201.9514     30.9242   4.5415125741e+01   3.0962519380e+01     1.463955     1.253608  34.32  0.001318152    1.422    0.297
         5 -12.9353     40.6698      6.1415   7.5709397746e+01   6.9599834316e+01    0.4869423    0.3606122 -29.65  0.003244359    1.418    0.295
         6 -11.6807    199.3544      7.9491   3.9689794754e+01   3.4235143243e+01    0.2702581    0.1791318  66.64   0.00109256    1.396    0.284
         7 -12.2169     63.3044      3.8448   6.5203340295e+01   6.6263604417e+01    0.4666792    0.3110654 -11.98  0.002810237    1.437    0.304
         8 -10.0489     77.4060    226.4743   1.1533679093e+02   1.7787878675e+01    0.1868508    0.1279433 -86.07  0.001145546    1.476    0.322
         9 -14.5422     74.7464    155.0141   1.0718760630e+02   3.3852626196e+01     2.182545    0.6815067 -62.79  0.007619624    3.057    0.673
        10 -16.0429     68.2364    143.9580   1.0713099133e+02   3.7445676185e+01     6.787855     3.491187  63.84   0.02688812    2.762    0.638
        11 -10.7022    102.8268    212.8169   1.0867327762e+02   1.6703053563e+01    0.2596331    0.1754172  42.48  0.001313739    1.331    0.249
        12 -13.5867    113.8458    207.4792   1.0563984286e+02   1.6000952635e+01    0.9652272    0.6864776  61.26  0.005362965    1.373    0.272
        13 -13.3296    111.9620    198.0067   1.0473321410e+02   1.8245544278e+01    0.6739253    0.4696615  50.57  0.002405142    1.298    0.230
        14 -12.6651    109.2745    202.0479   1.0588985818e+02   1.7851794249e+01    0.6200144    0.3784378  30.24  0.002044754    1.847    0.459
        15 -18.3441     12.8428    241.1010   1.2805338019e+02   2.2774390366e+01      8.29903     6.292363  73.64   0.06700991    1.138    0.121
        16 -11.1614     42.2501    208.5669   1.2072707799e+02   2.5922828994e+01    0.2984509    0.1562716  67.44 0.0008184621    1.771    0.435
        17 -10.8134     35.7718    208.5358   1.2200547786e+02   2.6670158005e+01    0.1975012    0.1216596  69.13 0.0004674037    1.362    0.266
        18  -9.4127     26.4632    203.6127   1.2347987101e+02   2.8704077323e+01    0.5077282    0.1274157  45.55  0.002240911    3.020    0.669
        19 -10.1316     96.5770    201.8267   1.0863300583e+02   1.9925378002e+01    0.2258724    0.1599872 -80.19  0.001248047    1.498    0.333
        20  -8.6393    161.2711    199.3026   9.4186767052e+01   9.3213091252e+00    0.1323526    0.1045922   2.27 0.0003634829    1.533    0.347
        21 -10.9488    134.2141    197.0564   9.9671721656e+01   1.4616384643e+01    0.2912952    0.1893843 -63.28  0.001087202    1.796    0.443
        22 -11.2304    128.7776    195.5182   1.0063024438e+02   1.5884448845e+01    0.2831159    0.2018027 -68.30 0.0007227005    1.613    0.380
        23 -10.6208    151.4617    195.4768   9.5640477467e+01   1.1827926095e+01    0.3086029    0.1267324  40.93  0.001222026    2.209    0.547
        24  -9.8782     81.8398    194.8687   1.1100395613e+02   2.3643320257e+01    0.1881023    0.1780642  86.98  0.001218476    1.186    0.157
        25  -9.7976     32.0501    195.5788   1.2176325179e+02   2.9818146396e+01    0.1762306   0.06533519  54.65 0.0008040937    2.491    0.599
        26 -13.6713     62.3453    186.8830   1.1441868034e+02   2.8123460603e+01    0.8305837    0.6698779 -52.14  0.003250722    1.490    0.329
        27 -11.0937     73.9845    188.5661   1.1199551483e+02   2.6161006507e+01     0.302613    0.1827596  67.60 0.0008720893    1.732    0.423
        28  -9.9156     48.9280    217.6344   1.2013401466e+02   2.3268925385e+01    0.2654485    0.1372968  28.37  0.001363114    2.534    0.605
        29 -10.9087     38.9245    199.8298   1.2069408017e+02   2.8147125437e+01     0.234088    0.1786309  59.59  0.001248506    1.162    0.139
        30  -8.7704    164.7038    187.3336   9.1329721986e+01   1.0944149232e+01     0.138983    0.1119217  78.54 0.0006739595    1.644    0.392
        31 -10.0479     94.4971    187.1324   1.0713500863e+02   2.3413453455e+01    0.2169614    0.1797234  53.73 0.0003952046    1.116    0.104
        32 -10.7808     44.7425    198.2326   1.1935687372e+02   2.7817805937e+01    0.2780983    0.2615177  55.44   0.00102597    1.338    0.253
        33 -11.8899     65.5385    204.9305   1.1563863625e+02   2.3770735166e+01    0.6728987    0.3210472 -51.02  0.001393989    2.695    0.629
        34 -11.3321     98.8174    181.4623   1.0531435125e+02   2.3983050005e+01    0.4279894    0.3095918 -30.81  0.002127848    2.004    0.501
        35 -12.2313    144.7361    179.9341   9.4401166010e+01   1.6187567830e+01    0.5556211    0.3606952 -64.63  0.001517669    1.906    0.475
        36 -11.3720    139.9654    172.2171   9.4071110239e+01   1.8717275148e+01    0.4849661    0.3368337  58.07  0.001188751    1.561    0.359
        37 -11.2931    150.8544    179.5888   9.2954371578e+01   1.5099671594e+01    0.4411751    0.2899951 -75.89  0.001885538    2.391    0.582
        38 -11.7457     57.1297    207.6135   1.1763965336e+02   2.4304997683e+01     1.004828    0.4831814  67.83    0.0048303    2.265    0.559
        39  -9.9929    189.0000    177.9826   8.4382386182e+01   8.0828685211e+00    0.3247038    0.2049303 -54.91  0.001483036    2.024    0.506
        40 -10.6104    187.9646    173.4694   8.3688019573e+01   9.1147789632e+00    0.4384663     0.276433 -67.97  0.001721511    3.009    0.668
        41  -9.8630    204.1692    174.6817   8.0642235505e+01   5.7985682541e+00    0.1974831    0.1757391 -31.59  0.001134663    1.167    0.143
        42  -9.9303    195.9510    173.7230   8.2096028119e+01   7.5289822197e+00    0.3321399     0.196506 -56.19  0.001412609    2.373    0.579
        43 -11.0040     53.5046    172.8797   1.1485736817e+02   3.2443181200e+01    0.2836861    0.2000244  70.94 0.0006445762    1.330    0.248
        44 -11.1536     47.7576    172.5762   1.1616940375e+02   3.3203407795e+01    0.4606092    0.3959341  -4.44  0.001860642    1.712    0.416
        45 -18.0658      1.5126     96.8806   1.1953150676e+02   5.5068059552e+01     15.25316    0.1258099 -71.86   0.02202862   22.621    0.956
        46 -10.6102     55.5812    166.5237   1.1360169491e+02   3.3671988678e+01    0.3976954    0.1901308 -56.17  0.001853386    2.050    0.512
        47  -9.8954    187.4632    166.4526   8.2343718930e+01   1.0531525095e+01     0.267112    0.1358431 -52.48  0.001037908    2.470    0.595
        48 -12.2760     92.7425    153.0817   1.0220074985e+02   3.1558839500e+01    0.6811368    0.4933721 -25.45  0.003214075    1.999    0.500
        49 -10.6899    188.0669    152.5053   7.9204833145e+01   1.3090872997e+01    0.3342195    0.2412763 -79.47  0.001424524    2.320    0.569
        50 -11.4976    133.8172    145.4613   9.0148599494e+01   2.5841015021e+01     1.247274    0.3330855 -55.30  0.002988206    5.579    0.821
        51 -11.2015     40.4046    224.4230   1.2226264887e+02   2.2934638602e+01    0.2378318    0.1381019  73.41 0.0008702705    1.486    0.327
        52 -10.9104    174.4914    148.7327   8.1286095644e+01   1.6679985286e+01    0.3118407    0.2929619  87.85 0.0009575378    1.199    0.166
        53 -11.2118    105.2331    138.6703   9.6119198417e+01   3.2875636649e+01    0.5889656    0.3479325 -33.82  0.002358884    2.309    0.567
        54 -12.4083     92.9580    138.6468   9.9440797635e+01   3.4998289389e+01     0.279935    0.2534373 -48.14 0.0004153811    1.149    0.129
        55 -10.9639    105.8923    130.7837   9.4248727824e+01   3.4639138892e+01    0.3708141    0.3195654 -70.85  0.001170487    1.164    0.141
        56 -11.1722    135.5744    127.4233   8.5565282742e+01   2.9574476517e+01    0.7190681    0.1940114 -49.96  0.001954108    3.952    0.747
        57 -10.1451    135.0012    120.2380   8.3939856159e+01   3.1314966513e+01    0.3567225    0.1868369 -46.25  0.001052845    1.887    0.470
        58 -10.8403    113.5329    129.5270   9.1881387848e+01   3.3513891320e+01    0.3526365    0.2950688   4.92 0.0007119631    1.497    0.332
        59 -10.2675    160.4753    127.8531   7.9561935429e+01   2.4082415968e+01    0.3106862    0.2587228  87.29   0.00147778    1.475    0.322
        60 -11.0950    100.7997    125.5967   9.4507990471e+01   3.6795209503e+01    0.2982621    0.2547687  -5.29 0.0008875411    1.448    0.309
        61 -11.5285    119.6073    123.0569   8.8715386171e+01   3.3845862082e+01    0.5817025    0.3954571 -11.86  0.002271293    2.489    0.598
        62 -10.2627    109.0428    118.7721   9.0593332801e+01   3.6899415946e+01    0.2415424    0.2114783 -53.14 0.0003300871    1.104    0.094
        63  -9.8930    167.5695    112.5398   7.4038857010e+01   2.5680691155e+01    0.3506996    0.2409524 -80.77  0.001357619    2.365    0.577
        64 -10.6618    134.5201    104.4793   7.9927695365e+01   3.4904932520e+01    0.6678535    0.1783587 -45.14  0.001845708    3.702    0.730
        65 -12.1552    118.4886    109.6145   8.5639139413e+01   3.7161641279e+01    0.6616001    0.5760487 -85.56   0.00282908    1.305    0.234
        66 -10.2849    205.4758    110.1517   6.5649273702e+01   1.7415951048e+01    0.3122327    0.2182861  41.39 0.0009374819    1.540    0.350
        67  -9.8280     63.5674     99.1953   9.9706994172e+01   4.8951194528e+01    0.2384155    0.1985031  32.00 0.0006407592    1.337    0.252
        68 -11.1839     53.0820     91.1516   1.0130623109e+02   5.2158733260e+01    0.2560984    0.1956132 -68.34 0.0009631648    1.310    0.237
        69  -9.2106    161.7868     89.1761   6.8958141829e+01   3.1719392307e+01    0.2083293     0.183631  17.96  0.000439472    1.268    0.211
        70 -13.6966     52.0892    199.7045   1.1795379694e+02   2.6615251373e+01    0.4224658    0.3913975 -43.20  0.001329754    1.513    0.339
        71 -10.5904     55.2581    222.9256   1.1933398599e+02   2.1427663082e+01    0.2167881    0.1195664  55.02  0.001010499    1.498    0.332
        72  -9.8057    156.4320     81.7149   6.8008765857e+01   3.4439389758e+01    0.2083082    0.1521871 -25.47 0.0004423777    1.513    0.339
        73  -9.7814    184.2112     77.1350   6.0914669491e+01   2.8435421304e+01    0.2287172    0.2119847   4.43  0.000664228    1.206    0.171
        74 -10.2162     63.5854     69.7998   9.1774682021e+01   5.5568719038e+01    0.2193443    0.1919612  16.39 0.0004270783    1.213    0.176
        75 -10.9245    158.2424    237.4117   1.0065457534e+02   3.3098389798e+00    0.3892549    0.1665347 -51.88  0.001810175    2.978    0.664
        76  -9.8141    169.0042    235.7360   9.8328497602e+01   1.8236664924e+00    0.1801644    0.1701886   0.47 0.0004337877    1.197    0.164
        77  -9.7535     61.3628    220.0140   1.1790046554e+02   2.1223490094e+01    0.1641062    0.1554893 -67.63 0.0006437547    1.424    0.298
        78 -11.2131     59.8053    231.5876   1.1916557510e+02   1.9167191176e+01    0.1985066    0.1470952  76.38 0.0003604225    1.142    0.124
        79 -11.2305    152.4842     55.6655   6.0913945612e+01   3.9955564354e+01    0.3875402     0.285831 -82.59 0.0008753804    1.765    0.434
        80 -10.9186     50.2411    224.5723   1.2042320820e+02   2.1728019168e+01    0.2106531    0.1290499  80.44  0.000751651    1.481    0.325
        81 -10.2203    189.7195     14.9853   4.2620067290e+01   3.5878098256e+01    0.2342492    0.1832732  76.04 0.0006381474    1.159    0.137
        82 -10.7025     56.2723    217.8158   1.1871249965e+02   2.2318775440e+01    0.2597316    0.1449058  78.52 0.0007181675    1.801    0.445
        83 -11.9994     34.7554    228.3472   1.2356435254e+02   2.2819838232e+01    0.1974578    0.1400575  67.10 0.0003095954    1.059    0.056
