#   1 NUMBER                 Running object number                                     
#   2 MAG_AUTO               Kron-like elliptical aperture magnitude                    [mag]
#   3 X_IMAGE                Object position along x                                    [pixel]
#   4 Y_IMAGE                Object position along y                                    [pixel]
#   5 X_WORLD                Barycenter position along world x axis                     [deg]
#   6 Y_WORLD                Barycenter position along world y axis                     [deg]
#   7 A_WORLD                Profile RMS along major axis (world units)                 [deg]
#   8 B_WORLD                Profile RMS along minor axis (world units)                 [deg]
#   9 THETA_WORLD            Position angle (CCW/world-x)                               [deg]
#  10 FWHM_WORLD             FWHM assuming a gaussian core                              [deg]
#  11 ELONGATION             A_IMAGE/B_IMAGE                                           
#  12 ELLIPTICITY            1 - B_IMAGE/A_IMAGE                                       
         1  -7.8436    203.9361     16.6083   3.2597536598e+01   3.2559046104e+01    0.8982505    0.6382067 -16.01   0.00533161    2.023    0.506
         2 -11.0802    204.1936     31.6374   3.5954207785e+01   3.0750111651e+01    0.4080404    0.3156937 -16.43 0.0005813046    1.779    0.438
         3 -11.3454    237.2106     21.5477   3.0835036467e+01   2.5048121179e+01    0.5367991    0.2995856 -36.56  0.001196008    1.789    0.441
         4 -14.7010    178.5565     78.5563   5.1104942901e+01   2.9710813691e+01     5.430217     2.794493 -68.93  0.001895537    4.155    0.759
         5 -12.2476    249.6620     27.5122   3.1046614840e+01   2.1919855328e+01    0.5542409    0.2419222 -35.17 0.0007521703    2.273    0.560
         6 -11.8020    212.9243     24.2806   3.3446535827e+01   2.9737835582e+01    0.5830548    0.3039128 -34.32  0.001136187    1.985    0.496
         7 -13.4540    227.8661     33.4071   3.4006765396e+01   2.5486338054e+01     1.763686     1.473099  81.09   0.00180308    1.229    0.186
         8 -11.9669      2.4644     42.8347   9.8164597986e+01   6.7564631407e+01     1.069548    0.2457217 -61.03  0.003549274    5.091    0.804
         9 -12.3790    250.3195     41.2371   3.3617319812e+01   2.0054475886e+01     0.757333    0.4216544 -34.49  0.003156806    1.855    0.461
        10 -11.2522    134.1996     22.6165   4.3225489153e+01   4.8091875265e+01    0.4993169    0.2736796 -25.83  0.001871331    2.101    0.524
        11 -14.8866    217.0558     75.3094   4.4347385693e+01   2.1757861650e+01     8.278415     4.473068 -48.93   0.04016839    1.669    0.401
        12 -14.7468    238.7049     56.7225   3.7783520080e+01   2.0168786667e+01      5.14796    0.7162781  55.06   0.01447939    7.661    0.869
        13 -10.7584    134.9924     12.3255   3.9915872585e+01   4.8919857053e+01    0.2891546    0.2195188 -38.37  0.001749449    1.479    0.324
        14 -10.8225    249.9560      7.5265   2.7328216491e+01   2.4178793789e+01    0.2644747    0.1715685 -32.17  0.001644354    1.823    0.451
        15  -9.4211      1.4243      8.1378   8.5211634945e+01   7.3560734431e+01    0.3202072   0.08502392 -43.75  0.001447378    3.226    0.690
        16  -9.5135    128.4883      5.5326   3.8857986426e+01   5.1035159849e+01    0.1965006    0.1219017   2.14  0.001026187    2.265    0.559
        17  -9.1832    158.7906      2.4161   3.3818270940e+01   4.4212946768e+01    0.2656102    0.2014445  21.58  0.001626901    1.794    0.442
        18  -8.2257    236.2706      2.6478   2.7266199262e+01   2.7331431430e+01    0.1390112   0.08747686  73.84 0.0007052215    1.541    0.351
        19  -7.8821    172.7442      2.3659   3.2287656289e+01   4.0994158956e+01    0.1255788   0.07714689 -63.32 0.0003136207    1.632    0.387
        20  -8.6673    181.4936      4.0340   3.1824277249e+01   3.8847297858e+01    0.1625039    0.1189188 -32.39  0.001022064    1.568    0.362
        21 -10.0245    119.1620      5.2957   4.0350819324e+01   5.3217376411e+01    0.2467506    0.1761786 -22.94   0.00142094    1.643    0.391
        22  -9.9475    235.3144    179.6006   6.3838037979e+01   1.4918152002e-01    0.2538224    0.2300614 -16.85 0.0008098009    1.159    0.137
        23  -9.5175    249.4487    249.4431   7.3929816506e+01  -1.2204637298e+01    0.1851811    0.1328608 -23.47  0.001304289    1.295    0.228
        24  -8.5006    229.4709    250.4794   7.7633758177e+01  -1.0060604213e+01    0.1180056   0.09087873  -0.03 3.437993e-05    1.049    0.046
        25  -8.1018    212.3145    180.3598   6.8181077745e+01   3.5993054366e+00    0.1473404   0.09844999  -9.97 0.0007042929    1.752    0.429
        26 -12.1024    230.3522    167.0665   6.2201246404e+01   3.0972419996e+00     1.421327    0.6319203 -24.28  0.005044353    3.492    0.714
        27  -8.8766    173.9881    175.7538   7.5156904515e+01   1.1147214124e+01    0.2681092     0.209713  55.60   0.00123655    1.556    0.357
        28 -12.0283      2.9129    166.4580   1.1807807924e+02   3.8462495184e+01    0.8545787    0.3383825 -77.40  0.003869946    2.103    0.524
        29  -8.6728    250.5489    171.9667   5.9811924156e+01  -7.8566713811e-01    0.1997098    0.1045466 -36.39 0.0003910223    1.569    0.363
        30 -10.2190     24.7853    167.1795   1.1249629815e+02   3.6478937586e+01    0.3597722    0.2984296  12.25  0.002167305    1.504    0.335
        31  -9.0856    237.0000    246.4861   7.5626812169e+01  -1.0408316474e+01    0.2421095   0.05807593 -38.83 0.0009403487    3.980    0.749
        32 -13.7752    177.5986     92.0063   5.4744203690e+01   2.7544446563e+01     2.494034     1.576211  49.01   0.01151689    1.654    0.395
        33  -9.1320    189.3777    237.8949   8.3284567057e+01  -2.9412061225e+00    0.2307217    0.2124078 -83.54  0.001474866    1.723    0.420
        34 -12.0814    198.9705     83.2409   4.8839677033e+01   2.4326988585e+01     1.072575    0.4254896  45.72  0.003948955    3.134    0.681
        35 -10.3474    209.6261    232.0670   7.8303189368e+01  -4.8457899842e+00    0.2226596    0.1890379  -4.49 0.0003810424    1.108    0.097
        36 -13.8318    231.8930    103.1314   4.8457639999e+01   1.4182647182e+01     3.806644     1.896808 -60.53  0.003478635    2.800    0.643
        37  -9.3295    177.0557    231.8119   8.4825015936e+01  -1.2498690610e-01    0.2103297    0.2079718  27.49 0.0003891078    1.322    0.244
        38  -9.7193    144.9143    147.6299   7.5893198955e+01   2.2935890431e+01    0.3671465    0.2720269 -73.44  0.001604074    1.788    0.441
        39 -11.0879    190.5641    153.7913   6.6912984076e+01   1.2582166781e+01     0.390662    0.3411145 -86.66 0.0008392685    1.488    0.328
        40 -10.8870    249.4771    143.6514   5.4367064376e+01   4.1488809975e+00    0.6260477    0.2492697 -36.10  0.002698686    2.180    0.541
        41  -8.4738    119.9961    145.9750   8.2028718363e+01   2.8222569100e+01    0.1805715    0.1711099 -45.78 0.0009264402    1.034    0.033
        42 -11.5805     65.6004    143.4751   9.7345551888e+01   3.7935142930e+01     2.272157    0.9542628  39.83  0.008644363    2.461    0.594
        43  -9.1541    222.2592    144.4892   5.8905916812e+01   8.5520311632e+00      0.36868    0.2442976 -71.12  0.001435767    2.625    0.619
        44 -10.4904    192.0495    143.5058   6.4319839691e+01   1.4376396339e+01    0.4402211    0.2496704 -47.98 0.0006283434    1.728    0.421
        45  -8.8916    158.2896    142.8700   7.1544174696e+01   2.1299637879e+01    0.2688318    0.2158125  54.34 0.0009342034    1.372    0.271
        46 -10.7944    175.6553    139.1811   6.6750760301e+01   1.8544354495e+01    0.4890703    0.3296338  81.16  0.001877955    2.773    0.639
        47  -8.9603    158.3056    137.6805   7.0318768349e+01   2.2442324584e+01    0.2432864     0.228108  82.37  0.001189973    1.190    0.159
        48 -10.3566    154.8174    136.7683   7.0928952156e+01   2.3368100258e+01    0.4656446     0.313748 -20.35  0.001919461    1.963    0.491
        49 -10.5985    204.7984    135.6087   6.0080271815e+01   1.3460401247e+01    0.4197922    0.3474179 -78.07  0.001670953    1.532    0.347
        50 -10.2894    188.9392    133.3552   6.2622287114e+01   1.7043423414e+01    0.4070094    0.2565521  -7.66  0.001509678    2.931    0.659
        51  -8.0005    220.2110    133.9684   5.6986826594e+01   1.0866133975e+01    0.1879158    0.1007529 -40.91 0.0004053822    1.630    0.387
        52  -8.6019    166.6308    134.3179   6.7599028389e+01   2.1440945879e+01    0.1593448    0.1241551 -88.19 0.0003990915    1.787    0.441
        53 -10.2039    225.4040    129.8442   5.5229862404e+01   1.0671590750e+01    0.3912509    0.2725222 -73.15  0.001158774    2.128    0.530
        54  -9.5071    136.0000    129.0451   7.3744178772e+01   2.9031858342e+01    0.5963195   0.08882321 -46.73   0.00121724    6.559    0.848
        55 -10.5596    160.9686    128.2930   6.7433608783e+01   2.3929437294e+01      0.46703    0.3408817 -58.91  0.001929132    1.516    0.341
        56  -9.7996    208.9126    126.8260   5.7359016039e+01   1.4343658263e+01    0.2598196    0.2295993  -9.43   0.00146289    1.237    0.192
        57  -8.9372    178.8805    227.1081   8.3664851182e+01   4.1628475597e-01    0.2004748    0.1683668   2.75 0.0004550155    1.061    0.058
        58  -8.1625     92.4821    127.5392   8.5733417056e+01   3.7807548320e+01    0.1551984    0.1476806 -36.06 4.258204e-05    1.024    0.024
        59 -10.3364    230.7901    119.8443   5.2224446251e+01   1.1480552324e+01    0.5331939     0.301822 -35.93  0.002590555    1.596    0.373
        60  -9.2132    227.0858    119.4126   5.2700495631e+01   1.2240802739e+01    0.3028298    0.1761576 -41.03 0.0003432095    1.481    0.325
        61  -8.3699    177.9290    121.9545   6.2165868946e+01   2.1644393871e+01    0.2280625    0.1809537 -75.98  0.000498294    1.565    0.361
        62  -9.4861    170.6863    121.6707   6.3634349697e+01   2.3251622934e+01     0.295539    0.1905404  71.58  0.001164445    2.375    0.579
        63 -10.4471    162.4404    120.1711   6.5087154569e+01   2.5344967596e+01    0.4834951     0.302395 -73.65  0.001725822    2.899    0.655
        64  -9.8768    213.8271    120.8900   5.5173501478e+01   1.4497403478e+01    0.2821694    0.2380874  -0.15  0.001556439    1.432    0.302
        65  -8.8498    135.0203    119.9649   7.1709049200e+01   3.1298170551e+01    0.3434569     0.186811 -39.30   0.00118397    1.883    0.469
        66 -11.3594    204.4971    111.8988   5.4712776699e+01   1.8032616748e+01    0.6838737     0.534915  -9.07  0.003489866    1.646    0.393
        67 -10.5921    167.4929    114.1692   6.2458836813e+01   2.5490014561e+01    0.5865529    0.2623343 -44.66  0.002171648    2.152    0.535
        68  -8.6249    226.9630    115.2746   5.1818612234e+01   1.2999762126e+01    0.1870804    0.1656708 -44.80 0.0004426212    1.026    0.026
        69 -10.5177    134.7608    108.9847   6.8890851520e+01   3.3775325266e+01     1.094136     0.295965 -45.05  0.003069401    3.648    0.726
        70 -10.4090    135.6116     99.3709   6.6046971909e+01   3.5623131099e+01    0.7134798    0.3290622 -53.62 0.0007217535    2.691    0.628
        71  -8.2418     28.9752    115.0408   1.0395015396e+02   4.9398287800e+01    0.1999225    0.1534328  77.21 0.0005215853    1.543    0.352
        72  -8.2169     69.0063    113.9836   9.0039407868e+01   4.4945218390e+01    0.1753749    0.1582911 -45.79            0    1.030    0.029
        73 -11.8691    125.8245    103.8771   6.9870708835e+01   3.6807182411e+01    0.9508503     0.777828  87.64  0.004497595    1.571    0.363
        74  -8.6801    179.6477    222.7538   8.2767396568e+01   1.0665579246e+00    0.2014417    0.1504925 -17.05 0.0007766182    1.350    0.259
        75 -12.4657     33.6935    152.7148   1.0829932951e+02   3.9310600850e+01    0.6472113    0.5166065  51.17  0.001321996    1.327    0.246
        76  -7.9523    109.1470    110.6253   7.6437991800e+01   3.8752453703e+01     0.209761    0.1474417  26.71 0.0003943949    1.596    0.373
        77  -9.7373    149.9082    103.5557   6.3681500881e+01   3.1570766561e+01    0.3354687    0.2827535  28.40 0.0006290863    1.304    0.233
        78  -9.1009    243.7175    219.7187   6.9865467852e+01  -7.4216103845e+00    0.2149021    0.1448015  49.81  0.001178992    2.619    0.618
        79 -11.2716    113.9942     94.4557   7.0512367577e+01   4.1326066927e+01      0.92123    0.5649894   4.54  0.003016049    3.584    0.721
        80 -10.3004    143.8276     94.1607   6.2566089361e+01   3.4834630091e+01    0.3483723    0.3126577 -87.01 0.0007819092    1.231    0.188
        81 -11.4291    159.4894     90.3978   5.7981187032e+01   3.1979255670e+01    0.3509847    0.2938462 -35.81 0.0007376544    1.209    0.173
        82  -7.8939     99.2617     95.6906   7.5284244679e+01   4.4038396308e+01    0.1450503     0.122351 -84.55 0.0001706784    1.530    0.346
        83 -10.3521     87.4082     96.0349   7.9179705181e+01   4.6175972762e+01    0.2533135    0.2361754  23.00 0.0002845447    1.091    0.084
        84  -9.9165    150.9948     71.3394   5.4499515422e+01   3.7373593086e+01    0.3040563    0.2327151 -33.24 0.0004669889    1.372    0.271
        85  -9.5758    133.9921     63.8302   5.6056946851e+01   4.2609767418e+01    0.2443407    0.1554139  31.25 0.0005687182    1.948    0.487
        86 -10.0339    125.2978     59.7110   5.6856236292e+01   4.5286622803e+01    0.3086247    0.2477186 -40.67 0.0006060445    1.307    0.235
        87 -13.0802     43.4746    148.5545   1.0485390179e+02   3.9358711218e+01     1.217187    0.8463486  19.79  0.005021081    1.689    0.408
        88  -8.5497    194.9787     55.9590   4.2819914905e+01   2.9536931356e+01    0.1978025    0.1754082 -68.20 0.0003514357    1.028    0.027
        89  -8.5709    110.2008     55.7992   5.9488925321e+01   4.9309695146e+01    0.1978469    0.1913197  69.55 0.0004182317    1.131    0.116
        90  -8.4349    177.4498     53.9923   4.4906029746e+01   3.3856838266e+01    0.2723383    0.1221217 -39.78  0.001152013    2.160    0.537
        91  -9.3101    176.8324     49.4231   4.3811143801e+01   3.4653853239e+01    0.2869183    0.2215956 -83.19  0.001584618    1.317    0.241
        92  -9.5794    216.9491     50.1503   3.8715464143e+01   2.5544851859e+01    0.3414311    0.1550501 -42.18 0.0008144199    1.948    0.487
        93 -10.8554    176.1079    149.2456   6.8961331759e+01   1.6328454133e+01    0.4143586    0.3301697  41.56 0.0008852824    1.320    0.242
        94 -10.1469    146.3533    216.2616   8.8958255087e+01   7.5860680097e+00    0.2402253     0.221796  11.89 0.0003367586    1.027    0.026
        95  -9.6137     38.0282    213.4507   1.1375893507e+02   2.3909957395e+01    0.2372243    0.1452176  74.58  0.001256339    1.602    0.376
        96 -10.5453      8.9336     43.8274   9.5184505045e+01   6.6965075271e+01    0.2587318    0.1490038  22.63  0.001501266    1.886    0.470
        97 -11.5199    120.4356     39.5587   5.1490069507e+01   4.9328406219e+01      0.57033    0.4210655   6.45 -2.847761e-05    1.710    0.415
        98  -9.5484    189.9683     35.8011   3.8568826520e+01   3.3424854108e+01     0.345709    0.1904201 -28.29  0.001690601    2.124    0.529
        99 -13.5212    231.8041     69.8281   4.1292143643e+01   1.9600605842e+01     1.467138      0.69632  66.85  0.001925668    2.383    0.580
       100  -9.5990    191.8591     44.5709   4.0465967188e+01   3.1847139737e+01    0.4163572    0.1808551 -44.99  0.001843965    2.166    0.538
       101 -12.6233    249.4793     61.6926   3.7709814538e+01   1.7394041355e+01    0.7646129    0.2892097 -41.13 0.0009826107    2.155    0.536
       102 -10.9546    181.4988    146.8662   6.7261214151e+01   1.5761430235e+01    0.3986177    0.2994382 -38.80  0.001086368    1.253    0.202
       103 -12.0409     18.4636    161.9031   1.1361668534e+02   3.8373367792e+01    0.7148063     0.557745  -7.73  0.004190114    1.709    0.415
       104  -9.6597    158.3870     26.4796   4.0419331502e+01   4.1926965749e+01       0.4149    0.2305724  65.68  0.001549562    1.602    0.376
       105 -10.2917    188.2538     24.6525   3.6069097718e+01   3.5160764731e+01    0.2626131    0.2131654 -63.11 0.0005034555    1.147    0.128
       106  -9.9228    179.6646     24.1299   3.6946674002e+01   3.7194281751e+01    0.4250041    0.3135006  85.19  0.002312351    1.227    0.185
       107  -8.1112     98.3867    211.3993   9.9431652158e+01   1.6289831020e+01    0.1356021    0.1259183  54.80   8.4857e-05    1.006    0.006
       108  -9.2602    114.3913     25.1676   4.8007172443e+01   5.2439172003e+01     0.168324    0.1214685 -41.17 0.0003398066    1.576    0.366
       109  -9.8264    143.9601     20.3227   4.0878998409e+01   4.6019295225e+01     0.239111    0.1960145  -5.35  0.001169332    1.519    0.342
       110 -10.1750    133.6536    144.6328   7.8078483926e+01   2.5881403508e+01     1.059988    0.3575872 -56.51  0.002784354    4.358    0.771
       111  -9.0350    148.0081     18.2631   3.9648403336e+01   4.5270267533e+01    0.1810199    0.1532444  69.87 0.0003247584    1.035    0.034
       112  -8.4623    167.0582     16.4602   3.6531605112e+01   4.0959683504e+01    0.1753826    0.1542761 -52.98 0.0002649469    1.208    0.172
       113  -7.9138    250.6828     15.2809   2.8696581950e+01   2.3174983703e+01    0.1177911   0.06304317 -65.77 0.0003882067    1.578    0.366
       114  -8.9024     21.2078    211.5563   1.1731794325e+02   2.6133455657e+01    0.2796833    0.1228822  25.49  0.001309784    2.670    0.625
       115  -9.9392    245.1085    208.8520   6.7673170557e+01  -5.9584289972e+00    0.2766652    0.2481971  57.22  0.001169781    1.889    0.471
       116  -7.8720    221.5474    205.5483   7.1297221864e+01  -2.2290832803e+00    0.1299858    0.1098226 -11.54 0.0001743586    1.056    0.053
       117  -9.1174    249.9883    204.0232   6.5961826374e+01  -5.8409416257e+00    0.1745088    0.1447739 -50.48 0.0006625108    1.726    0.421
       118  -9.8184    240.5331    199.1821   6.6681468541e+01  -3.8392335619e+00     0.406081    0.1914999  45.02  0.001876874    2.946    0.661
       119  -8.4106    238.0550     12.9085   2.9099694017e+01   2.5872670451e+01    0.1326118   0.09674651 -57.75 0.0004297229    1.141    0.124
       120  -8.8916    169.0613    202.0741   8.1384437599e+01   6.6507766031e+00    0.2048548    0.1901387   5.72 0.0002929332    1.047    0.045
       121  -8.2300    204.5017    200.4863   7.3636226165e+01   1.1930205530e+00    0.1371704    0.1178103  -8.42 -7.059508e-07    1.005    0.005
       122 -10.1187    192.2832    193.8581   7.4847265193e+01   4.3684605443e+00    0.9002548    0.4586655 -62.39  0.002638245    5.740    0.826
       123  -9.3164     30.5162    197.4823   1.1406152496e+02   2.8456543657e+01    0.2125601     0.186124  84.93  8.48549e-05    1.058    0.055
       124  -8.5219     32.9683    182.0404   1.1196187061e+02   3.1954177496e+01    0.1886292    0.1635353  85.74            0    1.014    0.014
