#   1 NUMBER                 Running object number                                     
#   2 MAG_AUTO               Kron-like elliptical aperture magnitude                    [mag]
#   3 X_IMAGE                Object position along x                                    [pixel]
#   4 Y_IMAGE                Object position along y                                    [pixel]
#   5 X_WORLD                Barycenter position along world x axis                     [deg]
#   6 Y_WORLD                Barycenter position along world y axis                     [deg]
#   7 A_WORLD                Profile RMS along major axis (world units)                 [deg]
#   8 B_WORLD                Profile RMS along minor axis (world units)                 [deg]
#   9 THETA_WORLD            Position angle (CCW/world-x)                               [deg]
#  10 FWHM_WORLD             FWHM assuming a gaussian core                              [deg]
#  11 ELONGATION             A_IMAGE/B_IMAGE                                           
#  12 ELLIPTICITY            1 - B_IMAGE/A_IMAGE                                       
         1 -12.8708    181.6066     57.2049   4.3345025304e+01   3.2009088311e+01     1.664237     1.086387  29.12  0.004900259    2.071    0.517
         2 -13.4415    197.0307     44.8708   3.7607668682e+01   2.9975203059e+01    0.9928101    0.9261663   8.75  0.004098069    1.218    0.179
         3 -13.1662    203.0155     39.0731   3.5262261704e+01   2.9285085061e+01    0.9382839    0.6328363 -27.25  0.001085444    1.476    0.322
         4 -12.6715    228.3265     17.4218   2.7152178116e+01   2.5928114997e+01    0.7644446    0.4728473  38.05  0.003484946    2.278    0.561
         5 -13.3070    225.5672     12.0129   2.6030987595e+01   2.7114683926e+01    0.9029074    0.6858665  41.31  0.005354803    1.666    0.400
         6 -12.7607     60.9030      3.4434   5.0219026925e+01   6.7190506944e+01    0.8672481    0.3649236  46.73  0.004032586    2.194    0.544
         7  -9.8434     60.2883     21.0129   5.9558429197e+01   6.5081353376e+01    0.2152729     0.179618  31.74 0.0004525399    1.198    0.165
         8 -10.2500    150.6175    249.9610   8.8817343487e+01   5.8073485037e+00    0.1969384    0.1267713  30.87  0.001307319    1.315    0.239
         9 -19.1264      9.8010    164.3282   1.0919727148e+02   3.9579496422e+01     16.93901     2.970536 -79.36   0.05212963    5.859    0.829
        10  -9.4321     82.7625    194.8926   9.5665521432e+01   2.4724133315e+01    0.2596728    0.1606191  33.30  0.001152763    1.660    0.397
        11  -8.9123    163.4393    192.4711   7.8492090665e+01   1.2354129810e+01    0.1272381    0.1135215  30.30 0.0001015387    1.014    0.014
        12  -8.7472     59.8274    192.2307   1.0033150586e+02   2.8320592144e+01    0.1353173    0.1227049  78.71 0.0003300216    1.154    0.134
        13 -11.5925     50.9807    190.4092   1.0207333219e+02   2.9779704269e+01    0.3712806    0.3007443 -45.77  0.001451535    1.662    0.398
        14 -10.2807     51.3538    181.7681   1.0117554524e+02   3.1533401286e+01    0.4049824    0.2930102  57.41  0.002443532    1.203    0.169
        15  -7.6574     33.1211    190.4569   1.0591096819e+02   3.1791990135e+01    0.2267875    0.1274454  51.29  0.001082492    1.507    0.336
        16  -8.6998    185.0223    189.3068   7.3812613474e+01   9.2201542402e+00    0.1741354    0.1449731  28.50 0.0002405809    1.074    0.068
        17 -11.2370     80.8877    182.0912   9.4554546897e+01   2.7576214329e+01    0.5950699    0.3585508  59.86  0.003149277    1.662    0.398
        18 -11.2028     39.0897    183.6256   1.0407307412e+02   3.2560547530e+01    0.3419864    0.2766849 -47.39  0.001922884    1.645    0.392
        19  -9.5742     76.2237    183.2836   9.5748996499e+01   2.7985970566e+01    0.2916173    0.1786705 -84.07  0.001088603    1.825    0.452
        20  -9.7098     56.2956    210.6395   1.0271470844e+02   2.5139538057e+01    0.2262979    0.1314058  76.10 0.0005430073    1.747    0.428
        21 -10.2080     55.1761    206.7691   1.0262013694e+02   2.6016400125e+01     0.306014    0.1439097  64.86  0.001478718    2.249    0.555
        22  -8.9231     40.5612    177.7401   1.0322810869e+02   3.3643706263e+01    0.1505198    0.0995611  85.15 0.0002334976    1.379    0.275
        23  -9.2321     46.9077    177.1367   1.0172941713e+02   3.3046535456e+01    0.1920115    0.1367671  68.37  0.000500585    1.239    0.193
        24 -10.5189     75.2664    248.1285   1.0207108328e+02   1.6253201055e+01     0.338608    0.1217896 -58.88  0.001791837    3.324    0.699
        25  -9.6037    167.2078    225.0659   8.2702501192e+01   6.7876085726e+00    0.2283284    0.1503787 -33.47 0.0008940889    1.811    0.448
        26 -10.1139     46.9486    172.0754   1.0121702737e+02   3.4134449099e+01    0.2383566    0.2063022  30.58 0.0005555541    1.393    0.282
        27 -10.9315    230.5049    167.0234   6.1678843144e+01   4.8712597040e+00    0.4347919    0.1823281 -45.01  0.001825094    3.122    0.680
        28 -16.2368     70.0167    146.6535   9.2301502186e+01   3.6873924974e+01     16.66948     7.874956  85.11   0.04706955    6.018    0.834
        29 -10.0677    186.7561    168.6887   6.9705826058e+01   1.2180171228e+01    0.2329929    0.1720906 -24.61 0.0006985809    1.410    0.291
        30 -12.1497    238.3974    172.5108   6.1474235014e+01   2.8690989485e+00    0.4916067    0.2664825  21.81  0.002486988    2.165    0.538
        31  -9.6043     42.7977    167.6295   1.0174247374e+02   3.5586013025e+01    0.2093725    0.1232128  67.22 0.0006615111    1.660    0.398
        32  -9.4635     45.6007    164.9237   1.0079276516e+02   3.5862423484e+01    0.2750168     0.214987  14.48  0.001029112    1.757    0.431
        33 -10.5582    137.7618    172.9993   8.0498884551e+01   2.0236778722e+01    0.1854521     0.183032  58.56 0.0008622312    1.066    0.062
        34  -9.9589     73.3201    205.7737   9.8809634576e+01   2.3901280122e+01    0.1979387    0.1412447  67.28 0.0008889489    1.276    0.216
        35  -9.4521     49.3945    160.8572   9.9422665141e+01   3.6322718688e+01    0.2023808    0.1509509  57.83 0.0004125192    1.233    0.189
        36  -9.6425     86.9468    204.8956   9.5899639757e+01   2.2205710947e+01    0.2229536    0.1634755 -72.34 0.0007313315    1.466    0.318
        37 -11.4438    133.9212    145.9872   7.6284006418e+01   2.6274891415e+01     1.239396    0.3234169 -54.35  0.003135256    5.981    0.833
        38 -11.7924     92.7284    148.4871   8.6771149502e+01   3.3026735835e+01    0.6252838    0.5334171 -19.68  0.003514733    1.527    0.345
        39  -9.6115    111.4708    149.6477   8.2334319508e+01   2.9614452761e+01    0.3120323    0.2198853  69.59  0.001526738    1.704    0.413
        40  -9.2241    174.7634    148.8650   6.8050076405e+01   1.7804831855e+01    0.2478056    0.1914446 -59.62 0.0007885692    1.581    0.368
        41 -11.2399    105.6647    133.2111   8.0570656339e+01   3.4231933225e+01    0.7578146    0.3492415 -49.20  0.002526111    2.169    0.539
        42 -11.7261     92.9053    135.0601   8.4271266132e+01   3.6015425291e+01    0.2685818    0.2540853 -70.31 0.0003388381    1.064    0.060
        43  -8.6693    116.9494    134.3130   7.7937918090e+01   3.1930964652e+01    0.2462968    0.1036331  58.26 0.0003604115    4.408    0.773
        44  -9.6869    147.2901    131.0964   7.0003131205e+01   2.6652007567e+01    0.2487162    0.2080869  55.84 0.0004528713    1.235    0.190
        45 -10.3163    134.9265    128.6810   7.2316467842e+01   2.9641265603e+01    0.3180462    0.2873378  87.67  0.001736471    1.203    0.169
        46 -10.0475    113.3089    127.8044   7.7455678266e+01   3.4026726077e+01    0.3067914     0.262824   2.57 0.0006287682    1.457    0.314
        47 -10.2628    135.0008    121.5520   7.0637827503e+01   3.1100756418e+01    0.5658208    0.1236618 -47.72  0.001474089    4.807    0.792
        48 -10.2742    100.4938    123.4107   7.9855140174e+01   3.7343427562e+01    0.2647173    0.2371179 -10.43 0.0007212904    1.344    0.256
        49  -9.2279     38.2798    223.5392   1.0714008769e+02   2.4831027324e+01    0.1806536    0.1023779  16.39 0.0006004827    3.374    0.704
        50  -9.5411    118.5149    122.5259   7.4938967628e+01   3.4183479381e+01    0.2628108    0.1408555  31.71 0.0008972321    2.348    0.574
        51  -9.4772    108.9737    117.1557   7.6171105917e+01   3.7182603106e+01    0.2119658    0.2044511  86.18 0.0003365311    1.021    0.021
        52 -10.1033    134.7499    109.9558   6.7836742600e+01   3.3542015376e+01    0.8281554     0.114477 -46.74  0.001622289    8.233    0.879
        53  -9.5619    205.4607    110.2192   5.3493006888e+01   1.8182171183e+01    0.2379673    0.1976941  46.75 0.0006499534    1.275    0.216
        54 -10.7263    116.7972    109.0082   7.2119788204e+01   3.7438338594e+01    0.4389137    0.2921062  66.42  0.001915268    1.952    0.488
        55  -9.5496     40.6467    200.8094   1.0511766008e+02   2.8880674033e+01    0.1515691    0.1086876  66.85 0.0005005932    1.135    0.119
        56 -10.2599     66.7929    104.4493   8.5433672691e+01   4.7208756906e+01    0.2784431    0.2638221 -34.77   0.00126836    1.155    0.134
        57 -10.6085    119.5993    103.5476   6.9980268936e+01   3.8035682579e+01     0.342252    0.2307677 -64.33  0.001517159    1.780    0.438
        58 -10.1247     59.7683     97.4125   8.6093278930e+01   4.9851740339e+01    0.2556195    0.2167314  72.93 0.0008185119    1.282    0.220
        59 -10.1310     58.9887    216.7548   1.0267743984e+02   2.3664298723e+01    0.1581029    0.1301059  70.48 0.0003670447    1.081    0.075
        60  -8.5729    157.4578     84.4781   5.5726429358e+01   3.3376610016e+01    0.1497317    0.1446728 -54.43 0.0001094516    1.027    0.026
        61  -8.6243     96.8952     83.8194   7.0806734638e+01   4.6755877978e+01    0.2018315    0.1729601  85.24 0.0006122675    1.368    0.269
        62 -10.6258    192.8830    194.7352   7.3297866993e+01   7.1079615713e+00    0.7063881       0.3811 -60.56   0.00260442    5.113    0.804
        63 -11.7123    248.8219    243.5094   7.1756810473e+01  -6.6217564859e+00    0.3751994    0.2200215  -8.63  0.002622257    1.628    0.386
        64  -9.6720     58.8547    196.0543   1.0090545360e+02   2.7670951158e+01    0.1647406    0.1361855  69.90 0.0002974623    1.023    0.023
        65  -8.6894     56.5960    239.7594   1.0482115624e+02   1.9895099702e+01   0.09495691   0.07914951  19.98 0.0006921468    1.685    0.407
        66 -10.1327     63.0953     52.0377   7.1665824143e+01   5.9278149388e+01    0.2755571    0.1937634  47.62 0.0005558365    1.625    0.385
        67  -9.8993     54.1656     48.6821   7.3894592345e+01   6.1317460059e+01     0.278883    0.1568245  47.76   0.00131843    2.183    0.542
        68 -10.8435     71.2052    240.6353   1.0223663510e+02   1.7971476349e+01    0.1642706     0.132912  77.14 0.0003927043    1.210    0.173
        69  -9.6005     76.7328    231.9943   1.0052298485e+02   1.8717425890e+01    0.1813622    0.1760733  23.28 0.0007030828    1.402    0.287
        70  -9.4262    189.7820     15.0997   3.0013883289e+01   3.5267478411e+01    0.2166265    0.1655326 -58.19 0.0007342499    1.246    0.197
        71 -10.0950    196.9533     14.3128   2.9075469434e+01   3.3592306383e+01    0.1876309    0.1662838 -89.00 0.0006511643    1.080    0.074
        72 -10.0082     77.4437    228.4913   1.0008947293e+02   1.9226037509e+01    0.1865955    0.1592903 -62.44 0.0009354691    1.460    0.315
