#   1 NUMBER                 Running object number                                     
#   2 MAG_AUTO               Kron-like elliptical aperture magnitude                    [mag]
#   3 X_IMAGE                Object position along x                                    [pixel]
#   4 Y_IMAGE                Object position along y                                    [pixel]
#   5 X_WORLD                Barycenter position along world x axis                     [deg]
#   6 Y_WORLD                Barycenter position along world y axis                     [deg]
#   7 A_WORLD                Profile RMS along major axis (world units)                 [deg]
#   8 B_WORLD                Profile RMS along minor axis (world units)                 [deg]
#   9 THETA_WORLD            Position angle (CCW/world-x)                               [deg]
#  10 FWHM_WORLD             FWHM assuming a gaussian core                              [deg]
#  11 ELONGATION             A_IMAGE/B_IMAGE                                           
#  12 ELLIPTICITY            1 - B_IMAGE/A_IMAGE                                       
         1 -17.8734    238.5457     62.6208   6.1305090168e+01   1.7668862006e+01     3.929548     3.170415 -30.38   0.01363618    1.170    0.146
         2 -10.8827    195.9456     28.3835   5.7663076762e+01   3.2559721499e+01    0.5640258    0.3357474  -1.16  0.001844823    2.503    0.601
         3  -8.4025     80.5047     13.0101   7.6324550771e+01   6.2105582310e+01     0.189603   0.09868453 -46.58  0.000183751    2.810    0.644
         4 -11.3863    233.9751    249.4448   1.0078178571e+02  -7.1484103533e+00    0.2175985    0.1590675  24.16 0.0003377469    1.060    0.057
         5 -13.0812    150.9643    248.1463   1.1479552928e+02   5.4206800220e+00      1.55394    0.4313554  39.10  0.006544729    2.950    0.661
         6 -12.9356     56.8739    241.0662   1.3050021225e+02   1.9685067958e+01    0.6475272    0.3420252  59.65  0.004274244    1.491    0.329
         7  -9.2805    100.9814    176.0148   1.1535677493e+02   2.5780544959e+01    0.1856114    0.1652658  67.81 -0.005334738    1.011    0.011
         8  -9.5972    208.9804    160.4668   8.9589085025e+01   8.5937250201e+00    0.1996796    0.1884438 -31.82 0.0003755569    1.207    0.172
         9  -9.5534     29.4991    157.5005   1.2926071350e+02   3.8955967200e+01    0.1200471   0.09395094  84.18 -0.0001056784    1.035    0.034
        10  -8.4880    224.4624    148.5044   8.4176325787e+01   7.4729906426e+00     0.138382    0.1252791   0.32 0.0005135014    1.032    0.031
        11 -10.7801     55.8042    145.1738   1.2163206379e+02   3.8873158202e+01    0.4613357    0.3414631  -6.50  0.001972443    2.229    0.551
        12 -11.7640     66.2996    143.5028   1.1877713717e+02   3.7939391023e+01    0.7120507     0.438852  74.61  0.002973971    1.925    0.481
        13 -11.8550     70.0530    139.4531   1.1720392266e+02   3.8364908384e+01    0.6864954    0.4559579 -88.87  0.002483643    1.653    0.395
        14  -9.4415    227.5616    142.6703   8.2341726802e+01   7.7754864907e+00    0.3196971    0.2425974  70.61   0.00110589    1.956    0.489
        15  -8.5049    188.7402    139.6068   8.9008669855e+01   1.6267664113e+01     0.198993    0.1385075  54.29 0.0006635197    1.553    0.356
        16  -8.5116    224.7152    132.6050   8.0566673132e+01   9.9322947921e+00    0.1812624    0.1368413  56.36  0.000406568    1.541    0.351
        17  -9.7844    217.4993    131.3579   8.1565056010e+01   1.1620642740e+01    0.3768793    0.2512361  64.30  0.001234154    2.037    0.509
        18 -13.5302    193.0210    233.1102   1.0537771833e+02   8.3255417125e-01     2.108455    0.8269346  38.88   0.01031245    2.045    0.511
        19  -9.5797    134.5695    121.0155   9.6852722228e+01   3.1457122278e+01     0.231551    0.1459952 -48.16  0.001021206    1.594    0.373
        20  -9.4533    214.4953    117.4861   7.8808465994e+01   1.4554824375e+01     0.264358    0.2315795 -24.74 0.0007112915    1.089    0.082
        21 -10.5909    165.6093     96.3844   8.3083175076e+01   2.9548132291e+01    0.4122683    0.3080364 -60.60  0.001288926    1.593    0.372
        22 -10.7529    170.4721     94.9336   8.1620538147e+01   2.8670173301e+01    0.3741154    0.3042509 -27.75 0.0006470383    1.254    0.202
        23 -10.8859    131.4972     97.2013   9.1498642049e+01   3.7113470240e+01     0.462127    0.3019521  -1.19  0.001695619    2.882    0.653
        24 -10.7483    126.2058    105.3691   9.5070081822e+01   3.6509836121e+01    0.3364199     0.265663 -40.59  0.001669384    1.260    0.207
        25 -10.1592    149.0571     94.8163   8.6457898916e+01   3.3697345483e+01    0.3436967    0.2217714 -42.26 0.0005708491    1.542    0.351
        26 -10.8580    133.9456    108.8234   9.3975479047e+01   3.4167384918e+01    0.7071402    0.2107484 -44.22  0.001672783    3.335    0.700
        27  -8.9841    129.3133     90.9602   9.0313218076e+01   3.8863647654e+01    0.2559606    0.1163489 -59.44 0.0004231152    4.351    0.770
        28  -9.7315    160.0116     96.4404   8.4354310461e+01   3.0849413586e+01    0.2303511    0.2089744 -32.70 0.0003640419    1.098    0.089
        29  -8.7346     51.0433     80.7002   1.1131964083e+02   5.4255412251e+01    0.1696682    0.1598677 -42.99 0.0003187175    1.099    0.090
        30 -10.4379    170.1083     68.9053   7.4167719482e+01   3.3361926217e+01    0.2383039    0.2117692 -66.04  0.000395342    1.227    0.185
        31  -8.6416    139.0000     65.9832   8.0208968829e+01   4.1450253327e+01    0.2487332   0.08613915 -36.03 0.0005033983    2.878    0.653
        32  -8.6707    221.1405    121.3508   7.8559110623e+01   1.2490462105e+01    0.1931848    0.1870712  30.28  0.001123387    1.120    0.107
        33  -9.5535    158.0471     65.2065   7.5565868539e+01   3.6976991059e+01    0.2372134    0.2037833  23.28 0.0005607308    1.244    0.196
        34 -11.5874    209.4731    112.0550   7.8382061774e+01   1.6572418275e+01    0.6964092    0.4438733  76.99  0.002768629    2.694    0.629
        35  -9.1106    168.0146    113.7494   8.7168122632e+01   2.5670034939e+01    0.2953821    0.1989464 -54.07  0.001294538    1.695    0.410
        36 -12.0301    190.9222    107.1067   8.0651861158e+01   2.1650049493e+01    0.7401649     0.434958 -61.03   0.00276231    2.680    0.627
        37  -8.1310    126.5089     55.4353   7.9843027215e+01   4.6174647014e+01    0.1506019    0.1396115  13.02 8.863476e-05    1.059    0.056
        38 -10.9324    157.8940     47.3242   6.9872312041e+01   3.9834562147e+01    0.3886974    0.2326442 -20.06  0.001479527    1.911    0.477
        39  -8.5847     94.7973     52.9719   8.8077406035e+01   5.3299735334e+01    0.1909047    0.1075749 -37.74  0.000461752    1.694    0.410
        40  -9.9385    190.6879     35.4490   6.0468438886e+01   3.3034493676e+01    0.3117019    0.2365975   2.99 0.0007345231    1.629    0.386
        41 -11.2992    181.1955     35.3050   6.1872165114e+01   3.5499104461e+01    0.3771318    0.2720707 -13.82 0.0006544023    1.579    0.367
        42 -10.0373    169.0691     36.6972   6.4323502604e+01   3.8452432888e+01    0.2624831    0.2164788 -15.20 0.0003911225    1.305    0.234
        43  -8.1675     45.5033     33.4903   9.8764092282e+01   6.4561122960e+01    0.1290371    0.1030419 -23.00 0.0008098868    1.060    0.056
        44  -9.2998    146.0020    226.0450   1.1300125881e+02   9.4023119510e+00    0.1806755    0.1486896  45.35 0.0003832421    1.020    0.019
        45 -12.1641    202.3024    102.6226   7.7310430639e+01   1.9805117888e+01    0.5617834    0.4444557  71.29  0.001953641    1.513    0.339
        46  -8.8348    186.5127     25.9090   5.8229101469e+01   3.5277511397e+01    0.2061882    0.1853825  65.13 0.0006458916    1.075    0.069
        47  -8.7961     84.8023     21.8360   7.8902951530e+01   6.0151433059e+01    0.1780507    0.1529515 -38.97  0.001056565    1.347    0.258
        48  -9.2189     75.0026     17.3278   8.0175475703e+01   6.2590941385e+01    0.2370815    0.1758847 -29.86 0.0004239151    1.341    0.254
