#   1 NUMBER                 Running object number                                     
#   2 MAG_AUTO               Kron-like elliptical aperture magnitude                    [mag]
#   3 X_IMAGE                Object position along x                                    [pixel]
#   4 Y_IMAGE                Object position along y                                    [pixel]
#   5 X_WORLD                Barycenter position along world x axis                     [deg]
#   6 Y_WORLD                Barycenter position along world y axis                     [deg]
#   7 A_WORLD                Profile RMS along major axis (world units)                 [deg]
#   8 B_WORLD                Profile RMS along minor axis (world units)                 [deg]
#   9 THETA_WORLD            Position angle (CCW/world-x)                               [deg]
#  10 FWHM_WORLD             FWHM assuming a gaussian core                              [deg]
#  11 ELONGATION             A_IMAGE/B_IMAGE                                           
#  12 ELLIPTICITY            1 - B_IMAGE/A_IMAGE                                       
         1 -13.4650    208.1011      3.3984   5.9788479278e+01   3.2350909019e+01      1.24213    0.7455242  69.63  0.003019584    1.516    0.340
         2 -13.8948    194.1591     21.0395   6.6022627892e+01   3.4026778690e+01      1.43936    0.9653072 -48.73  0.005456045    1.480    0.324
         3 -12.8984    200.1735     12.5142   6.2981328706e+01   3.3419260661e+01    0.6225787    0.5679674  61.53   0.00119909    1.179    0.151
         4 -10.9100     33.0033      2.6829   9.9868878873e+01   7.1507990785e+01    0.1672208    0.1293455   2.73 0.0009198015    1.079    0.073
         5 -14.1693    186.4786     27.1163   6.8757736694e+01   3.5309746311e+01     1.753136     1.375072 -10.45  0.005353326    1.543    0.352
         6  -9.3571    113.2340    210.7872   1.2818834945e+02   1.6766108597e+01    0.1623209     0.147764  30.34 0.0006207129    1.315    0.240
         7 -12.3201    248.2352    247.6630   1.0839201510e+02  -1.0433873227e+01    0.4828569    0.3393669   5.01  0.003492137    1.213    0.176
         8 -11.9725    200.5119    249.8203   1.1683246263e+02  -3.6955822866e+00    0.6194237    0.1276291  38.60  0.002205549    3.986    0.749
         9 -11.9097    198.5361    245.6396   1.1658864727e+02  -2.8767996493e+00    0.2695767    0.2251044  40.65  0.001693292    1.244    0.196
        10 -12.2545    183.4544    249.3796   1.1979737189e+02  -9.7837955025e-01    0.5450401    0.2021609  38.62  0.002608727    2.125    0.530
        11 -11.3695    149.1556    248.8857   1.2593870572e+02   4.5506490623e+00    0.2393175    0.2075839 -72.17  0.001732501    1.481    0.325
        12 -12.4929    139.9516    249.2791   1.2766154669e+02   5.9529223347e+00    0.6066893    0.3717032 -59.91  0.003705072    2.143    0.533
        13 -14.6432     49.3814    231.9950   1.4257836707e+02   2.1950305117e+01     2.409097    0.9419906  57.17   0.01003308    2.120    0.528
        14 -13.1929     51.5938    222.6881   1.4150789877e+02   2.3408483749e+01    0.4943801    0.3709796 -87.14  0.001335956    1.263    0.208
        15 -15.6664     59.4482    210.6741   1.3903466517e+02   2.4738925984e+01     8.568588     1.554685  47.83   0.03070552    4.082    0.755
        16 -13.3222      2.5786    224.5168   1.5026214989e+02   2.8385277882e+01    0.8461651    0.2425798 -74.12  0.002664602    2.984    0.665
        17 -11.2972     33.6598    205.8253   1.4366651725e+02   2.8812927995e+01    0.3023313    0.1862839  52.59  0.001234791    1.370    0.270
        18 -10.3213    226.2583    201.2466   1.0437016987e+02  -1.5398508726e+00     0.253036    0.2029321 -49.74 0.0008347592    1.726    0.421
        19 -10.7666    192.3528    193.3720   1.0929500111e+02   5.6684288904e+00    0.6057125    0.3209671 -62.33  0.002063025    4.844    0.794
        20 -10.1566     66.6459    195.4889   1.3612230605e+02   2.6873694763e+01    0.2390989    0.1919659  70.70  0.000742692    1.015    0.015
        21 -11.8927     74.1555    190.7032   1.3399898199e+02   2.6837631262e+01    0.3789133    0.2917826 -42.90  0.001468266    1.811    0.448
        22 -11.8373     78.4091    184.2475   1.3230085993e+02   2.7604535581e+01    0.2828554    0.2428262 -61.51 0.0006365862    1.333    0.250
        23 -13.4047     89.2477    163.9556   1.2698033994e+02   3.0445413562e+01     4.826476    0.8457158  46.98  0.001903577    6.259    0.840
        24 -13.8002     67.6053    144.2255   1.2934525647e+02   3.8217503055e+01     2.481215     1.152175  88.53  0.004902027    5.219    0.808
        25 -11.6845     86.3594    172.9875   1.2900019660e+02   2.8874423882e+01    0.2819296    0.2431365  69.22 0.0004141013    1.034    0.033
        26 -13.3921     74.3865    169.7972   1.3136661944e+02   3.1369576302e+01    0.4511828    0.2846467 -44.92  0.001413776    2.049    0.512
        27 -14.4634     31.1495    246.4559   1.4656585465e+02   2.1523215583e+01     1.472671    0.6905119  44.80  0.008797724    1.714    0.417
        28 -10.3255    134.0000    144.4603   1.1240158391e+02   2.6714272438e+01    0.7644189    0.1979436 -55.57  0.001751067    6.442    0.845
        29 -10.9785    104.9629    146.6929   1.2010544946e+02   3.1750362976e+01    0.6343805    0.3377647 -37.30  0.002452687    2.736    0.634
        30 -12.3779     92.8328    147.8343   1.2341510249e+02   3.3561732587e+01    0.2764667    0.2647879 -46.96 0.0005345738    1.204    0.170
        31 -10.4127     54.8159    144.3786   1.3269487946e+02   3.9842031211e+01    0.1673466    0.1290563  19.81 0.0007773443    1.709    0.415
        32 -10.1586    113.4326    134.6136   1.1547815248e+02   3.2965821650e+01    0.3049861    0.2557621 -18.07 0.0009304772    1.529    0.346
        33 -11.3690     69.6139    134.4617   1.2720202482e+02   4.0246816045e+01    0.2959648      0.22115  54.51  0.001041098    1.368    0.269
        34 -10.8869    100.9579    131.7518   1.1817203136e+02   3.5914964786e+01    0.2948824    0.2437942 -18.98 0.0006455794    1.583    0.368
        35 -11.8076     44.3040    129.2106   1.3330478556e+02   4.4635716010e+01    0.4501647     0.208456 -75.34  0.002015579    2.136    0.532
        36 -10.4014    118.6206    127.5605   1.1255856159e+02   3.3568620657e+01    0.2847663    0.1809523 -25.86 0.0009492253    2.438    0.590
        37  -9.8583    109.2461    122.4394   1.1388391381e+02   3.6549500438e+01    0.2394506    0.1969897 -54.20 0.0003571228    1.190    0.159
        38 -10.8316    168.2918    113.0738   9.6807816016e+01   2.5772925654e+01    0.3818588    0.3078157 -77.71 0.0009135811    1.520    0.342
        39  -9.6841    160.6102    127.7718   1.0224548923e+02   2.4560462523e+01    0.2272478    0.1450659 -53.35 0.0009584296    1.711    0.416
        40  -9.5458    205.2628    110.3697   8.8598002348e+01   1.7584463312e+01    0.3505318    0.1752102  39.26  0.001325254    2.353    0.575
        41 -10.5302    131.4764     55.1469   8.8252250400e+01   4.5496050904e+01    0.3569047    0.2556334 -88.89  0.001096556    2.053    0.513
        42  -9.8323    125.9754     51.7641   8.8473367583e+01   4.7352907300e+01    0.2213299    0.1969281  87.20  0.000543224    1.300    0.231
        43 -10.5898    115.5977     46.1221   8.9194118964e+01   5.0647496597e+01    0.2867821    0.2504036  81.40 0.0006003098    1.375    0.273
        44 -14.1745     10.9450    206.6078   1.4796420105e+02   3.0996164057e+01     0.996384    0.6557786  28.46  0.004779209    2.046    0.511
        45  -9.2466    170.0118    216.0092   1.1750079520e+02   6.0630959970e+00    0.1539476     0.137759  34.64 0.0005206284    1.067    0.063
        46 -15.8970     10.2485    241.3735   1.4970984057e+02   2.4624875503e+01     4.889741    0.8596665 -70.54   0.02173343    4.717    0.788
        47 -11.7449     21.1200     35.6071   1.2047620146e+02   6.7439185459e+01    0.2678359    0.2102119 -69.56  0.001768513    1.627    0.385
        48 -15.9511      1.9146     88.6722   1.4010299854e+02   5.7417064775e+01     14.58003    0.5121413 -71.26   0.02896023   12.651    0.921
