#   1 NUMBER                 Running object number                                     
#   2 MAG_AUTO               Kron-like elliptical aperture magnitude                    [mag]
#   3 X_IMAGE                Object position along x                                    [pixel]
#   4 Y_IMAGE                Object position along y                                    [pixel]
#   5 X_WORLD                Barycenter position along world x axis                     [deg]
#   6 Y_WORLD                Barycenter position along world y axis                     [deg]
#   7 A_WORLD                Profile RMS along major axis (world units)                 [deg]
#   8 B_WORLD                Profile RMS along minor axis (world units)                 [deg]
#   9 THETA_WORLD            Position angle (CCW/world-x)                               [deg]
#  10 FWHM_WORLD             FWHM assuming a gaussian core                              [deg]
#  11 ELONGATION             A_IMAGE/B_IMAGE                                           
#  12 ELLIPTICITY            1 - B_IMAGE/A_IMAGE                                       
         1 -13.6393    189.6437     27.9206   6.9341135048e+01   3.4556275639e+01     2.196496     1.573855  13.69  0.009738589    2.115    0.527
         2 -13.5455    199.8462     13.5433   6.4384267190e+01   3.3708318319e+01     1.473923     1.090267  43.45  0.008415158    1.597    0.374
         3  -9.0406    232.6294     12.4117   6.0694002665e+01   2.6070220388e+01    0.2311312    0.1499298 -35.58  0.001293575    1.676    0.403
         4  -9.9295    164.6680     11.8595   6.8626676487e+01   4.2484353342e+01    0.2389151    0.1557581  58.05 0.0006614774    1.327    0.246
         5 -10.7748      4.0298      3.6693   1.1343976952e+02   7.1641303915e+01    0.3383011    0.2047595 -19.08  0.002503566    1.255    0.203
         6 -11.0506     12.8257      2.9183   1.0890215861e+02   7.1033847548e+01     0.287399    0.1941454 -13.30  0.002192838    1.088    0.081
         7 -10.4876    121.5921    248.4304   1.3188311262e+02   7.0042131384e+00    0.3262891    0.2467917  78.54  0.001250562    1.357    0.263
         8 -12.4018    175.2585    248.4280   1.2179667158e+02  -2.1295690619e+00     1.279058    0.3132382  37.99  0.004167075    4.144    0.759
         9 -10.3753     89.8472    245.4488   1.3738121264e+02   1.2589958200e+01    0.2512164    0.1920938  80.58 0.0005085941    1.173    0.148
        10  -7.9664     85.6676    250.2865   1.3859952086e+02   1.2339071305e+01    0.1260338   0.07139772  66.28  0.000546859    1.621    0.383
        11 -12.9540     76.9496    165.6047   1.3007748753e+02   3.1505735732e+01     1.061639    0.6963546  53.03  0.005527858    1.540    0.351
        12 -13.8987     68.1567    144.9180   1.2886064754e+02   3.7635242428e+01     4.704628     2.497052  71.40   0.01803708    3.221    0.689
        13 -10.3165     71.3730    237.2594   1.3992534878e+02   1.6854632845e+01    0.2956395    0.1857557 -82.14  0.001279339    1.530    0.346
        14  -8.5020    156.4290    233.2271   1.2319894664e+02   3.6352377217e+00    0.1645546    0.1265744 -71.72  0.000789784    1.620    0.383
        15  -9.8438    162.9921    225.5364   1.2073266474e+02   3.7902712688e+00    0.2132983    0.1169603  42.50   0.00102821    1.585    0.369
        16 -11.5830    134.6997    250.1550   1.2965201223e+02   4.5243074445e+00    0.9473808    0.1807439  41.46  0.002951651    4.569    0.781
        17  -9.6505    171.1591    222.1918   1.1856606813e+02   2.8794285064e+00    0.1882402    0.1538593  65.15 0.0006054183    1.351    0.260
        18 -10.6645     39.9660    214.2055   1.4359524964e+02   2.5610733128e+01    0.3001646    0.1804802  62.40 0.0008069786    1.422    0.297
        19  -9.5622     36.3398    207.4148   1.4368579149e+02   2.7453692045e+01    0.2584039    0.1630528  59.06 0.0008529896    1.392    0.282
        20  -8.2577     92.4620    207.5187   1.3256706805e+02   1.9695645177e+01    0.1342947     0.112066  74.29 0.0001009353    1.014    0.014
        21  -9.8860    171.9181    205.4123   1.1556531746e+02   5.7681226749e+00    0.2232639    0.2015972 -47.45 0.0001919466    1.220    0.180
        22 -10.0354    192.6789    195.1986   1.0940796727e+02   3.6285681923e+00    0.9700997    0.4697628 -63.58  0.002532878    6.941    0.856
        23 -11.2346     76.9901    186.4162   1.3308310155e+02   2.6707416527e+01    0.4434831    0.2972864 -61.05  0.001507675    1.458    0.314
        24 -10.9515     80.7989    180.4498   1.3140669983e+02   2.7492842574e+01    0.2961654    0.2610938 -50.98 0.0007874844    1.347    0.258
        25  -7.9342    202.6494    185.3092   1.0544362600e+02   3.4817178150e+00    0.1415317    0.1151739  82.54 0.0007044144    1.715    0.417
        26  -9.2475     47.7180    173.7065   1.3790332055e+02   3.3521599995e+01    0.2429643     0.178707  36.13  0.001322586    1.609    0.379
        27 -10.2482    228.2078    171.5313   9.7623405779e+01   9.6016727199e-01    0.2716986    0.1939757 -35.84  0.001119243    1.359    0.264
        28  -8.5354      1.3221    155.3199   1.4607020765e+02   4.2108571984e+01    0.1126954   0.06986484 -53.79 0.0003916002    1.671    0.402
        29  -9.0743     98.7454    151.5910   1.2232321044e+02   3.1341588720e+01    0.2027846    0.1304139  53.23 0.0005857539    1.629    0.386
        30  -8.4895    118.2572    150.1765   1.1717222256e+02   2.8145879153e+01    0.2027697    0.1955812 -47.08 0.0003502583    1.123    0.109
        31 -11.5526     94.1713    145.7594   1.2235763848e+02   3.3490311656e+01    0.2857309    0.2661146 -36.55 0.0004854071    1.217    0.178
        32  -9.5229    105.2966    146.3426   1.1964000132e+02   3.1434179827e+01    0.3198745    0.2570071  44.58  0.000911521    1.288    0.224
        33  -9.3235    106.6891    143.6519   1.1873538756e+02   3.1816758161e+01    0.3773082    0.2558707 -25.89  0.001621213    2.200    0.545
        34  -9.1241    133.2144    143.2874   1.1199346901e+02   2.6776312865e+01    0.5668641    0.1798998 -57.75  0.001392205    5.213    0.808
        35  -8.3121    183.7978    142.2661   1.0004318511e+02   1.5959860234e+01    0.2013349    0.1797028   4.24 0.0004777707    1.267    0.211
        36 -14.5298      8.7857    204.8556   1.4852094589e+02   3.0893876926e+01     2.500157    0.8630172 -78.28  0.009752015    2.368    0.578
        37 -10.1425    229.9384    135.6560   8.9439057928e+01   7.1145462934e+00    0.2508869     0.242621  47.91 0.0004328716    1.101    0.092
        38 -10.0013    114.9243    134.2675   1.1459369370e+02   3.2481041384e+01    0.3952394    0.3153078  66.07 0.0007228768    1.371    0.271
        39 -10.0601    101.5331    130.6378   1.1729898044e+02   3.5786455507e+01    0.2742055    0.2315798 -26.25 0.0003918199    1.383    0.277
        40  -9.5688     28.1072    127.7990   1.3647687660e+02   4.6145403216e+01    0.1863594    0.1482533  87.20 0.0006339914    1.247    0.198
        41  -9.5991    119.3726    126.3298   1.1160555239e+02   3.3446089057e+01    0.3323791    0.2188847 -27.50  0.001016446    2.052    0.513
        42  -8.1902    159.4521    126.5030   1.0171315487e+02   2.4823624755e+01    0.1576475    0.1520663 -83.73 -7.307935e-06    1.035    0.034
        43  -9.0856    109.6122    122.0402   1.1316787410e+02   3.6304078635e+01    0.2428713    0.2121911  32.51 0.0006707992    1.237    0.192
        44  -9.2255    248.0502    116.9687   8.2190593495e+01   6.7025296131e+00    0.2068096    0.1889414 -41.80 0.0003045589    1.019    0.019
        45  -9.1437    167.7781    113.3568   9.6485986373e+01   2.5674328038e+01    0.3373336    0.2521136 -78.16  0.001471258    1.739    0.425
        46 -12.9569     48.9765    232.0717   1.4346569792e+02   2.0893331519e+01    0.7664492     0.385178  41.58  0.003378269    1.964    0.491
        47 -16.2454     19.1782    238.3370   1.4892795318e+02   2.3216291982e+01     6.341497     4.467639 -83.81   0.01867453    1.285    0.222
        48 -10.3415      6.5101    112.7759   1.4003869158e+02   5.1154840325e+01    0.1773144    0.1732112   8.36  0.001403899    1.339    0.253
        49 -10.5071     53.6038    103.0154   1.2477437813e+02   4.9186439225e+01    0.3675919    0.2093725 -49.56  0.001879492    1.506    0.336
        50  -8.5313     74.3129    241.2999   1.3977374586e+02   1.5664145554e+01     0.171758    0.1450649  62.80 0.0004863318    1.216    0.178
        51 -12.7047     55.8361    214.6935   1.4066240891e+02   2.3513296688e+01    0.9285206    0.5226758 -75.43   0.00417557    1.621    0.383
        52  -7.7618    153.6878     77.7187   8.9964926043e+01   3.5985788857e+01    0.1516701    0.1184738  20.19 0.0002978798    1.569    0.363
        53  -7.6803    148.7148     75.2625   9.0396174464e+01   3.7608566833e+01    0.1445291    0.1181142 -83.47 0.0001979629    1.488    0.328
        54  -8.4627    186.0990     72.7340   8.1885589507e+01   2.8901857648e+01    0.1955575    0.1837411  59.95 0.0002174181    1.075    0.070
        55  -9.6318    241.5476     60.9718   7.0446895729e+01   1.7463328282e+01    0.2321439    0.1875701  69.14 0.0003679822    1.265    0.210
        56  -8.2574    127.3626     59.2442   9.0703269000e+01   4.5241960990e+01    0.1835156    0.1335209 -42.87 0.0003045344    1.456    0.313
        57  -8.2241     80.9337     53.0000   1.0196471749e+02   5.5322766735e+01    0.2101002   0.07275243  41.27 0.0008029135    2.946    0.661
        58 -11.7397    180.7926     34.8506   7.2514102310e+01   3.5890053304e+01    0.7179022    0.5304689  47.56 0.0009805724    1.386    0.279
        59  -8.9223     97.3022    248.6384   1.3635796725e+02   1.0864870485e+01    0.1294431   0.07632218  70.61 0.0007036906    1.725    0.420
        60 -13.8004     64.2231    204.3241   1.3795133499e+02   2.4578065697e+01     1.636391     1.102061 -89.43  0.006142178    1.348    0.258
        61  -8.6323     44.2359     39.8594   1.1026973934e+02   6.2604241005e+01    0.2061836     0.118859  39.69 0.0009938383    2.147    0.534
        62  -8.0312    211.6956     37.7112   6.8814495648e+01   2.7873023460e+01    0.1309326    0.1034412  40.02 0.0002047468    1.568    0.362
        63 -10.4234    138.0003     36.1448   8.0835368303e+01   4.6159594520e+01    0.2205281    0.1977113 -18.29 0.0002869268    1.203    0.169
        64  -9.7743     69.3835    245.9579   1.4106442010e+02   1.5493521039e+01    0.2651207    0.2314955 -67.10  0.001466857    1.529    0.346
        65  -9.7913    104.5185    239.5857   1.3405325586e+02   1.1377152131e+01    0.2444559    0.1788585  76.43 0.0006190165    1.297    0.229
        66 -12.0312    154.3556    246.1947   1.2543712637e+02   1.8241969124e+00    0.7267799    0.4643417  44.28  0.003737189    1.289    0.224
