#   1 NUMBER                 Running object number                                     
#   2 MAG_AUTO               Kron-like elliptical aperture magnitude                    [mag]
#   3 X_IMAGE                Object position along x                                    [pixel]
#   4 Y_IMAGE                Object position along y                                    [pixel]
#   5 X_WORLD                Barycenter position along world x axis                     [deg]
#   6 Y_WORLD                Barycenter position along world y axis                     [deg]
#   7 A_WORLD                Profile RMS along major axis (world units)                 [deg]
#   8 B_WORLD                Profile RMS along minor axis (world units)                 [deg]
#   9 THETA_WORLD            Position angle (CCW/world-x)                               [deg]
#  10 FWHM_WORLD             FWHM assuming a gaussian core                              [deg]
#  11 ELONGATION             A_IMAGE/B_IMAGE                                           
#  12 ELLIPTICITY            1 - B_IMAGE/A_IMAGE                                       
         1 -10.6999    122.9410     11.9745   1.1296859787e+01   5.2730397038e+01     0.169316    0.1553718  87.65 0.0003347039    1.004    0.004
         2 -11.4788     91.9834      7.6959   1.5251342796e+01   6.1410432529e+01    0.3095291    0.1366975 -48.30  0.001175256    2.719    0.632
         3 -11.5999     33.3128      7.8822   3.9487251166e+01   7.4836126529e+01    0.1901435    0.1722854  35.64 0.0003219314    1.175    0.149
         4 -10.9160     93.8424    243.6230   7.3176330913e+01   1.3314173624e+01    0.1711199   0.07761478  38.27 0.0003191865    1.648    0.393
         5 -12.0914    246.1122    250.1596   4.6282529782e+01  -4.6440150611e+00    0.1610743    0.1012098  11.99 0.0007363177    1.167    0.143
         6 -11.9163    139.5854    248.0732   6.4347858244e+01   7.1470330717e+00    0.2672447    0.1584541 -48.52  0.001719457    2.185    0.542
         7 -11.8184    124.2421    250.4776   6.7616744474e+01   8.6493583978e+00    0.1863296     0.104916  21.95  0.001125331    1.517    0.341
         8 -11.8949     83.7998    250.6483   7.5819540250e+01   1.3373685142e+01    0.2719366   0.08444218  29.37  0.001237968    2.493    0.599
         9 -15.1550     70.2481    241.5031   7.7985441672e+01   1.6402035964e+01     1.354222     1.104581 -42.02  0.009764115    1.658    0.397
        10 -15.7893     62.5013    209.9271   7.7350071739e+01   2.3090154903e+01     1.822267     1.506328  72.99   0.01208408    1.243    0.196
        11 -16.1990     40.8706    242.3430   8.4246294405e+01   1.9413941572e+01     1.921622     1.551038  30.22   0.01436328    1.234    0.190
        12 -15.7184      8.4459    199.2938   8.9768928091e+01   3.0786078202e+01     1.456318    0.9654707 -60.16  0.008966852    1.867    0.464
        13 -16.2237     17.3562    211.5595   8.8100065931e+01   2.7477108994e+01     1.654139      0.80144  38.49  0.009369966    1.553    0.356
        14 -15.8661      7.8192    249.1643   9.1214911144e+01   2.1330764584e+01     1.474862    0.4844461  20.60  0.006786022    3.477    0.712
        15 -16.4331     15.0472    225.9443   8.9111023925e+01   2.4870824193e+01     1.253541    0.6536207  33.77  0.007207842    1.498    0.332
        16 -16.5886     11.2711    239.3976   9.0291140120e+01   2.2732713307e+01     1.351669    0.7259794   7.71  0.007363333    2.846    0.649
        17 -16.6549      5.5759    231.3849   9.1279023671e+01   2.4674536342e+01     1.271938    0.5232036  78.97  0.007037949    2.390    0.582
        18 -12.5976    147.9259    239.1017   6.1697098688e+01   7.3697015684e+00    0.2995841    0.1643891  19.83 0.0006417247    1.633    0.388
        19 -11.3222    198.9438    241.2004   5.2576123541e+01   1.0737223730e+00    0.1552627    0.1178996  24.31 0.0006263347    1.341    0.254
        20 -10.7491    187.0030    241.0707   5.4641704870e+01   2.4391470839e+00    0.1286662   0.09405959  12.09            0    1.001    0.001
        21 -11.9627    107.0465    240.9424   7.0179651097e+01   1.2146657948e+01    0.1905742    0.1503987 -13.32 0.0007902792    1.563    0.360
        22 -13.0216    103.2892    237.3799   7.0627415307e+01   1.3170833377e+01    0.3499089    0.2262587  19.20  0.001581217    1.469    0.319
        23 -10.9839     97.9391    238.0570   7.1822498584e+01   1.3715771746e+01    0.1751546     0.128012  43.41 0.0003638859    1.195    0.163
        24 -10.5173     89.5988    241.1497   7.3857941441e+01   1.4215816929e+01    0.1281586     0.107544 -37.64 0.0004221268    1.551    0.355
        25 -11.1078    153.0296    246.0271   6.1523515064e+01   5.8107813915e+00    0.1623646    0.1232533  18.91 0.0003006191    1.022    0.022
        26 -10.8999    239.4725    239.2168   4.5769730775e+01  -2.9644735503e+00    0.1169168   0.08229592 -24.86 0.0004665515    1.575    0.365
        27 -11.0117    218.2621    237.9401   4.8909540463e+01  -6.6613309969e-01    0.1437297     0.103193  -1.03  0.000542875    1.087    0.080
        28 -11.2314     79.9555    237.4179   7.5607094394e+01   1.5973380510e+01    0.1740248    0.1483862 -11.71  0.001231584    1.503    0.335
        29 -11.2723    176.9518    235.7523   5.5758393353e+01   4.2754073837e+00    0.1676742    0.1162552   9.25 0.0006567392    1.202    0.168
        30 -10.6927    137.3232    236.0787   6.3449398585e+01   9.1217971016e+00    0.1256998     0.110758 -72.09 0.0009043695    1.664    0.399
        31 -10.9409    122.2457    236.2053   6.6542876000e+01   1.0997654703e+01    0.1956652   0.06293768  38.08 0.0006368795    2.426    0.588
        32 -10.8065    210.5158    235.4951   4.9841732087e+01   4.4023978439e-01    0.1084526    0.0780404   6.81 8.233647e-05    1.007    0.007
        33 -10.7082    158.4810    233.4918   5.8951804010e+01   6.8363696014e+00    0.1167243   0.08994149  19.03 0.0002092121    1.019    0.018
        34 -11.8247    181.5250    231.0016   5.4283422210e+01   4.3311462038e+00    0.2454162    0.1938335 -43.46  0.001762443    1.765    0.433
        35 -12.0989    178.1478    228.6701   5.4586482629e+01   5.0450288933e+00    0.2033472    0.1502106  11.94 0.0003944763    1.062    0.058
        36 -11.2472    193.8481    229.0495   5.1797996206e+01   3.1010827959e+00    0.1626785    0.1335501  15.77  0.001232204    1.246    0.198
        37 -11.8410    150.0011    229.3183   6.0088227423e+01   8.4977030767e+00    0.1718287    0.1231605  26.64 0.0005973406    1.115    0.103
        38 -12.0212    231.9712    227.5428   4.5249547569e+01  -9.9767594364e-01    0.2467725    0.1393918 -12.15  0.001679717    1.557    0.358
        39 -12.1329    112.8329    227.1701   6.7552432496e+01   1.3631081660e+01    0.2118851    0.1443598 -19.62 0.0008331219    1.993    0.498
        40 -11.6670    128.9401    226.1406   6.4009239451e+01   1.1706305794e+01    0.2202098    0.1581946 -27.92 0.0008186423    1.666    0.400
        41 -11.9632    105.8725    226.1799   6.8954568084e+01   1.4690303713e+01    0.1966252    0.1709916  -2.11 0.0008290631    1.296    0.229
        42 -12.5535     92.0507    225.4548   7.1922497114e+01   1.6566662799e+01    0.2697639    0.1878473  60.59  0.001340693    1.589    0.371
        43 -12.7036     80.2968    222.3552   7.4271132469e+01   1.8576605486e+01    0.2900202    0.2321346  -1.91  0.001322397    1.556    0.357
        44 -13.4234     77.2079    219.6125   7.4732358552e+01   1.9458667934e+01    0.7116498    0.4071208  78.65  0.002749821    2.467    0.595
        45 -10.7993    222.4573    225.5384   4.6461241485e+01   2.4506818381e-01    0.1081475   0.07809982   3.16 0.0001353591    1.010    0.010
        46 -11.4215     99.9427    225.4487   7.0178056217e+01   1.5571781685e+01    0.1730689   0.07426503  47.05 0.0007570569    2.275    0.560
        47 -12.0063     67.9813    224.8118   7.7256041198e+01   1.9600575323e+01    0.1803341     0.156813  54.78 0.0003197677    1.142    0.124
        48 -12.8658    246.0430    220.6715   4.2097359439e+01  -1.7312917080e+00    0.2589169    0.1517027  -3.20 0.0004710774    1.413    0.292
        49 -10.7765    211.5965    222.7852   4.7839688273e+01   1.7833716569e+00    0.1349576   0.09568723 -33.66   0.00095086    1.657    0.396
        50 -12.1547    159.8289    222.3527   5.7226397898e+01   8.2359953673e+00    0.2791397    0.1751965  31.91  0.000938466    1.343    0.255
        51 -12.4839    124.2526    221.6644   6.4471341443e+01   1.3042364611e+01    0.3268741    0.1643613  39.18  0.001727624    1.684    0.406
        52 -12.7908    237.4554    219.3974   4.3194619883e+01  -6.9964238301e-01    0.2792809    0.1979795 -33.93  0.002074723    1.785    0.440
        53 -12.6012    173.7534    219.2648   5.4097600626e+01   6.8676915419e+00    0.2794233    0.2089039 -34.80  0.001351628    1.520    0.342
        54 -12.2619     87.3343    220.8107   7.2537235408e+01   1.7984473074e+01    0.2257346    0.1472526  28.92 0.0004752789    1.298    0.230
        55 -12.3246    232.4295    219.8860   4.4042441418e+01  -2.1382765915e-01    0.1810409    0.1542648  27.33 0.0006109542    1.727    0.421
        56 -11.3665    193.5048    220.5028   5.0633482844e+01   4.2156594486e+00     0.115463   0.08773068   8.10 -0.0002351391    1.004    0.004
        57 -15.7491     21.2353    170.0971   8.5160607145e+01   3.6239503885e+01     3.205812     1.168338  50.86   0.01372068    2.331    0.571
        58 -13.1293    137.8340    197.3913   5.8281077640e+01   1.5256159089e+01    0.5136136    0.2107478  20.73  0.001756002    3.976    0.748
        59 -12.5227    145.0677    216.9226   5.9477648768e+01   1.1010951148e+01     0.341429    0.2861654  34.02  0.002207757    1.201    0.167
        60 -13.7260    140.1975    212.0266   5.9838744105e+01   1.2455486480e+01    0.6149016    0.3940103 -40.32  0.003602925    1.782    0.439
        61 -13.9366    145.7668    201.7760   5.7205378734e+01   1.3356832711e+01    0.5550074    0.4133378  61.59  0.003157633    1.957    0.489
        62 -11.0627    114.3515    218.2605   6.6223008394e+01   1.4928874203e+01    0.1224085   0.08657948   6.35 0.0003016351    1.611    0.379
        63 -13.3885    107.6459    214.6873   6.7305198510e+01   1.6447184059e+01     0.408181    0.2866878  66.32  0.002015175    1.849    0.459
        64 -10.9802    222.6917    220.1675   4.5626596179e+01   8.2711683522e-01    0.1498391    0.1046651  17.59  0.001096202    1.217    0.178
        65 -11.7758    208.0237    215.3438   4.7329416271e+01   3.1023188430e+00    0.1778955    0.1218714  -9.60 0.0003641238    1.266    0.210
        66 -11.8967     75.5139    212.0736   7.4450978680e+01   2.1093948106e+01    0.3421264    0.1947304  30.96  0.001236118    1.476    0.323
        67 -13.1043     84.5969    215.0952   7.2615686812e+01   1.9381100876e+01    0.5382745    0.2953877  29.97   0.00253816    1.535    0.349
        68 -11.8962     79.8994    212.6628   7.3476166074e+01   2.0433497714e+01    0.3116731    0.2209462  34.75  0.001474268    1.159    0.137
        69 -12.3695    248.3028    213.9805   4.0748583852e+01  -1.2588711013e+00    0.2254171    0.1924887 -38.13   0.00147704    2.095    0.523
        70 -12.4527    118.9849    213.4855   6.4629657109e+01   1.5126037164e+01    0.3761891    0.1547029  42.05  0.001049971    2.184    0.542
        71 -11.4107    156.4833    213.0191   5.6600534786e+01   1.0066264638e+01    0.2228859    0.1947729 -86.86  0.001067594    1.851    0.460
        72 -13.5252    159.2534    206.2098   5.5050627494e+01   1.0733106773e+01    0.4012304    0.2781468   8.19  0.001158236    1.436    0.303
        73 -13.5817    123.9337    210.9982   6.3223788088e+01   1.4876004267e+01    0.3793674    0.2716515 -89.82  0.001688805    2.328    0.570
        74 -12.0354    113.2053    210.5408   6.5562806900e+01   1.6432269662e+01    0.2202858    0.1549348  36.45  0.000893503    1.191    0.160
        75 -10.9207     97.0000    210.0150   6.9214264270e+01   1.8718651336e+01     0.182694   0.07411547 -61.15 0.0008063311    2.969    0.663
        76 -11.4592     90.8780    210.1635   7.0656467172e+01   1.9499155284e+01    0.1853375    0.1442139  45.62 0.0002753686    1.137    0.121
        77 -13.3781    228.1677    206.2499   4.2601890490e+01   1.8215068437e+00    0.4045386    0.3160525  42.86  0.001160142    2.013    0.503
        78 -12.0608    242.2251    208.0026   4.0717146628e+01   3.8378595702e-02    0.1679521    0.1196302   6.55 0.0003067773    1.121    0.108
        79 -12.0066    103.6269    206.6355   6.7289295130e+01   1.8454484995e+01    0.2702948    0.2333767  39.86  0.001072903    1.069    0.064
        80 -11.1146    205.0403    206.2560   4.6433851470e+01   4.6185694266e+00    0.1552915    0.1189564  11.27 0.0002168908    1.081    0.075
        81 -12.3457    116.9743    205.2309   6.4045185650e+01   1.6862126260e+01    0.2500734    0.1967373  63.63  0.001188257    1.550    0.355
        82 -12.6767     84.1818    198.7665   7.1037721200e+01   2.2608854993e+01    0.4792244    0.2901133 -74.28  0.002505234    2.030    0.507
        83 -12.7237     81.8393    193.5751   7.1046357028e+01   2.3982706885e+01    0.6889591    0.3409539  37.79  0.002854247    1.673    0.402
        84 -13.0406     89.9258    201.9520   6.9993144202e+01   2.1207767072e+01    0.5362341    0.3566693 -38.32  0.001429839    1.941    0.485
        85 -15.3126     93.1928    192.6692   6.8113277099e+01   2.2615951012e+01     1.873936    0.7930465  55.90  0.006792438    3.558    0.719
        86 -13.3044     93.9288    183.3398   6.6743950970e+01   2.4441411455e+01    0.4866807    0.3147695 -63.55  0.002375375    1.758    0.431
        87 -13.1967     89.7522    183.0574   6.7776886160e+01   2.5100543012e+01    0.4283388    0.2955757 -71.49  0.001021566    1.684    0.406
        88 -12.9449     70.2281    187.1516   7.3311119254e+01   2.6874366458e+01    0.6060308       0.2266  43.33  0.002150941    2.266    0.559
        89 -13.0194     75.3648    186.1492   7.1868485291e+01   2.6418687898e+01     0.628751    0.3564538 -57.13  0.003141024    1.961    0.490
        90 -12.3115    180.0139    207.9642   5.1238640870e+01   7.6354773040e+00    0.2953154    0.1508005  25.00  0.001271617    1.786    0.440
        91 -11.0390    110.2873    203.2951   6.5335871986e+01   1.8154160282e+01    0.1229084   0.09455451  -2.87            0    1.547    0.354
        92 -11.8010    195.5823    201.4576   4.7339989313e+01   6.4766249422e+00    0.2091236    0.1639115  56.07 0.0009484224    2.200    0.545
        93 -12.8490     64.5989    183.4688   7.4403248298e+01   2.8402620200e+01     1.066833    0.5824509   8.74  0.004407721    2.906    0.656
        94 -11.4852    212.1768    199.7033   4.4161279755e+01   4.5665530832e+00    0.1822951    0.1426158 -28.60  0.000797481    1.400    0.286
        95 -12.8451    219.5037    198.2100   4.2698588771e+01   3.8408600265e+00    0.2179484    0.1659094  -9.17 0.0003958737    1.084    0.078
        96 -12.7877    179.4130    197.9098   4.9776440422e+01   9.1786290013e+00    0.3915184    0.2455414  28.03 0.0009730342    1.408    0.290
        97 -12.2992    173.0514    195.7505   5.0665533833e+01   1.0402158206e+01    0.2115928    0.1790927 -11.18 0.0004034755    1.139    0.122
        98 -11.7308    166.3146    196.3264   5.2100436502e+01   1.1278379698e+01    0.2162733    0.1911457  18.16 0.0005757532    1.139    0.122
        99 -13.2558    161.2645    191.5121   5.2358286195e+01   1.2788084614e+01    0.4109647     0.275147  47.21  0.002270415    1.744    0.427
       100 -13.1744    122.5196    196.2469   6.1569585650e+01   1.7707498180e+01    0.3486649    0.2505533  46.61  0.001986163    1.387    0.279
       101 -12.1375    201.9861    195.6003   4.5244302504e+01   6.4303024756e+00    0.1855681    0.1358124 -22.67  0.001225163    1.274    0.215
       102 -13.3123    190.2178    194.0999   4.7118760615e+01   8.2349120761e+00    0.4337717    0.3130472  37.14  0.001552787    1.486    0.327
       103 -11.2292     69.7261    193.9111   7.4132773430e+01   2.5490709491e+01    0.1675642    0.1460127  60.88 0.0002960822    1.102    0.093
       104 -11.3863    212.3897    193.1877   4.3048568694e+01   5.3891184916e+00    0.1529177    0.1003458 -38.78 0.0009022721    1.719    0.418
       105 -12.7389    134.1168    190.2068   5.8035101495e+01   1.7089335468e+01    0.3397904    0.1959437  14.37  0.001553444    2.213    0.548
       106 -12.6445     50.7939    190.0402   7.8629218645e+01   2.8615117776e+01    0.3634299    0.2312392  16.17 0.0009335432    1.805    0.446
       107 -11.0977    234.3284    190.3062   3.9032385990e+01   3.0060078928e+00    0.1170798   0.06978779  -0.71 0.0004169666    1.654    0.396
       108 -11.1950     63.1909    194.8367   7.5875346237e+01   2.6108432127e+01     0.158126    0.1429303   7.39 0.0002281118    1.301    0.231
       109 -13.3953    151.9318    195.2445   5.4905407600e+01   1.3549513442e+01    0.4397229    0.2408126  31.83  0.001558192    1.606    0.377
       110 -13.2097    121.3950    186.6738   6.0450079186e+01   1.9679339043e+01    0.3601818    0.2794866  29.22  0.001376351    1.143    0.125
       111 -13.4491    118.4746    180.0239   6.0143882041e+01   2.1430054569e+01    0.4821103     0.310317  57.80  0.001340122    1.935    0.483
       112 -12.6931    111.6139    188.0471   6.2991624784e+01   2.0882441357e+01     0.534176    0.1776057  33.09  0.002015734    2.649    0.622
       113 -12.4266     43.3516    186.7160   8.0304075226e+01   3.0185567565e+01    0.2599004    0.2060514  68.34 0.0007291473    1.159    0.137
       114 -12.1526    156.9085    186.0093   5.2367212908e+01   1.4359412860e+01     0.229142    0.1742299 -27.73  0.001353501    1.363    0.266
       115 -13.1716    128.0535    185.8519   5.8761440314e+01   1.8819711290e+01    0.3074105    0.2514686 -29.42  0.001817731    1.346    0.257
       116 -11.6957    247.6915    185.6478   3.6260548846e+01   1.9780139874e+00    0.2140183    0.1365295  12.35  0.001463168    1.450    0.311
       117 -11.6236    209.0251    186.0171   4.2400545511e+01   6.7979106560e+00    0.1683747     0.116642  -3.44 0.0003123581    1.326    0.246
       118 -10.9942    210.4286    182.5255   4.1553735594e+01   7.0866775294e+00    0.1837185    0.1213761  -4.98 0.0006064884    1.473    0.321
       119 -11.7389    194.2917    186.5701   4.5099636701e+01   8.7555448354e+00    0.2225044    0.1077479  38.76  0.001128545    2.068    0.516
       120 -10.9482    239.1433    185.1598   3.7430432057e+01   3.0500582508e+00    0.1357722    0.1156206 -10.12 0.0002464541    1.299    0.230
       121 -11.8487    163.9737    184.9443   5.0712275997e+01   1.3462647059e+01    0.2035057    0.1962754 -45.32 0.0009044717    1.333    0.250
       122 -12.6823     49.7292    183.0353   7.8316972991e+01   3.0296147708e+01    0.4158198    0.2074553  41.71  0.001907096    1.661    0.398
       123 -12.3187    202.1365    182.5317   4.2990752014e+01   8.2329937953e+00    0.2546018    0.1812457  21.78 0.0003957252    1.285    0.222
       124 -11.0966    198.4141    180.4500   4.3285967237e+01   9.0602608926e+00    0.1546041    0.1493098 -25.48 3.364941e-05    1.436    0.304
       125 -11.8513    167.6897    182.4684   4.9527781228e+01   1.3305637716e+01    0.2192771    0.1137504 -40.92  0.001076507    2.014    0.503
       126 -12.9553     38.9839    181.8922   8.1096964901e+01   3.1745128009e+01    0.3241343    0.2365043  23.34  0.001613934    1.422    0.297
       127 -11.9287     37.6032    177.9715   8.1175556280e+01   3.2791401956e+01    0.2329111    0.1844133   2.22  0.001349362    1.603    0.376
       128 -11.8528    142.1484    181.1424   5.4781029921e+01   1.7504532223e+01    0.1988507    0.1653266   5.84 0.0003296549    1.188    0.158
       129 -11.1707    246.2478    179.5939   3.5431720985e+01   2.8664461848e+00     0.142219   0.08868374  16.99 0.0004233164    1.556    0.357
       130 -14.2431    127.4888    174.4465   5.7075706149e+01   2.1109987100e+01    0.6578338    0.4366205 -87.47  0.002843956    2.890    0.654
       131 -13.4630    126.7165    166.8548   5.5973856205e+01   2.2753080024e+01    0.4600668       0.2637 -26.27  0.001900449    2.620    0.618
       132 -13.2830    130.9032    169.1706   5.5363240614e+01   2.1596504778e+01    0.4004319    0.2556562  21.63  0.001481306    1.697    0.411
       133 -12.5246     62.0910    177.1785   7.4420439884e+01   3.0135553534e+01    0.3631352    0.2037658  23.91  0.001107002    1.832    0.454
       134 -13.6042    149.1771    175.4985   5.2255036405e+01   1.7414851083e+01    0.4534669    0.3043537  52.93 0.0008556055    1.841    0.457
       135 -12.3780    137.5755    177.0058   5.5132632765e+01   1.8997582424e+01    0.2571359    0.1850095  32.03 0.0003278762    1.258    0.205
       136 -12.8685    105.6679    176.2713   6.2758668079e+01   2.4178123898e+01    0.2867028    0.2241173  24.98 0.0006202549    1.235    0.190
       137 -10.6833     53.7498    177.5623   7.6733833686e+01   3.1071650238e+01    0.2067209    0.1002038  41.25 0.0008527904    1.734    0.423
       138 -11.9134    247.9471    175.9791   3.4560667436e+01   3.0963615307e+00    0.1676893    0.1257569 -11.11 0.0002987769    1.024    0.024
       139 -12.0558    224.2987    174.8655   3.7914277523e+01   6.2471371521e+00    0.2251255    0.1922072 -35.23 0.0007576618    1.481    0.325
       140 -11.5369    187.7982    176.3822   4.4509467144e+01   1.1226897930e+01    0.1732565    0.1065539  23.84 0.0003141967    1.595    0.373
       141 -10.8763    242.5158    175.4495   3.5248317265e+01   3.8249333735e+00    0.1134509   0.08650548  -9.56 0.0002596392    1.021    0.020
       142 -11.7472     12.5537    174.3360   8.7767464863e+01   3.5991287953e+01    0.3376242    0.1565622 -58.12  0.001592291    2.498    0.600
       143 -13.8469     83.3253    165.5195   6.7127805076e+01   2.9913912865e+01    0.6504308    0.3492171  24.40  0.001728589    2.017    0.504
       144 -13.4238     90.4856    172.2520   6.6131047060e+01   2.7339300635e+01    0.4828309     0.306135 -48.29  0.001170282    1.777    0.437
       145 -13.0286     91.8408    166.1757   6.4885172274e+01   2.8491321926e+01    0.3605778    0.2259423  45.15 0.0002811488    1.483    0.326
       146 -13.3023     62.0606    170.0022   7.3645622626e+01   3.1798478888e+01    0.4924864    0.2910848  82.52  0.002281736    2.048    0.512
       147 -15.4880      8.7663    185.4791   8.9216774768e+01   3.3761886040e+01     2.023938    0.7881814  42.24  0.009289896    1.929    0.482
       148 -16.2001     37.1318    200.5325   8.2836302054e+01   2.7844458052e+01     3.173071     1.341927  85.86   0.01415346    2.859    0.650
       149 -11.4365    235.1554    171.2330   3.5585664144e+01   5.2888541897e+00     0.205832    0.1065537   0.36 0.0009616466    2.917    0.657
       150 -11.1371    166.1558    170.8346   4.7779281694e+01   1.5502893440e+01    0.1793563    0.1389852   6.27  0.000248148    1.287    0.223
       151 -12.0448    160.0192    168.9718   4.8729289207e+01   1.6824795312e+01    0.2427726    0.2220371  54.06 0.0004674096    1.332    0.249
       152 -13.0390    153.0401    169.8798   5.0406065552e+01   1.7807119077e+01    0.3100325    0.2680364 -32.72 0.0007398002    1.205    0.170
       153 -12.5321    156.8992    165.7846   4.8811035051e+01   1.7911073210e+01    0.2807232    0.2146692 -29.37 0.0007571031    1.332    0.249
       154 -13.6536    152.0418    165.2343   4.9774253342e+01   1.8824353867e+01    0.5296876    0.2920047  28.74  0.002438352    1.859    0.462
       155 -11.5320     77.4756    171.4936   6.9547668782e+01   2.9385495527e+01     0.216534    0.1125632  41.40 0.0003493089    1.691    0.408
       156 -11.6243     74.5798    169.7050   7.0116329547e+01   3.0198054777e+01    0.2817099    0.1671864 -60.30  0.001358622    1.797    0.443
       157 -12.4613     72.0080    166.2363   7.0391373022e+01   3.1358259847e+01    0.4771044    0.1794718 -63.75  0.001802614    2.766    0.638
       158 -12.1669    197.2075    170.5571   4.1712596110e+01   1.0703168185e+01    0.2377374     0.158179 -29.72  0.001381013    1.405    0.288
       159 -12.8416     54.1389    167.8899   7.5656732685e+01   3.3286031708e+01    0.4089703    0.2096992  19.18  0.001440903    2.281    0.562
       160 -12.0385     50.3818    165.2030   7.6456135155e+01   3.4379402284e+01    0.3660958    0.2002359 -69.39    0.0013782    1.867    0.464
       161 -13.4339     47.9839    161.6084   7.6786140244e+01   3.5531583556e+01    0.4807977     0.215191  48.12  0.002053079    2.046    0.511
       162 -12.5656    199.4834    165.7155   4.0400233313e+01   1.1090246886e+01    0.2651461    0.1990974  76.70  0.001311564    3.073    0.675
       163 -12.3683    212.2877    163.9569   3.7862024615e+01   9.4375948638e+00    0.2102519    0.1817145  -9.24 0.0003530419    1.109    0.098
       164 -11.5999    110.3453    165.3076   5.9832618662e+01   2.5767131086e+01    0.1440778    0.1092558  -6.32 0.0007043502    1.698    0.411
       165 -13.4397     65.9782    163.8456   7.1805383272e+01   3.2739671529e+01    0.4438607    0.1902208  29.32   0.00179485    2.220    0.549
       166 -13.5659     37.5599    161.4723   7.9842148294e+01   3.6724771280e+01    0.5067824    0.2867385  28.83  0.002486669    1.687    0.407
       167 -11.8008     29.3325    161.2662   8.2245665098e+01   3.7611185830e+01    0.2928592    0.2044684   8.83 0.0009100667    1.760    0.432
       168 -13.1453     27.3374    154.9629   8.2354331233e+01   3.9359897111e+01    0.7755753    0.2400413  46.39  0.002939002    2.749    0.636
       169 -14.0854     39.9856    148.4769   7.7857555641e+01   3.9704412834e+01    0.6918377    0.4831736  19.81   0.00309662    1.572    0.364
       170 -13.2091     26.2464    149.1815   8.2229684660e+01   4.0914468928e+01    0.4960819    0.3051216  60.30  0.002105266    1.504    0.335
       171 -12.8105     31.1108    147.1960   8.0530896746e+01   4.0952449791e+01     0.472939    0.2194766  36.68   0.00108574    1.908    0.476
       172 -13.2623    169.8624    159.1426   4.4802822161e+01   1.6916432410e+01    0.3544508    0.2924866  56.25  0.001850589    1.534    0.348
       173 -14.7510     77.5246    154.5687   6.7188759328e+01   3.3339752361e+01    0.7555654    0.6006443  68.44  0.000200884    1.297    0.229
       174 -13.4030     84.3326    149.7529   6.4439952358e+01   3.3465436956e+01    0.4403142     0.335741 -51.10  0.001476566    1.406    0.289
       175 -13.7815     83.2426    145.1603   6.3999436751e+01   3.4743294557e+01    0.4869553    0.3334863  36.49  0.002261225    1.382    0.276
       176 -11.4715    105.1677    158.6535   6.0079557982e+01   2.8065458376e+01    0.2351392    0.2018351 -84.75 0.0008279741    1.325    0.245
       177 -12.1143     95.4962    158.8645   6.2746925247e+01   2.9579579524e+01    0.2691617    0.2200683  12.06 0.0007209624    1.378    0.274
       178 -12.4501    117.6690    157.9100   5.6660314799e+01   2.6136888747e+01    0.2603137     0.194341  22.39  0.001318763    1.394    0.283
       179 -11.9170    190.4854    155.4529   4.0048188771e+01   1.4107891697e+01    0.2303209    0.1157155 -47.55  0.001033168    2.365    0.577
       180 -13.8358     62.7507    152.8537   7.1345716440e+01   3.5834683968e+01    0.5012212    0.3159761 -54.58  0.002411996    1.695    0.410
       181 -11.7108     20.4435    154.4523   8.4402444328e+01   4.0113928302e+01    0.2235544     0.193652  66.56 0.0005725805    1.022    0.021
       182 -11.7394    237.6556    153.8359   3.2002808916e+01   7.2194467411e+00    0.2201735    0.1515307  23.02  0.001017416    1.513    0.339
       183 -12.0326    211.9425    153.2921   3.5865605551e+01   1.1040328155e+01    0.2120659       0.1544 -36.65   0.00048342    1.359    0.264
       184 -12.6924     88.8372    153.3485   6.3721638193e+01   3.1908094526e+01    0.3451147    0.2642089  50.41  0.001616387    1.254    0.202
       185 -13.5069    168.3067    150.8515   4.3470510270e+01   1.8647117044e+01    0.5089526    0.3051766  45.39  0.001876113    1.764    0.433
       186 -11.6370     50.9778    153.0285   7.4950356952e+01   3.7291775072e+01    0.2178361    0.1874037  58.30 0.0003572703    1.046    0.044
       187 -11.9023    249.1748    151.9472   3.0041006110e+01   5.9105716428e+00    0.1708833    0.1390561  -5.83 0.0003059916    1.111    0.100
       188 -12.9562    108.9309    149.3618   5.7407433242e+01   2.9509218055e+01    0.3852886    0.3087837 -48.05 0.0009740439    1.319    0.242
       189 -12.4844     69.2597    151.3893   6.9178218323e+01   3.5302026583e+01    0.2646178    0.1680703  42.07 0.0008178372    1.444    0.308
       190 -11.9132     54.6297    150.6183   7.3538910104e+01   3.7443623827e+01    0.2595563    0.1761823  32.45  0.001300264    1.415    0.293
       191 -12.9209    138.3708    149.7600   4.9942858449e+01   2.4202829547e+01    0.3274702    0.2337638  17.89   0.00095278    1.595    0.373
       192 -12.5800     95.9393    149.3211   6.1012940016e+01   3.1709456580e+01    0.2838729     0.216401 -48.68  0.001018673    1.402    0.287
       193 -12.8044     13.6965    135.4823   8.5234859909e+01   4.5487191180e+01    0.4633997    0.2093057  62.37  0.001993815    2.172    0.540
       194 -14.3718     14.8468    141.5113   8.5272324431e+01   4.3845937681e+01    0.7790121    0.5657625  62.14  0.001782517    1.221    0.181
       195 -12.3420     12.3011    149.9254   8.6595153647e+01   4.1913255265e+01    0.3476591    0.1733257  23.70  0.001665022    2.015    0.504
       196 -13.2781      9.2842    146.6029   8.7339361778e+01   4.2973755945e+01    0.3630287    0.2855354  59.31  0.001587792    1.102    0.093
       197 -11.0161     21.3147    148.9739   8.3750411754e+01   4.1411589334e+01    0.1876363    0.1546019  89.26 0.0005378008    1.133    0.117
       198 -12.1452    123.0331    143.5032   5.2512880288e+01   2.8299607673e+01    0.2662297    0.2003502 -30.47 0.0003595579    1.504    0.335
       199 -12.0793    121.2865    146.7115   5.3609615123e+01   2.7919852615e+01    0.2411283    0.2237725 -40.92 0.0001624124    1.125    0.111
       200 -12.6863    118.6385    143.8280   5.3731450006e+01   2.9026369806e+01    0.3359136    0.2699639 -37.90  0.000486262    1.328    0.247
       201 -12.2061    151.4040    145.7464   4.6080738976e+01   2.2628351269e+01    0.2466637    0.2258996  18.01 0.0002980448    1.042    0.040
       202 -12.5217     57.2301    144.3971   7.1916496548e+01   3.8678863952e+01     0.382397    0.2318082 -36.09  0.001469906    2.260    0.558
       203 -13.5794    102.0511    142.7295   5.8068258114e+01   3.2213641740e+01    0.6928489    0.3781649  61.73  0.002540972    2.783    0.641
       204 -12.3453     51.2701    143.3216   7.3673265689e+01   3.9707577700e+01    0.3116256    0.2101005  43.75  0.001552431    1.375    0.273
       205 -11.0794    222.9118    141.0120   3.1675909706e+01   1.1134759245e+01    0.2594747    0.1503352 -54.27  0.001060189    2.841    0.648
       206 -11.6154    146.9050    148.6708   4.7712345528e+01   2.2877721579e+01    0.2340095    0.1879696 -28.69 0.0004801714    1.283    0.220
       207 -13.1409     70.4573    142.9512   6.7545539771e+01   3.7221234548e+01    0.3616079     0.284261 -53.93 0.0004385744    1.349    0.259
       208 -13.0792     45.2776    136.0969   7.4707083415e+01   4.2291912962e+01    0.4980501    0.2922427  84.01    0.0018991    1.911    0.477
       209 -12.0828     35.7274    138.4330   7.8164460287e+01   4.2739915703e+01    0.2637562     0.137677  24.28 0.0008206746    1.980    0.495
       210 -12.2395     38.8384    141.1231   7.7435274248e+01   4.1712303325e+01    0.2113462    0.1850175 -53.74 0.0002612117    1.268    0.211
       211 -11.5485     41.6930    139.3423   7.6295603406e+01   4.1858924130e+01    0.2007766    0.1672354  58.04 0.0006311097    1.105    0.095
       212 -11.6303    131.9498    140.0742   4.9524836223e+01   2.7384447894e+01    0.2341424    0.1791404  -2.30 0.0006620885    1.656    0.396
       213 -11.8223     30.1415    139.8413   8.0153546110e+01   4.2936816370e+01    0.2247057    0.1650339  60.37 0.0007262467    1.254    0.203
       214 -11.2658     77.3189    139.3083   6.4810863742e+01   3.7102359230e+01    0.1474152     0.115858 -21.79 0.0002717382    1.638    0.389
       215 -13.5214    119.1993    135.0641   5.1767968692e+01   3.0862248139e+01     0.495668    0.3964002  51.13  0.002510215    1.271    0.213
       216 -11.5152      1.9501    136.9846   8.9175725181e+01   4.5904496879e+01    0.2043839    0.1416573 -47.08  0.001122943    1.694    0.410
       217 -11.1626     27.6687    136.2917   8.0632544054e+01   4.4095495669e+01    0.1508071   0.08857199  57.22 0.0003898535    1.629    0.386
       218 -11.2771    178.0074    142.2738   3.9726405238e+01   1.8441799980e+01    0.1905904    0.1718156  20.75 0.0005099946    1.104    0.094
       219 -12.8984    101.8132    134.1873   5.6449019105e+01   3.4255206819e+01    0.4832415    0.2225405  31.16  0.001771699    2.384    0.580
       220 -13.4289     60.9555    133.2545   6.9070430381e+01   4.1031970946e+01    0.4654568     0.311802  16.83  0.002145582    1.774    0.436
       221 -11.2415    175.3577    133.1712   3.8275856233e+01   2.0522044317e+01    0.1912118    0.1234821 -46.34 0.0003622413    1.609    0.379
       222 -12.0962    128.4972    133.1998   4.8917992012e+01   2.9504087225e+01     0.255152    0.2013848  39.44 0.0004084249    1.237    0.192
       223 -10.6399    139.3154    132.7297   4.6107527330e+01   2.7513193993e+01    0.1424525     0.117086  76.67 0.0005747781    1.556    0.357
       224 -13.1171     26.5816    125.0044   7.9866440284e+01   4.7170111448e+01     0.392045    0.3285863   9.88  0.001347855    1.385    0.278
       225 -13.6358     36.0414    130.6011   7.7169754265e+01   4.4758313778e+01    0.5094982    0.4175306  67.49  0.002157748    1.137    0.120
       226 -12.1608      2.5966    131.3730   8.8690266849e+01   4.7303412268e+01     0.229384    0.2006722 -84.48 0.0003174824    1.120    0.107
       227 -11.0734    230.0918    130.6169   2.8500265573e+01   1.1495345747e+01    0.1593376    0.1384762  -6.00 0.0004170435    1.108    0.097
       228 -13.9362     82.2027    128.3109   6.1252365540e+01   3.9066401287e+01    0.5224066    0.4526493  84.58   0.00273057    1.201    0.168
       229 -10.7806     69.3250    131.2943   6.5980943462e+01   4.0335221363e+01    0.1476139    0.1161317 -23.35  0.000538789    1.621    0.383
       230 -11.3582     19.5038    131.4956   8.2965865485e+01   4.6068834274e+01    0.2650667    0.1341864  20.58   0.00119396    2.108    0.526
       231 -11.6237      8.0008    131.4510   8.6878393507e+01   4.6938896655e+01    0.1868272    0.1291553  22.33 0.0004820927    1.553    0.356
       232 -11.3360    102.1578    129.8572   5.5446321200e+01   3.5215039935e+01    0.2063541    0.1817112 -11.88 0.0004369942    1.317    0.241
       233 -12.1530     46.0594    128.7736   7.3458267904e+01   4.4118589493e+01    0.2988919    0.1925954  85.43 0.0008509321    1.671    0.401
       234 -12.0023     32.4751    126.0047   7.7876954388e+01   4.6340690135e+01    0.2125147    0.1849808  43.39 0.0003530482    1.147    0.128
       235 -10.7463    187.9840    127.9722   3.4717888752e+01   1.9078256997e+01    0.1643179    0.1440907 -22.53 0.0003294971    1.037    0.036
       236 -10.5645    130.4961    128.4667   4.7344087732e+01   3.0132648343e+01    0.1480623    0.1447074  23.50 0.0001025891    1.003    0.003
       237 -12.1628    121.7966    127.4692   4.9396540352e+01   3.2052130436e+01    0.3325147    0.2369252 -16.99  0.001455027    1.944    0.486
       238 -11.4399    125.7326    123.9198   4.7531071426e+01   3.2058657064e+01    0.2150515    0.1966737 -48.23 0.0004835693    1.111    0.100
       239 -12.6990     64.5588    127.5383   6.6914865370e+01   4.2000526777e+01    0.3900184    0.2387455  61.07 0.0009440167    1.862    0.463
       240 -13.7223     59.4804    124.5078   6.8130422157e+01   4.3508738889e+01    0.4066903    0.3399289  39.05  0.002145214    1.183    0.155
       241 -11.2465    109.5047    126.5182   5.2589156745e+01   3.4631293284e+01    0.1519814    0.1462292  60.87 0.0008102056    1.030    0.029
       242 -12.3890     75.0009    125.0321   6.2957403323e+01   4.1060108576e+01    0.2259823    0.2158429  74.60 0.0003382742    1.010    0.010
       243 -12.7730      5.5836    122.9167   8.7182742243e+01   4.9321792920e+01    0.4297509    0.1413403 -76.80  0.001418334    2.628    0.620
       244 -12.5407     20.8185    122.9755   8.1730806335e+01   4.8211308288e+01    0.2953832     0.246976   4.58 0.0004025461    1.415    0.293
       245 -12.9196     15.4939    123.2745   8.3674361494e+01   4.8552056476e+01    0.2545702    0.2080389  62.25 0.0005298241    1.127    0.112
       246 -12.1879    109.2969    112.0095   4.9225504425e+01   3.8033106861e+01    0.3257522    0.2292283  31.60 0.0004667628    1.535    0.348
       247 -11.9755    115.9922    113.0043   4.7546936940e+01   3.6450399706e+01    0.2351794    0.2308977  26.82 0.0005372777    1.037    0.036
       248 -11.4595    113.2291    110.0145   4.7579029361e+01   3.7693185989e+01    0.2258458    0.2000574 -49.63  0.001146479    1.137    0.120
       249 -13.3728    104.3324    121.8459   5.3041231631e+01   3.6703330201e+01    0.6805661    0.3130159  46.10  0.002524984    2.197    0.545
       250 -12.2716    100.1578    118.4679   5.3518913427e+01   3.8295261339e+01    0.3910589    0.2679493  76.83  0.001401533    2.094    0.522
       251 -13.1063    103.8480    114.3699   5.1428331407e+01   3.8560167398e+01    0.5999019    0.3462012  33.13  0.001923771    1.873    0.466
       252 -14.3964     64.7362    121.3631   6.5745048980e+01   4.3577090117e+01    0.8073827    0.4798121 -79.07  0.003388933    1.957    0.489
       253 -12.5939     67.2961    117.3159   6.4075789246e+01   4.4245191324e+01    0.2921214    0.2126812 -61.96 0.0002423952    1.357    0.263
       254 -13.1822     63.4771    112.5019   6.4476464205e+01   4.6076958439e+01    0.4721436    0.2699339  29.73     0.001999    1.819    0.450
       255 -13.4798     62.5418    108.1569   6.3924485917e+01   4.7354647061e+01    0.6467593    0.2378162 -53.06  0.002239668    2.604    0.616
       256 -11.1257    200.3378    121.3178   3.1074631953e+01   1.7907732204e+01    0.1379839   0.09873904   2.85 0.0006305138    1.704    0.413
       257 -11.4717    189.0382    121.5035   3.3065032560e+01   1.9968373278e+01    0.1896116    0.1357522  44.92 0.0003454236    1.504    0.335
       258 -11.6982    169.3667    126.0538   3.7870696497e+01   2.2943052424e+01    0.2016282    0.1775854 -27.45 0.0004223245    1.079    0.074
       259 -10.8064    224.4352    120.5158   2.7187024446e+01   1.3842428469e+01    0.1273272    0.1053899 -24.09 0.0001654977    1.011    0.011
       260 -13.3391     78.1991    119.2092   6.0720325873e+01   4.2021418507e+01    0.3847405     0.307243  68.23  0.001303444    1.341    0.255
       261 -12.7629     72.2608    119.1273   6.2715977776e+01   4.3005081099e+01    0.4011202    0.1726324  46.26  0.001443691    2.397    0.583
       262 -11.7264     94.6136    117.4839   5.5007210929e+01   3.9568169594e+01    0.3082652    0.1950033 -52.05  0.001340929    1.595    0.373
       263 -13.1790     18.7891    115.1935   8.1709237773e+01   5.0453965049e+01    0.4256378    0.2523951  69.16  0.002019203    1.694    0.410
       264 -12.2796     22.3360    117.7130   8.0638442176e+01   4.9489823497e+01    0.3061736     0.217043  74.60 0.0002913496    1.351    0.260
       265 -11.7029     24.1579    115.1571   7.9669677486e+01   5.0019951184e+01    0.3470972    0.2162784  55.73  0.001275302    1.589    0.371
       266 -12.6183      9.2074    117.5530   8.5501341220e+01   5.0509243109e+01    0.3612055    0.1301462  17.36  0.001409737    2.995    0.666
       267 -11.2118    196.9192    115.4867   3.0319171365e+01   1.9476867150e+01    0.1889626    0.1345818  46.04 0.0008937545    1.541    0.351
       268 -11.9752    120.4081    114.1966   4.6616128214e+01   3.5279923804e+01    0.2882847    0.2513522  36.95 0.0005547651    1.154    0.134
       269 -13.1654     83.1101    111.3072   5.7327292038e+01   4.3174290694e+01    0.5912811    0.2446056 -56.48 0.0006420609    2.422    0.587
       270 -11.9028     90.0996    110.9212   5.4914693127e+01   4.2006444080e+01    0.2370149    0.2059809  76.25 0.0003601864    1.225    0.184
       271 -12.8638    170.2400    109.3383   3.3694275248e+01   2.5807637965e+01     0.262651    0.2411668 -22.58 0.0002886204    1.048    0.046
       272 -10.8441    216.4678    109.4778   2.5910786387e+01   1.6829768882e+01    0.1309018    0.1115198 -26.67 6.533782e-05    1.001    0.001
       273 -11.4600    121.8836    108.3433   4.4722805997e+01   3.6268430103e+01    0.2440497    0.2081318 -62.06 0.0004187709    1.233    0.189
       274 -12.5618     72.5755    108.1220   6.0258615228e+01   4.5782962415e+01    0.3712164    0.2237249  66.40  0.001437633    2.289    0.563
       275 -10.8166    155.5006    108.4825   3.6534595516e+01   2.9064412799e+01    0.2167212    0.1784931   3.08 0.0001247229    1.436    0.304
       276 -11.5198    158.2234    106.3988   3.5415101435e+01   2.8881054188e+01    0.2728558    0.1530776  53.60 0.0009158258    1.940    0.485
       277 -11.0566    209.5008    107.4917   2.6483999075e+01   1.8391694218e+01    0.1332987    0.1155694 -32.31 -0.0001423138    1.045    0.043
       278 -10.6815    139.6712    107.3223   3.9875317278e+01   3.2688027298e+01    0.1553306    0.1217212 -85.67 0.0007049017    1.693    0.409
       279 -12.1964     53.6201    110.4950   6.7731742940e+01   4.8009352666e+01    0.4544367    0.2401097  30.65   0.00189713    1.913    0.477
       280 -11.7097      1.9614    107.0442   8.7497083908e+01   5.3719748198e+01     0.221454    0.1403279 -45.97  0.001135513    1.713    0.416
       281 -13.2199     10.1337    104.6233   8.4060651192e+01   5.3904600221e+01    0.4819072    0.4394504 -16.45  0.002449113    1.278    0.217
       282 -11.2423    154.0185    102.3574   3.5270636036e+01   3.0558006270e+01    0.1999245    0.1980576   2.73 0.0005610335    1.032    0.031
       283 -10.9336    152.0242     99.0035   3.4815076739e+01   3.1638203381e+01    0.2142065    0.1804063 -74.60 0.0004684213    1.378    0.274
       284 -12.5568     78.8467    101.5584   5.6459012466e+01   4.6377155114e+01    0.3149565    0.2758968  68.77 0.0006191286    1.182    0.154
       285 -12.4349     76.6580     97.0889   5.6110526886e+01   4.7888570531e+01    0.2944651    0.2770975  67.75  0.000571436    1.056    0.053
       286 -12.0875     31.7169     99.1177   7.4444125357e+01   5.3651400306e+01    0.5297066    0.2996032 -33.40   0.00223057    2.278    0.561
       287 -11.6281    229.5126    103.1707   2.2729498439e+01   1.5460686195e+01    0.1792594     0.175841  11.40 0.0003119556    1.217    0.178
       288 -13.2552    163.3248     99.1736   3.2479318861e+01   2.9125452348e+01    0.4300548    0.2863047  35.94  0.001025643    1.715    0.417
       289 -11.9971     93.4480     99.2556   5.0852178246e+01   4.4202153146e+01    0.3778547    0.1860102  43.68   0.00142664    2.016    0.504
       290 -11.9300     58.7981     97.6126   6.3040387127e+01   5.0678021551e+01    0.4602625    0.2857257  44.26  0.002036575    1.629    0.386
       291 -11.5697    197.1355    103.8245   2.7544951685e+01   2.1314934103e+01    0.1807153    0.1521106  -4.83 0.0003104645    1.265    0.210
       292 -11.4253     25.7583     97.2129   7.6669037245e+01   5.4729446961e+01     0.386937    0.1792028 -53.85  0.001607815    2.048    0.512
       293 -12.4813      8.8007     97.4748   8.3930175308e+01   5.5907200707e+01    0.3550578    0.1947339  75.80   0.00114707    1.842    0.457
       294 -10.7342    118.2136     94.9906   4.2104842575e+01   3.9982688338e+01    0.2017988    0.1258184 -45.78  0.000376356    1.600    0.375
       295 -11.8034     83.4326     94.7497   5.3053397670e+01   4.7228283536e+01    0.3070484    0.1537074 -58.80  0.001139486    2.138    0.532
       296 -12.3858     65.5221     94.9517   5.9764257664e+01   5.0323807698e+01    0.2778939    0.2236461   8.41 0.0007058656    1.505    0.336
       297 -10.5905    243.3835     94.2051   1.9107683518e+01   1.4347552597e+01    0.1666771   0.09091619 -38.59 0.0002426731    1.489    0.329
       298 -10.8750    208.6783     99.6848   2.4792811163e+01   1.9736308749e+01    0.1331075   0.09933727   3.91 0.0004560109    1.659    0.397
       299 -12.6690     78.3507     92.7775   5.4345679914e+01   4.8658823646e+01    0.3315266    0.2101538  52.88  0.001401832    1.718    0.418
       300 -12.4315    189.0849     91.3139   2.5764819699e+01   2.4961676626e+01    0.2878511    0.2282608 -80.52 0.0008311953    1.587    0.370
       301 -11.2950     41.1255     91.7640   6.9075682804e+01   5.4603456528e+01    0.2222252    0.1850959  63.07 0.0004943937    1.239    0.193
       302 -10.5306    121.6546     90.2959   3.9796194679e+01   4.0222686013e+01    0.1604942    0.1239555  89.72 0.0005212089    1.670    0.401
       303 -11.5389      3.3308     88.5472   8.5461361384e+01   5.8591576683e+01    0.2792429    0.1464829 -75.11 0.0008657224    1.648    0.393
       304 -12.1946    149.2960     88.0225   3.2377542121e+01   3.4340599315e+01    0.2222195    0.1949214 -47.79  0.001155488    1.108    0.098
       305 -10.8712    126.0249     84.9967   3.7051664029e+01   4.0325138920e+01    0.2216187    0.1930295   7.58 0.0009950438    1.369    0.270
       306 -12.8427      9.2339     86.8916   8.2608257365e+01   5.8728804152e+01    0.3236906    0.2698871 -35.04 0.0005760218    1.302    0.232
       307 -11.7176    177.7989     86.7813   2.6481123110e+01   2.8126854418e+01    0.2032346    0.1617578 -63.24 0.0004924901    1.380    0.275
       308 -12.4747     54.5379     85.9508   6.1959172445e+01   5.4350000727e+01    0.4481594    0.3681367  15.95  0.002057916    1.367    0.268
       309 -12.8783     61.3796     84.6161   5.8729251242e+01   5.3637645333e+01    0.5262281    0.3410892 -15.74  0.001348713    2.519    0.603
       310 -12.4955    160.2184     84.9031   2.9224852871e+01   3.2400390097e+01    0.2940496    0.1914387  28.47  0.001249308    2.118    0.528
       311 -12.1921    150.0268     83.1677   3.0824880787e+01   3.5074874574e+01    0.2643435    0.2121695 -36.89 0.0005882303    1.222    0.182
       312 -10.6866    133.4501     84.4076   3.4992454210e+01   3.8716879336e+01    0.1529996    0.1472418 -81.87 3.429465e-05    1.039    0.037
       313 -11.7277    112.0151     83.0025   4.0312868207e+01   4.3954487876e+01    0.3270564      0.21759  49.26 0.0008821616    1.506    0.336
       314 -12.2541    182.4461     80.9002   2.4135373520e+01   2.8071142453e+01    0.2744136    0.2108954 -65.51 0.0007602104    1.458    0.314
       315 -10.6713     11.6804     71.6768   7.9328919347e+01   6.2653532710e+01    0.2091819    0.1350137   2.28  0.001043976    1.799    0.444
       316 -12.0834      7.4851     77.4929   8.2294453243e+01   6.1342162025e+01    0.4167855    0.1793993 -74.49  0.001771243    2.015    0.504
       317 -12.3027      8.6286     74.1643   8.1274540692e+01   6.2168078738e+01    0.4166429    0.1565694 -62.71  0.001199766    2.176    0.540
       318 -11.9976    153.6636     79.0506   2.8865549991e+01   3.4968543794e+01    0.2103419    0.1832055 -39.22 0.0003608696    1.113    0.102
       319 -11.8706    112.4342     78.6059   3.8804616293e+01   4.4788887521e+01    0.3626965    0.2523667 -77.19  0.001481474    2.050    0.512
       320 -11.9101     88.8070     78.9671   4.6481006967e+01   4.9915267397e+01    0.3026767    0.2345739  50.59 0.0009270127    1.305    0.234
       321 -12.5703     86.0781     74.3441   4.5943264074e+01   5.1536284633e+01    0.4744062    0.2722755 -46.14  0.001068194    1.741    0.426
       322 -12.7633     65.5668     78.8928   5.5353469243e+01   5.4375696770e+01    0.3363425    0.2323132  72.19 0.0009757245    1.975    0.494
       323 -10.7750     51.6976     79.2863   6.1437670858e+01   5.6485102820e+01    0.2238048    0.1921901 -60.60 0.0005028247    1.120    0.107
       324 -11.3642     55.1430     77.8721   5.9513895812e+01   5.6330693591e+01    0.2552058    0.2161614  30.90 0.0003920915    1.229    0.186
       325 -12.1505    161.4574     76.7905   2.6676891581e+01   3.3532575326e+01    0.2564744    0.2142237 -49.89 0.0006969941    1.151    0.131
       326 -12.6184     75.4044     75.2132   5.0240744065e+01   5.3472551034e+01      0.38212    0.2313768 -40.21  0.001593163    1.778    0.438
       327 -10.8613    227.7530     76.7584   1.6963977077e+01   1.9438734636e+01    0.1694982    0.1251449 -50.28 0.0003721686    1.280    0.219
       328 -12.0198    150.6201     73.6487   2.7883968175e+01   3.6651131543e+01    0.3423046    0.2378188 -26.52  0.001327515    1.576    0.366
       329 -11.3627    115.5685     74.7674   3.6669235407e+01   4.4850399858e+01    0.2696726    0.2410891 -31.26  0.001364151    1.178    0.151
       330 -10.7414    214.5258     73.4926   1.7728683499e+01   2.2439793730e+01    0.1325168    0.1138616 -36.99 -7.461682e-06    1.025    0.024
       331 -11.6463    105.8148     72.5326   3.8777451418e+01   4.7583051996e+01    0.2901785     0.248403 -67.63 0.0005415686    1.246    0.197
       332 -11.6823    204.0343     72.0197   1.8678349941e+01   2.4790071471e+01    0.1650222    0.1442448 -41.54 0.0003951599    1.002    0.002
       333 -11.4860      2.7868     70.2664   8.3777275531e+01   6.3481561204e+01    0.4037749    0.1735137  84.32  0.001618008    2.541    0.606
       334 -13.7312    241.6121     66.8878   1.3286800817e+01   1.8203131911e+01      0.29773    0.2406882 -35.20 0.0008492234    1.043    0.041
       335 -10.8514    171.9645     69.4794   2.2712824072e+01   3.2285130621e+01    0.1985091    0.1440376  62.03 0.0001348158    1.460    0.315
       336 -11.3608     72.6602     68.5476   4.9104225529e+01   5.5558025123e+01    0.2717142    0.2351693 -42.28 0.0007469633    1.161    0.139
       337 -12.2627     52.8913     68.2468   5.7638927603e+01   5.9084956917e+01    0.2493427     0.203346 -73.10 0.0004363158    1.306    0.234
       338 -12.0893    225.2997     67.2647   1.5008474174e+01   2.1180199226e+01    0.2218513    0.1772405 -45.12 0.0003104518    1.081    0.075
       339 -11.2152     64.8355     68.5083   5.2359164828e+01   5.7022600717e+01    0.2225837    0.1504839  36.04  0.000930837    1.518    0.341
       340 -10.7358     98.1451     67.1324   3.9324427894e+01   5.0466622648e+01    0.2143032    0.1800891 -77.73            0    1.352    0.260
       341 -11.1987    178.9269     64.2623   2.0129068200e+01   3.1479352425e+01    0.1871943    0.1802428 -60.33 0.0002915561    1.063    0.059
       342 -11.2139    164.8268     64.1475   2.2368610368e+01   3.4826720247e+01    0.1906987    0.1720673   0.90 0.0003374919    1.288    0.224
       343 -11.9390     60.0994     66.9793   5.3922668950e+01   5.8216167207e+01    0.2287319    0.2159283 -35.86 0.0004509166    1.063    0.059
       344 -11.8663     13.2437     62.0037   7.6751173404e+01   6.5101038234e+01    0.2763068    0.1648871 -57.40  0.001366852    1.469    0.319
       345 -11.4264     45.3857     61.8493   5.9217672717e+01   6.1778576270e+01    0.2237398    0.1225732 -46.81 0.0009492434    1.773    0.436
       346 -11.6038    109.2467     59.8317   3.3308610907e+01   4.9296872100e+01    0.2841441    0.2138686  67.99  0.001315419    1.434    0.303
       347 -11.5957     41.1828     60.3632   6.0893928456e+01   6.2728142150e+01    0.2169633    0.1264153  40.36 0.0009614619    1.800    0.444
       348 -11.6870     18.1936     58.8005   7.3211899712e+01   6.5576889294e+01    0.3254083    0.1717268 -63.56  0.001498222    1.667    0.400
       349 -13.4573    192.7243     57.8864   1.6443811876e+01   2.9265574784e+01    0.3342876     0.263432 -40.45 0.0007012371    1.129    0.115
       350 -11.8791    159.9880     57.2906   2.1125907184e+01   3.7082405749e+01    0.2061127    0.1896904  85.86 0.0006603738    1.089    0.082
       351 -12.4347     23.9353     55.5709   6.9020352350e+01   6.5905841118e+01    0.3293127    0.2265168 -18.96 0.0009996053    1.672    0.402
       352 -11.4372     19.9415     53.0162   7.0698455364e+01   6.6908613779e+01    0.2155533    0.1565975  63.48 0.0005352905    1.650    0.394
       353 -11.8604     40.6804     54.1271   5.9042795944e+01   6.4312272164e+01     0.287915     0.134926 -65.50  0.001079593    2.542    0.607
       354 -12.2383    116.0571     54.0123   2.9313344227e+01   4.8676818744e+01    0.2426018    0.2081246 -79.76 0.0006135732    1.251    0.201
       355 -12.4918    112.1806     53.0766   2.9993539855e+01   4.9811341998e+01    0.2760322    0.2142707  44.53  0.001323482    1.328    0.247
       356 -10.6197     54.6731     57.2705   5.3008856491e+01   6.1424657865e+01    0.1460054    0.1153919  70.41 0.0002958193    1.579    0.367
       357 -11.6141    176.0000     50.7587   1.6681652129e+01   3.4157714398e+01    0.1953444    0.1783343 -71.52 0.0003335421    1.055    0.052
       358 -11.7980    130.4675     51.5013   2.4949315142e+01   4.5447843657e+01     0.151691    0.1454565 -80.36 -3.207143e-05    1.005    0.005
       359 -13.5479     30.5970     49.7036   6.3235747771e+01   6.6659459240e+01    0.4151498    0.3121109  55.84  0.001623979    1.586    0.369
       360 -11.8164     99.5803     49.8007   3.2347143649e+01   5.3504495220e+01    0.2241377    0.1399986 -49.60   0.00095051    1.703    0.413
       361 -10.9681    219.5459     47.4651   1.0807762223e+01   2.4887139179e+01    0.1295439    0.1075487 -45.30  0.000100473    1.009    0.009
       362 -11.2554     41.0130     47.2146   5.6256046825e+01   6.5887795757e+01    0.1920379    0.1154611  30.89 0.0008764287    1.720    0.419
       363 -11.6373    143.3466     43.9852   1.9746666465e+01   4.3299814551e+01    0.4552076    0.1545552 -25.74  0.001370369    3.775    0.735
       364 -11.7391     19.0818     48.3516   6.9907900855e+01   6.8148928121e+01    0.3153725    0.1516387 -53.59  0.000756067    1.802    0.445
       365 -11.0351     90.2912     43.6942   3.2783151999e+01   5.6836258619e+01    0.1510205    0.1185136 -76.40 0.0003178277    1.575    0.365
       366 -13.2680     23.7254     41.4277   6.4606855090e+01   6.9395570364e+01    0.5318698     0.197081 -67.99    0.0018478    3.329    0.700
       367 -12.9214     36.1766     40.3635   5.6252821639e+01   6.8129451320e+01      0.43832    0.2483619  23.04  0.001542318    1.969    0.492
       368 -11.2011    124.6410     39.8230   2.1954345443e+01   4.8780075138e+01    0.2026098    0.1780621 -48.99 0.0003556879    1.133    0.117
       369 -12.3084      8.8106     36.4608   7.3404028686e+01   7.1822660257e+01    0.2492006    0.2234927  -0.90 0.0007575966    1.179    0.152
       370 -12.0637    225.4863     36.0216   7.5148321426e+00   2.5061401610e+01    0.2048534    0.1726765 -78.99 -5.849575e-06    1.231    0.187
       371 -13.0752     78.7631     31.8279   3.1374631666e+01   6.1581301541e+01    0.4489121     0.317785 -71.17  0.001035547    1.991    0.498
       372 -12.5849     43.8416     32.9148   4.8193821374e+01   6.8539129232e+01    0.3773902    0.2818402  12.33  0.001939631    1.528    0.345
       373 -13.4011     31.0091     32.0005   5.5753490664e+01   7.0672699530e+01    0.4121796     0.313975 -32.19  0.001744432    1.278    0.218
       374 -12.1477     96.4953     27.5370   2.3699210940e+01   5.7863862484e+01    0.2833724    0.2439344 -67.21 0.0005318602    1.249    0.200
       375 -10.6823     67.5828     33.5740   3.6647777054e+01   6.3814009471e+01    0.1415133    0.1390117  28.86 6.618632e-05    1.034    0.033
       376 -11.1748    106.5171     32.0710   2.3063270223e+01   5.4639175521e+01    0.2267678    0.1474098 -32.78  0.001030391    1.587    0.370
       377 -10.9551    175.5910     31.2594   1.0954467888e+01   3.6838539698e+01    0.2272242    0.1560092  48.16 0.0009026848    1.701    0.412
       378 -12.5706     96.4958     30.5780   2.5082784618e+01   5.7427663233e+01     0.336986    0.3082412  22.54 0.0005546971    1.176    0.150
       379 -11.5991      2.1307     29.9071   7.6653965986e+01   7.3756137841e+01    0.1999555    0.1764486 -10.26 0.0003132351    1.180    0.153
       380 -12.0615     60.0476     27.9929   3.7121302509e+01   6.6387909505e+01    0.2131183    0.2053566  14.93  0.000331913    1.020    0.020
       381 -12.0914     45.7443     25.8258   4.3312803732e+01   6.9572393067e+01    0.3206014    0.2259854  66.05  0.001519528    2.094    0.522
       382 -13.3235     88.2964     24.2821   2.4521646300e+01   6.0393379625e+01    0.4445949    0.2751761  62.00  0.000737072    1.574    0.365
       383 -12.7322      4.5104     24.1265   7.2796700994e+01   7.5000697422e+01     0.259369    0.2059385 -54.42 0.0004500937    1.120    0.107
       384 -10.8766    133.0040     20.7558   1.3147232359e+01   4.9080962797e+01    0.1895238    0.1675754  46.79 0.0002132918    1.224    0.183
       385 -11.0186    131.4125     17.7874   1.2266308259e+01   4.9841199091e+01    0.2832531    0.1317612 -32.54 0.0005355066    2.083    0.520
       386 -11.3079     81.4152     19.2269   2.4099619443e+01   6.2788753223e+01    0.2062099    0.1290501 -41.88 0.0009502851    1.701    0.412
       387 -10.3541     31.6253     15.6985   4.6155023449e+01   7.3814133414e+01    0.1412198    0.0980379  -1.04  0.000702876    1.757    0.431
       388 -11.1856    237.5399    247.9620   4.7264364887e+01  -3.6328506401e+00    0.1882892    0.0833685 -35.73  0.001207465    2.580    0.612
       389 -11.2410     89.9650     11.4777   1.7662013824e+01   6.1544759093e+01    0.2031714    0.1183973 -81.93 0.0008090695    2.459    0.593
       390 -11.2848     85.4937     10.4868   1.8310269772e+01   6.2803353572e+01    0.1413033    0.1326891  69.18 2.844182e-05    1.037    0.035
       391 -12.0689    115.6854    245.7016   6.8863080113e+01   1.0371211002e+01    0.2772638    0.1495127 -31.54  0.001500664    2.810    0.644
