#   1 NUMBER                 Running object number                                     
#   2 MAG_AUTO               Kron-like elliptical aperture magnitude                    [mag]
#   3 X_IMAGE                Object position along x                                    [pixel]
#   4 Y_IMAGE                Object position along y                                    [pixel]
#   5 X_WORLD                Barycenter position along world x axis                     [deg]
#   6 Y_WORLD                Barycenter position along world y axis                     [deg]
#   7 A_WORLD                Profile RMS along major axis (world units)                 [deg]
#   8 B_WORLD                Profile RMS along minor axis (world units)                 [deg]
#   9 THETA_WORLD            Position angle (CCW/world-x)                               [deg]
#  10 FWHM_WORLD             FWHM assuming a gaussian core                              [deg]
#  11 ELONGATION             A_IMAGE/B_IMAGE                                           
#  12 ELLIPTICITY            1 - B_IMAGE/A_IMAGE                                       
         1  -9.1705     52.6468     20.8041   8.1838074223e+01   6.5847823837e+01    0.4587867    0.2505586 -13.65  0.002196477    2.274    0.560
         2 -10.7634    224.0428     21.0997   4.4239781247e+01   2.6334271848e+01    0.5389956    0.3290088 -72.10  0.001640388    1.732    0.423
         3 -10.6987    238.2660     23.0054   4.3328798770e+01   2.2703021986e+01    0.3750429    0.2681438  66.69   0.00108893    1.440    0.305
         4 -10.8000     87.4352     18.4975   6.8220386910e+01   6.0161394774e+01    0.4150506     0.268231 -42.10  0.001477437    1.824    0.452
         5 -10.2126    149.6531     18.3911   5.3438450521e+01   4.5715975558e+01    0.3856407    0.2673496 -43.87  0.001538224    1.559    0.359
         6 -10.2514    155.3402     16.7817   5.1912308675e+01   4.4430066961e+01    0.3054097    0.2387123  17.71 0.0008524295    1.469    0.319
         7 -10.0886    102.1541     16.1480   6.2961553426e+01   5.7361072543e+01    0.3775275    0.2017228 -22.21  0.001769735    1.922    0.480
         8 -10.3496     22.2613      3.7851   8.7569549406e+01   7.2077049508e+01    0.1971038    0.1417639  -0.63 0.0002535713    1.229    0.186
         9  -9.7055     10.3819     15.8127   9.9513962933e+01   7.1215413583e+01    0.3193821    0.1572859 -44.60  0.001907595    1.543    0.352
        10  -9.5908     23.1170     10.8377   9.0682814420e+01   7.0942853538e+01    0.3169117    0.1684089  -6.64  0.001103413    2.403    0.584
        11  -9.2529     25.6201      6.1567   8.7073131492e+01   7.1383205087e+01    0.2374799    0.1196681 -30.92 0.0008548979    1.644    0.392
        12  -9.6462     19.0496     10.9917   9.2845108165e+01   7.1305184346e+01    0.2349664    0.1950293  54.68  0.001011515    2.210    0.547
        13 -11.0719      9.7310      7.7538   9.6294403763e+01   7.2602035980e+01    0.5755546    0.4673738 -38.61  0.004159353    1.317    0.241
        14 -10.7677    181.8558     13.8570   4.7077230244e+01   3.7854922085e+01    0.5328694    0.3508888  75.39  0.002060069    1.441    0.306
        15 -10.2985     56.4910     13.7116   7.6912796005e+01   6.6274281691e+01    0.3518741     0.285427  48.50  0.002238883    1.636    0.389
        16 -10.2567    123.2719     11.7024   5.6105879067e+01   5.2976995605e+01    0.5475371     0.234955  56.47  0.002309862    2.040    0.510
        17 -10.1149    209.5366      9.6296   4.2723485846e+01   3.1220450657e+01    0.3125193    0.2880302  71.21  0.001115186    1.147    0.128
        18 -10.2846     42.1016     10.2178   8.1274435870e+01   6.8825023698e+01    0.2180837    0.1703627 -11.27 0.0003371433    1.023    0.023
        19  -9.3407    187.3247      9.9131   4.5232052070e+01   3.6850410054e+01    0.2524308    0.1797636 -87.04  0.001310609    1.400    0.286
        20  -9.0407     93.1127     10.3013   6.2905271367e+01   5.9936140633e+01    0.1804221    0.1513759  42.37 0.0003869748    1.155    0.135
        21  -8.8575     73.1115      8.7674   6.8369944960e+01   6.4051770399e+01    0.2536291    0.1397528 -12.64  0.001266374    1.912    0.477
        22  -8.8881    215.5930      8.3231   4.1793208286e+01   2.9852768922e+01     0.166296     0.131169 -12.47 0.0006351738    1.561    0.360
        23  -9.6164     78.6355      7.3537   6.5879991681e+01   6.3164475382e+01    0.2549417    0.1979762  16.93  0.001107243    1.137    0.121
        24  -8.4327    226.8221      7.6416   4.0607692693e+01   2.7187429899e+01    0.1862668    0.1107224 -88.21 0.0004756224    1.665    0.399
        25  -8.7132    175.0302      5.2483   4.5348395943e+01   4.0491015138e+01    0.1938538    0.1732456  74.37 0.0008609417    1.023    0.023
        26  -9.4432     88.7661      4.3204   6.1425652799e+01   6.1443119223e+01    0.3548382    0.1596741  33.80  0.001554287    2.305    0.566
        27  -9.6831     16.9102      4.1045   9.0580728871e+01   7.2556523111e+01    0.2227893    0.1810597  20.54  0.001181065    1.503    0.335
        28  -8.1957     71.6902      4.7232   6.6880460409e+01   6.4752237260e+01    0.1299578   0.08198239  19.91 0.0003633928    1.556    0.357
        29  -8.7363     47.9693      3.7041   7.5339504794e+01   6.8832781159e+01    0.1616473    0.1262443  13.86 0.0004191046    1.128    0.114
        30  -8.9946    127.6105      5.4542   5.2819292933e+01   5.2520727854e+01    0.2481776    0.1286138  67.72 0.0007168518    1.913    0.477
        31  -9.1029    242.2932      1.5758   3.7944630952e+01   2.4201738687e+01    0.2052389    0.1425847  71.76 0.0008031502    1.432    0.302
        32  -8.7278     54.1486      2.1012   7.1956884696e+01   6.8062275498e+01    0.1493023    0.1331154 -12.93 0.0003935407    1.302    0.232
        33  -9.1983    103.1069      1.4178   5.6422211979e+01   5.8612784003e+01    0.1892745    0.1166038  56.24 0.0003513403    1.492    0.330
        34  -8.3106     64.9382      1.0000   6.7337892922e+01   6.6357322377e+01    0.1951413   0.06458661  50.12 0.0008062631    2.969    0.663
        35  -9.7404     75.7471    119.7374   1.0448963187e+02   4.2083699356e+01    0.3843766    0.2186075 -68.43   0.00173347    1.793    0.442
        36  -8.8968     20.0104    121.2785   1.2020426089e+02   4.7966083404e+01    0.1710624     0.129972 -74.95 0.0006413049    1.041    0.039
        37 -10.2171     69.5610    118.4225   1.0597288764e+02   4.3280055869e+01    0.3290826    0.2420177 -81.41 0.0008595343    1.402    0.287
        38  -8.2487     45.6157    119.7181   1.1296467900e+02   4.5926553016e+01    0.1303706   0.09182737 -36.77            0    1.731    0.422
        39  -9.1966     98.1749    117.9832   9.7852364482e+01   3.8891370881e+01    0.3165922    0.2062172  19.39  0.001061501    2.281    0.562
        40 -10.1889     57.8385    117.0953   1.0905390157e+02   4.5134700481e+01    0.3093079    0.1888869 -52.19 0.0004116334    1.507    0.337
        41 -10.8799     24.8377    116.1178   1.1821545901e+02   4.8776859284e+01    0.3653168    0.2872867  12.43 0.0008100244    1.723    0.420
        42 -10.0421      6.8311    108.4003   1.2222811072e+02   5.1890254285e+01    0.2307942    0.1589587 -63.88  0.000532358    1.193    0.162
        43 -10.8683     14.1726    110.1697   1.2039525521e+02   5.0990398897e+01    0.4836182    0.2487388  64.89  0.002093547    2.409    0.585
        44 -10.1355     22.9729    111.7518   1.1812845044e+02   4.9953734734e+01    0.2553603    0.1816222  26.88   0.00159324    1.763    0.433
        45 -10.5911     22.5141    108.3916   1.1777779234e+02   5.0776615788e+01    0.3967652     0.260008  -2.01  0.001898357    2.321    0.569
        46 -10.4595     11.1628    115.2903   1.2185802823e+02   5.0017315872e+01    0.2352448    0.1907943 -43.12 0.0008373732    1.443    0.307
        47  -9.8487     39.8836    114.6608   1.1375967063e+02   4.7730900886e+01    0.2147631    0.1284078  14.44  0.001080539    2.450    0.592
        48  -9.6933      1.5482    112.6719   1.2415475227e+02   5.1236563552e+01    0.3652591    0.1249122 -81.59 0.0008138418    2.656    0.624
        49  -8.4851    124.5555    113.1728   8.9565540490e+01   3.4957385075e+01    0.2001718    0.1447291 -35.99 0.0009062837    1.480    0.324
        50  -9.0728     49.7134    112.0564   1.1047397997e+02   4.7299201694e+01    0.1894195    0.1467713 -66.81 0.0003894805    1.093    0.085
        51  -9.1906     66.0725    110.5794   1.0539410679e+02   4.5628820802e+01    0.2966881    0.1647267  83.21  0.001054563    3.625    0.724
        52  -8.7657     62.4964    111.5605   1.0664265279e+02   4.5867243080e+01    0.1374381    0.1204931 -68.15 0.0002332272    1.008    0.008
        53  -9.8778     71.8704    107.6492   1.0305738887e+02   4.5521985383e+01    0.2664212    0.2001114 -52.51 0.0003997523    1.209    0.173
        54  -9.0421     34.8479    107.2584   1.1399951854e+02   4.9974417720e+01    0.2754345    0.1399034 -58.68  0.001399136    1.594    0.372
        55  -8.7429    122.9592    106.7206   8.8314597046e+01   3.6730398015e+01    0.2038481    0.1958683  54.50 0.0002232345    1.071    0.066
        56  -8.5532    123.6979    103.6520   8.7298138488e+01   3.7257084080e+01    0.2357355     0.158137 -30.45  0.001004615    1.738    0.425
        57  -8.5522     42.4795    107.5085   1.1178200854e+02   4.9162742680e+01    0.1321646    0.1100679 -73.71 0.0008097681    1.050    0.048
        58 -10.2780     80.0281    103.9938   9.9797084389e+01   4.5173144949e+01     0.346171     0.284883 -21.69  0.001859757    1.454    0.312
        59 -10.3363     15.9727    104.6646   1.1913932609e+02   5.2138435873e+01    0.2262258    0.1967403  53.27  0.001245783    1.358    0.264
        60  -9.7346    108.0771    103.1070   9.1433674308e+01   4.0514757162e+01    0.4450179    0.2242796  34.61  0.001503074    2.355    0.575
        61 -10.4778     53.0893     98.7921   1.0684747801e+02   5.0054296844e+01     0.404385    0.2286563 -57.86 0.0009586685    1.491    0.329
        62  -9.5410     42.4604    100.9905   1.1058202006e+02   5.0704992193e+01    0.2088912    0.1722308 -29.17 -1.354923e-05    1.411    0.291
        63  -9.5945      8.4831    103.9574   1.2120944439e+02   5.2806198075e+01     0.160914    0.1448354 -76.02 0.0006791302    1.184    0.155
        64  -9.5867      7.7505    100.0876   1.2091682005e+02   5.3739879182e+01     0.169615    0.1514859 -78.45 0.0002995601    1.173    0.147
        65  -9.5156     16.7701     96.6115   1.1771595867e+02   5.3945545077e+01    0.3168561      0.19291  71.06  0.001750872    2.007    0.502
        66 -10.4743     68.8860     96.1669   1.0132322549e+02   4.8641164746e+01    0.3382303    0.2186155  46.60  0.001087751    1.763    0.433
        67  -9.6380     43.6911     91.6733   1.0831502797e+02   5.2758439922e+01     0.193591    0.1683267  36.16 0.0006814723    1.359    0.264
        68  -9.6400     38.4810     93.5151   1.1036816130e+02   5.2854138064e+01    0.2034561    0.1271753   2.52  0.000496418    2.409    0.585
        69  -9.2293    132.2537     94.0057   8.2348221906e+01   3.7497325655e+01    0.2137085    0.2016687 -38.73 0.0001942712    1.040    0.038
        70  -9.5678      2.5941     91.9444   1.2136664125e+02   5.5892470436e+01     0.406415    0.1341996 -45.40  0.001823745    3.018    0.669
        71  -8.4101    153.3091     93.3123   7.6919467226e+01   3.2786607016e+01    0.1601372    0.1264493   8.08 0.0003188716    1.625    0.385
        72  -9.1255      8.6303     93.2033   1.1969760871e+02   5.5261132336e+01    0.2182992    0.1326594  49.70  0.001017327    1.990    0.498
        73  -8.8690     82.8229     91.8324   9.5891870072e+01   4.7544092975e+01    0.2212047    0.1848082 -25.84  0.001191291    1.299    0.230
        74  -9.0016     79.2221     94.9836   9.7824676943e+01   4.7391924840e+01    0.2464193    0.1865741  61.28  0.001260901    1.592    0.372
        75  -9.9807     52.0506     92.0502   1.0570098792e+02   5.1751173082e+01    0.2082267    0.1879571  79.01 0.0003475672    1.236    0.191
        76  -9.3654     31.9858     91.2843   1.1201283163e+02   5.3974561041e+01    0.2509086    0.1741037  16.94 0.0009797608    1.842    0.457
        77 -10.3834    121.2991     87.9892   8.3517437645e+01   4.1152036185e+01    0.3860008    0.2517811 -51.76 0.0008782322    1.575    0.365
        78 -11.8031    124.8299     85.8583   8.1922187227e+01   4.0836818083e+01    0.9481767    0.4094299  43.20  0.002785668    2.426    0.588
        79  -9.8380     56.8637     89.8233   1.0362888168e+02   5.1691786367e+01    0.2068654    0.1710158 -39.78 0.0006324464    1.183    0.155
        80  -9.0556     15.9630     88.7693   1.1670780521e+02   5.5803978484e+01    0.2443605    0.1087554 -57.29 0.0009033895    1.699    0.411
        81  -8.8825    131.3784     87.7159   8.0737075010e+01   3.9005701458e+01    0.2157239    0.1455724 -32.01  0.000439437    1.571    0.364
        82  -9.2252     62.0921     90.0676   1.0199659818e+02   5.0972099219e+01    0.2081251    0.1666119 -34.59 0.0002982785    1.283    0.221
        83 -10.6448     46.1124     84.3384   1.0588115819e+02   5.4192858063e+01    0.3788474     0.287584 -69.92  0.002215288    1.276    0.217
        84  -9.2543    106.6477     86.1429   8.7110675463e+01   4.4546840395e+01    0.2257249    0.1326553 -36.74 0.0009456065    1.753    0.430
        85  -9.1001    100.9950     87.0000   8.9024300425e+01   4.5447391415e+01    0.2392621   0.08611026  42.15 0.0005664999    2.951    0.661
        86 -10.3048     26.4388     84.9446   1.1259495440e+02   5.5902611096e+01    0.3041844    0.1881077 -41.75 0.0009182345    1.574    0.365
        87 -10.0263     75.7124     83.4686   9.5863630779e+01   5.0541983549e+01    0.3752498    0.2709385 -73.60  0.001768026    1.711    0.416
        88  -9.7780     80.8137     82.3112   9.3896472639e+01   5.0000130214e+01    0.4154363    0.2460753 -53.98  0.001918978    1.610    0.379
        89  -9.1428    143.7870     81.3342   7.5665690499e+01   3.7425443633e+01    0.2280764    0.2001763  58.25 0.0004614582    1.178    0.151
        90 -10.3521    135.0196     83.1771   7.8427189791e+01   3.9105204830e+01    0.2701409    0.2469642 -44.52            0    1.079    0.073
        91 -10.0042    139.7383     83.1892   7.7233366039e+01   3.8012034396e+01    0.4134786    0.2164649  51.25  0.001602494    1.963    0.491
        92  -8.0542     57.2983     84.3682   1.0215000992e+02   5.2887779735e+01    0.1443351   0.09190398 -33.44 0.0007031311    1.732    0.423
        93 -11.3654      6.1281     80.2604   1.1850383454e+02   5.8335705263e+01    0.3926784    0.3100824 -71.94  0.002762881    1.087    0.080
        94  -9.8041     21.7568     81.0035   1.1339474736e+02   5.7162233631e+01    0.2207001    0.1814169 -85.32  0.000688405    1.266    0.210
        95  -9.8004    108.6244     81.2073   8.5051873911e+01   4.5203444707e+01    0.2533946    0.2105955  54.46 0.0005454116    1.314    0.239
        96 -10.8684    104.1254     79.0502   8.5710715064e+01   4.6546159356e+01    0.3975283    0.2856951 -56.23 0.0007071466    1.490    0.329
        97  -9.7201    107.4918     76.4838   8.3916376795e+01   4.6410840878e+01    0.2930839     0.245873 -13.50 0.0007035029    1.303    0.233
        98 -10.4776    108.5226     73.4931   8.2663015509e+01   4.6810445068e+01    0.4540439    0.2943462  17.94  0.001713524    2.258    0.557
        99  -9.8628     38.4801     80.6869   1.0762239324e+02   5.5806046823e+01    0.2878784    0.2051654  52.28  0.001605964    1.762    0.433
       100  -9.5119    154.2925     79.9855   7.2756991608e+01   3.5154588106e+01    0.2223845    0.2131161 -46.29 0.0009942309    1.037    0.036
       101  -9.0862      5.8974     86.4078   1.1954492764e+02   5.6964249678e+01    0.2272063   0.09503245 -46.51  0.001152176    2.187    0.543
       102  -9.4784     15.2346     79.3650   1.1529365759e+02   5.7988464934e+01    0.3022263    0.1565811  75.58  0.001321997    3.381    0.704
       103 -11.2328     97.3868     70.2782   8.4970797580e+01   4.9648485555e+01    0.5458879    0.4002005 -64.69 0.0006392525    1.725    0.420
       104 -10.5563     51.1272     81.5580   1.0351766934e+02   5.4265480839e+01    0.2398729    0.2114072 -37.20 0.0002551892    1.121    0.108
       105  -9.4792     28.0358     78.2524   1.1067995021e+02   5.7293409526e+01    0.1996744    0.1452143 -60.03 0.0003042567    1.109    0.098
       106  -9.0553    112.7009     75.8181   8.2195736396e+01   4.5481412517e+01    0.2445653    0.1867868 -23.06  0.001170631    1.427    0.299
       107 -10.5907     78.4655     75.2246   9.2576327094e+01   5.1917760518e+01    0.3609253    0.2564406  19.12 0.0005778659    1.712    0.416
       108  -9.9369     84.0230     73.3048   9.0171955656e+01   5.1415895242e+01    0.4111477    0.2727696  19.33  0.001614882    1.944    0.486
       109 -10.0425     20.8242     75.1222   1.1253339380e+02   5.8555449398e+01    0.3083572    0.1709278 -59.97 0.0009438815    1.393    0.282
       110  -9.5684    157.8308     74.7067   7.0345538489e+01   3.5266373783e+01    0.2725973    0.2167774 -20.05 0.0009486092    1.380    0.275
       111 -10.5122    152.1496     74.0241   7.1425276085e+01   3.6794190045e+01    0.3318087    0.2912286 -46.03 0.0008813998    1.143    0.125
       112  -8.7465    128.8504     75.6540   7.7698942195e+01   4.2001829090e+01    0.2143732    0.1449862  60.38 0.0005033929    1.698    0.411
       113  -8.3291     92.4195     75.4744   8.8171192126e+01   4.9495666813e+01     0.146321    0.1333003 -32.93 0.0001893201    1.022    0.022
       114 -10.8307     98.9752     76.2600   8.6392214609e+01   4.8119733554e+01    0.4106525    0.2749876  43.29  0.001150604    1.586    0.369
       115 -10.2720     62.9114     70.6513   9.6477464334e+01   5.5197087865e+01    0.4858399    0.2302383  36.90   0.00149031    2.361    0.576
       116  -9.9654     58.2271     71.5601   9.8382141247e+01   5.5620106512e+01    0.3393925    0.2340988 -11.64  0.001737669    1.890    0.471
       117  -9.2139     42.7563     71.7513   1.0393267929e+02   5.7376115742e+01    0.1722084    0.1437602 -78.50  0.001055019    1.353    0.261
       118 -11.4336    142.8168     69.4408   7.2184578595e+01   3.9908136975e+01    0.5844007    0.4027586  72.14  0.001985835    1.853    0.460
       119  -9.5035     75.0568     71.1003   9.2450749129e+01   5.3332335229e+01    0.2028475    0.1824033 -35.04            0    1.009    0.009
       120  -9.1571     27.2990     70.6743   1.0924511933e+02   5.9047342162e+01    0.1890894   0.08998366 -53.62  0.000958738    1.617    0.382
       121  -9.7649    136.1546     69.8059   7.3944383510e+01   4.1429319389e+01    0.2100944    0.1801208  10.16 0.0003402276    1.303    0.233
       122  -9.2163    197.3022     68.4470   6.0743067232e+01   2.6368059648e+01    0.3152151    0.2064967 -57.35 0.0009994841    1.712    0.416
       123 -10.6469    151.7829     67.1726   6.9359381925e+01   3.8122858461e+01    0.3345241    0.2785061 -78.23  0.001565832    1.420    0.296
       124  -9.9394     43.5425     63.4657   1.0137132268e+02   5.9090150108e+01    0.4300413    0.2678356  64.79  0.001961501    3.068    0.674
       125 -10.4082    163.1158     67.3660   6.6933647128e+01   3.5249679462e+01    0.4000412    0.1849843  55.63  0.001469303    2.160    0.537
       126  -8.1025    105.3039     67.2814   8.1580238400e+01   4.8694734032e+01    0.1468134    0.1141334   1.52  0.000195812    1.553    0.356
       127  -9.6855     70.3365     63.1648   9.1547341463e+01   5.5703927162e+01    0.2168499    0.1981349 -39.89 0.0005881413    1.086    0.079
       128 -10.6736     66.7385     61.1776   9.2165015027e+01   5.6641291218e+01     0.465266    0.2309604 -52.45  0.002061086    1.996    0.499
       129  -9.8178    126.7976     64.7571   7.4696558144e+01   4.4534159608e+01    0.3790486    0.2437572 -27.35  0.001118804    1.672    0.402
       130 -10.1361    110.7481     64.8422   7.9162449841e+01   4.8043284475e+01    0.3138965    0.3086237  12.89 0.0007228389    1.065    0.061
       131  -9.7817    111.0131     57.8453   7.6674635917e+01   4.9281006138e+01    0.6920496    0.3630116 -15.14  0.001992003    3.838    0.739
       132  -8.6070     87.9719     65.9767   8.6534722935e+01   5.2241744190e+01    0.1756593    0.1494712 -36.11 0.0003178426    1.084    0.078
       133  -8.3273     63.6556     66.3090   9.4898869735e+01   5.6017964871e+01    0.1304366    0.1072639  86.74 0.0007044468    1.699    0.411
       134 -10.6829     32.8659     63.9493   1.0551415074e+02   6.0039725604e+01     0.279976    0.2552329  48.02  0.001915989    1.377    0.274
       135 -10.5944      3.3443     61.5536   1.1610917377e+02   6.2599689488e+01    0.4779083    0.1551844 -53.15  0.002351942    2.089    0.521
       136  -8.6910    219.9482     62.4827   5.5563426678e+01   2.1684171090e+01    0.2108559    0.1238876 -83.37   0.00080938    2.587    0.613
       137 -10.2641     87.7161     60.4054   8.4731063660e+01   5.3385743013e+01    0.7277163    0.2519349  33.67  0.002268874    4.155    0.759
       138  -9.8328     85.7229     55.0714   8.3509281410e+01   5.4757144512e+01     0.420083    0.2769569  26.05  0.001571478    1.726    0.421
       139  -9.5403     81.1275     59.6676   8.6662867467e+01   5.4677298910e+01     0.261425    0.2232173  12.61  0.001484714    1.227    0.185
       140 -10.4105     79.0664     56.4641   8.6246657986e+01   5.5644656228e+01    0.4400563    0.3033197 -12.78  0.002075428    1.763    0.433
       141  -8.2280     75.2975     62.6857   8.9670076369e+01   5.5034033328e+01    0.1315219    0.1104526 -80.45 0.0002149048    1.605    0.377
       142  -8.8156    120.4662     61.5166   7.5300038500e+01   4.6555002834e+01    0.1533459    0.1402577   3.30 7.968392e-05    1.107    0.097
       143 -11.2261    160.5710     56.1864   6.3948891796e+01   3.7766509184e+01    0.8892574     0.433265 -13.60  0.002612046    4.165    0.760
       144  -9.7947     50.1721     60.0280   9.7859244874e+01   5.9065904143e+01    0.1942604    0.1715187 -25.06 0.0003354871    1.095    0.087
       145  -9.4314    200.5528     50.7538   5.5206188383e+01   2.8294437805e+01    0.3107783    0.1932297 -14.47  0.001307218    2.101    0.524
       146 -10.6226    200.2395     56.2157   5.6800977432e+01   2.7556417038e+01    0.4829113    0.3185009  21.22  0.001875845    2.307    0.567
       147 -10.6854    206.5879     51.2792   5.4455762177e+01   2.6683954822e+01    0.5048866    0.3818739  -7.39  0.002453943    1.661    0.398
       148  -9.6534     33.9681     57.9222   1.0342985672e+02   6.1222697604e+01    0.1927404     0.173152  -5.21 0.0009100468    1.240    0.194
       149  -9.1239    151.1367     57.3086   6.6325967451e+01   3.9971402485e+01     0.254623     0.184407  38.30  0.001068266    1.461    0.316
       150 -10.6891    145.3814     55.9560   6.7173569459e+01   4.1628390083e+01    0.5061852    0.2562321 -29.70  0.001963456    2.092    0.522
       151  -9.8101     96.5981     55.7922   8.0266919542e+01   5.2594783159e+01    0.4111384    0.2667237   4.13  0.001733139    2.355    0.575
       152  -8.6070     69.2533     57.6692   9.0092585178e+01   5.6972269842e+01    0.1275177     0.105105 -69.20 0.0001978319    1.557    0.358
       153  -9.2288     67.0319     46.4964   8.6895408093e+01   5.9440123086e+01    0.3688125    0.1315439  37.14  0.001306496    3.064    0.674
       154 -10.0359     61.8982     56.7220   9.2430051543e+01   5.8228022463e+01    0.2854425     0.227052 -15.44  0.001659349    1.278    0.217
       155 -10.4549     58.8105     53.3445   9.2423397689e+01   5.9321614912e+01    0.3243266    0.2259265  19.68  0.001097301    1.624    0.384
       156 -10.7334     55.0231     50.9137   9.3016332655e+01   6.0301168211e+01    0.2377319    0.1919346 -31.83 0.0003071242    1.057    0.054
       157 -11.8410     59.1336     47.8795   9.0365746410e+01   6.0332012092e+01    0.3108097    0.2727769 -15.31 0.0003627797    1.066    0.062
       158  -8.4491    223.4958     55.4953   5.3229590385e+01   2.1871933879e+01    0.1461018    0.1320631 -59.15 0.0003002391    1.023    0.023
       159  -9.1236     42.9497     54.5712   9.8912491964e+01   6.1011477514e+01    0.3012145    0.1184945 -31.56  0.001051174    3.925    0.745
       160 -10.6060    174.4357     52.2870   6.0023356846e+01   3.4808022908e+01    0.5549153    0.2407417 -23.93   0.00188569    2.881    0.653
       161  -8.7477    155.4855     52.5824   6.3843691595e+01   3.9636121072e+01    0.1503864    0.1465752  61.55 0.0001273377    1.017    0.017
       162  -8.3550     26.6767     56.3001   1.0583373264e+02   6.2203691147e+01    0.1121806   0.09234811  83.99 0.0003779016    1.630    0.386
       163  -8.5676     35.4912     52.4888   1.0120957817e+02   6.2204724484e+01    0.1252364    0.1045314 -44.11 -3.112596e-05    1.069    0.064
       164  -8.1565     29.3228     52.7130   1.0375457875e+02   6.2727258626e+01    0.1103278   0.09383497  84.74 0.0002352871    1.602    0.376
       165  -9.3428     18.7330     51.7682   1.0777968056e+02   6.3760521586e+01    0.1941508    0.1663794  34.48 0.0009047161    1.498    0.333
       166  -9.0123    234.0347     51.0062   5.0729639170e+01   2.0000566534e+01    0.2135322    0.1694252  21.83 0.0006236996    1.682    0.406
       167  -9.1882    126.0728     50.3994   6.9941830734e+01   4.7191195005e+01    0.2781972    0.1921728 -38.03  0.001051246    1.453    0.312
       168  -9.3251    116.1075     50.8957   7.2766792712e+01   4.9379472237e+01    0.2110966    0.1963484 -62.17 0.0003313381    1.225    0.184
       169  -8.5511    106.6758     51.3755   7.5618009536e+01   5.1338510786e+01    0.1489237    0.1155771 -70.46 4.013514e-05    1.824    0.452
       170 -10.6850    134.5771     53.4540   6.8880040701e+01   4.4677039257e+01    0.4502689    0.3946631 -45.84  0.001592787    1.189    0.159
       171  -8.7577    183.0000     50.0229   5.7817183963e+01   3.2928190883e+01    0.2439076   0.08543264 -30.94 0.0004864513    2.881    0.653
       172  -9.4666     42.9327     48.3539   9.6881881570e+01   6.2261430723e+01    0.3785025     0.175935 -63.66  0.001448252    3.613    0.723
       173  -8.6143    231.2787     48.3203   5.0381798411e+01   2.1034321331e+01    0.1335656    0.1102428  18.39 0.0002020623    1.580    0.367
       174  -9.8780     84.7987     47.0609   8.0863190383e+01   5.6374693367e+01    0.2670157    0.1857001 -17.12  0.001342803    1.548    0.354
       175 -11.0209    167.2823     43.8395   5.8691691471e+01   3.7920083720e+01    0.4268499    0.3288815  53.79  0.001333587    1.263    0.208
       176  -9.8892     20.9071     45.2608   1.0501055874e+02   6.4933635094e+01    0.3807884    0.1203986 -56.90  0.001650007    2.561    0.609
       177 -10.4125     35.7538     45.3081   9.8783151074e+01   6.3618460576e+01    0.2654787    0.1910202  -8.20 0.0001447077    1.511    0.338
       178  -8.8707    109.1121     44.8753   7.2510365217e+01   5.1901143024e+01    0.2047824    0.1659148   8.56  0.001067196    1.309    0.236
       179  -9.0797    160.2090     44.1516   6.0132917923e+01   3.9704765149e+01    0.2197182    0.1970938  27.55 0.0003486038    1.178    0.151
       180 -10.1921    144.2942     42.9766   6.3019642343e+01   4.3924321942e+01    0.3787346    0.3299847  52.09   0.00201111    1.114    0.102
       181  -8.7057    219.6767     43.3672   5.0530135773e+01   2.4540251499e+01    0.1596139   0.09694451 -61.43 6.910644e-05    1.797    0.444
       182  -8.9782     50.0415     49.4884   9.4450593356e+01   6.1209017466e+01    0.2631977    0.1795627   4.63  0.001444666    1.759    0.431
       183  -9.1121     63.9281     43.1680   8.6788402962e+01   6.0512389914e+01    0.1830094    0.1724779 -37.90 0.0002786574    1.238    0.192
       184  -9.5552     53.5911     42.7564   9.0621376497e+01   6.2038582139e+01    0.3128145    0.1423518 -45.26  0.001354784    1.951    0.487
       185  -9.4030     56.5279     42.0223   8.9188822059e+01   6.1778488159e+01    0.2157613    0.1789515  14.95 0.0003372193    1.254    0.203
       186 -10.2327     45.6353     40.6693   9.3045885299e+01   6.3422932426e+01    0.4440995    0.2807822 -30.72  0.002497482    1.421    0.296
       187 -10.2222     31.6417     40.7958   9.8973932391e+01   6.4897657837e+01    0.4136998    0.2221118 -40.12  0.001779382    1.522    0.343
       188  -8.6970    196.7691     41.3774   5.3094721058e+01   3.0603744317e+01    0.2104244    0.1271888  54.56 0.0005869938    1.651    0.394
       189  -9.3826    149.2852     39.2233   6.0675888229e+01   4.3205152437e+01    0.3936788    0.1655793 -32.99  0.001474762    2.361    0.576
       190  -9.2312    228.3165     39.5982   4.8503958713e+01   2.2946672675e+01    0.1907551    0.1252525  58.23  0.000946213    1.595    0.373
       191  -8.7656    157.4612     38.5201   5.8812471547e+01   4.1211653654e+01    0.1492208    0.1404666  40.19 2.716856e-05    1.062    0.058
       192 -10.5266    126.9540     37.0853   6.4906331363e+01   4.9016196281e+01    0.4199966    0.2732654  42.96  0.001261605    1.498    0.333
       193  -8.9115     81.5387     37.5590   7.8243636447e+01   5.8563528227e+01    0.2668959    0.1685417  12.09 0.0008936114    2.076    0.518
       194  -9.9386     61.7803     36.5888   8.5011586089e+01   6.1985776083e+01    0.3681587     0.215697  18.36  0.001383989    2.118    0.528
       195 -10.3725    190.1271     35.5198   5.2366130341e+01   3.3114600217e+01    0.3681116    0.3181795  41.80  0.001352549    1.256    0.204
       196  -8.9046    173.5686     36.5326   5.5275634400e+01   3.7298242952e+01     0.147739    0.1385903 -79.06 -9.321325e-05    1.059    0.056
       197  -8.9032     66.9878     36.5137   8.3007989256e+01   6.1199447800e+01     0.187344        0.126  32.87  0.000549367    1.551    0.355
       198  -8.6798     86.4235     35.1852   7.5647998240e+01   5.8034894634e+01    0.1856949    0.1221968 -42.24 0.0006085217    1.618    0.382
       199  -8.9826     44.0732     35.1667   9.1586115024e+01   6.4612197554e+01    0.2011635    0.1447598 -18.73 0.0009255615    1.296    0.228
       200  -8.9807     34.0241     34.9898   9.5839333788e+01   6.5756800770e+01    0.1627531    0.1496483  85.44 0.0006558506    1.636    0.389
       201 -10.8865    236.9550     32.6310   4.5809417761e+01   2.1805565483e+01    0.4511532     0.324286 -45.21 0.0006946475    1.249    0.199
       202  -9.8051    101.9643     37.3148   7.1675451428e+01   5.4603408387e+01    0.1948666    0.1698996  31.96 0.0003766963    1.115    0.103
       203  -8.8688    150.0579     34.2765   5.8830271605e+01   4.3685004845e+01    0.1989719    0.1881445  74.25 0.0004228922    1.068    0.064
       204  -9.6626    142.6864     32.5862   5.9743181727e+01   4.5774528791e+01    0.3653916    0.2339968  30.75  0.001634415    1.812    0.448
       205  -8.9690     51.8425     33.2119   8.7573265049e+01   6.3969593948e+01    0.1846669    0.1321864 -12.63  0.001075216    1.370    0.270
       206  -9.1454    203.8171     32.0832   4.9492689069e+01   3.0033836354e+01    0.2233359    0.1779756 -66.24 0.0005182673    1.235    0.190
       207  -9.6375    113.5620     32.4870   6.6551731988e+01   5.2770539487e+01    0.2355915    0.2079241  54.06 0.0005390993    1.187    0.157
       208  -9.0679    221.4261     30.7989   4.7018784335e+01   2.5779740722e+01    0.2598111    0.1232214 -34.38  0.001121273    1.966    0.491
       209  -8.5085    197.4824     30.4661   4.9869906047e+01   3.1864979225e+01    0.1444887    0.1324431 -78.65 0.0001777305    1.021    0.021
       210 -10.5775    180.9628     28.7118   5.1688844791e+01   3.6375714721e+01    0.4500737      0.30223  33.93  0.001548416    1.806    0.446
       211  -9.3275    184.3185     25.6799   5.0284744172e+01   3.5871468604e+01    0.2108981    0.1372735 -46.79  0.001000671    1.558    0.358
       212  -9.1728    125.8199     29.9908   6.2537750070e+01   5.0253794476e+01    0.2226706     0.175754  22.43 0.0004344556    1.319    0.242
       213  -9.2561     21.8609     30.4917   9.9640505604e+01   6.7712832660e+01    0.2511385    0.1126733  23.08  0.001320971    2.567    0.610
       214  -8.8267    167.8378     30.1234   5.4206957526e+01   3.9627573335e+01      0.20255    0.1614428  42.60 0.0003815362    1.292    0.226
       215  -9.1792    106.0228     28.9747   6.7199237634e+01   5.4925764968e+01    0.3621602    0.1938822  53.73  0.001626776    1.879    0.468
       216 -10.6612     16.7355     27.4267   1.0091567342e+02   6.8685007398e+01    0.3333181    0.1975683 -16.91  0.001343582    1.770    0.435
       217  -9.6030     81.7391     26.8518   7.3705514441e+01   6.0151763630e+01    0.2700907    0.2582609  84.37  0.001569801    1.418    0.295
       218  -8.4833     75.8163     28.1077   7.6274119298e+01   6.1046829387e+01    0.1848107    0.1391636   9.40 0.0005588573    1.324    0.245
       219  -9.0055     46.9376     28.3600   8.7584423424e+01   6.5431989543e+01    0.1734592    0.1535425  34.07  0.001156733    1.438    0.304
       220  -8.5484    197.2648     26.0180   4.8631180415e+01   3.2473714767e+01    0.1799298    0.1231018 -29.85  0.000883714    1.513    0.339
       221  -9.9672    151.8907     25.0561   5.5325244470e+01   4.4379711431e+01    0.3600533    0.2115763  41.01 0.0009680682    1.785    0.440
       222  -8.8906    121.4201     25.9033   6.2027502998e+01   5.1820310753e+01     0.212175    0.1364627 -25.82  0.001021073    1.596    0.374
       223 -10.4552    102.2311    248.9692   1.1626076890e+02   1.1087885567e+01    0.4209902    0.1560021  45.38  0.002141997    2.044    0.511
       224  -9.4476     30.0142     23.7934   9.3178132972e+01   6.8148811740e+01    0.3111308     0.158128 -53.85  0.001573681    2.340    0.573
       225  -9.6616    229.4810     24.9999   4.4674943439e+01   2.4545072679e+01    0.2941001    0.1738005 -59.04  0.001307252    1.669    0.401
       226 -12.9086     76.9342    219.6263   1.1810318472e+02   1.9850055302e+01     1.886606    0.5793944  50.88  0.002964217    2.786    0.641
       227 -11.5534     69.2225    218.4252   1.1943859508e+02   2.1139374495e+01    0.5912294    0.2330358  51.59  0.002067953    2.110    0.526
       228  -9.3362    215.5932     28.2283   4.7006992629e+01   2.7549127485e+01    0.1866772    0.1361478 -14.41 0.0009439725    1.667    0.400
       229  -9.5822    178.6189     22.6934   5.0197553568e+01   3.7712893962e+01    0.3256715    0.2156944 -63.67  0.001534754    1.702    0.413
       230  -9.7207      7.1940     23.1453   1.0400107319e+02   7.0127843413e+01    0.2027733    0.1496844  -8.27 0.0008470176    1.387    0.279
       231  -9.1356      1.6830     22.3623   1.0648752212e+02   7.0589333099e+01    0.1919179    0.1164565 -46.99 0.0007976011    1.206    0.171
       232  -9.1907    141.3442     22.0984   5.6291970117e+01   4.7407656933e+01    0.2569715    0.1733915  48.17 0.0009114199    1.387    0.279
       233  -9.5618    132.3622     21.0800   5.7746013637e+01   4.9759336057e+01    0.3611371    0.2468928 -54.44  0.001539106    1.807    0.447
       234 -10.0480    131.2229    206.4294   1.0588993707e+02   1.3816976195e+01    0.2587246    0.1157225  38.47   0.00113855    2.116    0.527
       235  -8.9166    207.1007     21.1267   4.6072917899e+01   3.0546080347e+01    0.1968853    0.1763148  52.83 0.0002674693    1.224    0.183
       236  -8.5032    184.4767     20.4273   4.8692787836e+01   3.6447932868e+01    0.1418412    0.1304619  83.46 8.659443e-05    1.011    0.011
       237  -9.4100      1.3935    185.6251   1.2978242893e+02   3.5249637440e+01    0.2554551    0.0781485 -76.78  0.001263264    2.541    0.606
       238  -8.9389    119.6502     19.5329   5.9971341037e+01   5.2998995593e+01    0.2450786    0.1609634   8.80  0.001162143    1.828    0.453
       239  -9.7680    110.7778     19.4273   6.2080413191e+01   5.5064235671e+01    0.2800974    0.2264179  42.71  0.000735699    1.146    0.127
       240 -11.3294      6.5293    169.0882   1.2777099998e+02   3.8287403050e+01    0.2724194    0.1643784  80.72 0.0009360763    1.308    0.235
       241 -10.4022     19.0527    160.1338   1.2444399587e+02   3.9157299458e+01    0.1777051    0.1397882 -69.20  0.001232454    1.297    0.229
       242 -10.1269     27.0667     17.8119   9.1971174013e+01   6.9442937773e+01    0.3785593    0.1716371  38.30  0.001938754    2.892    0.654
       243  -9.6405     20.7987     15.6465   9.4095736745e+01   7.0396532954e+01    0.2304335    0.1594606 -12.30 0.0008742154    1.313    0.239
       244 -10.4088      7.5450    156.9812   1.2669047197e+02   4.0836121732e+01    0.1720354    0.1587051 -44.98 0.0006002376    1.536    0.349
       245  -9.3188      1.5477    157.4392   1.2800691248e+02   4.1202293124e+01    0.1847101    0.1273899  87.72 0.0005079324    1.072    0.067
       246  -9.8463      2.1501    153.8560   1.2762383443e+02   4.1940500253e+01    0.2078481    0.1596876  87.65 0.0004451676    1.060    0.057
       247 -10.8917      4.6214    150.7682   1.2685356254e+02   4.2435323099e+01    0.2811891    0.1428529 -75.63  0.001122883    1.512    0.339
       248 -10.5626     20.2200    154.0280   1.2364385018e+02   4.0417948862e+01      0.17835    0.1613773 -14.11  0.001280807    1.654    0.395
       249  -8.6550     35.9905    148.0000   1.1934966029e+02   4.0275757522e+01    0.1761945   0.07030258  31.17 0.0007954036    2.894    0.654
       250 -11.0860    163.8502     22.4023   5.2372352944e+01   4.1599094561e+01    0.5500732    0.2474819  51.49 0.0009089388    2.082    0.520
       251  -9.0200    123.7486     15.8550   5.7613755811e+01   5.2431588292e+01    0.2023648    0.1691045  30.19 0.0004017029    1.142    0.124
       252 -10.5097      5.5994    141.1641   1.2585420280e+02   4.4505449469e+01    0.2175535    0.1435851 -69.67 0.0006165756    1.280    0.219
       253  -9.3921    144.0998     15.0204   5.3254374001e+01   4.7490345026e+01    0.2093116    0.1928626  34.30 0.0004475514    1.077    0.071
       254 -10.6648      1.8141    139.2789   1.2657535121e+02   4.5197643098e+01    0.4588923    0.1710891 -88.14  0.001635686    2.484    0.597
       255  -9.7356      8.4966    138.5303   1.2494258299e+02   4.4885628195e+01    0.4420965   0.09256213  36.37  0.001867977    4.061    0.754
       256  -9.5774     67.3155     12.8924   7.2388083593e+01   6.4601276866e+01    0.2298834    0.1568559  32.59 0.0007495261    1.384    0.277
       257 -10.0262     15.9435    142.4286   1.2354272736e+02   4.3414741913e+01    0.2781513    0.1202764  86.47  0.001283118    2.457    0.593
       258  -9.1168     36.7478    142.1347   1.1847126200e+02   4.1560553833e+01    0.2196812    0.1565703 -26.83  0.001228863    2.187    0.543
       259  -9.4847     21.6346    142.0510   1.2214736652e+02   4.3016626474e+01    0.1818478     0.168212  73.54  0.001327256    1.263    0.208
       260  -9.6540     38.5687     17.7639   8.6537964236e+01   6.8174473273e+01    0.2033562    0.1511786  19.34 0.0006380608    1.373    0.272
       261 -12.7909    222.6926    116.3108   6.8957806938e+01   1.2109166881e+01     3.199755     2.081864  -4.68   0.01346145    2.219    0.549
       262  -8.5015     47.4925     10.4393   7.9021492741e+01   6.8050482215e+01    0.1255168   0.09543216  -2.87 0.0002286991    1.104    0.094
       263 -12.4731    228.7468    135.6245   7.2495290692e+01   7.5313126260e+00      1.07986    0.6516293  43.00  0.005078847    1.718    0.418
       264 -12.9444    234.2174    128.1888   6.9823676093e+01   7.6487768358e+00      1.41648     1.025115 -26.99   0.00730323    1.297    0.229
       265  -9.3121     28.3325    138.4041   1.2011227094e+02   4.3253460868e+01    0.1842633    0.1254671  21.66 0.0005968563    1.986    0.496
       266  -8.4383     71.3784    131.4901   1.0792071027e+02   3.9900070679e+01    0.1384786    0.1192989 -69.63 0.0007972567    1.054    0.051
       267  -9.8881     32.6042    129.3922   1.1791156789e+02   4.4958708218e+01    0.2571571     0.128979 -67.44  0.001320296    1.612    0.380
       268  -9.3442     11.8834    128.5077   1.2313770720e+02   4.6920091690e+01    0.1940715    0.1296513 -60.71 0.0007630658    1.368    0.269
       269  -9.8613     37.7642    127.0657   1.1622960522e+02   4.5001683937e+01    0.2008902    0.1440685  89.29   0.00101136    1.298    0.230
       270  -8.9953     52.3093    125.6917   1.1208994801e+02   4.3744608555e+01    0.2903038     0.140611  49.06  0.001327571    2.303    0.566
       271  -9.3549     28.4872    125.9292   1.1854186348e+02   4.6155258575e+01    0.2006513    0.1024683 -72.34  0.001034157    1.600    0.375
       272  -8.5281     19.9702    124.9991   1.2066762605e+02   4.7102836189e+01    0.1431686    0.1146807 -80.98  0.000346497    1.028    0.027
       273  -9.8324     91.8033    122.6584   1.0063975784e+02   3.8876190772e+01    0.4558783    0.2019423  46.06    0.0017878    2.405    0.584
       274  -8.9613     12.8308    123.3769   1.2234227221e+02   4.8031341572e+01    0.1370535    0.1163621  -8.22 0.0007702575    1.668    0.401
       275  -8.9724      2.4519    122.7488   1.2494333970e+02   4.8887516127e+01    0.1854035    0.1253089 -39.96  0.001066499    1.850    0.459
