#   1 NUMBER                 Running object number                                     
#   2 MAG_AUTO               Kron-like elliptical aperture magnitude                    [mag]
#   3 X_IMAGE                Object position along x                                    [pixel]
#   4 Y_IMAGE                Object position along y                                    [pixel]
#   5 X_WORLD                Barycenter position along world x axis                     [deg]
#   6 Y_WORLD                Barycenter position along world y axis                     [deg]
#   7 A_WORLD                Profile RMS along major axis (world units)                 [deg]
#   8 B_WORLD                Profile RMS along minor axis (world units)                 [deg]
#   9 THETA_WORLD            Position angle (CCW/world-x)                               [deg]
#  10 FWHM_WORLD             FWHM assuming a gaussian core                              [deg]
#  11 ELONGATION             A_IMAGE/B_IMAGE                                           
#  12 ELLIPTICITY            1 - B_IMAGE/A_IMAGE                                       
         1 -16.0193    138.6713    108.3581   2.9089090427e+02   5.6972756842e+00    0.2217171    0.1474273  79.03    0.0213388    2.081    0.520
         2 -14.5812    186.3282    111.7219   2.9036111807e+02   5.3721226950e+00   0.06182149   0.05281972 -33.18  0.007295532    1.212    0.175
         3 -15.0694     37.1256    102.6643   2.9203042037e+02   6.3712052355e+00    0.1629673      0.12553  61.44   0.01799306    1.477    0.323
         4 -14.9205    144.1646     68.3694   2.9058008603e+02   6.1242749300e+00   0.08456733   0.07355039 -21.65   0.01005589    1.219    0.180
         5 -14.7201     75.4258     45.7080   2.9123529884e+02   6.7973901438e+00    0.1079118   0.08450645  66.10   0.01199352    1.473    0.321
         6 -13.7959     55.7044     49.7567   2.9148872540e+02   6.8689161118e+00   0.05371081   0.04775551  33.34  0.006496005    1.128    0.113
         7 -11.0276     71.9604    134.6048   2.9182424971e+02   5.7951189254e+00   0.02096759   0.01797733  59.89   0.00246558    1.255    0.203
         8 -11.6998    142.4691    189.2409   2.9134622652e+02   4.7434600940e+00   0.02189827   0.01752392  82.13  0.002448969    1.455    0.313
         9 -11.6604      8.9394    187.6022   2.9287899136e+02   5.5611871296e+00   0.03261809   0.02337887  17.86  0.003502676    1.482    0.325
        10 -10.4436    122.4142    187.2329   2.9156543739e+02   4.8868484371e+00   0.01430145    0.0112368  84.12   0.00127467    1.497    0.332
        11 -10.8655    121.5756    182.0278   2.9154305401e+02   4.9518125043e+00   0.02173457   0.01385824  62.63  0.002070875    2.039    0.510
        12 -11.3635    123.7497    206.8214   2.9167065277e+02   4.6532778150e+00   0.01943881   0.01099745 -59.77 0.0009949199    1.731    0.422
        13 -11.2440     31.9580    203.3397   2.9270955512e+02   5.2425209953e+00    0.0151897  0.009635283  48.66  0.001494932    1.718    0.418
        14 -11.7770     19.5390    178.7138   2.9270187254e+02   5.6003592497e+00   0.02875775   0.01416555 -60.13   0.00259589    1.980    0.495
        15 -11.7463    102.5879    171.4328   2.9169713216e+02   5.1876163782e+00   0.03327306   0.01991775 -30.71  0.003087758    2.095    0.523
        16 -11.6232    101.6990    165.9117   2.9167338698e+02   5.2565209637e+00   0.03607947   0.02211545 -34.81  0.003473509    1.895    0.472
        17 -12.1272     57.3920    209.7583   2.9245510911e+02   5.0166414177e+00   0.02740685   0.01753279  60.71  0.002643864    1.978    0.494
        18 -11.3258     26.7712    170.1165   2.9256542453e+02   5.6562364208e+00   0.02648621   0.01998494  49.44  0.002921143    1.406    0.289
        19 -11.0238    142.6451    170.3313   2.9122760679e+02   4.9601095027e+00   0.01996697   0.01498161  22.04  0.002200658    1.369    0.269
        20 -10.8183    149.5341    167.5056   2.9113061917e+02   4.9512934127e+00   0.01749752   0.01161817  43.71  0.001807797    1.554    0.357
        21 -10.1348    126.2853    167.1202   2.9139676568e+02   5.0952236648e+00   0.01183783  0.009210342   8.03 0.0009431758    1.413    0.292
        22 -10.2359     89.9280    163.8150   2.9179650614e+02   5.3511751800e+00   0.01296716  0.008861847  49.44  0.001340487    1.583    0.368
        23 -10.7151     27.3908    162.3963   2.9251080100e+02   5.7414713486e+00   0.01931307   0.01150567  33.27  0.001913163    1.649    0.393
        24 -12.1782    154.0268    159.6649   2.9103035830e+02   5.0145780015e+00   0.02791577   0.02306642  -9.01  0.003205151    1.343    0.255
        25 -10.8867     93.9344    159.1348   2.9172136468e+02   5.3810761370e+00   0.02960235  0.008600467  42.60    0.0019608    3.782    0.736
        26 -10.4298     13.1040    158.6157   2.9265279325e+02   5.8702864861e+00   0.01504314   0.01025557 -42.91  0.001570568    1.508    0.337
        27 -11.8990     12.2680    144.4831   2.9257557656e+02   6.0380653711e+00   0.04630818   0.03606056 -13.47  0.005121596    1.480    0.324
        28 -11.0776     24.0111    151.5098   2.9248294338e+02   5.8870487250e+00   0.02331728   0.01580742 -84.96  0.002333918    1.834    0.455
        29 -11.0111     50.6662    155.8844   2.9220157816e+02   5.6774293488e+00   0.01350364  0.009723349  34.37  0.001459442    1.379    0.275
        30 -11.4015    181.1947    153.0279   2.9067570293e+02   4.9277571413e+00   0.02226762   0.01225652 -61.62  0.002108122    1.806    0.446
        31  -9.8457     39.9738    154.3078   2.9231552912e+02   5.7594885441e+00  0.009515877  0.008737215  20.71  0.001152588    1.099    0.090
        32 -10.8284      3.3949    152.8010   2.9272936278e+02   5.9951753585e+00   0.01717541   0.01351544 -48.01  0.001945074    1.259    0.206
        33 -11.9820    105.5277    144.1975   2.9149527715e+02   5.4836064473e+00   0.03782899   0.03382818  79.33  0.004554757    1.211    0.174
        34 -12.5360    115.4315    148.1173   2.9140498630e+02   5.3791016789e+00   0.03264579   0.02742499  23.49  0.003776091    1.204    0.169
        35 -12.1729    121.4294    143.0965   2.9130469611e+02   5.4009334361e+00   0.02111986   0.01825229   0.97   0.00249425    1.235    0.190
        36 -10.0972     61.0613    150.3205   2.9204711681e+02   5.6793529151e+00  0.009840196  0.008720928  34.53   0.00117178    1.132    0.117
        37 -10.9695     94.1258    140.1541   2.9160215208e+02   5.5984883781e+00   0.02416429   0.01439565 -74.10  0.002283136    1.962    0.490
        38 -10.5973     53.5015    142.5326   2.9208658590e+02   5.8142530043e+00   0.01466442   0.01297859 -88.71  0.001747988    1.215    0.177
        39 -10.6882     54.1332    135.8633   2.9203820187e+02   5.8872804487e+00   0.03313026   0.01856885  84.74  0.002576546    3.249    0.692
        40 -11.5071     12.2813    228.8667   2.9309346309e+02   5.0658157662e+00   0.02633891   0.01423319  30.88  0.002493747    1.816    0.449
        41 -11.9732    151.5182    209.7070   2.9136787982e+02   4.4535445985e+00   0.02158609   0.01688906 -79.04  0.002406003    1.405    0.288
        42 -12.2177     58.5608     76.1311   2.9161857057e+02   6.5484084406e+00   0.04282826   0.02554649  14.49  0.004065883    1.963    0.490
        43 -15.4502     78.2468    192.8641   2.9211031502e+02   5.0865302185e+00    0.1619369     0.102351  35.64   0.01657213    1.562    0.360
        44 -12.3057     63.5409    108.7272   2.9176209117e+02   6.1434448516e+00   0.03818811    0.0202063  37.57  0.003579153    1.861    0.463
        45 -13.3005     46.8249     82.3523   2.9179284980e+02   6.5470215222e+00     0.056359    0.0472723  51.03  0.006591108    1.251    0.201
        46 -10.8899     85.6085    109.1588   2.9150943992e+02   6.0063467473e+00   0.02040108   0.01537537 -63.78  0.002258576    1.335    0.251
        47 -10.0397     87.4790    134.0071   2.9164109994e+02   5.7090817158e+00   0.01448655  0.008584264   1.89  0.001269715    2.407    0.585
        48 -10.7080     44.2230    132.1776   2.9213014270e+02   5.9889704050e+00   0.01636056   0.01334934 -61.87  0.001884466    1.222    0.181
        49 -12.0918     19.6330    154.8309   2.9255400784e+02   5.8749269926e+00   0.03383116   0.02788439  86.00  0.003874359    1.375    0.272
        50 -14.4430     27.4116     69.1396   2.9193613340e+02   6.8150956147e+00   0.09576769   0.06417084  24.76   0.01003004    1.521    0.342
        51 -12.7409     56.5810    166.6648   2.9219953122e+02   5.5178980356e+00   0.06016052    0.0497741 -13.31  0.006927889    1.337    0.252
        52 -10.9632      7.1138    117.9345   2.9247188715e+02   6.3745681971e+00   0.02385166   0.01158606  35.94  0.002147838    2.000    0.500
        53 -10.1459     77.4773     95.0005   2.9151612053e+02   6.2180127742e+00   0.01267107  0.009775585 -58.11  0.001415037    1.277    0.217
        54 -11.4714     79.1837     86.1597   2.9144178479e+02   6.3095334294e+00   0.04347396   0.03123345 -15.59  0.004527796    1.703    0.413
        55 -12.0803    169.7846     90.5391   2.9042115715e+02   5.7152774214e+00   0.02922719   0.01768035  54.46  0.002772809    1.987    0.497
        56 -13.0788    114.6072     75.5422   2.9096630318e+02   6.2192960661e+00    0.1295892    0.0537318 -31.77  0.007566715    5.433    0.816
        57 -13.4017    100.5977     73.5409   2.9111601286e+02   6.3263679568e+00   0.07050358   0.03110284  41.61  0.005964227    2.325    0.570
        58 -12.4273    103.6577     68.7415   2.9105093203e+02   6.3632223413e+00   0.04884111   0.02467605  44.10  0.004377392    2.100    0.524
        59 -11.1908     95.0198     88.5995   2.9127361214e+02   6.1865592507e+00   0.02855697   0.01815719 -68.12  0.002874478    1.662    0.398
        60 -11.0237     90.5008     83.6924   2.9129558198e+02   6.2701122004e+00   0.01480669   0.01348564  28.59  0.001187831    1.101    0.092
        61 -10.2026     86.8262    117.1397   2.9154460453e+02   5.9071822053e+00    0.0124984  0.008793839 -54.59   0.00109741    1.388    0.280
        62 -11.4018     99.2481    117.2080   2.9140136075e+02   5.8319573448e+00   0.02638045   0.01842013 -50.36  0.002823642    1.408    0.290
        63 -10.5852     57.0340     66.8373   2.9157885490e+02   6.6644780016e+00   0.02278971   0.01209852  49.76  0.002025454    2.203    0.546
        64 -11.2600    115.9769    194.0491   2.9168176584e+02   4.8469414123e+00    0.0262543   0.01847397  31.27  0.002822361    1.411    0.291
        65 -10.4030    106.5683    137.1044   2.9143949668e+02   5.5590317081e+00   0.01488657  0.009676765  53.98  0.001477452    1.776    0.437
        66 -11.1301     36.9329    190.5977   2.9257380677e+02   5.3596130984e+00   0.03010685  0.009875787 -53.69  0.002280032    2.774    0.640
        67 -13.1520    125.3407     43.6351   2.9064469815e+02   6.5217701309e+00   0.04657811   0.02359607 -64.59  0.004195739    2.045    0.511
        68 -11.9376      6.8063     48.7942   2.9204931662e+02   7.1721783402e+00   0.03514467   0.02051196   0.92  0.003052333    2.517    0.603
