#   1 NUMBER                 Running object number                                     
#   2 MAG_AUTO               Kron-like elliptical aperture magnitude                    [mag]
#   3 X_IMAGE                Object position along x                                    [pixel]
#   4 Y_IMAGE                Object position along y                                    [pixel]
#   5 X_WORLD                Barycenter position along world x axis                     [deg]
#   6 Y_WORLD                Barycenter position along world y axis                     [deg]
#   7 A_WORLD                Profile RMS along major axis (world units)                 [deg]
#   8 B_WORLD                Profile RMS along minor axis (world units)                 [deg]
#   9 THETA_WORLD            Position angle (CCW/world-x)                               [deg]
#  10 FWHM_WORLD             FWHM assuming a gaussian core                              [deg]
#  11 ELONGATION             A_IMAGE/B_IMAGE                                           
#  12 ELLIPTICITY            1 - B_IMAGE/A_IMAGE                                       
         1  -9.8318     25.4779     25.5326   6.7515785251e+01   7.3111595747e+01     1.204351    0.3220959 -40.21  0.003371526    5.160    0.806
         2  -8.9156     46.1602     20.7359   5.1289739288e+01   7.0479441187e+01    0.4454965    0.2235795 -37.56  0.001950836    2.003    0.501
         3  -9.2609     63.8262     13.7856   3.8880004921e+01   6.7614469593e+01    0.5047317    0.2477998  44.29  0.001416146    2.046    0.511
         4  -9.6593     31.7318     10.8219   5.3266596285e+01   7.4843912368e+01    0.3117824    0.2350348  11.74 0.0002734532    1.460    0.315
         5  -8.9671     31.8733      6.0287   4.9392131740e+01   7.5546673442e+01     0.304297    0.2030891  22.29 0.0004476838    1.690    0.408
         6  -8.6550    107.1072     11.1042   2.6243761065e+01   5.6860306697e+01    0.4273884    0.2191813 -71.64    0.0016587    2.569    0.611
         7  -8.1801     96.9578     11.6287   2.8421334823e+01   5.9492143223e+01     0.229994    0.1987154   9.57 0.0007522992    1.322    0.244
         8  -9.9636     20.6016      8.1107   5.9743945401e+01   7.7158680920e+01    0.4321778     0.305158  23.34  0.000343995    1.440    0.306
         9  -9.2519      3.5999      7.1583   7.6293326251e+01   7.9415839659e+01     0.839532    0.2920264 -34.71  0.003058897    3.672    0.728
        10 -10.5288     13.5046      4.1612   6.3092727318e+01   7.8876249814e+01    0.4910762    0.3566464 -32.78 0.0002574775    1.296    0.228
        11  -9.2275    125.4464      9.7664   2.2874637509e+01   5.2116367470e+01    0.2517349    0.2207574  84.79 0.0002657264    1.069    0.065
        12  -9.8759     77.8281     12.8983   3.3755745553e+01   6.4294024816e+01      0.74604    0.2733286  58.58  0.002820205    2.410    0.585
        13  -9.4135     77.0696      6.2508   3.0206260383e+01   6.5196042683e+01    0.3557463    0.2342702  43.88 0.0006506158    1.515    0.340
        14  -7.0858    208.9957      6.7698   1.5003240147e+01   3.2072287043e+01    0.1414267   0.09482763  89.99 0.0004198928    1.515    0.340
        15  -8.0455    131.9995      5.2240   2.0301461446e+01   5.0810078129e+01    0.2430021    0.1903879 -45.81 0.0007009808    1.220    0.180
        16  -7.8777    134.2814      2.7051   1.9101278689e+01   5.0432672101e+01     0.186745    0.1592587  43.48 0.0005468738    1.344    0.256
        17  -9.7669     85.0450      4.9626   2.7563343614e+01   6.3266043517e+01    0.2914987    0.2595379   2.81 0.0004578384    1.235    0.190
        18  -8.9516     57.2188      3.9193   3.4937427386e+01   7.0326049994e+01    0.4955029    0.2260934  35.30  0.001947481    2.700    0.630
        19 -10.2932     49.0598      4.0727   3.8371535936e+01   7.2200112050e+01    0.3349047    0.2340839  36.20 0.0003070137    1.411    0.291
        20  -8.6313     41.8052      5.0578   4.2656129162e+01   7.3675009898e+01    0.3808277    0.2351806  57.40  0.001509332    1.658    0.397
        21  -7.9040     92.0409      5.2902   2.6266806660e+01   6.1406764528e+01    0.2057787    0.1732814  67.54  0.001150944    1.106    0.096
        22  -8.6332    125.2620      3.2573   2.0293983867e+01   5.2763407080e+01    0.2317265    0.2093237  82.22 0.0007563048    1.072    0.067
        23  -8.3511    110.8070      2.8601   2.1969891201e+01   5.6641541453e+01    0.3818812    0.1722597 -37.95 0.0009024614    2.124    0.529
        24  -8.1326    153.6890      2.8810   1.7406518518e+01   4.5405120501e+01    0.2135735    0.1703966  75.95   0.00029643    1.247    0.198
        25  -7.3886     95.4096      2.8085   2.4381984821e+01   6.0737743689e+01    0.1764789    0.1345593   5.19 0.0003427916    1.546    0.353
        26  -7.5274    105.4915      1.4674   2.2104836398e+01   5.8173551786e+01    0.1391965    0.1273699  75.90 0.0001195924    1.045    0.043
        27  -8.8606    142.8408      9.3626   2.0661161213e+01   4.7586571294e+01    0.2222955    0.2129647  12.12  0.000305223    1.242    0.195
        28  -7.3075    119.5279    118.4745   6.0696987726e+01   3.4335685233e+01    0.1505489    0.1471737 -22.59  0.000166304    1.048    0.045
        29  -7.8080    224.6813    250.3168   6.2838116068e+01  -2.1465894310e+00   0.08305932   0.06943019  16.36 0.0002489444    1.656    0.396
        30 -10.0406    202.3373    249.8436   6.6314507590e+01   6.2461779068e-02    0.3389691    0.1201016  35.10  0.001856433    2.719    0.632
        31  -7.7006     38.7925    110.0011   8.5850050017e+01   4.9947409572e+01    0.2017481    0.1124772 -70.71 0.0005394421    1.691    0.409
        32  -8.3666      1.5085    110.0112   1.0069170750e+02   5.3086369118e+01    0.2115947    0.1200195 -80.47 0.0005376021    1.546    0.353
        33  -8.2479    133.5005    106.3624   5.4044053226e+01   3.4096394769e+01    0.3302258     0.241856  -7.32  0.001295803    1.976    0.494
        34  -7.6995    123.0601    107.4807   5.6985140694e+01   3.6052690642e+01    0.2238795    0.1359261  21.39  0.000808645    2.712    0.631
        35  -8.4818      4.9202    107.4930   9.9147945038e+01   5.3581841784e+01    0.1966822    0.1381167  17.99 0.0006084246    1.590    0.371
        36  -7.8265    109.0427    105.8173   6.0411428151e+01   3.9328206296e+01    0.2474658     0.184809  10.13  0.001071033    1.901    0.474
        37  -9.1818     14.6837    105.0188   9.4922123432e+01   5.3614743342e+01      0.39885    0.1926925 -46.40  0.001657991    2.268    0.559
        38  -8.4554     67.6020    104.2729   7.3652200349e+01   4.7461615538e+01    0.4463151    0.1736846  35.99  0.001545692    2.546    0.607
        39  -7.8091     64.9966    101.2498   7.3910124021e+01   4.8677179986e+01    0.2615808    0.2059961 -63.57 0.0007898482    1.230    0.187
        40  -9.4590    245.7093    101.9930   3.4189443693e+01   1.3567575424e+01    0.1836313    0.1260637 -31.63  0.001179235    1.117    0.105
        41  -7.9222     95.6419    102.5730   6.3604458611e+01   4.2790850815e+01    0.3087321     0.149237  26.67 0.0009565334    3.416    0.707
        42  -7.7416      7.2197     96.7315   9.7224252248e+01   5.6403592809e+01    0.2354247    0.1244063 -46.11  0.001043677    2.008    0.502
        43  -8.5178     11.2884     95.5243   9.5303782899e+01   5.6478567944e+01    0.3837435    0.1399489 -49.77  0.001410665    2.783    0.641
        44  -7.8597     82.6123     93.6718   6.5514270905e+01   4.7497315539e+01    0.2435195    0.1899004 -17.90  0.001095469    1.700    0.412
        45  -8.7794     44.2003     91.9283   8.0145657911e+01   5.4221423563e+01    0.3250071    0.2493659 -17.93  0.001560306    1.641    0.391
        46  -8.1921     96.0384     90.7266   6.0162756912e+01   4.5522043459e+01    0.3834394    0.2582499 -20.98  0.001508721    2.276    0.561
        47  -9.3839     20.9821     90.8735   9.0303879451e+01   5.7026704262e+01    0.4271008    0.2140117 -35.63  0.001692102    2.526    0.604
        48  -7.4383    109.6328     90.7089   5.6016456789e+01   4.2628166192e+01    0.1584732    0.1264856   5.06 0.0007025893    1.711    0.416
        49  -8.3104     66.3621     84.2701   6.8908595748e+01   5.2833398004e+01    0.2890109    0.2556884  11.20 0.0009481094    1.303    0.232
        50  -8.0264    126.5710     83.5860   4.9308665054e+01   4.0339212734e+01    0.2887854    0.1879479  25.29  0.001137871    2.319    0.569
        51 -10.2838     38.0907     80.5644   8.0254857944e+01   5.8061052685e+01    0.7078317    0.4034946 -14.70  0.002596096    3.049    0.672
        52  -9.0416     88.7308     78.2971   5.8730018089e+01   4.9933262358e+01    0.5708002    0.3368244  30.35  0.002213814    2.197    0.545
        53  -9.5997      8.1524     77.1419   9.4457498468e+01   6.1733044720e+01    0.4899955    0.2342598 -40.66  0.001609497    2.260    0.558
        54  -8.5186    250.0000     78.0052   2.8677963495e+01   1.5999307757e+01    0.2035082   0.05266836 -31.83 0.0004734543    2.924    0.658
        55  -8.0930    183.9170     77.7325   3.6403217454e+01   2.8429604726e+01    0.2396145    0.1800827 -26.62 0.0007014351    1.316    0.240
        56  -8.7229     49.9190     76.4811   7.3664333084e+01   5.7513879331e+01    0.3939425    0.2224708  22.23  0.001449512    2.165    0.538
        57  -8.2199     23.4844     69.0160   8.4847834163e+01   6.2759001419e+01    0.3435173    0.2247573 -66.31 0.0006773982    1.392    0.282
        58  -9.1593     24.7409     72.6712   8.5023293209e+01   6.1658797899e+01    0.5596958    0.2127571 -47.43  0.002036778    2.625    0.619
        59  -9.3756     28.3380     69.3217   8.2332021244e+01   6.2186433070e+01     0.514064    0.3004026 -17.23   0.00210581    2.477    0.596
        60  -7.6206     75.0298     73.9613   6.2271226037e+01   5.3743799962e+01    0.2357129    0.1912049  -8.71 0.0005853745    1.607    0.378
        61  -8.3558     14.7388     72.9644   9.0349041240e+01   6.2434332653e+01    0.1993233    0.1697893 -76.30 0.0003917056    1.069    0.064
        62  -8.6107    105.6277     67.4984   4.9691693317e+01   4.8485093531e+01    0.4026132    0.2613997  -7.70  0.001414711    3.071    0.674
        63  -8.4314    241.3777     69.7148   2.7665051162e+01   1.8479615979e+01    0.1726629   0.09685235 -24.83 0.0009411488    1.640    0.390
        64  -8.0368     20.7638     84.2449   8.9311915443e+01   5.8871786875e+01    0.1955635    0.1532274 -44.50 0.0004237779    1.312    0.238
        65  -7.4157    128.8084     69.3777   4.4276713847e+01   4.2582264785e+01     0.219075    0.1395236  44.49 0.0007079839    1.720    0.419
        66  -7.3969    116.3357     68.3247   4.7017749583e+01   4.5780904700e+01    0.1575224    0.1251187  12.10 0.0007051211    1.716    0.417
        67  -9.0355     83.5211     63.7896   5.5498834815e+01   5.4283255731e+01    0.4694497    0.3388349  -8.35  0.001499719    2.158    0.537
        68  -8.8237     16.6605     63.6570   8.7405076672e+01   6.4787558619e+01    0.4648061    0.2547556  16.26   0.00211202    2.031    0.508
        69  -8.1380     20.1726     60.6337   8.4648648433e+01   6.5285663266e+01    0.2446071    0.1509193 -38.83 0.0006627637    1.686    0.407
        70 -10.5439     61.9204     60.9736   6.3066264038e+01   5.9302305393e+01    0.6612781    0.3330566  31.25 0.0004305539    2.404    0.584
        71  -7.4958     25.3641     60.7686   8.1688887690e+01   6.4745598972e+01    0.2246104    0.1120808 -54.73  0.000955632    1.782    0.439
        72  -9.1378     34.8472     59.1153   7.5860817970e+01   6.4064546626e+01    0.4124507    0.2931049  56.52  0.001998624    1.650    0.394
        73  -8.7269     49.7607     58.5323   6.7845794316e+01   6.2014850190e+01    0.2621915    0.2172292 -39.45 0.0003390799    1.211    0.174
        74  -7.5554     12.3062     59.3472   8.9001175203e+01   6.6258629201e+01    0.1529232   0.08914072 -42.26 0.0007042524    1.699    0.411
        75  -7.7551    111.0788     57.7938   4.4680354472e+01   4.9054666026e+01    0.2507497    0.1731215  30.82  0.001070549    1.896    0.473
        76  -9.3002     99.4576     55.2115   4.6979793429e+01   5.2360109077e+01    0.4475749    0.3371115 -11.58 0.0004590915    1.782    0.439
        77  -7.8996     19.0082     54.5013   8.3702196672e+01   6.6985006852e+01    0.1996265   0.09809136  47.27 0.0008091667    2.432    0.589
        78  -9.7971     75.1948     49.8510   5.3043368243e+01   5.9007402504e+01    0.4812383    0.3697256   4.60  0.000345167    1.798    0.444
        79  -7.4889    118.9529     50.8346   4.0134410102e+01   4.8326323533e+01    0.2389129    0.1578126  37.56  0.000528435    1.853    0.460
        80  -8.6163    106.5791     48.4113   4.2306231020e+01   5.1846070047e+01    0.3417909    0.2582519  12.06 0.0007713322    1.868    0.465
        81  -8.2261    244.4749    249.5203   5.9800724777e+01  -3.8499556828e+00   0.09788165   0.06343517  -0.29 0.0003824225    1.024    0.024
        82  -8.6513     10.1902     47.1611   8.7402143253e+01   6.9573163833e+01    0.2703504    0.2144161 -57.69 0.0006715116    1.122    0.109
        83  -9.2821     14.4909     44.6780   8.3731939025e+01   6.9873042487e+01    0.7825084     0.265061 -44.01  0.002836161    2.932    0.659
        84  -9.2185     18.9811     33.9984   7.6557145643e+01   7.2033298535e+01    0.5749534    0.3408768 -72.54  0.002673444    2.013    0.503
        85  -9.3703     22.0168     31.9314   7.3376313219e+01   7.2164815111e+01    0.3199162    0.2696008 -40.39 0.0003245393    1.096    0.087
        86  -8.0171      5.7025     46.6670   9.0358577003e+01   6.9981608313e+01    0.1887776     0.162556 -40.56 0.0006421092    1.114    0.102
        87  -8.5878      2.4898     44.4886   9.2109123582e+01   7.0707105596e+01    0.3038268    0.1947805  -0.12  0.001585779    1.740    0.425
        88  -9.6671      4.8546     34.9437   8.7830283972e+01   7.2980275227e+01    0.7181132    0.3493054 -61.21  0.001924803    1.741    0.426
        89  -8.8609      1.4740     28.4693   8.8601093409e+01   7.4747040505e+01    0.2519863    0.1684858 -63.82 0.0008175393    1.332    0.249
        90  -8.7956      3.1408     24.7908   8.5818458849e+01   7.5531026969e+01    0.2726591     0.189646 -47.73  0.000645824    1.252    0.202
        91  -8.6006     54.8680     44.2300   5.9394759525e+01   6.4332576306e+01    0.3851948    0.2353171 -22.55  0.001535879    2.445    0.591
        92  -7.4380     58.3614     40.3002   5.5872901007e+01   6.4454068088e+01    0.1511925    0.1153413   5.20  0.000553467    1.719    0.418
        93  -8.2785    149.1139     42.6088   3.1366246460e+01   4.1960227085e+01    0.2478519     0.184309 -48.08 0.0004107443    1.247    0.198
        94  -8.5818     95.0821     41.7603   4.2790220302e+01   5.5838932108e+01    0.6435832    0.2434057  47.42  0.002190906    2.752    0.637
        95  -8.8355     45.6890     48.2989   6.5891742371e+01   6.5071686817e+01     0.291759    0.2455243   2.90 0.0005316494    1.346    0.257
        96  -9.6022     83.1834     39.6558   4.5616766288e+01   5.9087331960e+01    0.2845751    0.2633438  21.79 0.0002436315    1.166    0.143
        97  -7.2899     87.6639     37.6801   4.3249344040e+01   5.8343080782e+01    0.2534616    0.1360547  51.02  0.001028559    1.823    0.451
        98  -8.3407    123.9719     39.0458   3.4604893263e+01   4.8910355535e+01    0.2160631    0.2114815  82.98  0.001212319    1.080    0.074
        99  -9.5093     68.6175     36.6258   4.9587955124e+01   6.2978422103e+01    0.6019915    0.3284028  35.26  0.002033597    2.234    0.552
       100  -7.5225     52.6940     38.2656   5.7635031953e+01   6.5972135584e+01    0.1994785    0.1319278  34.97 0.0002986064    1.590    0.371
       101  -8.3776     55.7042     35.1474   5.4575634605e+01   6.5990201756e+01    0.2729546    0.1974008 -41.20 0.0007442092    1.375    0.273
       102  -8.7464     35.6176     37.2544   6.6719130397e+01   6.9133336334e+01    0.3496136    0.1629658 -53.15  0.001353974    2.113    0.527
       103  -8.5927     38.7429     35.0275   6.3712040122e+01   6.9118983487e+01    0.2893699    0.2004716  27.58 0.0008209503    1.537    0.349
       104  -8.4891    105.6966     36.3339   3.7610166465e+01   5.4032117376e+01    0.3425779     0.230216  43.89 0.0008652601    1.614    0.381
       105  -7.7770     92.5108     36.4908   4.1234931110e+01   5.7342847105e+01    0.2341121     0.182629  27.84 0.0005692191    1.525    0.344
       106  -9.0088     96.2968     32.9200   3.8562234764e+01   5.6945890953e+01    0.3332938    0.2358614  36.11 0.0002596914    1.632    0.387
       107  -7.8597     12.2988     34.0269   8.1654070514e+01   7.2666775274e+01    0.2804593    0.1347356  47.52  0.001161204    2.751    0.636
       108  -8.5204     70.8849     29.8898   4.5286489383e+01   6.3618270725e+01    0.2871884     0.208951  43.14 0.0006640629    1.380    0.275
       109  -9.5373     70.1032     25.7104   4.3373010939e+01   6.4459924666e+01    0.6543262    0.3949674  59.46  0.002978648    1.688    0.408
       110 -10.8776     80.2434     23.2086   3.8564651328e+01   6.2379346464e+01    0.5345528    0.2735031  48.32 0.0007426905    1.920    0.479
       111  -8.8297     84.5542     21.4979   3.6390713197e+01   6.1534246554e+01    0.2595018    0.2131653 -56.79 0.0005248562    1.294    0.227
       112  -8.8431     61.7175     26.5574   4.7212778701e+01   6.6238272409e+01    0.2514794    0.2298521  15.30 0.0004815121    1.126    0.112
       113  -7.7482     43.0223     27.1646   5.6924670481e+01   6.9942987147e+01    0.3302442    0.2041007   1.78  0.001262886    3.106    0.678
       114  -9.3161    213.0633    249.0117   6.4477547493e+01  -9.0708381373e-01    0.1622635    0.1137901   3.39  0.001095041    1.021    0.021
       115  -7.6895    109.7946     24.8306   3.1778483463e+01   5.4575357380e+01    0.2051435    0.1609154 -67.72 0.0004290844    1.321    0.243
       116 -10.5962    129.0131     21.9529   2.7142948935e+01   4.9860536900e+01    0.2560926    0.2392311  77.89   0.00147164    1.085    0.078
       117  -7.9043    136.8391     20.8441   2.5572588628e+01   4.7935645368e+01    0.3704174   0.08319186 -28.83  0.001128889    3.809    0.737
       118  -8.7219     92.3014     20.5521   3.3829344614e+01   5.9679523098e+01    0.3275789    0.2627386  12.60 0.0007525822    1.495    0.331
       119  -7.3514    178.5309     21.5216   2.1140741962e+01   3.7398475865e+01    0.1389786     0.113561 -57.22  1.87917e-05    1.044    0.042
       120  -6.9914    167.2779     21.3050   2.2138693514e+01   4.0140605514e+01    0.1269829     0.105218  31.23 0.0002232662    1.549    0.355
       121  -7.8379    186.0522     20.5047   2.0202534283e+01   3.5748063502e+01    0.1777427    0.1243904  78.05 0.0004104349    1.480    0.324
       122  -9.2967      8.9859     19.7070   7.8121599433e+01   7.6257439393e+01    0.3211208    0.2762248 -23.88 0.0009932054    1.077    0.071
       123  -8.4423      5.6587     18.7278   8.0804275562e+01   7.6753276369e+01    0.2120504    0.1847413 -44.48  0.000347174    1.051    0.048
       124  -9.1427     12.9835     17.7809   7.3348436195e+01   7.6281409328e+01    0.5034273    0.2193768  15.97  0.002050557    2.923    0.658
       125  -7.8425    172.0509     18.9839   2.0966032753e+01   3.9234207390e+01    0.1861238    0.1581944  30.33 0.0003331727    1.514    0.339
       126  -7.9175     24.3033     19.3130   6.4699112446e+01   7.4537465875e+01    0.1373229   0.09767935 -14.81  0.000274762    1.614    0.381
       127  -8.1441    127.7582     16.2043   2.5099000229e+01   5.0841683269e+01    0.2089015    0.1766354 -63.24 0.0005463526    1.115    0.103
       128  -7.3503    203.3248    113.6531   4.2265388361e+01   1.8906838544e+01    0.1334143    0.0962498 -59.52 0.0007049855    1.745    0.427
       129  -7.8199    146.9084     14.0908   2.1894634796e+01   4.6058214091e+01    0.2462021    0.1721267 -89.85 0.0006300167    1.381    0.276
       130  -7.5810    151.1295     12.7818   2.0993195802e+01   4.5109705652e+01    0.1772871    0.1600524  34.67  0.000420904    1.338    0.253
       131  -8.0672     87.9977     12.8175   3.1022327717e+01   6.1704828217e+01    0.2262577    0.1814475  42.07 0.0006050006    1.281    0.219
       132  -9.1752    173.9967    249.1833   7.1066154798e+01   3.0901524151e+00    0.2928281    0.1265942   9.30  0.001258842    3.925    0.745
       133  -9.2273    162.4662    248.2433   7.3028834593e+01   4.4664546388e+00    0.2211641    0.1066335 -46.76  0.001315358    2.649    0.622
       134  -8.4289    158.3003    247.3389   7.3687840724e+01   5.0452197237e+00    0.1110447   0.06973778  -0.96 0.0007035958    1.665    0.400
       135  -7.5438    102.8039    245.5905   8.4364036636e+01   1.1648278779e+01    0.1584217   0.08170015  36.28 0.0004358937    1.499    0.333
       136  -8.2822     54.8559    247.2677   9.4458798341e+01   1.6643339634e+01    0.1784525    0.1298763  62.94 0.0006659105    1.369    0.270
       137  -9.6433    188.3496    233.9972   6.6594020187e+01   3.3746785756e+00    0.1957917    0.1771265 -55.25  0.001277549    1.950    0.487
       138  -8.2593    128.1390    233.4933   7.7941986710e+01   1.0515452985e+01    0.1687318    0.1526701  -7.64 0.0002746162    1.222    0.181
       139  -8.3907     54.8451    233.4421   9.3628080985e+01   1.9055508409e+01    0.1613756    0.1421032  19.89 0.0004887885    1.262    0.208
       140  -7.3009    151.5385    214.4420   7.0797552948e+01   1.0509611627e+01    0.1213255     0.097728  11.70 -2.795703e-05    1.049    0.046
       141  -7.7897     55.0263    210.2984   9.1984398842e+01   2.3461823196e+01      0.17458    0.1400357  36.76  0.000535786    1.089    0.082
       142  -7.5498    177.4771    204.5319   6.4306976436e+01   8.6345764590e+00    0.1193047   0.09704517   5.46  0.000101655    1.008    0.008
       143  -9.2290    140.6492    182.3134   6.8255485208e+01   1.7446820799e+01    0.2747731    0.2162158 -40.33 0.0004361046    1.342    0.255
       144  -7.7470    172.1464    172.8352   6.0034118421e+01   1.4331461350e+01    0.1790259    0.1351104 -10.77 0.0003696797    1.315    0.240
       145  -7.3866    201.7046    159.6663   5.2162313738e+01   1.1996135424e+01    0.1288535   0.08553346  -6.09 0.0007027773    1.643    0.391
       146  -7.5951    227.0000    157.0030   4.7650528868e+01   8.7947746716e+00    0.1926662   0.05627729 -35.38  0.000650552    2.888    0.654
       147  -8.7002     68.8094    145.6002   8.1114781446e+01   3.6552410651e+01    0.2932761    0.2203955  41.75  0.001200758    1.259    0.206
       148  -8.3802     65.6798    143.0714   8.1699278351e+01   3.7638252791e+01    0.2844244     0.257118 -55.38 0.0007914006    1.183    0.154
       149  -7.7588     55.7378    134.6201   8.3622452011e+01   4.1191988405e+01     0.206812     0.127902  40.66 0.0005059871    1.536    0.349
       150  -8.3087     38.1631    130.8670   8.9104345783e+01   4.4339167036e+01    0.2200832    0.1777959  63.07 0.0002742398    1.164    0.141
       151  -8.3369     68.3122    127.0154   7.8134718171e+01   4.1394232003e+01    0.2154623    0.1980843 -86.38  0.000785761    1.052    0.049
       152  -7.3213    143.3922    126.3022   5.6625335209e+01   2.7959331666e+01    0.1537651      0.11409   2.30 0.0007010184    1.807    0.447
       153  -7.0874    153.6680    123.6398   5.3704326880e+01   2.6490608373e+01    0.1526893    0.1121161  -3.83 0.0007040505    1.802    0.445
       154  -7.6207     12.4671    121.0405   9.7337014005e+01   4.9382656088e+01    0.2083394   0.08438761 -55.03 0.0008091176    2.495    0.599
