#   1 NUMBER                 Running object number                                     
#   2 MAG_AUTO               Kron-like elliptical aperture magnitude                    [mag]
#   3 X_IMAGE                Object position along x                                    [pixel]
#   4 Y_IMAGE                Object position along y                                    [pixel]
#   5 X_WORLD                Barycenter position along world x axis                     [deg]
#   6 Y_WORLD                Barycenter position along world y axis                     [deg]
#   7 A_WORLD                Profile RMS along major axis (world units)                 [deg]
#   8 B_WORLD                Profile RMS along minor axis (world units)                 [deg]
#   9 THETA_WORLD            Position angle (CCW/world-x)                               [deg]
#  10 FWHM_WORLD             FWHM assuming a gaussian core                              [deg]
#  11 ELONGATION             A_IMAGE/B_IMAGE                                           
#  12 ELLIPTICITY            1 - B_IMAGE/A_IMAGE                                       
         1 -12.5772    194.6020     33.6252   5.5013528734e+01   3.1815624602e+01     1.286111     1.042606  17.32  0.005847946    1.436    0.304
         2 -12.5429    204.7129     21.2766   5.0039405452e+01   3.0633240123e+01     1.009232    0.7873513  24.81  0.002619472    1.526    0.345
         3 -11.0775     32.9836     32.6208   9.9905152591e+01   6.6456774455e+01     0.606158    0.1626017 -56.34  0.002096702    4.020    0.751
         4 -10.2599     39.2385      3.9790   8.3815343945e+01   7.0676923373e+01    0.2746565    0.1592836  18.31  0.001492785    1.996    0.499
         5 -10.1543     92.4574    235.0005   1.1792588167e+02   1.7219459396e+01    0.2161959    0.1670836  78.75 0.0007709859    1.278    0.218
         6 -17.0184      9.0079    168.6017   1.2877513961e+02   3.8877022070e+01     15.78112     1.987045 -79.02   0.04587346    7.863    0.873
         7 -10.5967     73.3335    180.1367   1.1637365408e+02   2.9483051347e+01    0.3617589    0.2555149 -43.72  0.002148143    2.039    0.509
         8 -10.4573     77.2079    174.9029   1.1496832425e+02   2.9990035362e+01    0.2904652     0.245208 -47.32 0.0008737234    1.557    0.358
         9  -8.0011     99.5170    180.5512   1.1090616933e+02   2.5597034438e+01    0.1263476     0.106741  62.63 0.0001608388    1.009    0.009
        10  -8.5575     58.6609    176.1782   1.1905678149e+02   3.2177954792e+01    0.2051392    0.1340749  55.16 0.0009265234    1.315    0.240
        11 -11.1927    144.3372    231.3623   1.0845342627e+02   1.0131315597e+01    0.3743215    0.2871895  79.95  0.002582462    1.666    0.400
        12  -9.5205    113.7988    173.0019   1.0682183781e+02   2.4752406181e+01    0.2579213    0.1467668  54.51  0.001290725    1.680    0.405
        13  -9.7571    101.5073    170.8499   1.0917941392e+02   2.7173680439e+01    0.2543065    0.2142988  51.39  0.001322738    1.114    0.102
        14  -8.6874    195.8955    169.7032   8.9482629777e+01   1.0234167480e+01    0.2378284    0.1999165 -35.92  0.001287318    1.338    0.253
        15 -11.1422     85.2954    164.7305   1.1193418099e+02   3.0894459389e+01    0.6041775    0.3510469  64.28 0.0005644907    1.828    0.453
        16 -12.0714     73.6856    160.3087   1.1398669989e+02   3.3471194473e+01    0.5752755     0.428018 -54.90  0.002163613    1.520    0.342
        17 -13.0722     68.1669    144.2821   1.1316639621e+02   3.7660699871e+01     2.102283     1.002435  83.56  0.007612458    3.964    0.748
        18 -14.8497     54.3015    204.3418   1.2234630679e+02   2.7326932500e+01     6.894884     2.869541  60.27   0.03656192    2.214    0.548
        19  -9.1588    103.2322    143.6010   1.0452685930e+02   3.2492270434e+01    0.2913082    0.2315324  12.06  0.001332702    1.779    0.438
        20  -8.8957    105.5117    140.5017   1.0342590435e+02   3.2763958994e+01    0.2563584    0.1928048 -14.79  0.001253447    2.159    0.537
        21  -8.9788    133.4998    141.5357   9.6984028962e+01   2.7425410500e+01    0.3955283    0.1411228 -52.80  0.001381876    3.167    0.684
        22 -10.6739     92.2744    142.2299   1.0695314941e+02   3.4579093760e+01    0.2562355    0.2478321 -52.99 0.0004690686    1.217    0.178
        23  -7.8134    139.8447    156.7763   9.8466253846e+01   2.3230717248e+01    0.1816025    0.1520214  74.25 0.0004722574    1.293    0.227
        24  -8.3006    188.9947    153.9946   8.7704513351e+01   1.4033403971e+01    0.1709347    0.1564081  22.25  0.001010264    1.020    0.020
        25  -9.7324    113.6730    131.5428   9.9719833938e+01   3.3229442470e+01    0.3308749    0.2501017  33.54  0.001278616    1.448    0.309
        26  -8.3216    106.0327    131.0121   1.0151614128e+02   3.4710649665e+01    0.2213172     0.203446  78.91  0.001198185    1.025    0.024
        27 -10.1548     45.5115    129.6514   1.1689051054e+02   4.3684095926e+01    0.2782032    0.1883065  65.97  0.001637877    1.455    0.313
        28  -9.3100    100.3559    128.0933   1.0238366805e+02   3.6328008657e+01    0.2653124    0.2164327 -25.97 0.0006731268    1.601    0.375
        29  -9.7052     73.0168    128.9532   1.0961877923e+02   4.0397031405e+01    0.2207555    0.1460282  74.64 0.0009907889    1.716    0.417
        30  -9.8700    118.7088    124.8766   9.7086793933e+01   3.3710897047e+01    0.4194344    0.2216396 -29.00  0.001410996    3.792    0.736
        31  -7.7771    135.4953    124.4815   9.2900598907e+01   3.0486294444e+01    0.1449541    0.1402348  56.73 1.449149e-05    1.018    0.018
        32  -8.2526    109.0065    120.0218   9.8504249523e+01   3.6561678423e+01    0.2088077    0.1966288  79.22 0.0003458468    1.019    0.018
        33 -11.6358     32.6537    107.8259   1.1743565418e+02   4.9945171956e+01     0.704767    0.2595708 -73.74  0.003023068    2.543    0.607
        34  -8.1730    167.8059    112.4307   8.2636649495e+01   2.5852917439e+01    0.3208577    0.1734221 -65.38 0.0009562988    4.302    0.768
        35  -8.5618    135.0000    112.9722   9.0326752631e+01   3.2945152299e+01     0.240653   0.08463927 -45.37 0.0006941552    2.887    0.654
        36 -10.8777     91.8113    157.6940   1.0947366724e+02   3.1366853353e+01    0.5446098    0.4062221 -22.42  0.001774948    2.254    0.556
        37  -9.3452    119.8363    110.8394   9.3618813237e+01   3.6480344786e+01    0.2094216    0.1762414  86.66   0.00108483    1.334    0.251
        38  -8.1963    205.2283    110.3735   7.4688077604e+01   1.7694941614e+01    0.2044248    0.1405216  62.06 0.0009479714    1.687    0.407
        39  -8.8273    109.8602    115.3595   9.7257342583e+01   3.7417554117e+01     0.228887    0.1911154 -73.19 0.0004356253    1.239    0.193
        40  -8.5724    238.6773     98.3362   6.6189453158e+01   1.2145721118e+01    0.1418767    0.1050498 -58.72 0.0007050673    1.712    0.416
        41  -8.2202    164.3631    206.2146   1.0155331589e+02   1.0469043286e+01    0.1452419    0.1181398 -61.88 0.0003074785    1.603    0.376
        42  -9.1225     84.1715    233.9235   1.1927126270e+02   1.8505727890e+01    0.2092536    0.1344777  55.71 0.0007641338    1.164    0.141
        43  -8.4180    156.4756     79.5321   7.6143784581e+01   3.4588264657e+01     0.152518    0.1509122  17.70  8.23595e-05    1.001    0.001
        44  -9.1072    158.4586     60.4445   6.9815381543e+01   3.7392165097e+01    0.3104641    0.2572916 -73.86 0.0007790911    1.417    0.294
        45  -9.0532    160.8827     54.4069   6.7364254707e+01   3.7740776949e+01    0.3044274    0.2430556 -80.14 0.0009075706    1.516    0.340
        46  -8.6097    169.5012    232.9895   1.0424845283e+02   5.9837081247e+00    0.1409222   0.09402341  -5.81 0.0008097372    2.473    0.596
        47 -12.0393    184.8084     41.0331   5.8757001435e+01   3.3432485691e+01     1.010189    0.6626219  33.50  0.003228284    1.803    0.445
        48  -8.4635     95.0559    199.9877   1.1410831440e+02   2.2668199915e+01    0.2015407    0.1185636  66.52  0.001125548    1.752    0.429
        49 -10.2814    119.5070    239.3803   1.1364161171e+02   1.2739787000e+01    0.2277546    0.1655617  31.48  0.001412424    1.501    0.334
        50 -11.5066    162.2292    225.0281   1.0451004374e+02   8.1761418189e+00    0.5915682    0.2604299  32.17  0.002823887    2.434    0.589
        51  -9.4370    194.2025    193.5467   9.4057940423e+01   7.1035157664e+00    0.3389755    0.2600662   4.57  0.002081556    1.424    0.298
        52  -8.0910    150.6537     23.2881   5.8668379904e+01   4.4736547835e+01    0.2322866    0.1626368 -62.87 0.0006727065    1.742    0.426
