#   1 NUMBER                 Running object number                                     
#   2 MAG_AUTO               Kron-like elliptical aperture magnitude                    [mag]
#   3 X_IMAGE                Object position along x                                    [pixel]
#   4 Y_IMAGE                Object position along y                                    [pixel]
#   5 X_WORLD                Barycenter position along world x axis                     [deg]
#   6 Y_WORLD                Barycenter position along world y axis                     [deg]
#   7 A_WORLD                Profile RMS along major axis (world units)                 [deg]
#   8 B_WORLD                Profile RMS along minor axis (world units)                 [deg]
#   9 THETA_WORLD            Position angle (CCW/world-x)                               [deg]
#  10 FWHM_WORLD             FWHM assuming a gaussian core                              [deg]
#  11 ELONGATION             A_IMAGE/B_IMAGE                                           
#  12 ELLIPTICITY            1 - B_IMAGE/A_IMAGE                                       
         1 -11.3974    193.4595     40.5113   4.9638063724e+01   3.1574551978e+01    0.9149854    0.8647669 -35.28  0.004408234    1.120    0.107
         2 -11.3254    202.2185     31.3034   4.5908226149e+01   3.0572199425e+01    0.6905665    0.5901444 -33.23  0.001407336    1.231    0.187
         3  -8.7935    132.9477     16.7272   5.2373808159e+01   4.9813945477e+01    0.2415277    0.1991788 -11.26 0.0005550125    1.312    0.238
         4  -8.4863    120.1652      9.0529   5.2144300431e+01   5.3662642159e+01    0.3246451    0.2191959  66.69  0.001697161    1.474    0.322
         5  -9.9229      7.8894      9.4750   9.5229601900e+01   7.2509999626e+01    0.2917454    0.1457145 -54.04  0.001597793    2.371    0.578
         6 -10.1585    221.8987      4.5802   3.7069453330e+01   2.8834441461e+01    0.6822632    0.2934037 -46.64  0.003192347    2.105    0.525
         7  -9.9343    229.6091      4.2225   3.6359844969e+01   2.7083107516e+01    0.4249872    0.3034738 -25.09   0.00251672    1.609    0.378
         8 -10.1347    226.2037      3.4935   3.6461694077e+01   2.7943283828e+01    0.6625108    0.2990007 -35.67  0.003237984    2.053    0.513
         9  -9.4532      5.4043      2.1835   9.3151917688e+01   7.3835591286e+01    0.2202352    0.1486636 -16.60  0.001576582    1.141    0.124
        10  -7.2203    125.0000      2.9113   4.8852233152e+01   5.3032402261e+01    0.1903044   0.07687122 -19.23 0.0005091982    2.756    0.637
        11  -8.2126    238.6518      1.8703   3.5149479036e+01   2.5283201802e+01     0.187963    0.1487668  77.73   0.00038905    1.251    0.201
        12 -10.1904    179.9534    189.1820   8.9599068891e+01   7.6860799324e+00    0.2542345     0.237178  17.16 0.0003469265    1.052    0.049
        13 -10.1110    111.3356    248.9545   1.1219288885e+02   8.8719725558e+00    0.2125115    0.1881097  65.67 0.0003664268    1.158    0.137
        14  -8.4196     95.3639    248.7123   1.1511229184e+02   1.1244758385e+01    0.2520854    0.1874325 -18.03  0.001458895    2.742    0.635
        15 -13.1106     62.0717    188.2290   1.1567389588e+02   2.7718731488e+01     2.851607     1.160515 -67.57   0.01290658    2.327    0.570
        16 -13.1472     48.4625    200.9898   1.1982560931e+02   2.6657728629e+01     3.058335      1.02776  35.53   0.01358852    2.906    0.656
        17  -8.1400    238.3939    188.9481   7.8150542943e+01  -2.6447056911e+00    0.2072313    0.1732861  35.09 0.0006179525    1.351    0.260
        18  -8.7628    131.6835    188.6623   1.0004939988e+02   1.6717933465e+01    0.3704354     0.243162  73.00  0.001668205    2.167    0.538
        19  -8.4727     73.0192    187.9987   1.1321950010e+02   2.6297040877e+01     0.306494    0.1747843 -81.12  0.001231151    1.879    0.468
        20  -7.7381     72.6746    184.6596   1.1289159177e+02   2.7085789765e+01    0.1983699    0.1575647  88.26  0.001009858    1.152    0.132
        21 -12.6909     57.2999    241.3663   1.2137982092e+02   1.7658787479e+01    0.6367945    0.4450148  63.51  0.002648764    1.096    0.087
        22  -9.0728    210.8676    203.0793   8.5988409001e+01  -1.5562131681e-01    0.3334348    0.1730917  41.78  0.001000896    1.844    0.458
        23 -16.4820     10.1409    242.0753   1.2940314831e+02   2.2817075346e+01     4.081641     3.245693  66.55   0.03439793    1.244    0.196
        24  -9.0689     43.2411    175.0146   1.1846654446e+02   3.2971273689e+01    0.2947093    0.1841922 -70.50  0.001014613    1.425    0.298
        25  -9.9973     49.4860    179.4501   1.1752343385e+02   3.1244821245e+01    0.5550763    0.2381256  59.05  0.002063702    2.594    0.614
        26  -9.1795     46.4789    177.4714   1.1799108962e+02   3.2044329643e+01    0.2719936    0.2362895  59.20  0.001076335    1.190    0.160
        27  -8.3786    222.6687    180.3717   7.9320175151e+01   1.3490620685e+00     0.186234     0.170751 -82.27 0.0007119233    1.643    0.391
        28  -9.8909     74.2575    174.8687   1.1127092822e+02   2.9079092255e+01    0.4043971    0.3157147 -16.83  0.001571706    2.007    0.502
        29  -9.4904     78.3310    169.8454   1.0960394825e+02   2.9655571834e+01    0.3053944    0.2544873 -28.41  0.000583812    1.612    0.379
        30  -7.4289    137.7589    175.5341   9.6364909451e+01   1.8343049285e+01    0.2014115    0.1301392  52.17 0.0009260682    1.576    0.366
        31  -8.9230    201.0359    173.4001   8.2106659058e+01   6.5089917871e+00    0.2450025    0.1984164 -27.89 0.0001908664    1.224    0.183
        32  -8.3429    186.5989    172.1320   8.4823697388e+01   9.5335518987e+00    0.3279493    0.2117794 -63.67  0.001250335    2.516    0.603
        33  -7.5691    110.2267    168.0368   1.0156502361e+02   2.4981928453e+01    0.1853265    0.1168407 -56.66 0.0006072898    1.606    0.377
        34  -9.0867     65.7233    167.6879   1.1234802487e+02   3.1910066003e+01    0.2887176    0.1969013 -65.81 0.0004555571    1.367    0.268
        35  -7.3991    129.1293    165.8072   9.6582651481e+01   2.2065442710e+01    0.1921955    0.1720654  -5.78 0.0004783292    1.313    0.238
        36  -8.5048     54.8715    165.3631   1.1466199166e+02   3.3837882644e+01    0.4432137    0.2013843  63.93  0.001775175    2.954    0.661
        37  -9.7714     84.7072    161.2133   1.0673145244e+02   3.0728699200e+01    0.7031602    0.2851138  39.82 0.0007050825    2.412    0.585
        38 -11.0763     74.5897    156.2977   1.0851315078e+02   3.3383743195e+01    0.3957332    0.3165817 -54.69 0.0009284097    1.277    0.217
        39  -7.3368    134.0204    161.9978   9.4665839516e+01   2.1977629080e+01    0.1730935    0.1669337  54.91 0.0003534966    1.002    0.002
        40  -9.4529     92.7692    154.0804   1.0348774746e+02   3.1155294594e+01     0.598537    0.4053193 -22.11  0.002605244    2.434    0.589
        41  -9.2121     44.5761    155.6638   1.1597758862e+02   3.7324064883e+01    0.3658844    0.1649005  24.36  0.001600288    2.978    0.664
        42  -9.5619     39.3430    152.6785   1.1691447003e+02   3.8595968415e+01      0.31453    0.1745556  64.82 0.0007777357    1.983    0.496
        43  -9.5048     21.4043    152.6691   1.2129581076e+02   4.0317796911e+01     0.377055    0.1121896  45.22  0.001583219    3.283    0.695
        44 -12.4892     66.2066    141.8101   1.0839314663e+02   3.8035053630e+01     1.751735    0.9504178  83.52   0.00675623    2.980    0.664
        45  -8.3037    133.4989    146.4535   9.1568193395e+01   2.5553047614e+01    0.3210371    0.1506049 -49.51  0.001206671    2.150    0.535
        46 -10.0420     19.8935    146.6561   1.2106131221e+02   4.1852989464e+01    0.2829364     0.229546  58.90  0.001798476    1.283    0.220
        47 -10.8737     67.4114    132.4215   1.0644347220e+02   4.0166715623e+01    0.6626288    0.3830754  80.70  0.002668499    2.708    0.631
        48  -7.1466    158.6526    145.2829   8.5198131367e+01   2.0626926123e+01    0.1548926    0.1237514  80.26 0.0002981269    1.646    0.393
        49  -9.1140      3.7726    151.3548   1.2532269738e+02   4.2016314789e+01    0.1635579    0.1523387  -4.96  0.000573947    1.528    0.345
        50  -8.7218    106.0714    138.4904   9.6973774270e+01   3.2610482096e+01    0.2578936    0.2135294 -59.84 0.0007530506    1.175    0.149
        51  -9.8131     92.9065    139.7083   1.0077345834e+02   3.4576318605e+01    0.2635711    0.2491801 -54.60 0.0003967219    1.087    0.080
        52  -9.1028     78.8281    141.3869   1.0490696029e+02   3.6365786503e+01    0.2452313    0.1935951  26.02  0.001301966    1.483    0.326
        53 -10.3410    242.1205    201.1895   7.9854733028e+01  -4.9799129834e+00    0.2400883    0.1980615  21.55  0.000231309    1.201    0.168
        54 -10.1242      4.1015    139.8805   1.2428886214e+02   4.4625572481e+01    0.2787651    0.2393163 -86.61  0.002034585    1.140    0.123
        55  -9.5562     53.0727    148.3562   1.1286636670e+02   3.8099061938e+01    0.3301384      0.20232 -85.18  0.001653754    1.670    0.401
        56  -7.4244    134.4647    202.4347   1.0163766906e+02   1.3477703123e+01    0.1363235    0.1206871  47.33 0.0002054741    1.006    0.006
        57 -10.2422     36.3040    131.8163   1.1501326416e+02   4.3912271239e+01    0.4892859    0.1287485 -61.68  0.001842595    2.826    0.646
        58  -7.8737    118.0665    132.3584   9.2413448054e+01   3.1829616029e+01    0.2103736    0.1963533  55.58 0.0005864411    1.089    0.082
        59  -9.9367      2.5187    130.3434   1.2381649652e+02   4.6938052895e+01    0.4296728    0.1723732 -79.04  0.002100896    2.010    0.503
        60  -8.3132    113.0597    130.6824   9.3377706743e+01   3.3177716430e+01    0.2146335    0.1976111  35.79 0.0006166176    1.133    0.117
        61  -9.3650     44.2863    131.0114   1.1269045241e+02   4.3295092366e+01    0.1964056    0.1540628 -73.22  0.001156385    1.090    0.082
        62  -8.5681    100.7647    126.7721   9.5881227016e+01   3.6351551882e+01    0.2640485    0.2328562 -31.42 0.0006156967    1.220    0.180
        63  -9.8548     48.8628    125.0009   1.1043581210e+02   4.4263456564e+01    0.3419074    0.1861183  50.94  0.001609429    2.131    0.531
        64  -8.5882      6.2067    124.7898   1.2230331329e+02   4.8001256005e+01    0.1724148    0.1169537 -57.28  0.001084547    1.354    0.262
        65  -8.5584    147.0202    121.7590   8.2324424908e+01   2.8235460691e+01    0.2510875    0.2172742 -44.08 0.0003385284    1.146    0.127
        66  -7.5972     86.9643    121.5068   9.8648441610e+01   3.9946621733e+01    0.2050049    0.1459354  40.08 0.0004108849    1.491    0.329
        67  -9.3889    203.6115    119.3204   6.9160474422e+01   1.5940540376e+01    0.2589822     0.252037 -32.52 0.0003099319    1.064    0.060
        68  -8.3239    109.5161    118.0917   9.1377132970e+01   3.6810623935e+01    0.4622267    0.2230102 -40.20  0.001707041    2.258    0.557
        69  -9.0908    211.4983    198.2225   8.4959299367e+01   4.8514236471e-01    0.2572943    0.1989394  27.17 0.0003098343    1.158    0.137
        70  -7.7407    208.5302    116.0214   6.7398606584e+01   1.5454878798e+01    0.2274765     0.142879 -35.25 0.0003604062    1.509    0.337
        71  -8.6243     22.2742    111.2516   1.1607455771e+02   5.0088576954e+01    0.1840344    0.1735305 -79.69 0.0002437524    1.173    0.148
        72  -7.4536     14.6802    109.3226   1.1806086642e+02   5.1095583734e+01    0.1249055   0.08295795  74.15 0.0002429598    1.672    0.402
        73 -10.0752     39.4698    117.0218   1.1185471528e+02   4.7192337286e+01    0.2723501    0.2216275  49.04  0.001656703    1.384    0.278
        74  -8.1168      7.3681    107.8283   1.2002447055e+02   5.1911952968e+01    0.1579699    0.1342656  89.52 0.0004365539    1.171    0.146
        75  -8.4580     92.8795     96.6882   9.0742809297e+01   4.4823706092e+01    0.2587243    0.2006997 -52.85 0.0002989536    1.245    0.197
        76  -8.2064     38.5016     97.4910   1.0859675013e+02   5.1988752406e+01    0.2134506    0.1116225  40.84 0.0008880282    2.249    0.555
        77  -7.7058      2.5285     84.4545   1.1828306024e+02   5.7593017597e+01    0.1207243    0.0931657 -66.33 9.796067e-05    1.034    0.032
        78  -7.7901    125.7441     81.8527   7.6647279401e+01   4.1460546520e+01    0.2783521    0.1764325   4.82 0.0009697237    2.925    0.658
        79 -10.1078    108.7681     76.2284   7.9744847816e+01   4.6226798564e+01    0.2602098     0.244594 -13.96 0.0002265483    1.010    0.010
        80  -8.7910    204.8324     71.7660   5.6497038431e+01   2.4067630806e+01    0.3397972    0.2345564 -23.46 0.0008471693    1.586    0.369
        81  -7.5871    179.7753     61.8066   5.8039698398e+01   3.1915667994e+01    0.2038837    0.1728038 -71.29 0.0004204148    1.274    0.215
        82 -10.2643    182.2863     49.7103   5.4039877978e+01   3.3124894324e+01    0.4171117    0.3253927  60.49  0.001417615    1.252    0.201
        83  -7.6430    154.0662     49.5395   5.9286262785e+01   4.0350219796e+01     0.223495     0.144933  58.89 0.0004457392    1.509    0.337
        84  -7.7762    119.7741    247.3011   1.1044398723e+02   7.8718118694e+00    0.1581015   0.09161271 -45.50 0.0008832568    2.333    0.571
        85  -8.3588     90.9349    246.0546   1.1567857046e+02   1.2326699143e+01    0.1844085    0.1425223  55.65 0.0006920061    1.019    0.019
        86  -7.5387    141.5556     42.4808   5.9621180559e+01   4.4517785548e+01    0.1492615    0.1378273  31.22 5.057474e-05    1.055    0.052
        87  -7.1508    134.7868     29.0320   5.6406020373e+01   4.7972898110e+01    0.1687227    0.1162687 -26.01 0.0008224273    1.533    0.348
        88  -7.4344    173.5095     20.4794   4.6712503551e+01   3.9133298850e+01     0.140505    0.1281251  64.09 9.410209e-05    1.055    0.052
        89  -8.1535    165.9229     19.8863   4.7660276712e+01   4.1143414622e+01    0.2056327     0.188551  89.29 0.0003834355    1.070    0.065
        90  -7.9122     84.6980    198.9049   1.1196415517e+02   2.2266145218e+01     0.176685    0.1454075  81.30 0.0002827211    1.117    0.105
        91  -7.5492    169.0101    236.9715   9.9721397007e+01   1.6919239417e+00    0.1548909    0.1210531  34.42 0.0004319339    1.042    0.040
        92  -9.2808     70.9938    194.5318   1.1442528601e+02   2.5149758047e+01    0.3696588    0.1740347 -66.96  0.001252096    2.081    0.519
        93  -7.3660    221.7788    194.0083   8.2193867719e+01  -6.2700985175e-01    0.1626852    0.1026643 -31.85 0.0004080277    1.580    0.367
        94  -9.2427    222.4300    208.2950   8.4759650579e+01  -2.8488845944e+00    0.3011637    0.2580184  65.32 0.0008176219    1.881    0.468
        95  -8.3166    224.0127    226.0067   8.7595741141e+01  -5.5273958373e+00    0.1789117    0.1447821  17.32            0    1.079    0.073
        96  -8.9450    212.2284    193.5264   8.3922529899e+01   1.0949347875e+00    0.2419198    0.2090015  -1.97 0.0003387695    1.065    0.061
        97  -9.0153    112.2835    189.8176   1.0461218244e+02   1.9846053340e+01    0.2604597    0.2198391  82.37 0.0004944121    1.210    0.173
