#   1 NUMBER                 Running object number                                     
#   2 MAG_AUTO               Kron-like elliptical aperture magnitude                    [mag]
#   3 X_IMAGE                Object position along x                                    [pixel]
#   4 Y_IMAGE                Object position along y                                    [pixel]
#   5 X_WORLD                Barycenter position along world x axis                     [deg]
#   6 Y_WORLD                Barycenter position along world y axis                     [deg]
#   7 A_WORLD                Profile RMS along major axis (world units)                 [deg]
#   8 B_WORLD                Profile RMS along minor axis (world units)                 [deg]
#   9 THETA_WORLD            Position angle (CCW/world-x)                               [deg]
#  10 FWHM_WORLD             FWHM assuming a gaussian core                              [deg]
#  11 ELONGATION             A_IMAGE/B_IMAGE                                           
#  12 ELLIPTICITY            1 - B_IMAGE/A_IMAGE                                       
         1 -14.3899    154.4177     51.4778   8.8327015636e+01   4.0043414170e+01     1.508091     1.156114  36.67  0.004639437    1.331    0.249
         2 -14.6024    165.7551     35.4823   8.0611030749e+01   3.9430552824e+01     1.268729    0.9735892  -1.96   0.00442328    1.367    0.268
         3 -13.9881    179.6367      4.6170   6.8092408538e+01   3.9125403479e+01    0.9778165    0.6541267  71.24  0.003865445    1.509    0.337
         4 -11.1691     22.9198    240.6025   1.5148433201e+02   2.3713318299e+01    0.1379807    0.0972933  33.06 0.0009277943    1.424    0.298
         5 -19.8428     69.5080    168.2239   1.3755917522e+02   3.1767379114e+01     16.44119     6.296147 -69.23   0.07366209    2.839    0.648
         6 -11.4559    185.5038    199.9875   1.1743461615e+02   9.9555511428e+00    0.1617448    0.1121578 -29.44 0.0005833524    1.585    0.369
         7 -11.6886    158.8751    194.4082   1.2165636156e+02   1.4665080707e+01    0.2382424    0.1983157 -66.18 0.0008750706    1.770    0.435
         8 -12.2071    135.3859    195.8528   1.2656252694e+02   1.7888785519e+01    0.2859944    0.2116507  73.43  0.001142973    2.020    0.505
         9 -10.0949    116.8637    230.9895   1.3419229248e+02   1.5116421516e+01    0.1535998    0.1023752  56.07 0.0005146434    1.593    0.372
        10 -12.5046    169.7438    194.5253   1.1955766211e+02   1.3026120800e+01    0.4456421    0.2827629 -61.27  0.002291086    3.004    0.667
        11 -10.4214    165.4025    188.7246   1.1949710874e+02   1.4518411003e+01     0.169011    0.1219414 -38.53 0.0008150815    1.584    0.369
        12 -10.9914     15.0796    189.1843   1.5097765176e+02   3.3022044595e+01    0.1336265    0.1173739  66.37 0.0003514518    1.179    0.152
        13 -13.3570    207.5092    183.5211   1.1069638525e+02   8.7904206349e+00    0.3920284    0.3439882  -6.79  0.001142697    1.285    0.222
        14 -13.2585    210.4971    181.5340   1.0981233518e+02   8.5882573543e+00    0.4325584    0.2855246 -12.72  0.001832749    1.454    0.312
        15 -11.3178    157.4991    184.5132   1.2040711420e+02   1.6364886073e+01     0.220804    0.1230845 -43.31  0.001175084    2.043    0.511
        16 -10.5569     27.9762    184.0292   1.4807880190e+02   3.2911177540e+01    0.1515367    0.1324922  63.09 0.0004258559    1.130    0.115
        17 -10.9270    108.4971    182.6857   1.3047494810e+02   2.3932626723e+01    0.2513809     0.170437  57.06 0.0006943173    1.581    0.368
        18 -12.4102    197.6730    176.1617   1.1116958514e+02   1.1273180071e+01    0.3815515     0.309595 -42.03  0.001483019    1.648    0.393
        19 -10.1960    145.5130    178.4707   1.2191858962e+02   1.9183561415e+01    0.1271479     0.109458  23.69 5.854492e-05    1.017    0.017
        20 -12.4738    178.8300    174.6620   1.1449425963e+02   1.4489197160e+01    0.3851579    0.2655694  -7.74  0.001618161    1.587    0.370
        21 -11.1100    177.4063    169.2442   1.1379926120e+02   1.5529662729e+01    0.2395624    0.1233061 -41.90 0.0008258799    2.179    0.541
        22 -12.2674    137.2839    171.9006   1.2262659584e+02   2.1577833478e+01    0.6076226    0.3115885  47.48  0.002898514    2.031    0.508
        23 -12.5926    145.4778    169.8505   1.2051833519e+02   2.0633009844e+01    0.5214476    0.3850854  65.94  0.002836873    1.947    0.487
        24 -11.8382    226.5698    168.5138   1.0461236734e+02   7.7475186520e+00    0.4339274    0.2415172 -48.38  0.001941568    3.630    0.725
        25 -11.1578    206.1510    170.0794   1.0848966986e+02   1.0746788644e+01    0.4045024    0.2224784  17.28  0.002005375    2.008    0.502
        26 -11.8875    112.5255    169.1188   1.2770922584e+02   2.5848494697e+01    0.3942821    0.2510077  46.26 0.0005880757    1.490    0.329
        27 -10.6413    220.2944    227.5361   1.1553140201e+02   2.0641298821e+00    0.1605327   0.08755151 -26.24 0.0006756922    1.972    0.493
        28 -11.8874    230.0003    166.4436   1.0363749456e+02   7.4728507929e+00    0.2243373    0.1607551 -33.00  0.001146945    1.622    0.384
        29 -10.5187    123.7011    166.7360   1.2481159942e+02   2.4610787551e+01    0.2341701    0.1439406  55.02 0.0006502933    1.916    0.478
        30 -11.5347    208.5101    227.0147   1.1740295195e+02   3.6296740488e+00    0.1437485   0.09824213 -22.18 0.0006461344    1.591    0.371
        31 -11.3538    200.1221    164.2461   1.0848397385e+02   1.2517651648e+01    0.2926914    0.2661029   3.91  0.001374065    1.235    0.190
        32 -10.5881    101.0732    224.4841   1.3652227726e+02   1.8009139018e+01    0.1509242    0.1205458  43.70 0.0007699273    1.031    0.030
        33 -10.5829    110.0988    222.9781   1.3467656902e+02   1.7118936374e+01    0.1600605    0.1250008  45.65 0.0004705717    1.104    0.094
        34 -12.9761    134.2409    148.2729   1.1919204616e+02   2.6365267475e+01    0.6544591    0.2783984 -56.56  0.002458326    3.275    0.695
        35 -13.2963    133.6654    143.1619   1.1834536862e+02   2.7438491047e+01    0.6643199    0.2819742 -54.01  0.002569114    2.901    0.655
        36 -11.0028    174.2923    148.4006   1.1038769983e+02   1.9339287921e+01    0.3239563    0.2513828 -47.45  0.001385134    1.568    0.362
        37 -14.1424    143.1713    143.8944   1.1626989164e+02   2.5649469985e+01     1.329786    0.7931638 -74.91  0.004285341    5.219    0.808
        38 -13.2677    135.5118    122.9543   1.1362614376e+02   3.1061617203e+01    0.7803763    0.2824671 -48.15   0.00274385    2.950    0.661
        39 -12.1842     13.5956    144.1297   1.4899911942e+02   4.2263592611e+01    0.3074561     0.162365  88.69  0.001594771    1.672    0.402
        40  -9.9316    177.3072    143.6529   1.0877496866e+02   1.9571249133e+01    0.1270034     0.113075 -83.26 0.0007043252    1.701    0.412
        41 -12.8087      6.9758    139.3996   1.5036949934e+02   4.3751280323e+01    0.4013672     0.296721  37.71  0.002798029    1.420    0.296
        42 -12.0512     24.2148    140.8248   1.4608762601e+02   4.2183737746e+01    0.2827918    0.1526312  19.01  0.001542336    2.262    0.558
        43 -10.4608     20.9444    219.3105   1.5106939258e+02   2.7238080315e+01    0.1246123   0.08939575  54.52 0.0004199727    1.043    0.042
        44 -10.4583    139.4325    216.6767   1.2841922346e+02   1.4204594115e+01    0.2471113    0.1638147  76.31   0.00132691    3.090    0.676
        45 -11.8144    160.5445    128.4167   1.0900515413e+02   2.5295834829e+01    0.3981477    0.2381395 -29.76  0.001829133    1.760    0.432
        46 -10.8704    139.6914    249.4413   1.3192016291e+02   9.8875531383e+00    0.2315042    0.1589366  53.37  0.001711824    1.654    0.395
        47 -11.3075     21.1736    235.6395   1.5161006359e+02   2.4617971072e+01    0.1197415   0.09503853  45.51 0.0009040759    1.221    0.181
        48 -12.5345    153.0444    145.2557   1.1430727479e+02   2.3659188633e+01    0.3189952    0.2948335  88.66  0.001892553    1.412    0.292
        49 -11.2714    134.6335    112.4946   1.1137021402e+02   3.3312573026e+01    0.4759676    0.1344809 -43.09  0.001462334    3.530    0.717
        50 -11.6218    134.5357    104.5520   1.0938809315e+02   3.4921761813e+01    0.5770552    0.1442055 -43.20  0.001647875    3.950    0.747
        51 -12.2764      4.3604    112.1881   1.4936365372e+02   5.0075220676e+01    0.3464353    0.2351251  -1.74  0.002147236    2.018    0.505
        52 -10.9722     25.7708    232.0300   1.5069870805e+02   2.4776557112e+01    0.1214441    0.1075665  68.98  0.000502816    1.280    0.219
        53 -10.7667    205.6006    110.1147   9.5516658412e+01   1.9427353277e+01    0.2605001    0.1938145  30.33 0.0006428129    1.329    0.248
        54 -10.1977      3.1861    211.4111   1.5399443865e+02   2.9998120042e+01    0.0846017   0.06091252 -71.59 0.0004336474    1.628    0.386
        55 -10.6115    155.1150    104.9639   1.0448770454e+02   3.0655697060e+01    0.2168003    0.2014055  -2.67 0.0003176906    1.011    0.011
        56 -12.3077    170.1624    204.9826   1.2104348192e+02   1.1521118942e+01    0.2646919    0.2361734   2.04 0.0004496824    1.195    0.164
        57 -10.8089    124.5619     94.8865   1.0942455314e+02   3.8866580838e+01    0.2412043     0.201701  22.80 0.0004510787    1.245    0.197
        58 -11.8629    165.7059    207.3406   1.2221962337e+02   1.1841292622e+01    0.2520059    0.2025876  26.48  0.001048925    1.055    0.052
        59 -12.1715    164.7005    204.3544   1.2198535166e+02   1.2393816432e+01     0.268492    0.2162788 -75.10  0.001216142    2.159    0.537
        60 -10.4225     30.4120    205.2567   1.4870447936e+02   2.8797442558e+01    0.1494029    0.1046991  23.60 0.0006015593    1.652    0.395
        61 -10.4451     13.5318     59.9644   1.4008908840e+02   6.2195244369e+01    0.1785845    0.1564074 -62.79 0.0004084815    1.083    0.077
        62 -10.3032    125.0000    246.0129   1.3414810823e+02   1.2104130369e+01    0.1142412   0.06058273 -54.86 0.0003272889    2.543    0.607
        63 -11.6751     13.6117    244.4653   1.5312578007e+02   2.3926850941e+01    0.2328956   0.07278168 -77.98  0.001415421    3.346    0.701
        64 -12.9166    169.2856     28.2766   7.7530977655e+01   3.9406074157e+01    0.4612635    0.3571752   2.72  0.001097702    1.366    0.268
        65 -10.9886    142.9409     33.2694   8.4118450442e+01   4.5511142279e+01     0.301323    0.2093133  77.11  0.001144785    1.809    0.447
        66 -11.1325     20.6123    202.4191   1.5045563361e+02   3.0156796462e+01     0.145081     0.118914  80.26  0.000227722    1.180    0.153
