#   1 NUMBER                 Running object number                                     
#   2 MAG_AUTO               Kron-like elliptical aperture magnitude                    [mag]
#   3 X_IMAGE                Object position along x                                    [pixel]
#   4 Y_IMAGE                Object position along y                                    [pixel]
#   5 X_WORLD                Barycenter position along world x axis                     [deg]
#   6 Y_WORLD                Barycenter position along world y axis                     [deg]
#   7 A_WORLD                Profile RMS along major axis (world units)                 [deg]
#   8 B_WORLD                Profile RMS along minor axis (world units)                 [deg]
#   9 THETA_WORLD            Position angle (CCW/world-x)                               [deg]
#  10 FWHM_WORLD             FWHM assuming a gaussian core                              [deg]
#  11 ELONGATION             A_IMAGE/B_IMAGE                                           
#  12 ELLIPTICITY            1 - B_IMAGE/A_IMAGE                                       
         1 -11.0440     39.4753      8.0871   5.0438162976e+01   7.3441980480e+01    0.4605805    0.2427763 -29.76  0.002159508    1.964    0.491
         2 -13.0617     44.8205     22.9438   5.7058843343e+01   7.0054349636e+01     1.135409    0.8357172 -60.55   0.00577526    1.814    0.449
         3 -11.2512     78.0854     13.7562   3.7364025264e+01   6.4011143052e+01    0.4129511    0.2724569  -0.10   0.00193257    1.908    0.476
         4 -10.4327     20.6123     14.5724   6.8633121810e+01   7.5463856798e+01    0.4875474    0.2286201 -27.17  0.001885861    3.124    0.680
         5 -12.2023    156.2049     11.7577   2.2380630665e+01   4.3818904986e+01     0.634794    0.4637845 -87.60  0.003390078    1.318    0.241
         6 -12.5328    158.8298      3.8265   1.9528344598e+01   4.3868562375e+01    0.9981421    0.3889042  68.82  0.004184206    2.349    0.574
         7 -11.5634    164.8273     11.8810   2.1573424731e+01   4.1635200848e+01     0.477221    0.3492853 -56.37  0.002404225    1.263    0.208
         8 -12.1325    169.2534      9.3030   2.0372049312e+01   4.0780334818e+01    0.7032449    0.4098749 -48.54  0.003573763    1.563    0.360
         9 -13.1527    173.0932      2.9578   1.8136180453e+01   4.0404981298e+01     1.579816    0.6409264 -85.07  0.006369453    2.778    0.640
        10 -11.6563    144.0324      3.7266   2.0871223293e+01   4.7673960460e+01    0.6470832     0.351117 -70.17  0.002931288    1.960    0.490
        11 -10.2613     70.7932      5.6652   3.5012021758e+01   6.6697165543e+01    0.4260004    0.1957447  61.04  0.001808292    1.979    0.495
        12 -10.5191    208.1456      4.3781   1.6358577532e+01   3.2227493887e+01    0.2263184    0.1955114 -20.71 0.0008678506    1.284    0.221
        13 -11.1268    203.5988      4.5068   1.6638975440e+01   3.3204319522e+01    0.3087777    0.1446937  82.80  0.001532893    2.191    0.544
        14 -11.0993    131.3862      3.7305   2.2257084645e+01   5.0994503715e+01    0.6799045    0.2216762  59.80  0.002539794    2.663    0.624
        15 -10.7066    121.1920      4.4114   2.3828148943e+01   5.3646396079e+01    0.4258912    0.3655193  82.68  0.002448235    1.074    0.069
        16  -9.3784    107.6756      5.6788   2.6444792404e+01   5.7142450536e+01    0.1506754    0.0965189  39.78 0.0006155237    1.680    0.405
        17 -11.3831     85.6525      3.6127   2.9818379637e+01   6.3124567694e+01    0.5564308    0.3122253  66.85  0.001956484    1.633    0.388
        18 -10.1538     61.4072      2.1128   3.5920773875e+01   6.9332604994e+01     0.374928    0.1526591  41.25   0.00146593    2.518    0.603
        19  -9.5401    217.9913      2.0020   1.5278654977e+01   3.0358424170e+01    0.1466344    0.1190078 -60.76 0.0009995352    1.072    0.067
        20  -9.1313     17.5254      1.5355   6.1689285208e+01   7.8230336784e+01    0.1286429    0.1102752  -2.88 0.0008089764    1.020    0.020
        21 -10.1412     86.2035     31.5902   4.3834039806e+01   5.9618521056e+01    0.2145733    0.1288531  45.81  0.000943767    1.626    0.385
        22 -11.2783    191.1747    185.8473   6.0833794565e+01   1.0705561764e+01    0.2669352    0.1809595   3.66  0.001373605    1.421    0.296
        23 -10.2893     37.3716    185.2884   9.6939401979e+01   3.1808386814e+01    0.2285897    0.1506333  13.38  0.001252657    1.716    0.417
        24 -11.3365    173.1042    159.1163   5.9411197150e+01   1.7532687428e+01    0.3276063    0.2627292 -22.85  0.001814272    1.187    0.158
        25 -10.3768    172.0309    163.4986   6.0470086316e+01   1.6986408807e+01    0.2700071    0.2007147  30.95  0.001232495    1.280    0.219
        26 -10.4228     14.7209    160.1558   1.0162088808e+02   3.9604919804e+01    0.2157433    0.1365655  68.73   0.00118165    1.446    0.309
        27 -11.1474    220.2522    156.5890   5.0522853163e+01   1.0638044729e+01    0.2926125    0.2787055 -21.21  0.002127443    1.422    0.297
        28  -9.9679     20.9242    155.5108   9.9487540899e+01   4.0215051420e+01    0.2051326    0.1658884  84.01  0.001239257    1.160    0.138
        29 -11.0204    163.3380    152.0875   6.0025457434e+01   2.0353608686e+01    0.3370411    0.2863792  -3.16  0.001996787    1.112    0.100
        30  -9.6421    173.5056    144.4915   5.6377578002e+01   1.9903425206e+01    0.1355083    0.1209231  -2.33 0.0001519584    1.003    0.003
        31 -10.0028     53.5361    143.4973   8.8088775345e+01   3.9823936990e+01    0.2552491    0.2352322  76.76  0.001152918    1.050    0.047
        32  -9.5077    165.4100    142.7436   5.7660947702e+01   2.1624723033e+01    0.1896832    0.1232428 -27.06 0.0006278833    1.593    0.372
        33 -12.4068     11.0813    140.0381   1.0154777503e+02   4.4792020901e+01    0.5909732    0.2591589  63.91  0.002565065    2.276    0.561
        34  -9.9326    220.9682    137.2935   4.6599678486e+01   1.3163159555e+01    0.1727925    0.1462623   2.63 0.0008762441    1.115    0.103
        35  -9.7738    165.2105    135.0275   5.6036534612e+01   2.3017118402e+01    0.2562101    0.1955135 -54.95  0.001348064    1.595    0.373
        36 -13.4376    240.4989    125.0819   4.1376590449e+01   1.1823761096e+01     1.051605    0.9288722  45.80  0.007654382    1.476    0.323
        37 -13.8133    244.7363    110.4114   3.7841001642e+01   1.3047097062e+01     1.620132     0.853184 -37.53  0.009199704    1.614    0.380
        38 -11.3684     10.0024    121.6027   1.0064974541e+02   4.9566137128e+01    0.3655289    0.1631348  28.59   0.00164414    2.138    0.532
        39 -10.8998      4.4758    124.6781   1.0283147915e+02   4.9113921724e+01    0.2894452    0.1562442  50.49  0.001427621    1.730    0.422
        40  -9.5643    208.4138    123.3463   4.5591257674e+01   1.7185441951e+01    0.1950997    0.1390811   1.52  0.001056093    1.567    0.362
        41 -11.5489    189.5172    115.8748   4.7030729025e+01   2.1707506635e+01     0.735554    0.3733023 -15.85  0.002741064    3.259    0.693
        42 -10.0613    154.5017    120.5171   5.5000584352e+01   2.7686959943e+01    0.1438281    0.1349466  -4.00 0.0002413709    1.014    0.013
        43 -11.0244    212.7175    112.9841   4.2648865616e+01   1.7943721416e+01    0.4382108    0.2663873 -35.76  0.002382327    1.448    0.310
        44  -9.9024    224.5096    112.0572   4.0769702236e+01   1.6062877902e+01    0.2910579    0.1047683 -32.79   0.00125873    2.335    0.572
        45 -11.4513    222.6776    107.3031   3.9977509374e+01   1.7021493177e+01    0.4266636    0.2516793  42.99  0.002051227    1.928    0.481
        46 -10.4808    148.8484    110.6570   5.3837915542e+01   3.0675896552e+01    0.4113773    0.2072285 -36.53  0.001677367    2.013    0.503
        47  -9.4887     95.0172    112.2621   6.8785198232e+01   4.1117295705e+01    0.2784722     0.170472  84.60  0.000904249    3.627    0.724
        48 -10.9481     18.0117    104.8697   9.5991375581e+01   5.3404835073e+01    0.5453665    0.2304758  47.70  0.002208491    2.435    0.589
        49 -10.1691     30.5078    101.8612   9.0446238878e+01   5.3139244744e+01    0.2886762    0.2104082 -37.16  0.001467253    1.521    0.343
        50  -9.5021    208.6291     94.2377   3.8930510217e+01   2.1368704470e+01    0.1891084    0.1121706 -23.51 0.0007155135    1.644    0.392
        51  -9.8291    178.8696     92.7234   4.3214954637e+01   2.7524130538e+01    0.2782862    0.1704904 -56.43  0.001246331    2.059    0.514
        52 -10.4995     12.8249     89.8701   9.6401690701e+01   5.7751064679e+01    0.2182988      0.17846 -53.38  0.001242248    1.196    0.164
        53 -13.0440     14.8924     73.0202   9.2901250739e+01   6.2075617820e+01    0.9948848    0.6492459  36.57  0.005097047    1.617    0.382
        54 -11.2721      2.4288     86.9991   1.0081682750e+02   5.9075735814e+01    0.8151693    0.2500892 -81.73  0.002923914    3.005    0.667
        55 -12.5693      4.9410     76.2627   9.8458637762e+01   6.1794636397e+01    0.8516786    0.4918354  65.68  0.003918893    1.890    0.471
        56 -10.6487     18.0287    127.5094   9.8264820980e+01   4.7466904983e+01    0.2007664    0.1283108  25.67  0.001028043    1.588    0.370
        57 -10.4879    192.5657     87.0258   3.9522425699e+01   2.5573193779e+01    0.4516858    0.2006253  57.80  0.001909494    2.577    0.612
        58 -12.5982     42.5399     80.6550   8.0959261291e+01   5.7384174521e+01     1.144379    0.8388882 -11.56  0.005357191    1.690    0.408
        59  -9.6772    100.6211     83.7892   5.9191169670e+01   4.6452166121e+01    0.2220165    0.1452812 -55.25 0.0008469824    1.658    0.397
        60  -9.9227    215.0565     79.8055   3.4642408299e+01   2.2148632207e+01    0.2496016    0.1404779 -43.99  0.001278892    1.640    0.390
        61  -9.7464    220.9306     78.0055   3.3507030512e+01   2.1277878597e+01    0.2062849    0.1343684 -56.21 0.0009753682    1.734    0.423
        62 -10.2753    169.6921     76.4529   4.0440842440e+01   3.2108953979e+01    0.2833697    0.2660794 -41.20  0.001646827    1.012    0.012
        63 -10.0268    227.0172     71.9711   3.1411088028e+01   2.0923244051e+01    0.2531149    0.1889108 -59.12   0.00155542    1.455    0.313
        64 -10.5426     75.2881     69.1756   6.3335025242e+01   5.4871406826e+01    0.4570816    0.3482052  10.54  0.002120342    1.672    0.402
        65 -11.9146    214.9428     66.9700   3.1553275900e+01   2.3863584305e+01    0.4084299    0.2192578 -27.22  0.002048412    1.696    0.410
        66 -11.0175     25.4666     65.0615   8.5610487812e+01   6.3284979969e+01    0.4358653    0.2613847 -62.06  0.002083871    1.525    0.344
        67  -9.5575    179.0135     66.4888   3.6142764219e+01   3.1520978235e+01    0.2056639    0.1391492  62.34  0.001033058    1.591    0.372
        68 -11.3034    233.0495     64.1298   2.8982736548e+01   2.0784542062e+01    0.2608447    0.2032407  47.02  0.001695831    1.558    0.358
        69  -9.2530    132.4544     63.5251   4.3907191872e+01   4.3012724351e+01    0.1481933    0.1462138 -66.58 0.0001774211    1.009    0.009
        70 -10.3087    218.7034     61.8075   2.9885638668e+01   2.3782014523e+01     0.200568    0.1500503 -15.59  0.001186288    1.395    0.283
        71 -11.0808    209.4903     59.4097   3.0293977498e+01   2.5927457715e+01    0.3922101    0.1796976 -45.52  0.001801973    2.012    0.503
        72 -10.8106    229.4725     60.4906   2.8485612527e+01   2.1884456012e+01    0.2253306    0.1239905  66.74  0.001215587    2.183    0.542
        73  -9.3384    248.3214     58.3455   2.6322790384e+01   1.8759458632e+01    0.1132349    0.0842359   5.27 0.0007049773    1.733    0.423
        74 -10.6499    227.0750     57.5706   2.8030597728e+01   2.2687599499e+01    0.3325576    0.1371484  43.98  0.001403587    3.545    0.718
        75 -11.6891    215.1488     50.7862   2.7546561011e+01   2.5844681416e+01    0.3756246    0.2978879 -20.50   0.00181061    1.267    0.211
        76  -9.3393    138.0116     56.0000   4.0190140538e+01   4.2879086496e+01    0.2463129   0.08417466  58.90 0.0008020792    2.940    0.660
        77  -9.8685    164.4892     54.0189   3.4768751680e+01   3.6692631767e+01    0.1971543    0.1257974   1.77 0.0008098283    2.487    0.598
        78 -10.3477    220.4795     53.3340   2.7651304959e+01   2.4472995484e+01    0.2170254    0.1407572 -71.31  0.001190468    1.845    0.458
        79  -9.7524     34.9905     52.6834   7.6625551234e+01   6.5309721303e+01    0.2003523    0.1841683   5.68 0.0009800527    1.111    0.100
        80 -10.9344     85.0786     47.8721   5.1469797792e+01   5.7152655011e+01    0.5131068    0.3569892  54.41  0.002401753    1.453    0.312
        81 -11.0725     80.5840     38.2983   4.8874273921e+01   5.9875921511e+01     0.470683     0.401253 -62.71   0.00246632    1.335    0.251
        82 -11.2722    198.3684     52.8986   2.9876686959e+01   2.9096271989e+01    0.5239572    0.2906846 -14.89  0.002368546    2.259    0.557
        83 -10.1253    242.3907     43.1995   2.3431144795e+01   2.1492796053e+01    0.1789997   0.08203626 -37.40 0.0009526829    1.650    0.394
        84 -11.5480      3.2459     41.1893   9.3572943707e+01   7.0895420281e+01    0.5129482    0.4098714  76.30  0.002920326    1.403    0.287
        85 -10.8802      6.4150     35.3807   8.9728056169e+01   7.2157211897e+01    0.3182581    0.1936821  21.01  0.001332037    1.745    0.427
        86 -11.9221    191.0641     38.3786   2.6760653803e+01   3.2503526368e+01    0.6456881    0.1599189 -37.28  0.002312006    3.019    0.669
        87 -11.5068    182.8308     40.5503   2.8288766791e+01   3.4130880039e+01    0.5246633    0.2813228  86.28  0.002311117    2.348    0.574
        88  -9.6106     97.3093     36.6677   4.2741574667e+01   5.6114303323e+01    0.1538912    0.1146815 -70.00 0.0006115933    1.671    0.401
        89 -11.0535    159.1409    231.8969   7.3846128210e+01   8.4792733170e+00    0.1731428    0.1372826  30.59   0.00124342    1.291    0.225
        90 -11.9172     40.0109     29.5042   6.3569186802e+01   6.9678047143e+01    0.5422856    0.3605127 -47.31  0.002122981    1.523    0.344
        91 -11.6005    240.3902    228.9277   5.9490668056e+01  -3.1005668972e-01    0.2837076    0.1940611  36.86  0.002087557    2.161    0.537
        92 -10.2183    145.6322     27.9945   2.9219237124e+01   4.4807506826e+01    0.4907639    0.2258999 -73.32  0.001574275    3.863    0.741
        93  -9.7231     90.0543     28.2603   4.1072409934e+01   5.9158314727e+01    0.2138508       0.1929  56.67 0.0008479822    1.063    0.060
        94  -9.9434    168.6508     26.7094   2.5813528725e+01   3.9151019285e+01    0.1379385    0.1007574  37.71 0.0006512566    1.667    0.400
        95 -10.5662     75.4168     25.7070   4.4618142170e+01   6.3080434192e+01    0.2821206    0.1349618 -36.45  0.001148883    2.131    0.531
        96 -11.9296    178.5374     23.8980   2.3915422107e+01   3.7063523000e+01    0.4493259    0.3889573 -81.30  0.002736453    1.112    0.101
        97 -11.3486    173.2929     20.7916   2.3508918083e+01   3.8657604688e+01      0.49525    0.2359846  52.98   0.00218724    2.299    0.565
        98 -10.2371    187.2449     19.7980   2.1929308235e+01   3.5440883015e+01    0.2817149    0.1738718  77.33  0.001486955    1.654    0.395
        99 -10.2643    128.5104     18.3312   2.8297170187e+01   5.0369722619e+01    0.2788194     0.218485  79.41  0.001279138    1.225    0.184
       100  -9.8914    116.4529     17.2338   2.9907671575e+01   5.3680233497e+01    0.2061903    0.1249498 -40.44 0.0009141059    1.670    0.401
       101  -9.8576     94.3052     16.9779   3.4519352193e+01   5.9523722780e+01    0.2690114    0.1965663 -82.05 0.0009865729    1.620    0.383
       102  -9.7161    248.3065     16.6722   1.7201318491e+01   2.3135666762e+01    0.1236034   0.06057373 -50.62 0.0004066921    1.654    0.395
       103  -9.8565    228.6088     15.7704   1.8023607457e+01   2.6939599760e+01    0.1784582   0.08248993 -37.62 0.0009491583    1.653    0.395
       104 -10.6145      3.3233    230.2228   1.0695892045e+02   2.5828491218e+01    0.2405945    0.1025627  37.15   0.00142991    1.631    0.387
       105  -9.5046    111.6676    228.6898   8.3154233297e+01   1.4816953790e+01    0.1181422   0.08219175   0.54 0.0007042711    1.673    0.402
       106 -11.4857    248.6206    224.5621   5.7641032002e+01  -6.9268426189e-01    0.3834339    0.2256713 -18.41   0.00275625    1.376    0.273
       107 -10.0142     31.7663    227.3831   1.0070963226e+02   2.3904132640e+01    0.1569346     0.095177  19.14 0.0008662881    1.665    0.399
       108 -12.9250    203.6627    221.3369   6.4257668031e+01   4.4902379969e+00    0.7194971    0.3954338  15.22  0.004474779    1.615    0.381
       109 -12.6390    209.3786    215.1934   6.2371083120e+01   4.5538838981e+00     0.572418    0.2907156  18.53  0.003378608    1.814    0.449
       110  -9.7978     79.8249    224.8028   8.9770225969e+01   1.9298115803e+01    0.1705575    0.1159918  47.69   0.00106358    1.326    0.246
       111  -9.5124    129.5998     13.1440   2.6123045758e+01   5.0613584495e+01    0.1938514    0.1371229  -0.93 0.0009495043    1.745    0.427
       112 -13.8621    184.0246    215.5054   6.6881460113e+01   7.5878679502e+00    0.9491078    0.5715922 -19.89  0.005854349    1.698    0.411
       113 -10.4426     67.4283    217.2360   9.1960226283e+01   2.2086945665e+01    0.1572414    0.1099799  80.20 0.0009606242    1.704    0.413
       114 -11.3194    158.7855    225.3104   7.3055263768e+01   9.4234395365e+00    0.2220673    0.1464877 -24.66  0.001160983    1.646    0.392
       115 -10.1001    141.3298    206.5845   7.4054200004e+01   1.4505030181e+01    0.2244914    0.1538781 -39.05  0.001353083    1.640    0.390
       116  -9.8073    123.9736    205.9735   7.7753345421e+01   1.6974754415e+01    0.1743715    0.1460782  21.76            0    1.019    0.019
       117 -11.5207    243.4044    201.8776   5.4920915327e+01   2.2055923949e+00    0.4557905    0.2571166 -28.93    0.0031047    1.610    0.379
       118 -10.8783     50.9124    217.9826   9.5846371321e+01   2.3751838713e+01    0.2665885    0.2361967  46.87  0.001930742    1.118    0.106
       119  -9.9045     80.3191    199.6722   8.7246748651e+01   2.3902248765e+01    0.1348837    0.0833186  54.76 0.0006313078    1.683    0.406
       120 -10.4806    202.8327    197.1261   6.0644191612e+01   7.6091543488e+00    0.2171358    0.1775323 -18.12   0.00122279    1.265    0.210
       121 -11.2827    204.1297    192.6582   5.9680192390e+01   8.0262403105e+00    0.3867778    0.2107749  23.97   0.00222851    1.702    0.412
       122 -11.8161    195.6329    185.1082   5.9897483050e+01   1.0191128409e+01    0.3777215    0.2885994 -47.25  0.002381079    1.823    0.451
