#   1 NUMBER                 Running object number                                     
#   2 MAG_AUTO               Kron-like elliptical aperture magnitude                    [mag]
#   3 X_IMAGE                Object position along x                                    [pixel]
#   4 Y_IMAGE                Object position along y                                    [pixel]
#   5 X_WORLD                Barycenter position along world x axis                     [deg]
#   6 Y_WORLD                Barycenter position along world y axis                     [deg]
#   7 A_WORLD                Profile RMS along major axis (world units)                 [deg]
#   8 B_WORLD                Profile RMS along minor axis (world units)                 [deg]
#   9 THETA_WORLD            Position angle (CCW/world-x)                               [deg]
#  10 FWHM_WORLD             FWHM assuming a gaussian core                              [deg]
#  11 ELONGATION             A_IMAGE/B_IMAGE                                           
#  12 ELLIPTICITY            1 - B_IMAGE/A_IMAGE                                       
         1 -12.8109    192.7281     70.0250   7.5172605083e+01   2.8009782965e+01      2.21032     1.079174 -30.94  0.007828249    2.436    0.590
         2 -14.5221    174.6529     68.7882   7.8020708141e+01   3.2590644566e+01     7.087295     2.276623 -53.17  0.006477775    6.236    0.840
         3 -14.5451    146.5599     41.2384   7.5599531225e+01   4.3459000962e+01     6.259271     1.503263  52.05   0.02027009    3.478    0.712
         4 -15.7233    242.2265     16.2029   5.6986677822e+01   2.4229486658e+01     3.008549    0.9339406  64.97   0.01211384    2.903    0.656
         5 -15.4604    225.3304     43.2830   6.4282018373e+01   2.4427762986e+01     5.131248     1.896685 -56.18   0.01932394    3.126    0.680
         6 -14.0405    248.8185     25.2040   5.8197368874e+01   2.1720655913e+01    0.6245494    0.3954166 -49.45  0.001097754    1.396    0.284
         7 -13.3036    245.1697     34.5514   6.0381406602e+01   2.1267365289e+01    0.8564475    0.4625793 -72.25    0.0025069    1.879    0.468
         8 -12.9955    213.3901      3.8111   5.6921973159e+01   3.1950866404e+01     2.396963    0.6365748  74.31   0.00758483    3.456    0.711
         9 -15.5926    211.2488     64.5302   7.0964703406e+01   2.4499858229e+01     12.12818     3.880034 -50.58   0.03989175    3.500    0.714
        10 -13.6011    249.1981      2.3641   5.3824093715e+01   2.4368396756e+01    0.6619543     0.388792  71.84  0.001845192    1.598    0.374
        11  -9.7107    115.9417     12.5056   7.2749592696e+01   5.3610368411e+01    0.3171181    0.1908375  58.87  0.001158448    1.453    0.312
        12 -11.1040    120.2520      8.9216   7.0697627827e+01   5.2981876186e+01    0.4003816    0.3213682  56.17  0.001457256    1.071    0.066
        13 -11.2704    151.0609      7.7353   6.5082354390e+01   4.6067739909e+01    0.4357671       0.1889 -27.42  0.001212535    2.635    0.621
        14  -9.9697    141.5800     10.3986   6.7333222162e+01   4.8030505204e+01    0.2677463    0.2181004 -50.42 0.0007103985    1.399    0.285
        15  -8.6898    139.0000      6.0457   6.6464228450e+01   4.9005415448e+01    0.1988699    0.1679184 -26.85 0.0004929546    1.392    0.282
        16 -10.1093    172.8061      3.8338   6.1130406033e+01   4.1323438854e+01    0.5352436    0.2087548 -57.52   0.00207785    3.673    0.728
        17  -8.4190     90.4636      7.4658   7.6816539962e+01   5.9337244763e+01    0.1213708   0.09953595  34.56 0.0001576893    1.003    0.003
        18 -10.1591    211.8318    166.3002   9.4518529681e+01   5.2446215279e+00     0.287101    0.2425058  67.81  0.001293679    1.428    0.300
        19 -11.9796    246.4430    237.2267   1.0185941296e+02  -1.2537308759e+01    0.2231994    0.1959669   4.34 0.0002554568    1.183    0.155
        20 -10.1594    159.1695    215.4602   1.1511346171e+02   5.6232984613e+00    0.2316181    0.2245558 -54.75 0.0002409991    1.114    0.102
        21 -11.0079    159.3634    142.5026   1.0031069150e+02   2.1391347154e+01    0.7740889    0.4711151 -83.57  0.002419249    3.703    0.730
        22  -9.8257    192.0278    143.9839   9.3506124783e+01   1.3891617090e+01    0.2785127    0.2277233  61.51 0.0006507355    1.328    0.247
        23  -8.1449    105.9771    143.0652   1.1380691098e+02   3.2205612020e+01     0.169889    0.1605338 -76.40 0.0009066569    1.011    0.011
        24  -9.5757    228.5932    141.2532   8.5942550521e+01   6.7730023538e+00     0.204097    0.1292808 -32.08 0.0004978858    1.596    0.374
        25 -11.0278    188.3553    137.8870   9.2843226210e+01   1.5976758776e+01    0.3285087    0.3188532  27.58  0.001498466    1.097    0.089
        26 -10.5441    167.8310    138.5737   9.7444459049e+01   2.0393902842e+01    0.4137831    0.2902004 -83.99  0.001244278    2.107    0.525
        27 -11.0339    211.5544    136.5687   8.7965821564e+01   1.1201699425e+01    0.4171166    0.3237807   5.53  0.001983612    1.769    0.435
        28 -10.2589    173.6575    137.1195   9.5801159520e+01   1.9412636232e+01    0.3541316    0.1854899 -54.66  0.001314656    2.128    0.530
        29 -11.5617    180.0825    134.2967   9.3732912132e+01   1.8581743094e+01    0.5701253    0.3843609 -27.27  0.002421424    1.802    0.445
        30  -9.2891    145.5548    135.8292   1.0200764883e+02   2.5921840460e+01    0.2848195    0.2000025  87.73  0.000799974    2.102    0.524
        31 -10.4466    157.4880    130.4955   9.7863083683e+01   2.4490858480e+01    0.3416814    0.2316613 -59.49  0.001458333    1.611    0.379
        32 -10.9063    160.3916    127.8466   9.6536554412e+01   2.4422907694e+01     0.479753    0.3367852 -50.09  0.001678947    1.404    0.288
        33 -10.9723    135.7393    126.4039   1.0213767545e+02   3.0193721435e+01      1.02843     0.417976 -57.15  0.003103307    3.321    0.699
        34 -10.8110    134.6546    111.4985   9.8588267672e+01   3.3754824055e+01     1.019944    0.2068863 -44.63  0.002488767    4.850    0.794
        35 -11.1396    223.6825    128.7084   8.3991226201e+01   1.0181633381e+01    0.4424413    0.2901137  68.71  0.001597306    1.968    0.492
        36 -10.5366     37.2346    214.2227   1.4071720183e+02   2.5398610082e+01    0.2382516    0.1615531  74.47  0.001462128    1.239    0.193
        37 -13.4513     10.8687    193.9153   1.4420640951e+02   3.2755767668e+01    0.9437214    0.6845329 -88.71  0.003872679    1.043    0.041
        38  -9.3047    171.7541    126.0422   9.3532196667e+01   2.2233689683e+01    0.3286853     0.201499  49.01  0.001157279    1.670    0.401
        39 -10.7287     69.5592    159.8783   1.2660907569e+02   3.4016581578e+01    0.4190198    0.2636365  57.66  0.002010969    1.750    0.429
        40  -9.9507    191.7362    192.7399   1.0404401342e+02   3.9587503461e+00    0.6247287    0.3354049 -67.46  0.001867216    5.021    0.801
        41 -10.3142    151.7530    121.8133   9.7050567777e+01   2.7696763301e+01    0.3893466    0.3052661 -25.62  0.001794584    1.489    0.328
        42 -10.4367    140.3456    120.4639   9.9484929191e+01   3.0532759229e+01    0.5137246    0.3253882  79.84  0.001815702    2.846    0.649
        43 -11.2798    167.7446    114.0426   9.1400940402e+01   2.5699810776e+01    0.5019234    0.4232522 -46.05  0.001020547    1.162    0.140
        44  -9.9577    175.5701    115.9149   9.0181543876e+01   2.3491554687e+01    0.3358528    0.2378042 -82.66  0.001253064    1.954    0.488
        45 -10.1046    157.5576    114.2711   9.3757716485e+01   2.8007376628e+01    0.3946382    0.2700244 -81.71  0.001562631    2.196    0.545
        46 -10.0711    125.9672    109.9035   1.0041267338e+02   3.5970778021e+01    0.2725359    0.2260516 -63.38 0.0006784394    1.275    0.216
        47 -13.3508    248.0294     44.6289   6.2148255729e+01   1.9268805770e+01    0.7098342    0.4827594 -54.30   0.00106987    1.252    0.201
        48  -8.4065    107.5134    158.0648   1.1653496457e+02   2.8274112044e+01    0.2084705    0.1441535 -57.38 -5.172387e-05    1.388    0.279
        49  -9.4923    192.2357    153.3340   9.5595239017e+01   1.1889815775e+01    0.2632468    0.2015824  59.00 0.0006889502    1.445    0.308
        50  -9.2408    141.9249    104.0275   9.4771406927e+01   3.3736694463e+01    0.2452817    0.1958472   3.98  0.001122941    1.668    0.400
        51 -10.3049    124.0836    101.7894   9.8715178297e+01   3.8117585145e+01    0.4455052     0.242369  28.76  0.001608756    2.677    0.626
        52  -8.7455    173.3027    153.0036   9.9575010384e+01   1.6022070736e+01    0.2190901    0.1937011 -44.64 0.0003204285    1.113    0.102
        53 -10.1126    147.7580     99.3571   9.2094480262e+01   3.3370283430e+01    0.3090348    0.2893711  58.48 0.0006185463    1.069    0.065
        54  -8.9232    203.9650    152.5273   9.3041515551e+01   9.5879346057e+00    0.2227346    0.1490857  44.54  0.000767891    1.571    0.363
        55  -9.4003    134.1522     96.0675   9.4518937557e+01   3.7118533623e+01     0.249978    0.2254341  70.90 0.0003923236    1.173    0.147
        56  -9.2553    210.9572     95.0881   7.8318492730e+01   1.9332469774e+01    0.2166937    0.1986123 -71.19  0.000300915    1.017    0.017
        57 -10.7182    157.9538     92.2978   8.7824705873e+01   3.2390059529e+01    0.5001444    0.4378314   7.63  0.002534961    1.384    0.277
        58 -11.6055     35.6695    188.1101   1.3847739645e+02   3.1515261502e+01     0.623533    0.1559872 -56.66  0.002253658    3.685    0.729
        59 -11.0885      3.5807     89.7342   1.3332179206e+02   5.7101696839e+01    0.3001281    0.2079648 -33.31  0.001984852    1.421    0.296
        60 -11.9462    156.0217     82.4203   8.5526880929e+01   3.4708233496e+01    0.5660989     0.382181  58.32 0.0005402848    1.486    0.327
        61 -10.4063    141.4690     88.9511   9.0710141251e+01   3.6879345634e+01      0.33728    0.2970347 -74.93  0.001149566    1.238    0.192
        62  -8.4111     19.3566     84.2924   1.2694661111e+02   5.7230194051e+01    0.1289327   0.07395933 -33.92 0.0007029718    1.689    0.408
        63 -11.0273    151.4605     71.0088   8.3293936908e+01   3.7808137423e+01    0.5765315    0.3568474 -59.46    0.0013844    2.027    0.507
        64 -10.9621    144.6546     69.6997   8.4419325586e+01   3.9636061787e+01     0.778169    0.3974909 -59.11  0.002739631    3.131    0.681
        65  -9.8464      2.4184     75.7708   1.3099116039e+02   6.0097050663e+01    0.1804611   0.07434426 -52.50 0.0009592829    1.721    0.419
        66 -12.2976     22.6412    175.0186   1.3996464909e+02   3.5963793209e+01    0.5153251    0.2897612 -86.58  0.002777661    1.586    0.369
        67 -10.1429    133.4798    144.8878   1.0711600607e+02   2.6378650792e+01     1.168275    0.2616842 -54.07  0.002468715    6.527    0.847
        68  -8.0830     43.4911     80.4742   1.1765029963e+02   5.5813406736e+01    0.1283277    0.1103411 -38.83 0.0003302285    1.040    0.039
        69 -13.3810     42.3636    172.5986   1.3515952707e+02   3.4425856162e+01    0.8643019    0.7685423 -23.88  0.002658569    1.551    0.355
        70  -8.1862     98.2547     76.6597   9.8643762325e+01   4.8354756053e+01    0.1358955    0.1123243 -72.17  0.000471416    1.578    0.366
        71  -8.9955    156.0665     69.0699   8.1759920541e+01   3.7036207334e+01    0.2328787    0.1733633 -74.59 0.0005611702    1.638    0.390
        72 -12.9304     53.6692    163.5370   1.3119018674e+02   3.5254646172e+01    0.9158648    0.7538213 -77.51  0.003096383    1.037    0.036
        73  -8.3241    120.9509     67.9447   8.9627313692e+01   4.5296629138e+01    0.1681958    0.1594529  30.96 0.0003255534    1.019    0.018
        74  -8.3600    118.2922     64.3097   8.9186449314e+01   4.6481426605e+01    0.1432295    0.1089707  12.30 0.0001587153    1.585    0.369
        75  -9.3803    222.6550    145.3215   8.7897482855e+01   7.1820961822e+00    0.2332882    0.1767712  62.58 0.0005541219    1.559    0.359
        76 -11.2000    145.0706     58.8269   8.1127424941e+01   4.1299401085e+01     0.503355    0.3711888  54.67  0.001556453    1.282    0.220
        77  -8.9091     72.8201     58.2036   1.0070581964e+02   5.6087085364e+01    0.1815699    0.1729814 -17.82 0.0004691291    1.182    0.154
        78 -10.1170    179.5728     50.8183   7.2374775226e+01   3.4177486202e+01    0.4770593    0.1762041  58.00  0.001597081    2.455    0.593
        79 -10.2040    219.9262    148.0029   8.8989026660e+01   7.2115302359e+00    0.2877837    0.2579809 -16.82 0.0004657933    1.162    0.140
        80 -11.4408     68.3589    144.7425   1.2427297659e+02   3.7917381230e+01    0.6923532     0.448352  71.10  0.002476348    1.989    0.497
        81  -8.6399    101.0124    175.9811   1.2150915695e+02   2.5079059651e+01    0.1966976    0.1815671 -89.48  0.001093716    1.022    0.021
        82 -11.2993    178.7125    144.4625   9.6427730233e+01   1.6701545538e+01    0.6259893    0.4403031 -64.38  0.002747677    1.675    0.403
        83 -10.3486    234.9534    173.9892   9.1822969115e+01  -5.4429755818e-01    0.3469665    0.2146215  48.63  0.001101627    1.850    0.459
        84  -9.4420    200.7015    173.3817   9.8238137801e+01   6.0434811169e+00     0.256759    0.1800056 -21.05 0.0009461196    1.701    0.412
        85 -10.1018    244.5229    172.6353   8.9859404845e+01  -1.9789557492e+00    0.2786115    0.1988042   6.03  0.001308796    1.762    0.432
        86  -9.4822    224.7986    172.3872   9.3345098071e+01   1.5983873362e+00    0.2875358    0.1259414  37.05  0.001114661    2.628    0.620
        87 -10.2133    230.6146    167.5723   9.1265715547e+01   1.4167750606e+00     0.363038     0.120543 -45.28  0.001256115    2.953    0.661
        88  -9.9724    215.6157    168.3090   9.4218044524e+01   4.1152948737e+00    0.3647285    0.2619841  69.32  0.001407217    1.993    0.498
