#   1 NUMBER                 Running object number                                     
#   2 MAG_AUTO               Kron-like elliptical aperture magnitude                    [mag]
#   3 X_IMAGE                Object position along x                                    [pixel]
#   4 Y_IMAGE                Object position along y                                    [pixel]
#   5 X_WORLD                Barycenter position along world x axis                     [deg]
#   6 Y_WORLD                Barycenter position along world y axis                     [deg]
#   7 A_WORLD                Profile RMS along major axis (world units)                 [deg]
#   8 B_WORLD                Profile RMS along minor axis (world units)                 [deg]
#   9 THETA_WORLD            Position angle (CCW/world-x)                               [deg]
#  10 FWHM_WORLD             FWHM assuming a gaussian core                              [deg]
#  11 ELONGATION             A_IMAGE/B_IMAGE                                           
#  12 ELLIPTICITY            1 - B_IMAGE/A_IMAGE                                       
         1 -15.1493      9.4999    151.7881   1.4434710160e+02   4.2349702611e+01     6.302992     1.928869 -79.73      0.02482    3.390    0.705
         2 -14.7146     44.8494    222.5074   1.4388040007e+02   2.3469310598e+01     5.872596     1.173563  40.36   0.01052076    4.191    0.761
         3 -12.3903      2.3072     27.6292   1.2348635480e+02   6.8263096712e+01     2.050764   0.09577067 -53.37   0.00476277   12.344    0.919
         4 -12.8558      3.8177      6.4827   1.1491488062e+02   7.1354727562e+01    0.9419785    0.6218782 -29.13  0.007283833    1.147    0.128
         5 -13.6253    206.9725     11.6586   6.3685019627e+01   3.2278679500e+01     1.504815     1.082583  38.86  0.008404306    1.790    0.441
         6 -13.0787    192.4425     30.0213   7.0115850413e+01   3.3707648606e+01     1.180817     1.079744 -52.73  0.006532633    1.159    0.137
         7 -10.9072    139.5732    245.1935   1.2882277471e+02   4.7691243122e+00    0.2268149    0.1943364   2.54  0.001437885    1.662    0.398
         8 -11.1231    140.3362    250.2581   1.2932406961e+02   3.7985551271e+00    0.5276382    0.1315025  45.26   0.00194863    3.220    0.689
         9 -11.4794    125.9768    250.1185   1.3194002678e+02   6.2220899760e+00    0.6148204    0.1298178  42.75  0.002100958    3.910    0.744
        10 -11.3687     99.1128    248.9377   1.3665938265e+02   1.0744552738e+01    0.3960367    0.2461961  52.91  0.002107306    1.293    0.227
        11 -10.6778    101.2818    245.6621   1.3592792392e+02   1.0990811272e+01    0.2064691    0.1601209  81.83  0.000665314    1.203    0.169
        12 -10.8622     30.5632    249.9692   1.4826328793e+02   1.9946717042e+01    0.3369504     0.224972  37.79  0.001585657    1.952    0.488
        13 -10.8722     35.2621    244.5290   1.4716414253e+02   2.0387391566e+01     0.332814    0.3249856 -24.99  0.002685532    1.905    0.475
        14  -9.8621     18.1836    249.6934   1.5015479020e+02   2.1403142968e+01    0.2057192    0.1662235  -6.39  0.001333385    3.502    0.714
        15 -11.6071      5.2887    226.9082   1.5087461395e+02   2.6995727759e+01     0.476037    0.3524142  44.81   0.00265515    1.646    0.392
        16 -11.2823      3.2824    248.3961   1.5231246005e+02   2.3211042510e+01    0.4429184    0.2584101  65.34  0.003345124    1.238    0.192
        17 -10.4332      1.5705    239.6564   1.5213376335e+02   2.4968686598e+01    0.5492013   0.09327471 -74.15  0.002314408    4.400    0.773
        18 -10.0496     23.7339    246.1369   1.4909403988e+02   2.1431217777e+01    0.1883399    0.1039111  58.80 0.0007216794    1.401    0.286
        19 -11.2350    238.9441    248.0980   1.1098428743e+02  -1.2207027152e+01    0.2814055    0.1883008  26.08  0.001773039    1.237    0.191
        20 -11.7896     11.1925    239.1487   1.5063693907e+02   2.4084513802e+01    0.4329605    0.1838388  84.54   0.00113191    2.058    0.514
        21 -11.2595    119.6500    237.7236   1.3162664433e+02   9.4461156447e+00    0.3578942    0.1879903 -75.70  0.001661087    2.729    0.634
        22 -10.2836     49.5476    234.5559   1.4404674258e+02   2.0504686095e+01    0.2318996    0.1677444  76.33  0.000696022    1.038    0.037
        23 -13.4654     10.4413    206.8295   1.4876259557e+02   3.0461583573e+01     1.435353    0.7918366  85.82  0.005627317    1.429    0.300
        24 -11.5020    246.5800    247.2870   1.0951893110e+02  -1.3242539566e+01    0.3918544      0.32653  69.81  0.002509004    2.282    0.562
        25 -11.3793     64.4599    197.2505   1.3764318211e+02   2.6205572546e+01    0.3265417    0.2355433 -49.30 0.0009261052    1.771    0.435
        26  -9.9183    193.7082    195.8269   1.1021216666e+02   3.4925595862e+00    0.5018899    0.2592448 -65.04   0.00148427    5.487    0.818
        27  -8.8372     51.9030    197.6132   1.4021471147e+02   2.7783721606e+01    0.1739668    0.1289327  68.39  0.000875525    1.173    0.148
        28 -10.4038     43.1189    194.6670   1.4165857629e+02   2.9502859823e+01    0.5118785    0.1819223  66.64  0.001623259    5.511    0.819
        29  -8.2910     47.9491    192.9789   1.4052101712e+02   2.9286027129e+01    0.1437162    0.1141238  84.06 0.0009385511    1.017    0.017
        30 -11.5423     70.1081    189.5040   1.3553747335e+02   2.7125515657e+01    0.2750376    0.2243602 -65.83  0.000507595    1.272    0.214
        31 -10.7041     79.6582    176.9779   1.3175596194e+02   2.8564059770e+01      0.24948    0.2099455 -70.50 0.0004080893    1.148    0.129
        32 -12.9841     66.7140    174.8345   1.3435495852e+02   3.0916178136e+01    0.4972464    0.2699507 -46.67  0.001455539    2.284    0.562
        33 -11.6733     86.8880    167.6150   1.2866221037e+02   2.9615071556e+01    0.6689582    0.5452343  67.73  0.003817165    1.183    0.155
        34  -9.1130    230.6702    167.3331   9.7222682147e+01   1.3507852159e+00    0.1385253     0.113551 -76.73 0.0007052015    1.722    0.419
        35 -12.4130     38.7247    231.1764   1.4563817357e+02   2.2506380628e+01    0.2990606    0.2380553 -83.37 0.0007602843    1.295    0.228
        36  -9.7713     99.3137    151.6695   1.2286557248e+02   3.1311500762e+01    0.2731796    0.2496915 -75.90 0.0006774033    1.027    0.026
        37  -9.1336    102.1238    147.5284   1.2136203419e+02   3.1799315164e+01    0.2584066    0.1928789 -35.33 0.0008734139    1.617    0.382
        38 -11.8519     87.9539    150.9389   1.2554511086e+02   3.3355794019e+01    0.2927443    0.2520375 -44.37 0.0005579842    1.288    0.224
        39 -12.3208     67.3426    143.9951   1.2948277639e+02   3.8030758188e+01    0.7414316     0.499734  72.79  0.003788133    1.745    0.427
        40 -10.1107    163.5679    248.9482   1.2485076729e+02   4.7400472161e-02    0.2222974    0.1458969  57.95  0.001259322    1.558    0.358
        41  -8.2286    192.2332    144.0063   9.9545301520e+01   1.3840362183e+01    0.1911567    0.1268853 -41.66 0.0003272751    1.496    0.332
        42  -9.6532    110.3640    136.9793   1.1708229676e+02   3.2789412551e+01    0.3680986    0.2308113 -30.94  0.001306846    2.222    0.550
        43 -10.2723     97.7606    134.1679   1.1973643544e+02   3.5689258117e+01    0.2689228    0.2246287 -36.12 0.0005819082    1.324    0.245
        44 -11.3358     56.8005    129.0999   1.2959777242e+02   4.2885059605e+01    0.4704681    0.2353213 -73.87  0.002031891    2.282    0.562
        45  -9.2819    107.2208    123.7967   1.1492543801e+02   3.6419393704e+01    0.2036218    0.1898625 -76.27 0.0003515838    1.057    0.054
        46  -8.5855     92.7978    214.8569   1.3402685193e+02   1.8267108551e+01    0.1764021     0.126832  75.37  0.000297495    1.290    0.225
        47  -8.7339    152.7267    212.9753   1.2160312845e+02   8.1811828362e+00    0.1785705    0.1663787  64.41 0.0003800009    1.064    0.060
        48 -10.1679    168.0494    113.0589   9.7171479910e+01   2.5780615965e+01    0.3600706    0.2894003 -83.14 0.0007980842    1.499    0.333
        49  -9.2532    203.4791    111.4871   8.9448193243e+01   1.7699594622e+01    0.1518307    0.1484024 -41.53 0.0003845422    1.045    0.043
        50  -9.0953    229.3200    229.6411   1.0957625694e+02  -8.2916439237e+00    0.1135379    0.1009279  78.76  0.000704409    1.765    0.433
        51 -10.6605     81.2124    249.1225   1.3982622368e+02   1.3413905286e+01     0.261886    0.1527481  47.48  0.001581211    1.476    0.323
        52  -9.5052     46.5055    248.9408   1.4565129906e+02   1.8190431529e+01    0.2627335    0.1105836  66.24  0.001183617    2.239    0.553
        53 -10.9818    106.0716    246.7274   1.3517621122e+02   1.0043400455e+01    0.2435187    0.1770951  74.01  0.001435005    1.269    0.212
