#   1 NUMBER                 Running object number                                     
#   2 MAG_AUTO               Kron-like elliptical aperture magnitude                    [mag]
#   3 X_IMAGE                Object position along x                                    [pixel]
#   4 Y_IMAGE                Object position along y                                    [pixel]
#   5 X_WORLD                Barycenter position along world x axis                     [deg]
#   6 Y_WORLD                Barycenter position along world y axis                     [deg]
#   7 A_WORLD                Profile RMS along major axis (world units)                 [deg]
#   8 B_WORLD                Profile RMS along minor axis (world units)                 [deg]
#   9 THETA_WORLD            Position angle (CCW/world-x)                               [deg]
#  10 FWHM_WORLD             FWHM assuming a gaussian core                              [deg]
#  11 ELONGATION             A_IMAGE/B_IMAGE                                           
#  12 ELLIPTICITY            1 - B_IMAGE/A_IMAGE                                       
         1 -12.1825    206.0185      2.3797   6.2209266550e+01   3.2147206134e+01     1.158426    0.5970391  73.36  0.003164683    1.875    0.467
         2 -13.2436    184.3563     25.6856   7.1419413128e+01   3.5453602879e+01     1.765776     1.265758 -17.00  0.005853971    1.497    0.332
         3 -13.0762    191.7862     18.2479   6.8212532290e+01   3.4292910349e+01     1.498997    0.9911297 -35.87   0.00571059    1.453    0.312
         4 -11.9899    198.0589     10.5617   6.5256929888e+01   3.3424898742e+01    0.6102705    0.5595906  25.85  0.001236809    1.235    0.190
         5 -11.5489     40.2355      8.2103   1.0720409215e+02   7.3018173756e+01    0.4447673    0.2720387 -40.48  0.002331964    1.564    0.361
         6  -9.4748    228.4296    204.8547   1.0681881469e+02   2.0387684572e+00    0.1904495    0.1752146 -10.62 0.0008945406    1.650    0.394
         7  -9.7339    247.2392    249.8896   1.1045366305e+02  -4.5596092250e+00    0.2146557   0.09004517  17.29  0.001255524    2.155    0.536
         8 -11.0569    139.4660    248.8399   1.2906811980e+02   9.2434355540e+00    0.2612861    0.2274633  57.75  0.001981351    1.478    0.323
         9 -11.0875    109.8252    247.6943   1.3459040956e+02   1.3255996812e+01    0.2939758    0.2475254  84.69  0.001434693    1.578    0.366
        10 -11.4499    105.0705    244.9402   1.3527641499e+02   1.4244722728e+01    0.3896876    0.3089367 -54.88 0.0006609736    1.760    0.432
        11 -12.0583    100.4562    245.0755   1.3617740777e+02   1.4808418432e+01    0.4955961    0.4141824 -14.35  0.003175061    1.736    0.424
        12 -17.4324      6.4913    140.1613   1.5085413990e+02   4.4740432224e+01     17.74705     2.050344 -84.25   0.04363054    8.926    0.888
        13 -12.2021     67.7611    144.2709   1.3374090077e+02   3.7923394454e+01    0.8941764    0.5290499  70.10  0.004230357    1.987    0.497
        14 -12.6202     75.7480    171.0316   1.3477139702e+02   3.1005583605e+01    0.4291219    0.2781585 -40.06  0.001626879    2.136    0.532
        15 -13.6111     54.2098    227.5788   1.4411757281e+02   2.3001894403e+01     1.691768     0.676594 -78.49  0.004071148    3.032    0.670
        16 -15.0175     63.4002    215.2496   1.4147690522e+02   2.4065263623e+01     6.532534     1.362991  40.90   0.02782487    2.871    0.652
        17  -8.8835     51.7137    157.4568   1.3968283655e+02   3.6880904265e+01    0.2150641    0.1545382  45.94 0.0007591427    1.216    0.178
        18 -11.4676     93.6582    148.5902   1.2704614532e+02   3.3241011671e+01    0.2865935    0.2475516  26.62 0.0005640421    1.191    0.160
        19  -9.6138    104.5211    148.9782   1.2414092593e+02   3.1413806483e+01    0.2963163    0.2629668 -52.26 0.0008724713    1.252    0.202
        20  -8.8925    106.9634    145.2873   1.2284936572e+02   3.1796970730e+01    0.3227234    0.1823391 -36.90  0.001368073    2.383    0.580
        21  -9.5779    133.8916    144.5941   1.1561879341e+02   2.7122195776e+01    0.8145127    0.2045069 -54.66  0.001874441    7.763    0.871
        22  -8.8881     40.4986    143.5056   1.4150717417e+02   4.1227114951e+01    0.1289049    0.1094144  66.89 0.0008105868    1.020    0.020
        23  -9.3907    113.6728    135.3081   1.1916088449e+02   3.2776534584e+01    0.3184993    0.2507484 -18.98   0.00109451    1.602    0.376
        24  -9.6620     69.8831    134.4937   1.3177300639e+02   3.9912676482e+01    0.3565248    0.1291548  31.05  0.001346617    2.664    0.625
        25  -9.1601     49.3108    131.3341   1.3762665718e+02   4.3169523933e+01    0.1318883   0.09745083 -38.11 0.0007043799    1.678    0.404
        26 -10.5337     41.8430    125.9017   1.3932779973e+02   4.5252775348e+01    0.2527778    0.2273297  52.11 0.0008722419    1.101    0.092
        27 -10.0714    101.4641    132.1584   1.2201155558e+02   3.5615526671e+01    0.2986425    0.2413742 -28.60 0.0009213835    1.487    0.328
        28  -9.0181    109.7583    122.7990   1.1771729391e+02   3.6235568726e+01    0.2093781    0.1949532   6.66 0.0004662113    1.152    0.132
        29 -10.0706     57.1551    144.9210   1.3687084114e+02   3.9089708986e+01    0.2915724    0.1843641  26.05   0.00108607    1.653    0.395
        30  -9.9843    168.2221    113.0043   1.0015354316e+02   2.6110148862e+01    0.3493381    0.2996886 -87.01 0.0009789061    1.582    0.368
        31  -9.2304    118.8173    127.9778   1.1623850769e+02   3.3408219582e+01    0.2383245    0.1682306 -20.89  0.001064257    1.937    0.484
        32  -8.4115    205.5965    109.8381   9.1809742234e+01   1.8553667604e+01    0.1964598    0.1261464 -39.57 0.0006138788    1.624    0.384
        33  -8.6493    115.3329    110.3272   1.1324134977e+02   3.7937528254e+01    0.1573812    0.1211486  -2.58  0.000705155    1.715    0.417
        34 -10.5859     87.7147    173.9635   1.3208441080e+02   2.8760886403e+01    0.2403054     0.223856  27.21 0.0004337719    1.188    0.158
        35  -8.1001    181.5180    192.4159   1.1345520176e+02   1.0640894825e+01    0.1298157    0.1005105  23.08 6.867795e-05    1.015    0.014
        36 -11.8535     54.5211    120.4151   1.3456012645e+02   4.5217622751e+01    0.8716088    0.3803524 -89.92  0.002956579    3.803    0.737
        37 -12.2129     93.6023    166.3477   1.2962488312e+02   2.9466517680e+01     2.977611      0.58055  45.62  0.008067047    5.347    0.813
        38 -12.0942     58.8130    132.9828   1.3492139684e+02   4.1683303824e+01    0.9516463    0.4421224 -84.60  0.003786996    2.806    0.644
        39 -10.3571    192.8395    194.4119   1.1156080156e+02   8.5712803026e+00    0.7377208     0.399597 -57.78  0.002534525    6.835    0.854
        40 -11.4303    126.4659    248.2269   1.3146569091e+02   1.1033620854e+01    0.3644121    0.3118265 -50.39   0.00230795    1.658    0.397
        41 -11.1253     75.7546    192.2704   1.3691084136e+02   2.6761399076e+01     0.347371    0.2664093 -38.63  0.001799087    1.806    0.446
        42 -11.0978     79.9974    185.4992   1.3525148039e+02   2.7518348405e+01    0.2658145    0.2417386 -38.38 0.0007969118    1.411    0.291
