#   1 NUMBER                 Running object number                                     
#   2 MAG_AUTO               Kron-like elliptical aperture magnitude                    [mag]
#   3 X_IMAGE                Object position along x                                    [pixel]
#   4 Y_IMAGE                Object position along y                                    [pixel]
#   5 X_WORLD                Barycenter position along world x axis                     [deg]
#   6 Y_WORLD                Barycenter position along world y axis                     [deg]
#   7 A_WORLD                Profile RMS along major axis (world units)                 [deg]
#   8 B_WORLD                Profile RMS along minor axis (world units)                 [deg]
#   9 THETA_WORLD            Position angle (CCW/world-x)                               [deg]
#  10 FWHM_WORLD             FWHM assuming a gaussian core                              [deg]
#  11 ELONGATION             A_IMAGE/B_IMAGE                                           
#  12 ELLIPTICITY            1 - B_IMAGE/A_IMAGE                                       
         1 -13.0972     68.1262    143.6487   8.0495354933e+01   3.7810484679e+01     1.981601    0.9801504  79.04  0.003009588    3.755    0.734
         2 -13.1187    217.7219     53.5257   2.3675303096e+01   2.3607781538e+01     1.400687     1.210019  67.27   0.00733744    1.167    0.143
         3 -13.2612    237.1948     40.8892   1.8088859108e+01   2.0687646117e+01     1.364737     0.953682  50.99  0.007175903    1.656    0.396
         4  -9.9220    106.2823     14.0366   3.2183897115e+01   5.6758198255e+01    0.3295154    0.2338883 -60.87  0.001413329    2.044    0.511
         5 -10.6511      3.3875      9.6264   7.1535877303e+01   7.2289376964e+01    0.2010128    0.1149076 -46.73  0.001363638    1.414    0.293
         6  -9.7010     41.9701      8.9901   5.2158594114e+01   6.8738709317e+01    0.1439145    0.1147786  -3.64 0.0008062105    1.023    0.023
         7  -9.8871     49.0248    238.1764   9.4304201827e+01   2.0325943182e+01    0.1840799    0.1265242  82.30 0.0002866231    1.208    0.172
         8 -11.6096     47.1783    166.4288   8.8536696345e+01   3.5236103406e+01    0.2788325    0.2520997 -66.13 0.0007720664    1.337    0.252
         9 -12.0107     39.2176    172.0842   9.0886869200e+01   3.4894616799e+01     0.519767    0.4460237  -1.92  0.001370648    1.893    0.472
        10 -14.8898     14.1271    236.3309   9.9980817460e+01   2.4697638266e+01     5.085741     2.412885  27.21   0.02635017    4.045    0.753
        11 -11.0579     78.7063    206.4280   8.6103561340e+01   2.2364804256e+01    0.2945251    0.1921129 -88.51  0.000544908    1.493    0.330
        12 -15.2819     23.4640    181.1057   9.4980092703e+01   3.4613880850e+01     8.315516     2.401157 -88.00   0.02671638    5.530    0.819
        13  -9.4578    230.0000    167.9889   4.8684962391e+01   1.5303742344e+00    0.2212655   0.07520386 -37.38  0.000803869    2.952    0.661
        14  -8.0773    110.6576    167.2709   7.3892327211e+01   2.5535928753e+01    0.1486938    0.1004383  70.03 0.0004153449    1.611    0.379
        15 -12.1171     74.5743    137.4202   7.7811164743e+01   3.8363164230e+01    0.8980576    0.4861436 -87.49 0.0005555995    2.669    0.625
        16 -12.3563     56.2670    130.3626   8.1513241771e+01   4.2498496342e+01     2.975052    0.8259153 -73.21  0.005890438   10.853    0.908
        17 -11.8154     69.3254    151.9960   8.1452718841e+01   3.5688110222e+01    0.5424272    0.4054466  67.50  0.001199232    1.279    0.218
        18 -10.5632    105.9865    229.6252   8.3239823279e+01   1.3706380901e+01       0.3024    0.1349273  48.57  0.001507944    1.786    0.440
        19  -7.9297     85.2806    152.6204   7.7601981389e+01   3.3168010880e+01    0.1484701   0.09797121  80.11 0.0007008684    1.716    0.417
        20 -11.5028    239.7177    149.0872   4.2999793567e+01   2.7161263710e+00    0.4128552    0.2191563 -26.02  0.001806569    2.078    0.519
        21  -9.5394     91.2123    136.8707   7.3343747710e+01   3.5901813004e+01    0.2498168    0.2018569  43.20 0.0009014104    1.300    0.231
        22 -12.6013      3.6160    195.9453   9.9750451602e+01   3.3433635561e+01    0.3077706    0.2431202 -86.66 0.0007682143    1.276    0.216
        23 -10.4716     87.4990    139.8740   7.4864980441e+01   3.5800777514e+01    0.3293991    0.2947729 -51.76 0.0009518609    1.232    0.189
        24 -10.3617    104.7415    130.1376   6.8440937760e+01   3.5128394610e+01    0.5093234    0.3386324  54.45  0.002152226    1.551    0.355
        25 -10.6606     60.6062    157.5606   8.4344778878e+01   3.5580398017e+01    0.2381238    0.2131906  89.42 0.0003852442    1.123    0.109
        26  -9.9680     88.8851    125.1445   7.1676097280e+01   3.9049127791e+01     0.284243    0.2490347  31.80 0.0008977888    1.306    0.234
        27  -8.7774    111.7938    124.0029   6.5242047972e+01   3.5233930433e+01    0.2472123    0.1738248 -26.12  0.001075722    2.039    0.510
        28  -9.1788    102.0227    118.0603   6.6545883722e+01   3.8435564458e+01    0.2115393    0.2019898 -64.01 0.0003160078    1.066    0.062
        29 -13.9765     11.8177    190.1066   9.7889545725e+01   3.3864093962e+01     1.143878    0.6142741  70.33   0.00324876    1.514    0.339
        30  -9.3487    204.7033    110.8531   4.0503106588e+01   1.7014094525e+01     0.396671    0.1921446  41.95   0.00147766    2.323    0.569
        31  -9.6105    240.3235    107.0086   3.3442806578e+01   9.5990820613e+00    0.2323879    0.1183111 -15.33 0.0007050363    4.314    0.768
        32 -13.0240     45.6265    153.1486   8.7376584697e+01   3.8442902158e+01    0.5266794    0.3863781 -28.41  0.001631603    2.184    0.542
        33  -9.5565    164.9855     97.4931   4.5239838571e+01   2.9228422884e+01    0.2404196    0.1543239  52.32 0.0004596664    1.536    0.349
        34 -11.2595    242.3575     93.9885   3.0084384872e+01   1.1317606854e+01    0.4092256    0.1641332 -42.42  0.001581768    2.273    0.560
        35  -9.6545     41.5169     92.1825   7.8999729610e+01   5.3036870995e+01    0.1957805    0.1821875  29.17 0.0005149999    1.264    0.209
        36  -9.8780     52.8133     90.6142   7.5032009325e+01   5.2164146771e+01    0.2618682    0.1815348 -38.94   0.00111379    1.478    0.323
        37  -9.8395    249.1668     86.9807   2.7476498191e+01   1.0963867460e+01    0.2309495    0.1654623  -2.72  0.001096641    2.052    0.513
        38 -10.4381    166.6985     87.1083   4.2000948999e+01   3.0837691196e+01    0.2843301     0.220412  68.32 0.0007158222    1.358    0.264
        39 -13.6477      8.8679    208.0221   9.9456633671e+01   3.0548259564e+01     1.194872    0.9723919 -70.73  0.006551619    1.569    0.363
        40 -10.2048    184.3697     77.4538   3.5654341415e+01   2.8160261374e+01    0.3383979    0.2389078  25.65  0.001013481    1.952    0.488
        41  -8.5718     38.0054     77.2016   7.6946879381e+01   5.6713578797e+01    0.1974073    0.1317915  61.20  0.001069109    2.075    0.518
        42 -10.8038      5.3190     65.4286   8.6055167224e+01   6.1625901157e+01    0.2399586    0.1639262  87.29  0.001121229    1.721    0.419
        43 -10.4311      1.9857     62.0416   8.6628423309e+01   6.2497925491e+01     0.251782    0.1574901 -80.35  0.001061903    1.614    0.380
        44  -9.7851     81.0036    248.5107   8.9553396066e+01   1.4183265689e+01    0.1741176     0.131888  77.44  0.001078477    1.182    0.154
        45 -10.0278    107.6748    221.9520   8.2066993788e+01   1.4833214611e+01    0.1788534    0.1470106  77.73  0.001087642    1.145    0.126
        46 -10.1641     11.3446     52.9247   8.1141201684e+01   6.3873731046e+01    0.1796107    0.1276931 -72.57  0.001101744    1.441    0.306
        47  -8.1089     93.4893     46.4502   4.8352561596e+01   5.4880599409e+01    0.1364975    0.1281597   0.72 0.0001540088    1.023    0.023
        48  -9.6856      2.6433     38.2978   8.1121563852e+01   6.7223269592e+01    0.1536674    0.1231503  79.66  0.001103884    1.753    0.430
        49 -10.4436     13.4020     60.0785   8.1980440653e+01   6.2285551326e+01     0.223085    0.1718416 -61.80 0.0005061113    1.125    0.111
        50 -10.9814    244.9165    246.6977   6.0153286979e+01  -1.1485240494e+01     0.260859    0.1458148  24.86  0.001603998    1.516    0.341
        51 -10.7192    111.1273    230.4183   8.2350090951e+01   1.2738561425e+01    0.3024026    0.1592799  49.06   0.00162856    1.512    0.339
