#   1 NUMBER                 Running object number                                     
#   2 MAG_AUTO               Kron-like elliptical aperture magnitude                    [mag]
#   3 X_IMAGE                Object position along x                                    [pixel]
#   4 Y_IMAGE                Object position along y                                    [pixel]
#   5 X_WORLD                Barycenter position along world x axis                     [deg]
#   6 Y_WORLD                Barycenter position along world y axis                     [deg]
#   7 A_WORLD                Profile RMS along major axis (world units)                 [deg]
#   8 B_WORLD                Profile RMS along minor axis (world units)                 [deg]
#   9 THETA_WORLD            Position angle (CCW/world-x)                               [deg]
#  10 FWHM_WORLD             FWHM assuming a gaussian core                              [deg]
#  11 ELONGATION             A_IMAGE/B_IMAGE                                           
#  12 ELLIPTICITY            1 - B_IMAGE/A_IMAGE                                       
         1 -12.3046     89.9121     59.4728   2.9122459213e+02   6.5340748325e+00   0.04418038   0.04108404  70.27  0.005414015    1.147    0.128
         2 -12.3847     60.4314     45.2050   2.9148045982e+02   6.8791988662e+00    0.0747449   0.02917669 -61.25  0.005945526    2.617    0.618
         3 -12.1734    131.0024     13.8572   2.9045588241e+02   6.7961312655e+00   0.09146995   0.02943537  32.02  0.006818934    2.832    0.647
         4 -12.4577    104.9259     13.0694   2.9075650774e+02   6.9674535118e+00   0.03501728   0.02485634 -66.72  0.003731469    1.496    0.331
         5 -12.5756    124.2555     27.1518   2.9061871546e+02   6.6873264636e+00   0.04914393   0.03918046 -55.07  0.002723868    1.262    0.208
         6 -11.9748    112.8878     51.2026   2.9090335215e+02   6.4851002663e+00   0.07209036   0.02785036 -64.25  0.005530634    2.868    0.651
         7 -12.9932    112.6402     24.9020   2.9074064155e+02   6.7851793205e+00   0.06694702   0.03572851  16.92  0.005897589    2.202    0.546
         8 -12.1360    145.4057     47.2780   2.9049779498e+02   6.3271327039e+00    0.0512971   0.02396468 -57.51  0.004049714    2.104    0.525
         9  -9.8758    149.2126     14.8377   2.9024876129e+02   6.6714856477e+00   0.01524762   0.01142886 -12.36 0.0009631475    1.580    0.367
        10 -11.2140    140.8677     20.3483   2.9038123845e+02   6.6610092229e+00   0.04656652   0.02144876  18.49  0.003718508    2.663    0.624
        11 -11.8557    178.3770     21.0059   2.8994624743e+02   6.4195247425e+00    0.0304508   0.01991445 -19.89   0.00254806    2.011    0.503
        12 -10.8537    187.2326     14.4235   2.8980110230e+02   6.4388606577e+00   0.02487417   0.01678146 -13.76  0.001652375    1.938    0.484
        13 -11.7777    192.4673      6.6476   2.8969078683e+02   6.4943127375e+00   0.04437319   0.02964506  11.44  0.003627211    1.710    0.415
        14 -11.6824    163.1970     29.0802   2.9017483084e+02   6.4226880890e+00   0.03441047   0.02602509 -48.81  0.001293121    1.331    0.248
        15 -10.9793    153.3212     25.4989   2.9026787003e+02   6.5249246516e+00   0.03735055   0.01659094 -47.60  0.003156001    2.298    0.565
        16  -5.8513      4.4144     10.4871   2.9191947046e+02   7.6204073577e+00   0.03659495   0.02598025  12.48  0.003664358    1.539    0.350
        17 -11.4201     14.5727      9.2285   2.9179230023e+02   7.5718400500e+00    0.0206898   0.01248198  30.53  0.001426979    1.603    0.376
        18 -11.3815     19.4569     22.3792   2.9181764504e+02   7.3923440022e+00   0.02383001   0.01685457 -33.15  0.001535459    1.570    0.363
        19 -11.2399     14.9323     22.8576   2.9187375647e+02   7.4149209291e+00   0.02827784   0.02444601  57.77  0.002057857    1.238    0.193
        20 -12.2555     17.0771     13.5551   2.9179010499e+02   7.5072354712e+00   0.04694082   0.02745199   0.11  0.000630407    2.545    0.607
        21 -11.5783     23.1284     10.7836   2.9170164603e+02   7.5012234558e+00   0.02637599   0.01824494   2.96  0.002544936    1.738    0.425
        22 -10.5219     88.1344      7.2564   2.9091675370e+02   7.1378517224e+00   0.02232035    0.0158654   0.36  0.001421622    1.687    0.407
        23  -9.4552     83.1523      5.8212   2.9096613930e+02   7.1851067106e+00   0.01286323   0.00984219  19.67 0.0006467784    1.327    0.246
        24 -11.3731     90.5566     20.7078   2.9097307928e+02   6.9701638388e+00    0.0298232   0.02180887 -56.36  0.002614503    1.373    0.272
        25 -11.2785     85.9140     14.6601   2.9098942690e+02   7.0676537846e+00   0.02968381   0.01515051 -46.61  0.002211683    2.014    0.503
        26 -10.7962     42.2106      4.0799   2.9143550428e+02   7.4590473676e+00    0.0345628    0.0161659 -38.32  0.002777182    2.690    0.628
        27 -10.8148     47.6291     18.7900   2.9146448612e+02   7.2585123739e+00   0.02144341   0.01936947 -87.72  0.001582847    1.202    0.168
        28 -12.7228     37.8674     18.8630   2.9157948424e+02   7.3182088624e+00   0.02566112   0.02285271  21.79  0.003083137    1.107    0.097
        29 -11.9921     49.2948     12.9485   2.9140818755e+02   7.3144765012e+00   0.03813968   0.01660942  32.04   0.00325254    2.164    0.538
        30 -11.2828     40.6005     14.1572   2.9151781052e+02   7.3546762799e+00   0.03173356     0.011575  27.70  0.002433048    2.706    0.630
        31 -11.7828     68.6052     18.0900   2.9121401372e+02   7.1362755179e+00   0.04621813   0.02787839  38.14  0.004588278    1.619    0.382
        32 -10.1154     71.6161      3.2123   2.9108501668e+02   7.2863902576e+00   0.02419799   0.01982267  40.90  0.002786011    1.218    0.179
        33 -10.8316     66.4861     10.3519   2.9119015435e+02   7.2372464618e+00   0.03213948   0.01720602  16.41  0.002402963    2.212    0.548
        34 -10.7219     77.0123      6.5019   2.9104243965e+02   7.2155440024e+00   0.01485547   0.01123585  51.96  0.001061185    1.424    0.298
        35 -10.6428     77.5316      2.5196   2.9101126407e+02   7.2574950434e+00   0.01472368   0.01214155 -48.42 0.0009311159    1.221    0.181
        36 -10.1516    206.7164     19.2514   2.8960366749e+02   6.2623588390e+00   0.02023763   0.01451368  89.08  0.002071798    1.787    0.441
        37 -12.3846    239.5024     15.8427   2.8919894568e+02   6.0959099936e+00   0.05953548    0.0313192  21.75  0.005355601    2.044    0.511
        38 -11.6254    245.6987      8.1235   2.8907782269e+02   6.1445918829e+00   0.02430091   0.02075749 -50.35  0.001605397    1.179    0.152
        39 -11.2519    242.1016      4.2429   2.8909533497e+02   6.2110817736e+00   0.02737598   0.01146217  34.42  0.002059511    2.233    0.552
        40 -11.6955    239.3440      7.4838   2.8914801761e+02   6.1916254348e+00   0.02918856   0.01559426  36.10  0.002238497    1.795    0.443
        41 -11.0134    165.0021     17.3693   2.9007985349e+02   6.5442639972e+00   0.02197508   0.01474625 -14.08  0.001487503    1.957    0.489
        42  -9.8814    218.7985     12.7695   2.8942149716e+02   6.2602880752e+00   0.01854723   0.01198606   5.63  0.001779898    1.933    0.483
        43 -11.7137    211.5333      9.7250   2.8948721864e+02   6.3402362399e+00   0.02922325   0.01653361 -40.32  0.002459152    1.962    0.490
        44 -10.2685     63.1061      6.1213   2.9120316823e+02   7.3062353702e+00    0.0190045    0.0108372 -52.66  0.001779209    1.732    0.423
        45  -9.9803     31.5354     11.9627   2.9161038911e+02   7.4357655634e+00   0.01282106  0.008296352  44.49 0.0006616847    1.593    0.372
        46 -11.2756    162.8857      5.3610   2.9002888056e+02   6.6936511098e+00    0.0333916   0.01255063 -61.54  0.002302892    2.747    0.636
        47  -9.6913    157.5720      2.4169   2.9007252440e+02   6.7601944119e+00   0.01564011   0.01278165   8.36  0.001360417    1.294    0.227
        48 -10.4554    169.5449      9.5174   2.8997714521e+02   6.6049523664e+00   0.01901317   0.01158883   6.35  0.001630632    2.138    0.532
        49 -10.3704    151.2586      7.3100   2.9017732514e+02   6.7440996543e+00   0.02075712   0.01802144  37.87  0.001600568    1.139    0.122
        50  -9.7777      1.2636      7.3751   2.9193690215e+02   7.6752091077e+00   0.01058278  0.005835957 -61.64 0.0001875935    1.860    0.462
        51 -10.5730    218.7737      2.9640   2.8935988191e+02   6.3715749567e+00   0.01564883   0.01439121  -9.01  0.001026005    1.117    0.105
        52 -10.5553    228.3823      4.1954   2.8925534313e+02   6.2974988006e+00    0.0158864   0.01324622 -62.91  0.001279658    1.234    0.190
        53 -11.0455    223.9862      2.0190   2.8929298201e+02   6.3496706798e+00   0.02184677   0.01381297  33.03   0.00151027    1.526    0.345
        54 -11.9135     26.4089     27.7128   2.9176958734e+02   7.2887456291e+00   0.03753751   0.03045665  74.63  0.003598478    1.443    0.307
        55  -9.1867    170.5127      3.9654   2.8993078563e+02   6.6618616169e+00   0.01038889  0.008618734  31.38 0.0007769308    1.178    0.151
        56 -10.4711    141.7070      3.5010   2.9026517452e+02   6.8468661913e+00   0.01822951    0.0134211  29.00  0.001555232    1.326    0.246
        57 -12.2742    133.6935      2.6699   2.9035381432e+02   6.9062487275e+00   0.01920275   0.01412657  24.09   0.00066935    1.354    0.261
        58  -9.6204    122.4498      1.1374   2.9047590281e+02   6.9936918048e+00   0.01863724   0.00635177  28.19  0.001375644    2.872    0.652
        59 -11.1934    106.5371      1.9331   2.9066743637e+02   7.0837550900e+00   0.05877452   0.01261801  29.84  0.003615729    4.175    0.760
        60  -9.1041     55.6705      4.1530   2.9127801612e+02   7.3747214332e+00   0.01176434  0.008287675  37.41   0.00124666    1.390    0.281
        61 -10.2163     22.9068      2.5069   2.9165218726e+02   7.5965164884e+00   0.01494999   0.01231573 -23.10  0.001144708    1.315    0.239
        62 -10.2287    206.2345      2.4727   2.8950339808e+02   6.4555719671e+00   0.02221867   0.01037295  40.48   0.00192618    2.121    0.529
        63 -10.8534      2.6891      1.8633   2.9188551269e+02   7.7289388497e+00   0.02260266   0.01242049  15.34  0.002009411    2.167    0.538
        64  -9.2518     16.4122      1.2628   2.9172060704e+02   7.6508439728e+00   0.01223406  0.005644709  28.62   0.00104642    2.107    0.525
        65 -10.0751     60.5470    147.5137   2.9212118831e+02   5.7157575548e+00   0.01700351   0.01517169 -59.98  0.001150554    1.143    0.125
        66  -9.7375     47.2721    151.6332   2.9230241342e+02   5.7511961829e+00   0.03448918   0.01461817  51.58  0.002473995    3.409    0.707
        67 -10.5492     48.3655    147.8992   2.9226623160e+02   5.7868850110e+00   0.03069746   0.01215562  34.83   0.00236333    2.348    0.574
        68  -9.8502     46.3050    144.6907   2.9227026846e+02   5.8361417475e+00   0.01201667  0.008518192 -11.92 0.0007582629    1.751    0.429
        69  -9.9060     71.4549    151.2231   2.9201672684e+02   5.6059220744e+00    0.0135148  0.009439371  26.12  0.001424732    1.415    0.293
        70  -9.3735     85.9948    149.9967   2.9183884820e+02   5.5296314007e+00     0.011478  0.007925519 -25.34  0.001150374    1.739    0.425
        71  -9.8113     56.5066    149.4740   2.9218077186e+02   5.7185165782e+00   0.01568152   0.01181528  87.74 0.0008870511    1.635    0.388
        72 -10.6217    249.5069    142.4279   2.8987994753e+02   4.5972724253e+00   0.02749721   0.01275678 -60.76  0.002380255    2.190    0.543
        73  -9.2170    239.7670    146.6084   2.9001992247e+02   4.6106132189e+00  0.009679119  0.005860789  38.56 0.0008993254    1.617    0.381
        74 -10.3941    133.4128    139.9486   2.9122094553e+02   5.3491538477e+00   0.01684824   0.01560383  -4.92  0.001569204    1.101    0.091
        75 -10.0231     69.1060    140.9035   2.9197956118e+02   5.7378391623e+00   0.01118054  0.007687113 -25.16 0.0007457157    1.754    0.430
        76 -10.9416     81.7568    134.6773   2.9179241238e+02   5.7301214322e+00    0.0296032    0.0188388 -14.49  0.002276075    2.191    0.544
        77 -10.7500     88.9819    133.4629   2.9170020993e+02   5.6990670267e+00    0.0309213   0.01638252  -0.37  0.002266166    3.512    0.715
        78 -11.0621     92.3400    128.7608   2.9163139851e+02   5.7316658728e+00   0.04637818   0.02252485 -79.06    0.0033865    3.525    0.716
        79 -10.9916     93.5365    123.8480   2.9158656328e+02   5.7800793779e+00   0.01302462   0.01156624  69.07 0.0003024263    1.229    0.187
        80 -10.4796     78.6768    128.4364   2.9178933505e+02   5.8201939272e+00   0.02731906   0.01308586 -30.91  0.001998136    3.392    0.705
        81 -11.1019     72.6155    133.5661   2.9189247541e+02   5.7994908736e+00   0.05377936   0.02765239 -20.29  0.003723057    3.993    0.750
        82 -10.8798     47.8191    134.6058   2.9218937168e+02   5.9414405199e+00   0.02089611   0.01193568 -40.61  0.001561302    1.926    0.481
        83  -9.7810     62.4436    132.0318   2.9200197005e+02   5.8800403580e+00   0.02373865  0.008875763 -49.55  0.001855901    2.641    0.621
        84  -8.8443    106.9711    131.0526   2.9147451064e+02   5.6147031893e+00   0.00768102  0.007608118 -11.10 0.0003910915    1.018    0.017
        85 -11.0208     55.0459    123.3000   2.9203387756e+02   6.0251924548e+00   0.03241863   0.01925817  19.39   0.00243204    1.813    0.448
        86 -10.5865     45.6910    120.4460   2.9212557115e+02   6.1156300211e+00   0.01787029   0.01403918  62.76  0.001251728    1.454    0.312
        87 -10.5862      3.9454    123.0986   2.9263130531e+02   6.3438691708e+00    0.0310305   0.01885727 -25.16  0.002825709    2.210    0.548
        88  -9.1591     66.2120    125.4534   2.9191659562e+02   5.9314588320e+00  0.009497163  0.005860399  41.11 0.0009291685    1.619    0.382
        89 -10.1004     18.7222    123.9036   2.9246319636e+02   6.2433201720e+00   0.01424771   0.01011394 -54.96 0.0007779514    1.407    0.290
        90 -11.9310    105.0151    120.6910   2.9143236519e+02   5.7446374612e+00   0.02709381   0.02515477  48.21  0.003277129    1.098    0.089
        91 -10.9634     34.9397    119.9959   2.9224870808e+02   6.1873561378e+00   0.02258233   0.01634172  42.90  0.002435401    1.396    0.284
        92 -11.7574     45.7221     86.0501   2.9190948667e+02   6.5064180631e+00   0.09427516   0.04822389 -89.24  0.006177421    4.624    0.784
        93 -12.7385     36.1013     88.6077   2.9203830638e+02   6.5369710334e+00   0.09565752   0.06030757 -64.76  0.005986791    1.670    0.401
        94 -12.2794      7.3488     88.4144   2.9237417899e+02   6.7171422010e+00   0.03205621   0.02708355 -36.91  0.001164918    1.219    0.179
        95 -12.3231     19.2045     92.2568   2.9225926591e+02   6.6001213720e+00    0.0618242   0.02680427 -58.63  0.004156443    2.270    0.560
        96 -11.7266     23.8111     99.1582   2.9224853020e+02   6.4931609921e+00   0.02779666   0.01583577 -63.66  0.001898213    1.838    0.456
        97 -11.8329      2.9926    111.7785   2.9257160947e+02   6.4784740475e+00   0.02572861   0.02346865 -27.24  0.001650208    1.122    0.109
        98 -11.7722      3.4767    104.8039   2.9252226016e+02   6.5547778974e+00   0.02468832   0.01874706  15.10  0.001081948    1.378    0.274
        99 -12.6463     23.9882    109.6072   2.9231194052e+02   6.3732791699e+00    0.0708068    0.0376707 -26.79    0.0056443    2.923    0.658
       100 -11.6238     28.9410    113.0242   2.9227531208e+02   6.3037687719e+00   0.02897971   0.01907188  14.70   0.00191642    1.678    0.404
       101  -9.2406    221.2357    120.4389   2.9007164992e+02   5.0234392284e+00  0.009403513  0.005969088  39.61 0.0004473182    1.555    0.357
       102  -9.6365    148.8933    119.3636   2.9091054255e+02   5.4867277834e+00   0.01333809   0.00965667 -48.98  0.001073744    1.388    0.280
       103  -8.7901     71.5336    120.4807   2.9182308645e+02   5.9549727822e+00  0.006644336  0.006418648  -9.30  0.000567743    1.033    0.032
       104  -9.1918     81.6748    117.6121   2.9168632389e+02   5.9246324844e+00   0.01011004  0.007453559 -23.47 0.0005978419    1.573    0.364
       105 -10.6846    107.9316    112.8337   2.9134888635e+02   5.8158098658e+00   0.02386404   0.01556189 -86.22   0.00165581    2.072    0.517
       106 -11.1020    103.8216    109.0798   2.9137342959e+02   5.8840224227e+00    0.0298678   0.02159132 -10.09  0.003095171    1.688    0.408
       107 -10.8608     88.5969    114.7228   2.9158713066e+02   5.9144874210e+00   0.01394768   0.01061452  37.38 0.0002568012    1.291    0.225
       108  -9.3928    126.9420    114.0081   2.9113373993e+02   5.6842249369e+00   0.01013122  0.009926887  -4.48 0.0006432491    1.012    0.012
       109 -10.0590     49.4730    111.8459   2.9202734990e+02   6.1899621040e+00    0.0201924   0.01330749 -19.06  0.001940348    1.982    0.495
       110 -11.1941    170.9138    110.0800   2.9059461291e+02   5.4550004290e+00   0.02305591   0.01920856   7.89  0.001788198    1.261    0.207
       111 -10.5010     67.0269    112.3929   2.9182513737e+02   6.0748783487e+00   0.02271035   0.01778191 -87.23  0.002496842    1.503    0.335
       112 -11.0635     86.0984    105.4418   2.9155812972e+02   6.0354929186e+00   0.01866304   0.01452631 -11.73  0.001213451    1.475    0.322
       113  -9.7913     83.0574    110.8718   2.9162783252e+02   5.9926632843e+00   0.01552678   0.01062871  38.18  0.001628024    1.434    0.303
       114 -10.6299     79.5369    107.6842   2.9164905709e+02   6.0507530781e+00   0.02231333   0.01725181  -3.13  0.001586989    1.475    0.322
       115 -10.1834     15.2116    109.4514   2.9241382358e+02   6.4293639318e+00   0.02170628   0.01016814  44.52  0.001632838    2.283    0.562
       116 -10.4117    119.9135    108.7098   2.9118271555e+02   5.7881595192e+00   0.01775867     0.010594 -59.71  0.001444889    1.693    0.409
       117 -10.6893    158.2935    104.8216   2.9070915193e+02   5.5933846159e+00   0.02494253   0.01289193 -40.43  0.001505443    2.203    0.546
       118 -10.7520    143.3608    105.5616   2.9088851291e+02   5.6779948052e+00   0.01911044   0.01545634  35.52  0.001756833    1.212    0.175
       119 -11.6140    146.1908     99.9000   2.9081979898e+02   5.7246891371e+00   0.02698774   0.01680879 -46.49  0.002700382    1.637    0.389
       120  -9.7748    247.2541    103.8611   2.8966345844e+02   5.0491272958e+00   0.01203786  0.006636639  63.05 0.0009577344    2.881    0.653
       121 -10.6359     57.7886     98.2924   2.9184489908e+02   6.2924632999e+00   0.02877768   0.01767875 -66.03  0.002626294    1.743    0.426
       122 -11.3906     67.1491     97.5947   2.9173084501e+02   6.2423216607e+00   0.03273565   0.02078924 -38.63  0.001976338    1.725    0.420
       123 -12.2532     10.0320     97.5637   2.9240005862e+02   6.5965493195e+00   0.04736472   0.03238984  55.87  0.003678679    1.693    0.409
       124  -9.6747    136.8183    100.3812   2.9093250604e+02   5.7775865915e+00   0.01524445   0.01005888 -18.02  0.001077788    1.993    0.498
       125 -10.2203    211.2529     97.2626   2.9004238453e+02   5.3488998514e+00   0.01932364   0.01430058 -12.89  0.002034469    1.618    0.382
       126 -10.2440    143.6497    248.9838   2.9178461890e+02   4.0459781899e+00   0.01485476   0.01142805  -5.46  0.001607165    1.498    0.332
       127 -10.2673     98.7166     62.5022   2.9114047787e+02   6.4449357432e+00   0.01209255   0.01175078  14.36 0.0007036698    1.008    0.008
       128 -11.3105     89.8511     89.2434   2.9141243983e+02   6.1962601490e+00   0.03726771   0.01895775 -37.78   0.00317473    2.391    0.582
       129 -12.4091     75.1661     50.2514   2.9133943445e+02   6.7304147317e+00   0.04746875   0.04102362  76.07  0.005566955    1.300    0.230
       130 -11.1378     80.9953     94.2756   2.9154778931e+02   6.1940868449e+00   0.03349386   0.02285258 -12.61  0.003307026    1.890    0.471
       131 -10.1407     76.7453     92.9519   2.9158926678e+02   6.2355198686e+00   0.01509558   0.01197261 -12.49 0.0004691634    1.427    0.299
       132 -10.7586     93.9556     76.2280   2.9128256440e+02   6.3186265644e+00   0.02604068   0.01879657   0.02  0.001919526    1.645    0.392
       133 -11.4446     80.4635     82.4595   2.9147980068e+02   6.3316566006e+00   0.03076047   0.02620338 -62.84  0.002920312    1.206    0.171
       134 -12.1775     69.8884     80.1088   2.9158895104e+02   6.4240264866e+00   0.05666595   0.04183708 -11.81  0.005984198    1.622    0.383
       135 -11.7784     85.5226     73.4089   2.9136364888e+02   6.4030550536e+00   0.03545148   0.02668747  47.68  0.003263529    1.385    0.278
       136 -11.7936     78.8963     67.1419   2.9140190742e+02   6.5154090178e+00   0.03811225   0.02581144  73.72   0.00361992    2.024    0.506
       137  -9.7332    138.2474     93.2468   2.9087092008e+02   5.8497372580e+00   0.01751714   0.01091608   0.97  0.001599273    2.180    0.541
       138 -10.7194    124.8954     93.7566   2.9103041706e+02   5.9270634315e+00   0.02765465    0.0152511  17.57  0.002496839    2.069    0.517
       139 -10.6504    116.9744     92.9251   2.9111792602e+02   5.9857967497e+00   0.02208484    0.0149776   1.00  0.001951201    1.834    0.455
       140 -11.5223    120.4176     86.2083   2.9103538286e+02   6.0406798144e+00   0.02800511   0.02333911  72.92  0.001983725    1.374    0.272
       141  -9.3292    104.8242     93.5967   2.9126442198e+02   6.0537312540e+00   0.01122944  0.008888116  58.63 0.0007325615    1.404    0.288
       142 -10.3443    101.1303     90.8757   2.9129058287e+02   6.1076136031e+00   0.02377982   0.01306769  20.01  0.002170839    1.986    0.496
       143  -9.7240    104.7742     87.7660   2.9122836370e+02   6.1202906801e+00   0.01606983  0.008330128  36.04  0.001474476    1.847    0.459
       144  -9.6147    160.2807     93.3904   2.9061399826e+02   5.7108440897e+00   0.01281052  0.007904753  37.57    0.0012715    1.579    0.367
       145 -10.5335    152.7851     91.9484   2.9069262479e+02   5.7739319425e+00   0.01597813    0.0153991  82.33  0.001510089    1.090    0.083
       146 -11.1431    113.7120     87.3347   2.9112098431e+02   6.0696042207e+00   0.02842532   0.01884061 -50.09  0.000590606    1.510    0.338
       147 -10.8070    113.5164     83.4974   2.9109914935e+02   6.1144132751e+00   0.02705071   0.01289541 -55.46  0.002402847    2.045    0.511
       148 -10.3773    183.9160     85.7266   2.9028931094e+02   5.6504898968e+00   0.02748383   0.01333304 -71.26  0.002249317    2.636    0.621
       149  -9.8031    212.2522     87.0117   2.8996615224e+02   5.4590278374e+00   0.01084611  0.009569481  19.00  0.000426643    1.127    0.113
       150  -8.8895    135.2774     86.3620   2.9086238181e+02   5.9464372082e+00  0.007071186  0.004898153 -29.93 0.0007009663    1.667    0.400
       151 -10.7188    164.4511     83.1196   2.9050057373e+02   5.8014894939e+00    0.0206792   0.01773009  67.56  0.001846207    1.295    0.228
       152 -10.4951    127.5150     83.5341   2.9093546854e+02   6.0268860482e+00   0.01854842   0.01198011  37.10  0.001361674    1.508    0.337
       153 -10.8839    120.7541     80.0585   2.9099276999e+02   6.1084450308e+00   0.02513332   0.01000477  32.93  0.002052452    2.339    0.572
       154 -11.5783     52.9547     76.5953   2.9176535630e+02   6.5690136917e+00   0.03841031   0.02505257 -68.30  0.003894652    1.670    0.401
       155 -11.1350     58.3889     78.1207   2.9171123712e+02   6.5179746466e+00   0.02272777   0.01750819  65.67 0.0009925597    1.525    0.344
       156  -9.1579    109.0051     80.2520   2.9113157764e+02   6.1793424580e+00   0.01039069  0.008940205 -13.49  0.000855615    1.244    0.196
       157 -10.0131    105.3044     75.9050   2.9114758966e+02   6.2517380895e+00   0.02060643   0.01594322  56.75   0.00226843    1.432    0.302
       158 -10.4439     23.0042     72.1556   2.9208864077e+02   6.8050445153e+00   0.02318268   0.01164516  36.24  0.001406746    1.905    0.475
       159  -9.9736      6.1689     75.3174   2.9230590664e+02   6.8732860060e+00   0.03067825   0.01024717 -42.87  0.001709983    3.821    0.738
       160 -11.9958     13.4835     74.8203   2.9221700653e+02   6.8336890565e+00   0.02523814   0.02448842 -59.71  0.001609446    1.055    0.053
       161 -10.6471     14.4533     67.5269   2.9215987985e+02   6.9105623163e+00   0.01798606   0.01715954  83.12  0.001518638    1.109    0.098
       162 -11.5177    143.3882     83.0616   2.9074668314e+02   5.9334102982e+00   0.02501336   0.01577276 -45.91  0.001703305    1.623    0.384
       163 -10.2883    134.5799     77.1150   2.9081237678e+02   6.0558091557e+00   0.01531992   0.01312159  45.41  0.001060211    1.186    0.157
       164 -10.6425     23.2367     48.0597   2.9193464783e+02   7.0773433262e+00   0.04203841   0.01767276  24.08  0.003371404    2.534    0.605
       165 -10.5633     22.3829     36.1031   2.9186955581e+02   7.2184138255e+00   0.03550776    0.0162988  47.43  0.002905746    2.529    0.605
       166 -11.4067     25.7686     56.2427   2.9195633510e+02   6.9687167470e+00   0.06183255   0.03750221  22.66  0.006073435    1.694    0.410
       167 -11.5528     32.3327     41.7941   2.9178858032e+02   7.0921639932e+00   0.04223154   0.02109296  41.31  0.002835378    2.010    0.503
       168 -10.6303     60.2436     23.2523   2.9134457868e+02   7.1295976703e+00   0.02062333   0.01087121 -49.58  0.001124161    1.892    0.472
       169 -11.4589     58.0073     30.4711   2.9141622684e+02   7.0615323919e+00   0.02573593   0.01892432 -11.36  0.001968486    1.633    0.388
       170 -11.8302     47.9066     30.4911   2.9153483215e+02   7.1239667385e+00   0.03483078   0.01713696  21.29  0.002329378    2.231    0.552
       171 -11.0339     57.7930     61.3943   2.9161315252e+02   6.7116993883e+00   0.03598584   0.02141487 -81.93  0.003218422    2.350    0.574
       172 -11.7305     51.7777     61.5159   2.9168444350e+02   6.7476312841e+00   0.02541913   0.01808202  88.53  0.001090162    1.816    0.449
       173 -11.2278     45.8602     58.1713   2.9173281758e+02   6.8223173933e+00   0.03042044   0.01815628 -68.44  0.002926413    1.861    0.463
       174 -11.2945     40.1079     55.5927   2.9178407505e+02   6.8872655556e+00   0.03010056   0.02276775  69.27  0.002803463    1.603    0.376
       175 -11.3248     51.2286     45.8597   2.9159249574e+02   6.9288592467e+00   0.02685146   0.01857548  74.49  0.001148834    1.943    0.485
       176 -11.0648    128.0623    242.2935   2.9192484143e+02   4.2188781748e+00   0.02620277   0.01688181 -62.59   0.00266624    1.601    0.375
       177 -10.8483     60.6727     36.3884   2.9142218547e+02   6.9778108032e+00   0.01840122   0.01035739 -60.58  0.001264623    1.804    0.446
       178 -12.2813      2.2650     70.2546   2.9231994578e+02   6.9549568927e+00    0.0400723   0.01279569 -56.14  0.002987383    2.908    0.656
       179 -12.3288      8.5757     60.9370   2.9218747335e+02   7.0217967834e+00   0.04817846   0.03237001 -36.06   0.00493077    1.644    0.392
       180 -11.8170     45.7381     49.0658   2.9167703686e+02   6.9264973283e+00   0.02536053    0.0201835 -10.74  0.001457278    1.417    0.294
       181 -12.1956     41.8280     45.5557   2.9170083739e+02   6.9906020203e+00   0.01847873   0.01522921  21.14 0.0003305482    1.210    0.173
       182  -9.1999     46.3662     77.4357   2.9184786542e+02   6.6003168194e+00  0.009382962  0.005963705  39.37 0.0009346263    1.552    0.356
       183 -10.1810    242.0316     76.0167   2.8954899339e+02   5.3977317426e+00   0.01113646  0.007949495  61.41  0.001141832    1.676    0.403
       184 -12.2293    186.2746     70.2636   2.9016434921e+02   5.8113179859e+00   0.04133481   0.03145458 -59.02  0.003565544    1.332    0.249
       185  -9.6018    192.2157     65.6917   2.9006606906e+02   5.8261259670e+00   0.01192467  0.009967474  55.76 0.0009127802    1.282    0.220
       186  -9.3100    230.7280     73.5842   2.8966568290e+02   5.4959889963e+00   0.01565945  0.007821726  56.42  0.001212471    2.970    0.663
       187 -11.0173     33.2368     71.9565   2.9196740143e+02   6.7439384358e+00    0.0263467   0.01460168  30.82  0.002508244    1.738    0.424
       188 -11.5703     40.6334     71.7462   2.9187935582e+02   6.7004980065e+00   0.03552053   0.02092356 -33.21  0.003281033    2.073    0.518
       189  -9.8790     46.4128     72.6949   2.9181755407e+02   6.6538940894e+00   0.01570994   0.01012618 -73.77  0.001348132    1.811    0.448
       190  -9.1202    151.2342     73.5786   2.9059517674e+02   5.9922170655e+00  0.009187518   0.00643394  11.55 0.0005411308    1.589    0.370
       191  -9.7217     61.2409     73.0273   2.9164581850e+02   6.5581512155e+00   0.01286612  0.008950063  36.97 0.0004871104    1.405    0.288
       192 -11.7865    124.6863     67.5262   2.9086788610e+02   6.2263069209e+00   0.04617599   0.02401335  19.37  0.003637295    2.167    0.538
       193 -11.6975    219.3911     66.0399   2.8975058897e+02   5.6524394168e+00   0.03325814   0.01989666  26.33  0.002362089    1.661    0.398
       194 -10.0894    162.1334     70.2958   2.9044696187e+02   5.9615498378e+00    0.0167386   0.01320356  51.74  0.001869495    1.348    0.258
       195 -10.7326     21.0390     65.2030   2.9206805689e+02   6.8962063693e+00   0.01344428   0.01067568  39.00   0.00066776    1.247    0.198
       196  -9.4802    205.1712     63.3432   2.8989979345e+02   5.7718776935e+00    0.0161771  0.009910918  -3.07  0.001278737    2.365    0.577
       197  -9.4740    167.9345     63.0685   2.9033356833e+02   6.0074210525e+00   0.01018261  0.009579275  31.75  0.001220285    1.047    0.045
       198 -10.7338    159.4735     61.7045   2.9042398775e+02   6.0756713042e+00   0.02118666   0.01448276   1.84  0.002106108    1.799    0.444
       199  -9.8999    198.7385    244.4348   2.9111298036e+02   3.7550824601e+00    0.0130624  0.006034939  32.83  0.001129547    2.045    0.511
       200  -9.8218    167.6142    237.7940   2.9143472218e+02   4.0241886892e+00  0.009403987  0.006514934 -76.61   0.00083606    1.689    0.408
       201  -9.6691    174.6830    246.8255   2.9140874255e+02   3.8775809911e+00   0.01344889  0.009104209  -5.68  0.001135886    1.909    0.476
       202 -10.5246    117.6207     56.2073   2.9087940817e+02   6.3988203591e+00   0.02913544   0.02044055  -5.84  0.002949047    1.778    0.438
       203  -9.3464     15.4461    233.3388   2.9318522732e+02   5.0187464931e+00   0.01291961  0.006082541 -55.45  0.001129171    2.065    0.516
       204 -11.9093    105.8232     32.5957   2.9086898794e+02   6.7402878818e+00   0.02778828   0.01527052 -37.38  0.001494034    2.146    0.534
       205 -10.6040    197.6654    231.6568   2.9104542800e+02   3.9069484213e+00   0.01097224  0.007670156 -23.88  0.001105394    1.721    0.419
       206 -12.6341    117.2861     42.9713   2.9080000524e+02   6.5511743924e+00   0.04734002   0.02262251  48.33  0.003286358    2.452    0.592
       207 -13.0044    120.4357     38.8120   2.9073691568e+02   6.5787797414e+00   0.03970914   0.02565002  59.04  0.002710962    1.925    0.481
       208 -10.5608    105.8683     61.9847   2.9105343379e+02   6.4063373192e+00   0.01877739   0.01333792  70.32  0.001905951    1.807    0.447
       209  -9.1341    234.8969     59.4115   2.8952763954e+02   5.6307165045e+00  0.009933795  0.004750009  48.73 0.0008030881    2.475    0.596
       210 -10.2543    207.1444     68.5411   2.8990948456e+02   5.7005668653e+00   0.01944165   0.01122561  11.37  0.001741114    2.177    0.541
       211  -9.9057    138.8459     43.7837   2.9055259394e+02   6.4076752792e+00   0.01469241   0.00933279  13.49  0.001031638    1.797    0.444
       212 -11.3414    136.4423     56.1742   2.9065877067e+02   6.2819974389e+00   0.03137702   0.02195172 -49.59  0.002416053    1.434    0.303
       213  -9.2564    189.9240    229.8604   2.9112453662e+02   3.9755461144e+00    0.0102659  0.008743661 -19.27 0.0005331041    1.259    0.206
       214 -10.6672    172.3678     67.7153   2.9031096598e+02   5.9270177469e+00   0.01890983   0.01656026  81.40  0.001453319    1.274    0.215
       215 -11.4969    156.7311     53.6871   2.9040558578e+02   6.1837807124e+00   0.04009288   0.02464061 -67.40  0.003937437    1.775    0.437
       216 -12.0786    156.2091     41.7606   2.9033655532e+02   6.3223980340e+00   0.03514821   0.01716995  38.59  0.001285149    1.986    0.497
       217 -11.0515    153.2114     36.0576   2.9033571052e+02   6.4058083076e+00   0.01411456   0.01355529  60.86 0.0004099088    1.081    0.075
       218  -9.6868      2.1653     56.2089   2.9223300825e+02   7.1151544729e+00   0.01109582   0.00883504 -44.20 0.0005930312    1.275    0.216
       219  -9.5794    187.1379     55.3250   2.9006013076e+02   5.9754778149e+00   0.01270045   0.00790912  16.68  0.001225757    1.774    0.436
       220  -9.9163     66.9756     54.7524   2.9146375451e+02   6.7301538689e+00   0.01194172    0.0100059 -78.46 0.0006140347    1.309    0.236
       221 -10.1213    249.2036     52.9242   2.8931963786e+02   5.6148151390e+00   0.01694329   0.01075339  50.86  0.001380984    1.759    0.431
       222 -10.6667    231.5441     39.8340   2.8944333242e+02   5.8737254205e+00   0.03408325   0.01379942  51.18  0.002349549    3.679    0.728
       223 -10.6812    233.2696     45.2375   2.8945725918e+02   5.8016558953e+00   0.02304287   0.01415368  25.48  0.002284163    1.629    0.386
       224 -10.2813    244.4818     50.5073   2.8935953233e+02   5.6717627588e+00   0.01381104    0.0120601 -39.11 0.0009587549    1.168    0.143
       225 -10.0753    211.4313     52.8991   2.8976078018e+02   5.8512710393e+00   0.01323989   0.01167409  32.08  0.001573246    1.112    0.100
       226  -9.8581    148.0069     60.4651   2.9055039384e+02   6.1612228245e+00   0.02032024  0.007756498  28.23  0.001590456    2.563    0.610
       227  -9.8383    216.2534     52.0382   2.8969898899e+02   5.8309034300e+00   0.01051887  0.008764311 -27.64 0.0005086459    1.280    0.219
       228 -10.2339    193.5514     46.0577   2.8992670554e+02   6.0405860563e+00   0.02427324  0.009436673  43.00   0.00187636    2.710    0.631
       229 -11.2308    202.4076     49.6058   2.8984551184e+02   5.9450132671e+00   0.03086166   0.02195435  86.97  0.003137261    1.831    0.454
       230 -10.6480    176.9771     43.3362   2.9010343164e+02   6.1749470061e+00   0.01883489   0.01485781  61.69  0.001622783    1.437    0.304
       231 -11.1982    239.8316     50.2631   2.8941230458e+02   5.7036203853e+00   0.02218799   0.01726828  36.91  0.001194064    1.261    0.207
       232  -9.6204     90.9968     48.2695   2.9114140741e+02   6.6545566944e+00   0.01194105  0.009699934 -67.18  0.001353991    1.291    0.225
       233  -9.6122      3.9368     48.9599   2.9216673171e+02   7.1865432259e+00   0.01193164  0.009060821  28.18 0.0008983421    1.289    0.224
       234  -9.0436    101.2093     48.1009   2.9102066440e+02   6.5929720852e+00  0.009504662  0.006522182 -56.09 0.0002833555    1.458    0.314
       235  -9.2728     94.2842     36.6115   2.9102951180e+02   6.7664765270e+00   0.01022198  0.008222223  75.90  0.001126645    1.468    0.319
       236 -10.2516    100.7349     43.7476   2.9099882551e+02   6.6453477650e+00   0.02268087   0.01237255  57.74  0.001909535    2.563    0.610
       237 -11.2066     93.7434     41.2223   2.9106487056e+02   6.7174948135e+00   0.02622035   0.01707873  24.10  0.001583196    1.544    0.352
       238 -11.2238    173.8625     48.0018   2.9016928086e+02   6.1414427326e+00       0.0352   0.01752906  31.07  0.002732708    1.922    0.480
       239  -9.5580     14.3295     46.2019   2.9202748027e+02   7.1535794107e+00   0.01312616  0.007300469 -45.83  0.001225769    1.854    0.461
       240  -9.2261    132.3529     45.3175   2.9063829407e+02   6.4307193840e+00   0.01013567   0.00730029 -24.56 0.0004582504    1.628    0.386
       241  -9.9546      4.4529     44.4435   2.9213232657e+02   7.2346488078e+00   0.01862989  0.008257063  20.22  0.001471796    2.647    0.622
       242  -8.6733     11.2683     32.0039   2.9197422796e+02   7.3337539475e+00   0.01083466  0.008887872  60.23  0.001002571    1.347    0.258
       243 -10.7955      5.0237     36.3904   2.9207506434e+02   7.3225746063e+00   0.02410119   0.01938641 -55.92  0.001736128    1.252    0.201
       244  -8.6688      6.5825     30.6123   2.9202047935e+02   7.3785426450e+00   0.02117645  0.009048416  19.59  0.001615836    2.864    0.651
       245 -10.6584    189.2565     40.1484   2.8993968258e+02   6.1344512901e+00   0.02470634   0.01130202 -57.21  0.002147127    2.141    0.533
       246 -10.8479    176.9301     37.6417   2.9006808478e+02   6.2398509358e+00   0.02111379   0.01279745 -48.53  0.001221933    1.661    0.398
       247  -9.4051     18.4476     41.6300   2.9195045033e+02   7.1800145667e+00   0.01500883   0.00971119   0.91  0.000918505    2.006    0.502
       248 -11.2641     69.8723     33.0078   2.9129303538e+02   6.9590795208e+00    0.0301214    0.0171466  25.58 0.0008353384    1.760    0.432
       249 -10.5327     82.0274     31.6119   2.9114172750e+02   6.8994199051e+00   0.02324546   0.01705571  36.22   0.00253585    1.332    0.249
       250 -11.4062     81.8460     39.2301   2.9119179562e+02   6.8140618945e+00   0.02432824   0.01436102  47.37  0.001208054    1.832    0.454
       251 -10.6636     78.2788     34.4428   2.9120349355e+02   6.8905743619e+00   0.01824219   0.01191084  14.28  0.001339902    1.706    0.414
       252  -9.5995    218.1201     38.6738   2.8959288644e+02   5.9708245042e+00   0.01118944  0.009522545 -81.36 0.0007867545    1.294    0.227
       253 -10.1818    134.3452     37.1033   2.9056322096e+02   6.5115398607e+00    0.0282721   0.01535557  30.61  0.002664028    1.773    0.436
       254 -10.4044    139.9397     30.7287   2.9045753311e+02   6.5490176931e+00   0.03073224    0.0148972 -53.93  0.002754169    2.012    0.503
       255  -9.6821    133.6640     24.3839   2.9049105349e+02   6.6601208988e+00   0.01916373   0.01216749  65.01  0.001782245    2.154    0.536
       256  -9.0838    145.5200     16.4441   2.9030213658e+02   6.6762923883e+00   0.01090167  0.009952441  29.26 0.0006066586    1.074    0.069
       257 -10.0227    242.3822    231.4418   2.9052233919e+02   3.6308981398e+00   0.01816382   0.01299229  85.53  0.001845656    1.819    0.450
       258 -10.3657    144.0705     25.0925   2.9037363350e+02   6.5872194568e+00   0.02279198   0.01318551  28.21  0.002203526    1.692    0.409
       259  -9.5211      9.0622    227.2862   2.9322215138e+02   5.1270707954e+00  0.009474974  0.008466789  25.37 0.0003632876    1.099    0.090
       260 -10.5010    206.9400     37.2096   2.8971434885e+02   6.0573135908e+00   0.01589674   0.01329816  55.98   0.00084874    1.281    0.220
       261 -10.4212    216.8485     32.3224   2.8956768307e+02   6.0508032765e+00   0.01858379   0.01285547 -22.47  0.001285501    1.773    0.436
       262 -10.5114    175.8636     29.3538   2.9002830791e+02   6.3405300317e+00   0.01627756   0.01502748 -39.35  0.001049004    1.095    0.086
       263 -11.1960    183.6261     24.4817   2.8990675159e+02   6.3473251892e+00   0.02538285   0.01645137  19.86  0.002179052    1.620    0.383
       264 -10.2804    247.4994    231.0710   2.9046033678e+02   3.6032250617e+00   0.01029503  0.006586779 -60.22  0.001031812    1.587    0.370
       265 -10.2456    191.9275     16.6732   2.8976037011e+02   6.3840201164e+00   0.01477905    0.0127595   5.67  0.001138706    1.206    0.171
       266  -9.9599      9.9724    217.9404   2.9315323983e+02   5.2277716032e+00   0.01025527   0.01013903  17.57 0.0007413816    1.015    0.015
       267  -9.5670    166.9560    213.6824   2.9129135524e+02   4.3023346865e+00   0.01456638  0.008701867  80.65  0.001200671    2.836    0.647
       268  -8.6993    161.2941    208.6782   2.9132613239e+02   4.3944403884e+00   0.00685711    0.0050704  64.00 0.0003999262    1.614    0.380
       269  -9.0269    152.6672    207.7022   2.9142080908e+02   4.4591993563e+00  0.006979643  0.005039282 -21.78 0.0007030311    1.646    0.392
       270 -10.2571    156.8113     25.1662   2.9022491006e+02   6.5069291067e+00   0.01421441   0.01029814  38.50 0.0005561287    1.358    0.264
       271 -10.8923    240.7015     30.9970   2.8928059117e+02   5.9166324574e+00   0.02631515   0.01750152 -53.72  0.002394093    1.498    0.333
       272 -11.1196    198.0953     29.0625   2.8976638732e+02   6.2049853033e+00   0.02313503   0.01721011 -48.10  0.001666393    1.355    0.262
       273 -10.4654    199.8307     24.8345   2.8971941917e+02   6.2420900050e+00   0.01293604   0.01190519 -17.78 0.0005504877    1.116    0.104
       274 -10.4715    189.4663     32.5293   2.8988918319e+02   6.2195711269e+00   0.01711968   0.01231259  23.04  0.000781654    1.397    0.284
       275 -10.4567    189.1466     27.9489   2.8986403536e+02   6.2735209370e+00   0.02080347   0.01332381 -45.09  0.001760152    1.607    0.378
       276  -9.0360    182.4821     32.0554   2.8996790146e+02   6.2685631383e+00  0.009701147  0.006588519 -60.23 0.0003892798    1.497    0.332
       277  -9.3902     35.8841     31.7179   2.9168358735e+02   7.1845717409e+00   0.01276222  0.008589962  77.58  0.001215637    2.079    0.519
       278 -11.0392    230.5064     30.0387   2.8939365349e+02   5.9912823105e+00   0.01973981   0.01654104 -74.33  0.001341825    1.286    0.223
       279  -9.3339    134.3657     30.8863   2.9052381109e+02   6.5819653761e+00   0.01330168  0.007806136  49.65  0.001036191    1.914    0.477
       280 -10.7457      4.1381    204.8907   2.9314010336e+02   5.4122999899e+00   0.01668672  0.009703724 -58.98 0.0008114638    1.723    0.420
       281  -9.1994    243.6489    205.6801   2.9034586861e+02   3.9155722581e+00  0.007176918  0.005003818 -22.65 0.0007047917    1.743    0.426
       282 -10.2381    238.8672    204.3862   2.9039352733e+02   3.9600766590e+00    0.0134174  0.009265995  80.81  0.001310087    1.972    0.493
       283 -10.7540    245.4593    200.8179   2.9029421778e+02   3.9595023246e+00   0.01242878  0.009380018  27.11 0.0006841771    1.302    0.232
       284 -10.4522    234.1528    197.1748   2.9040324998e+02   4.0713714370e+00   0.01714134   0.01391309 -39.09  0.001537773    1.272    0.214
       285 -12.3455      4.1993    184.5025   2.9301215629e+02   5.6438744414e+00    0.0465942   0.03415224 -84.26  0.004527094    1.645    0.392
       286 -10.0762    250.3709     25.3228   2.8913184240e+02   5.9204336931e+00   0.01176533  0.008745072 -56.45 0.0005034154    1.353    0.261
       287  -9.6918    158.3266     20.3063   2.9017652672e+02   6.5526055029e+00   0.01856239   0.01129906  25.99  0.001022226    1.635    0.388
       288 -10.0176     16.9531    192.5921   2.9291340240e+02   5.4729895836e+00   0.01214733  0.009952682 -60.08 0.0004613632    1.242    0.195
       289  -9.6990    169.9771    191.2466   2.9111538800e+02   4.5385370168e+00   0.01748544  0.009437487  12.66   0.00119134    2.386    0.581
       290  -9.1998    168.4851    188.4500   2.9111527826e+02   4.5796095647e+00  0.006639373  0.006414401  -2.74 0.0002446925    1.029    0.028
       291  -9.8202     81.1189     19.3307   2.9107506717e+02   7.0444565213e+00   0.01953264   0.01194595  17.88  0.001334745    1.783    0.439
       292  -9.3936    245.6523    187.6785   2.9020942962e+02   4.1075135401e+00  0.007171227  0.005003686 -22.91 0.0007049243    1.739    0.425
       293  -9.6991    101.3333    183.3157   2.9186814941e+02   5.0555187635e+00  0.007082337   0.00501363 -23.37 0.0004900367    1.688    0.408
       294  -9.9932    213.1951    180.9706   2.9054610610e+02   4.3860872552e+00   0.01190738  0.007046242 -34.05  0.001091436    2.034    0.508
       295  -8.3917    232.2872    179.3122   2.9031281862e+02   4.2858852814e+00   0.00685842  0.004997187 -26.32 0.0005769127    1.580    0.367
       296  -9.1583    168.7127    179.6234   2.9105724003e+02   4.6785110041e+00   0.00718519  0.004880104 -29.61 0.0007017626    1.725    0.420
       297 -10.3694     10.5055    186.5474   2.9295111504e+02   5.5816275209e+00   0.01384073  0.009985874 -51.67 0.0009664872    1.385    0.278
       298 -10.0187    222.9087     22.6546   2.8943584517e+02   6.1225232814e+00    0.0135248   0.01155261  18.07 0.0007102483    1.174    0.149
       299 -10.2822    220.9679     19.0926   2.8943604948e+02   6.1750430803e+00   0.01204369   0.01062579 -20.59  0.001423105    1.191    0.160
       300 -10.2248    214.6866     21.8331   2.8952677112e+02   6.1832568051e+00   0.01768584   0.01247691 -33.89  0.001846749    1.572    0.364
       301  -9.1855     57.2983    175.0894   2.9233185278e+02   5.4222844782e+00  0.009123708  0.008664399 -59.05 0.0005154358    1.075    0.070
       302 -10.2097     51.6373    173.9100   2.9239072717e+02   5.4707829954e+00   0.01699891   0.01081887 -75.36  0.001650417    1.881    0.468
       303  -9.8619    247.8319    173.7319   2.9009635467e+02   4.2522917737e+00   0.02012208   0.01008187   9.88  0.001536186    3.056    0.673
       304  -9.7899     39.5788    172.7971   2.9252490323e+02   5.5581419065e+00    0.0130516  0.006083116 -55.93  0.001006011    2.087    0.521
       305 -11.0837     35.2641    170.3787   2.9256028407e+02   5.6123672988e+00   0.01694013   0.01177873 -35.36  0.001470726    1.581    0.368
       306 -10.0045     40.0221    166.2646   2.9247885587e+02   5.6296981532e+00   0.01747679  0.009789484 -23.51  0.001430718    2.747    0.636
       307 -10.1901     18.3829    165.4350   2.9272700187e+02   5.7730775505e+00   0.02034927   0.01286614   9.09  0.001948025    1.913    0.477
       308 -11.5503      9.1597    167.0439   2.9284504423e+02   5.8118171209e+00   0.02803781   0.02456058 -59.46  0.002475618    1.162    0.139
       309 -11.9335     13.8552    159.4303   2.9274247903e+02   5.8693865829e+00   0.03359295   0.02519328  85.97  0.002274863    1.655    0.396
       310  -9.2610      1.6173     20.4299   2.9201479223e+02   7.5248501325e+00  0.008878212  0.006448969  12.63 0.0006157536    1.488    0.328
       311  -8.7591    197.7744    167.9828   2.9064461775e+02   4.6297582049e+00  0.008678705  0.005503798 -60.13 0.0006057295    1.599    0.375
       312  -9.0421    149.0032    168.2644   2.9121633929e+02   4.9302968417e+00  0.008921789    0.0057229  27.51 0.0008891488    1.532    0.347
       313  -9.9944    225.3834     16.4307   2.8936763882e+02   6.1775961543e+00   0.01203454   0.01163346  15.77  0.001332307    1.014    0.014
       314  -8.6881     55.3197     17.2794   2.9136475424e+02   7.2279471901e+00  0.006810459  0.005042678 -20.58 0.0006988592    1.581    0.367
       315  -9.1172     27.5426     15.4414   2.9167912912e+02   7.4210206533e+00  0.006586424  0.006410553  31.61 0.0001225596    1.026    0.025
       316 -10.0321     28.1434    162.9666   2.9259729329e+02   5.7407586519e+00   0.02044464   0.01114546 -56.48  0.001929704    1.810    0.447
       317  -9.9096    188.8604    164.3917   2.9072619744e+02   4.7261110180e+00    0.0138891  0.007916954 -43.20 0.0009721334    1.864    0.463
       318  -9.2965     94.8073     12.5064   2.9087158436e+02   7.0367920206e+00  0.009520135  0.006460807  28.17 0.0004957814    1.442    0.307
       319  -9.6309    205.1021    163.1582   2.9052871951e+02   4.6388933882e+00   0.01282528  0.009298117   5.34 0.0005874115    1.583    0.368
       320 -10.1790     80.6724    159.9214   2.9196333418e+02   5.4498152350e+00   0.01789729   0.01400795  21.49  0.002003069    1.281    0.220
       321 -10.5084    246.5138    158.9587   2.9001885490e+02   4.4282668358e+00   0.01792507   0.00657856 -60.84  0.001371739    2.764    0.638
       322 -10.6974    104.8961    153.5641   2.9164001670e+02   5.3716797253e+00   0.02021922   0.01461813 -67.39   0.00216663    1.470    0.320
       323 -12.1009      5.0333    147.1493   2.9276901198e+02   6.0636228095e+00   0.04350087   0.02515631 -44.48  0.004175411    1.804    0.446
       324 -10.9509      2.7059    141.5732   2.9276140578e+02   6.1414315803e+00   0.02135169   0.01723111  17.83  0.002429722    1.258    0.205
       325 -11.9494      3.7247    136.3257   2.9271665164e+02   6.1948132065e+00   0.01400918   0.01259516  -1.70 0.0003084405    1.149    0.130
       326  -9.8620     32.4979    139.0947   2.9239692980e+02   5.9853030096e+00   0.01430273   0.01270754 -65.95  0.001024716    1.164    0.141
       327 -11.9773     23.3502    136.6027   2.9248847957e+02   6.0702716308e+00   0.03504245   0.03053951  73.11  0.004131136    1.275    0.216
       328 -11.5699     29.8122    132.7374   2.9238858483e+02   6.0742267793e+00   0.02601429   0.02008035 -76.71 0.0008053404    1.449    0.310
       329 -11.3928     30.4836    148.6916   2.9248058916e+02   5.8886323361e+00   0.04897602   0.01959446 -67.81  0.003000119    3.107    0.678
       330 -10.7881     33.2106    144.3111   2.9242123742e+02   5.9215678344e+00   0.01628914   0.01444631  54.84 0.0007654055    1.183    0.154
       331  -9.5717     23.1453    155.1361   2.9260684234e+02   5.8607558783e+00   0.01449822  0.009558687   8.80  0.001425331    1.790    0.441
       332 -10.4844     14.1372    132.6318   2.9257155306e+02   6.1724338245e+00   0.01614845   0.01506022  32.23 0.0004707356    1.057    0.054
       333 -10.7873     10.7308    127.0851   2.9257674785e+02   6.2565784783e+00   0.03965787   0.01167965 -48.76  0.002750304    3.391    0.705
       334 -11.2919     13.5395    139.5543   2.9262187141e+02   6.0974040765e+00   0.03674472   0.02239456  64.51  0.003308879    2.324    0.570
       335 -11.7686     22.2651    149.7687   2.9258357537e+02   5.9272510238e+00   0.03278415   0.01905244 -15.39   0.00272068    2.756    0.637
       336 -11.0933     15.6845    147.5919   2.9264702749e+02   5.9927224783e+00   0.02101258   0.01755373  48.20  0.001365613    1.235    0.190
       337 -10.0118    214.3092    151.8201   2.9034992959e+02   4.7102748095e+00    0.0105621  0.008670947  84.99 0.0007372763    1.417    0.294
       338 -11.0391     63.3266    150.3363   2.9210632719e+02   5.6664233971e+00   0.02760008   0.01672105  -7.28  0.002403873    2.479    0.597
       339 -11.1782    171.9569     33.7704   2.9010187404e+02   6.3148135328e+00   0.02308532   0.01323594  21.76  0.002178735    1.835    0.455
