#   1 NUMBER                 Running object number                                     
#   2 MAG_AUTO               Kron-like elliptical aperture magnitude                    [mag]
#   3 X_IMAGE                Object position along x                                    [pixel]
#   4 Y_IMAGE                Object position along y                                    [pixel]
#   5 X_WORLD                Barycenter position along world x axis                     [deg]
#   6 Y_WORLD                Barycenter position along world y axis                     [deg]
#   7 A_WORLD                Profile RMS along major axis (world units)                 [deg]
#   8 B_WORLD                Profile RMS along minor axis (world units)                 [deg]
#   9 THETA_WORLD            Position angle (CCW/world-x)                               [deg]
#  10 FWHM_WORLD             FWHM assuming a gaussian core                              [deg]
#  11 ELONGATION             A_IMAGE/B_IMAGE                                           
#  12 ELLIPTICITY            1 - B_IMAGE/A_IMAGE                                       
         1 -10.5134    169.2829     20.3430   3.5091218288e+02   4.0717862606e+01     0.502956    0.4248987  72.90  0.003249781    1.293    0.227
         2 -10.9415    163.8995     16.1097   3.5025024901e+02   4.2381411289e+01    0.6423281    0.5393049 -32.34  0.004213231    1.351    0.260
         3  -7.8510    206.1712     20.0098   3.4800641028e+02   3.3079939095e+01    0.1866358    0.1153729 -57.78 0.0004506957    1.271    0.213
         4 -12.8176     57.5561    247.6804   6.2572970896e+01   1.4336492937e+01    0.3803304    0.3606361  87.28  0.001162046    1.244    0.196
         5 -17.7159     80.9445    228.5260   5.5438939545e+01   1.5601716250e+01     4.092716      3.11987  24.77   0.01084243    1.141    0.123
         6  -9.8817    182.0496    204.5393   2.9908067446e+01   7.8177788413e+00    0.4219733    0.1869053  29.67  0.001811964    2.264    0.558
         7  -6.6712    248.3035    203.6617   1.9024905708e+01   9.5765616334e-01   0.09185884   0.07446218 -41.36  0.000703899    1.671    0.402
         8  -7.9832      5.9583    227.9179   7.3675903560e+01   2.3084465184e+01    0.1706883    0.1570558  -8.41 0.0006605427    1.359    0.264
         9 -10.1283    140.6625    200.9832   3.7826087729e+01   1.3665196386e+01    0.4211919    0.2849765  27.08  0.002331982    1.396    0.284
        10 -10.3558    193.3173    194.7967   2.6258851349e+01   8.0613428358e+00    0.9936259     0.728072 -83.87  0.004636129    4.065    0.754
        11  -8.7024    165.6114    229.1255   3.6764162870e+01   5.7201994354e+00    0.3427233     0.182262 -52.24  0.001773828    2.350    0.574
        12  -8.8812    162.7106    225.0425   3.6760180174e+01   6.7014738958e+00    0.2069364    0.1548866  14.36 0.0006289982    1.175    0.149
        13  -7.8382    206.3024    192.6078   2.3650114496e+01   6.8782828872e+00    0.1065801   0.09138292 -61.54 0.0007010185    1.808    0.447
        14 -10.3529    151.7533    228.2341   3.9426065584e+01   7.4196295887e+00    0.4417135    0.3217589  -3.44  0.002794868    1.266    0.210
        15  -9.9386    153.3305    218.7853   3.7768580100e+01   8.8386887958e+00     0.435113    0.2639386 -20.88  0.001635838    1.788    0.441
        16  -8.9456    166.3354    219.3554   3.5216391071e+01   7.2196071785e+00    0.2148978    0.1972961 -37.78 0.0005162253    1.373    0.272
        17  -8.7424    189.6257    178.6510   2.4155271401e+01   1.1210760488e+01    0.4449137      0.27143 -60.44  0.002152978    2.682    0.627
        18  -8.5643    168.1658    176.9088   2.7932599193e+01   1.4450869926e+01    0.2368356     0.170915 -54.49 0.0005822586    1.596    0.373
        19  -8.0065    196.5406    175.5194   2.2375924478e+01   1.0834361811e+01    0.2216805     0.168682  10.26  0.001404339    1.364    0.267
        20  -8.5331     24.6386    214.7971   6.8472035393e+01   2.4404488428e+01    0.2135557    0.1611882  29.22 0.0003270378    1.215    0.177
        21  -9.9886    139.3611    172.9415   3.3435806222e+01   1.9460384922e+01    0.5112204    0.3781141  65.39  0.001849885    1.982    0.495
        22  -9.6100    158.5148    227.7827   3.7987177066e+01   6.7277097999e+00    0.3846732    0.2502643  -0.44  0.001707132    1.524    0.344
        23  -8.7529    142.8035    167.9696   3.1735600643e+01   1.9964768880e+01    0.3276621    0.2594644 -88.63   0.00146275    1.877    0.467
        24  -9.2380    193.2771    166.2302   2.1261901212e+01   1.2846211362e+01    0.2879834    0.2355364 -22.02 0.0007705487    1.054    0.052
        25  -9.3926    190.4948    161.4990   2.0869802409e+01   1.4055293717e+01    0.3663817    0.2573457 -45.60  0.001665028    1.367    0.269
        26  -8.7842    123.0984    167.0436   3.6286212801e+01   2.3232862718e+01    0.3330726    0.1980844  40.96 0.0006729566    1.715    0.417
        27  -9.0795     56.8795    164.2069   5.4695407462e+01   3.3521821422e+01     0.358243    0.2577784  -3.42   0.00124346    1.739    0.425
        28 -10.7908     10.9234    207.1763   7.1634656392e+01   2.7330862020e+01    0.6498995    0.5056436 -17.13  0.003740684    1.648    0.393
        29  -9.5553     36.7201    159.1716   6.0544554829e+01   3.7161713556e+01    0.4961135    0.3516442  49.89  0.001391025    1.360    0.264
        30  -9.7326     49.2188    157.0149   5.6198788059e+01   3.6356194151e+01    0.4836986    0.2903617 -74.41   0.00167501    1.704    0.413
        31  -8.9926    123.8123    159.1070   3.4629122191e+01   2.4890682823e+01    0.4803073    0.2845572  57.64  0.001967615    2.428    0.588
        32  -9.1966     13.8956    198.9343   7.0450765477e+01   2.9043201516e+01    0.4447021    0.1793338 -60.27  0.001550908    2.640    0.621
        33  -8.4389    134.0519    156.4943   3.1598633052e+01   2.3794493207e+01    0.2478309    0.1923112 -39.63 -0.0002944648    1.248    0.199
        34  -7.6782    147.2520    156.4152   2.8516186738e+01   2.1652663750e+01    0.1767075    0.1331735  45.32  0.000304534    1.464    0.317
        35  -8.5686    107.4201    154.9952   3.8163400853e+01   2.8504927205e+01    0.3177612    0.2364745   8.84 3.675628e-05    1.607    0.378
        36  -9.4440    112.4767    152.5508   3.6320195462e+01   2.8253695490e+01    0.4012656    0.2582704 -43.39  0.001096752    1.570    0.363
        37  -9.6571    114.3090    148.3610   3.4999698980e+01   2.8928520029e+01    0.4148537    0.3009824 -37.07   0.00138802    1.443    0.307
        38  -8.4943     37.0611    149.1660   5.9276174523e+01   3.9848075107e+01    0.3195362    0.1833753 -66.63 0.0003135446    1.670    0.401
        39 -10.6855     46.5659    145.9960   5.5595994014e+01   3.9654505573e+01     1.107148    0.4726902  21.86  0.002819182    2.509    0.601
        40  -8.8106     42.7953    140.9595   5.6201188127e+01   4.1475073656e+01     0.314714    0.2330327 -24.88  0.001489858    1.629    0.386
        41  -9.4301     60.8727    136.1666   4.9090643550e+01   4.0492256646e+01    0.3298038    0.2570091  53.75  0.000814483    1.317    0.240
        42 -11.3295     63.7911    129.3262   4.6813900448e+01   4.1918353432e+01     1.039064    0.8780336 -80.36  0.003783872    1.213    0.176
        43 -11.5254     67.6958    142.4629   4.7882668470e+01   3.7841718688e+01    0.9700592     0.712867  73.99  0.004497575    1.586    0.369
        44 -13.7872     70.8919    206.3278   5.5682503932e+01   2.1500761327e+01     1.276284    0.4409096  39.34  0.004967952    2.493    0.599
        45  -8.5314     83.9853    145.0853   4.3131676985e+01   3.4708398915e+01    0.3558268     0.179102 -56.04  0.001406627    1.945    0.486
        46  -8.3213    134.6657    148.9425   2.9939151123e+01   2.5334806947e+01    0.2094841    0.1812776 -47.32  0.001141961    1.126    0.112
        47 -10.7826     74.3425    138.8116   4.5028830744e+01   3.7824609622e+01    0.9015892    0.6206947 -86.37   0.00394897    1.785    0.440
        48  -8.4250    119.1161    134.8839   3.0884618207e+01   3.1220687906e+01    0.2324776    0.2092101  89.73  0.001044095    1.240    0.194
        49  -8.6013    111.9506    122.0708   2.9909314473e+01   3.5518701351e+01    0.2413966    0.1866072 -14.18 0.0006049406    1.686    0.407
        50  -8.2107     40.4721    116.9586   5.3276457972e+01   4.8389204600e+01    0.3482721    0.1469296  43.75  0.001249946    2.468    0.595
        51  -7.5858    107.1819    114.7656   2.9492368007e+01   3.8136033166e+01    0.2086165    0.1766516 -26.05 0.0003971228    1.326    0.246
        52  -8.9195     41.7387    110.2943   5.1529940773e+01   5.0071367955e+01    0.3480901     0.210585 -47.44 0.0001994687    1.669    0.401
        53 -10.1202     63.3277    107.7499   4.2406079915e+01   4.7725242793e+01    0.7021303    0.4705313 -36.37  0.002439216    1.713    0.416
        54  -7.7985    216.1487    108.8450   6.4357699350e+00   1.8994122136e+01    0.1750475    0.1387849 -52.67 0.0003430376    1.181    0.154
        55  -8.3247     94.8477    105.9048   3.0956221831e+01   4.2610263598e+01    0.2249586    0.2134868 -66.81 0.0003974746    1.035    0.033
        56  -8.5531    136.3553     97.8411   1.7595396936e+01   3.5908568487e+01    0.2542554    0.2295777  47.21 0.0003079694    1.186    0.157
        57  -7.3204     45.4609     93.5934   4.6326104403e+01   5.4080160812e+01    0.1482999    0.1433793  71.01 0.0002897031    1.057    0.054
        58  -7.1836    162.6094     92.2554   1.0836409364e+01   3.1534320324e+01    0.1411629    0.1033039 -80.60  0.000696244    1.685    0.407
        59  -8.5752     70.9831     90.9956   3.5151556200e+01   5.0677408424e+01    0.2833124    0.2255873  40.26  0.001387062    1.260    0.206
        60  -8.3649    180.5185     77.1830   4.2182844131e+00   3.0477892984e+01    0.2000918    0.1776557  83.55 0.0004116215    1.202    0.168
        61  -8.4927     58.1575     70.9827   3.4231712003e+01   5.7693584717e+01    0.2461825    0.1774261 -87.86    0.0010871    1.992    0.498
        62 -10.2246    146.2998     63.4415   6.0569441471e+00   4.0028312258e+01    0.5240428    0.3420647  84.32  0.002180419    1.824    0.452
        63  -7.7760     13.3803     61.2715   5.4720643836e+01   6.5933841188e+01    0.2899587    0.1118695 -60.84  0.001152438    2.272    0.560
        64  -8.2386    246.1691     60.4182   3.5362612167e+02   2.1141654849e+01    0.1734131    0.1207651 -36.06 0.0004421273    1.280    0.219
        65 -11.2311    155.2912     50.0406   7.7887903749e-01   4.0059358223e+01    0.7889584    0.7613823 -58.46  0.005028631    1.184    0.156
        66  -9.8873    159.8925     40.0942   3.5735116495e+02   4.0404971918e+01    0.3948908    0.3141549 -15.87 0.0006837181    1.638    0.390
        67  -7.6929     69.8148     47.7596   2.0712533744e+01   6.0212091590e+01     0.202098    0.1850827  26.42 0.0004353909    1.130    0.115
        68  -7.7683     53.1675     47.1793   2.7556487392e+01   6.3652102046e+01    0.1864112    0.1633963  68.15  0.000249456    1.302    0.232
        69  -7.4893    100.5779     43.5292   9.3127027449e+00   5.3931697742e+01    0.1420906    0.1306877 -88.65 7.960298e-05    1.045    0.043
        70  -8.1450     92.3842     39.8103   1.0071393535e+01   5.6442036807e+01    0.2229239    0.1799307  75.32 0.0003932823    1.241    0.194
        71  -7.3600     87.2559     40.6418   1.1875001636e+01   5.7515988555e+01    0.1430672    0.1058207 -69.53 0.0004898661    1.616    0.381
        72  -8.3409    207.6398     37.1663   3.5176870670e+02   3.0787143523e+01    0.1843632    0.1564902 -88.68 0.0008140558    1.258    0.205
        73  -8.7859     77.0572     37.0061   1.3576765192e+01   6.0426490621e+01    0.2230102    0.1904068  58.77            0    1.105    0.095
        74  -6.6343    222.6972     33.6678   3.4989406192e+02   2.8413119080e+01   0.09770909   0.08838414  -0.29 0.0007035726    1.655    0.396
        75  -7.4653      1.3821     27.2192   5.2649294247e+01   7.4748034618e+01    0.1556369    0.1195141 -70.90 0.0002657037    1.481    0.325
        76  -7.0898    233.6704    209.2854   2.1997690820e+01   1.5787358102e+00    0.0890443   0.08099845 -30.88 0.0006266824    1.613    0.380
        77  -8.3548    153.5205    244.8975   4.1266653282e+01   4.5490012761e+00    0.1776911     0.112152 -47.27 0.0005582258    1.817    0.450
        78  -7.7904     93.0640     23.0671   3.1026364257e+00   5.8561639475e+01     0.200206    0.1768716  84.97            0    1.069    0.065
