#   1 NUMBER                 Running object number                                     
#   2 MAG_AUTO               Kron-like elliptical aperture magnitude                    [mag]
#   3 X_IMAGE                Object position along x                                    [pixel]
#   4 Y_IMAGE                Object position along y                                    [pixel]
#   5 X_WORLD                Barycenter position along world x axis                     [deg]
#   6 Y_WORLD                Barycenter position along world y axis                     [deg]
#   7 A_WORLD                Profile RMS along major axis (world units)                 [deg]
#   8 B_WORLD                Profile RMS along minor axis (world units)                 [deg]
#   9 THETA_WORLD            Position angle (CCW/world-x)                               [deg]
#  10 FWHM_WORLD             FWHM assuming a gaussian core                              [deg]
#  11 ELONGATION             A_IMAGE/B_IMAGE                                           
#  12 ELLIPTICITY            1 - B_IMAGE/A_IMAGE                                       
         1 -16.3810    130.5334     97.7331   9.5128368058e+01   3.7095484620e+01     5.222054     2.391017 -34.21  0.009654994    2.640    0.621
         2 -16.2530    225.0749    132.2748   8.3402368313e+01   9.0102014165e+00     4.077465     0.899572 -33.99   0.01026241    5.444    0.816
         3 -19.2876    201.0597    114.4659   8.3684079642e+01   1.7670406165e+01     9.122965      7.53313 -13.74   0.04549268    1.358    0.263
         4 -12.3477    159.5491     25.8075   6.6828181363e+01   4.2134773523e+01     0.463502    0.3537582  85.14 0.0009637743    1.514    0.340
         5 -10.8379    154.0998     14.2901   6.4196370953e+01   4.4746292299e+01    0.2559371    0.1953446 -24.55 0.0002907383    1.439    0.305
         6 -11.3858    219.2856     11.4409   5.4111865784e+01   2.8686566848e+01    0.2520701     0.218207  76.50  0.000309867    1.067    0.063
         7 -10.7477    233.8951      7.7525   5.1702825127e+01   2.5523740629e+01    0.3341112    0.1947009 -21.80 0.0008057816    2.114    0.527
         8 -10.5485     19.5288      7.4926   1.0160279845e+02   6.9089667021e+01    0.1451309    0.1307736 -72.28  0.001092913    2.175    0.540
         9 -11.3003    141.1197      3.2291   6.2961211474e+01   4.8920532728e+01    0.2469461    0.2009628  48.51 0.0002713036    1.062    0.058
        10 -10.6809    227.8594      1.9368   5.0934688471e+01   2.7594259311e+01    0.2072371    0.1652058  82.91 0.0003717835    1.097    0.089
        11 -11.4174    167.3962      1.5138   5.8078513993e+01   4.2687877254e+01    0.2831331    0.1418978  62.20  0.001319107    1.683    0.406
        12 -10.4360    130.5059      2.1955   6.4638702760e+01   5.1474981186e+01    0.2290241    0.1619622  56.35 0.0004279295    1.261    0.207
        13  -9.8543     35.2559    160.0019   1.2996667087e+02   3.7975728283e+01    0.1660605    0.1193604 -79.12 -0.000430966    1.121    0.108
        14 -12.8199    245.4134    241.0466   1.0111545322e+02  -1.0445490465e+01    0.6285418    0.3059829  34.80  0.003517561    1.659    0.397
        15 -12.5360    242.1726    247.9865   1.0275975114e+02  -1.0683232283e+01    0.5610754      0.24947  38.48  0.003073437    1.765    0.433
        16 -12.2602    232.4828    245.6521   1.0402353860e+02  -8.8953617667e+00    0.3124548    0.2228087  19.92 0.0006042831    1.241    0.194
        17 -10.5885    192.5103    232.5014   1.0896809530e+02  -4.7555372805e-01    0.2246326    0.1751838  40.91 0.0005978597    1.038    0.037
        18  -9.7929      7.4860    231.5063   1.4019903567e+02   2.7029529837e+01    0.1024889   0.06437369  75.02 0.0008089664    1.088    0.081
        19  -9.8519     69.1200    230.3198   1.3050168321e+02   2.0095327325e+01    0.1580086    0.1102528  61.57 0.0004862594    1.137    0.120
        20 -10.1930     29.9626    228.4706   1.3665578606e+02   2.5223833761e+01    0.1532879    0.1044571  83.97 0.0003665127    1.111    0.100
        21 -11.9384    203.1657    225.4283   1.0595295096e+02  -1.3966326570e+00    0.4253349    0.2868391  14.71  0.002359143    1.821    0.451
        22 -11.2375    159.7326    226.7365   1.1406590425e+02   6.2243912571e+00    0.2256059    0.1879051  45.34 0.0002684859    1.071    0.066
        23 -10.4693    149.7166    226.6016   1.1587994080e+02   8.0208968095e+00    0.2408422    0.1970476  14.98  0.001335464    1.666    0.400
        24  -9.8092    247.3232    226.3084   9.8341678210e+01  -9.0900988037e+00    0.1256537   0.07771686  15.80 0.0002861611    1.648    0.393
        25  -9.2853     49.3129    226.2930   1.3343226342e+02   2.3360478395e+01   0.08901364   0.08178815 -74.81 0.0003534094    1.593    0.372
        26 -14.0627    176.6492    220.7578   1.1006969640e+02   4.0938977048e+00     0.701463    0.4493228  56.15  0.001775146    1.542    0.352
        27 -10.9972    168.5909    224.7442   1.1215458615e+02   4.9449069018e+00    0.4607545    0.1865745  50.31  0.001863945    2.216    0.549
        28 -11.0757    234.1725    221.0233   9.9703361516e+01  -6.2570496947e+00    0.4324803    0.1993298  47.27  0.001627666    2.096    0.523
        29 -10.9926     59.4703    216.6202   1.3093995638e+02   2.3847862269e+01    0.2928009    0.2025953 -66.81   0.00125688    1.545    0.353
        30 -11.1849    143.0968    215.8567   1.1562626020e+02   1.0978958581e+01    0.2342208    0.2056338 -64.33 0.0005397548    1.310    0.236
        31  -9.8458    121.2832    217.6504   1.1994697589e+02   1.4442286985e+01    0.1931405    0.1437368  63.85 0.0005794542    1.165    0.141
        32 -11.7089    124.1740    215.6461   1.1915204366e+02   1.4310112557e+01    0.2810692    0.2286213  85.71  0.001032093    1.228    0.186
        33 -10.7474    235.8848    214.6398   9.8289413821e+01  -5.7393909069e+00    0.2839874    0.1873397  30.90 0.0008987922    1.299    0.230
        34 -11.0652     90.9723    214.7931   1.2518318773e+02   1.9791461041e+01     0.217214    0.2013481   2.46  0.000915935    1.741    0.426
        35  -9.5227      1.4812    214.5234   1.4020114552e+02   3.0574377152e+01    0.1001104   0.06888182  81.58 5.738901e-06    1.035    0.034
        36 -11.5029    192.9203    212.0154   1.0564028155e+02   2.4167884788e+00     0.228451    0.1969439  35.70 0.0006347504    1.027    0.027
        37 -10.3623    214.0194    210.5248   1.0148459683e+02  -1.2780463070e+00    0.2396389    0.1746019  -6.02  0.001359091    1.635    0.388
        38 -12.1002    164.8736    209.3710   1.1052050033e+02   8.0982475261e+00    0.4236453    0.2561369  51.28  0.001695414    1.471    0.320
        39  -9.8586    242.1621    207.8023   9.5960485649e+01  -5.9423088825e+00    0.1715962    0.1452798  29.26 0.0003034393    1.130    0.115
        40  -9.4410     30.4785    249.4967   1.3785034604e+02   2.1589139685e+01    0.1018982      0.06823  72.76 0.0002951802    1.004    0.004
        41 -15.3699    184.1008     90.9643   8.1014167879e+01   2.6043565377e+01     1.517338    0.9222502  30.69  0.006005387    2.164    0.538
        42 -15.3536    203.0827    139.5527   8.9276092099e+01   1.2623552955e+01     1.518432    0.7124936 -43.36  0.005924351    2.221    0.550
        43 -12.5688    229.9601    250.3587   1.0517062231e+02  -9.0112180840e+00    0.8268632     0.144681  42.87  0.002833443    4.421    0.774
        44  -9.7862    132.1875    246.1995   1.2141095742e+02   7.9175461558e+00    0.1705036    0.1107543  62.60 0.0006938282    1.389    0.280
        45  -9.5953    250.7668    158.9588   8.4777227029e+01  -6.1292391496e-01    0.1671422     0.107539 -29.62 0.0004815542    1.512    0.339
        46  -9.8470     91.4728    159.0695   1.1770494773e+02   3.0963407328e+01    0.1881414    0.1215622 -62.59 0.0003353842    1.472    0.321
        47 -10.3853     41.9995    157.9483   1.2833097270e+02   3.7699905854e+01     0.185316    0.1464115 -89.11 0.0007545424    1.036    0.035
        48 -10.3621     15.5734    155.7840   1.3354208398e+02   4.0698238479e+01    0.1574696   0.08328059 -85.30 0.0005208551    1.603    0.376
        49 -11.4937     90.5523    151.3002   1.1664450900e+02   3.2789988116e+01     0.434859    0.2128698 -53.65 0.0009419543    1.966    0.491
        50 -12.2042    118.2892    190.0427   1.1675610402e+02   2.0115905551e+01    0.6074697    0.2704863 -50.19  0.002696166    2.505    0.601
        51  -9.9459     34.0204    150.0740   1.2911176576e+02   4.0197383359e+01    0.1718706    0.1375764 -84.97 0.0003602241    1.019    0.018
        52 -10.7861     80.5605    148.3659   1.1845864675e+02   3.4926539584e+01    0.2441424    0.1794799 -71.85 0.0006209746    1.256    0.204
        53 -11.6060     21.8783    145.9592   1.3124805867e+02   4.2199690153e+01    0.1898099    0.1498968  89.05 -0.0006383859    1.082    0.075
        54 -10.7235     67.9640    201.3615   1.2797122864e+02   2.5631529668e+01    0.2111502     0.149535 -80.91 0.0003285367    1.269    0.212
        55 -11.3282    129.9763    192.0698   1.1469689916e+02   1.7658614270e+01    0.2639092    0.2019394 -84.14 0.0003622468    1.434    0.303
        56 -11.4126    247.0113    138.2781   8.0907127239e+01   3.3463333228e+00     0.414944    0.2231024  45.51  0.001878965    1.881    0.468
        57 -11.3123    250.0269    134.7438   7.9608997754e+01   3.2908994631e+00    0.3053554    0.2048315 -33.76 0.0004221999    1.422    0.297
        58 -12.4763    110.4917    132.6651   1.0843329868e+02   3.3551306084e+01    0.4995866    0.3738185  33.94  0.001721279    1.499    0.333
        59  -9.5237     28.0906    135.4781   1.2866718142e+02   4.3869223755e+01     0.135795     0.113798  42.81 0.0002796653    1.438    0.305
        60 -10.6373    100.7429    134.2027   1.1111721063e+02   3.4896112100e+01     0.182644    0.1645756 -24.92  0.000820034    1.331    0.249
        61 -10.4547     89.2652    190.8273   1.2268514251e+02   2.4674566455e+01    0.2438593    0.1659579  37.16  0.001397256    1.682    0.406
        62 -10.5320      7.0300    201.2413   1.3856481824e+02   3.2496709374e+01    0.1717957    0.1074657 -86.99 0.0004033282    1.200    0.166
        63 -12.3287    100.5023    127.7309   1.0986939624e+02   3.6355723668e+01     0.461615    0.3737059   3.63  0.001612662    1.716    0.417
        64  -9.6561     74.1495    129.1417   1.1670000273e+02   4.0059999791e+01    0.1774025    0.1413446 -89.30  0.000359232    1.284    0.221
        65 -10.3108     80.0028    126.0227   1.1465937883e+02   3.9925218277e+01    0.2023852    0.1556859 -28.20 0.0004590131    1.669    0.401
        66 -15.8880    194.9254    165.9989   9.6676048468e+01   9.6335640862e+00     3.464822     1.578257  35.91   0.01310293    2.483    0.597
        67 -13.3307    101.2889    113.6147   1.0660647352e+02   3.9299991466e+01    0.7344584    0.4406328  34.88  0.002908057    1.877    0.467
        68 -11.6010     91.4291    116.4637   1.0979666916e+02   4.0300131843e+01    0.3117658    0.2676239  13.80 0.0006853145    1.423    0.297
        69 -10.9511     70.2359    116.9528   1.1540777539e+02   4.3269120425e+01    0.3028844    0.1732664  48.79  0.001118998    1.980    0.495
        70 -10.8628     91.1331    111.1655   1.0871077387e+02   4.1499653977e+01    0.2359507    0.1870013  50.44  0.000840527    1.360    0.265
        71 -12.0624    155.2616    202.8560   1.1135305767e+02   1.1013443936e+01    0.3938186     0.277293  27.69  0.002089883    1.699    0.412
        72 -13.1588    101.2901    104.4189   1.0444422144e+02   4.1272767068e+01    0.6542986    0.3784922 -53.95  0.002746091    1.691    0.409
        73 -12.3482    104.0036    118.5208   1.0701312292e+02   3.7770522058e+01    0.4442409    0.2898299 -35.04  0.002099693    1.800    0.444
        74 -10.3499    247.3232    186.6932   9.1054606926e+01  -4.0088214768e+00    0.2823331    0.2438224 -72.03 0.0009992304    1.813    0.448
        75  -9.5251      2.6562    103.7082   1.3070234713e+02   5.2456317735e+01    0.1098051    0.0637741 -47.16 0.0004321481    1.657    0.397
        76 -10.5858    248.6609    184.3046   9.0350173668e+01  -3.9166244572e+00     0.276508    0.1876696  51.05  0.001010403    1.673    0.402
        77 -10.9557     94.0365    101.0686   1.0558039268e+02   4.3199979920e+01    0.2797998    0.1923214  16.68  0.001169375    2.013    0.503
        78 -10.6011     89.6871    206.1282   1.2444906855e+02   2.1614131659e+01    0.2045979     0.156817  51.36 0.0003595928    1.253    0.202
        79  -9.4719     86.2949     94.3107   1.0605496658e+02   4.5853113714e+01    0.1356463    0.1016041 -21.69 0.0003294164    1.593    0.372
        80  -9.9315    206.1183    202.3260   1.0149551375e+02   1.3986140352e+00    0.1865174     0.149523  41.79 0.0003482163    1.118    0.105
        81 -11.4833    147.8940    186.4980   1.1015462461e+02   1.5394388948e+01    0.2877717    0.1977226 -55.50  0.001081038    1.601    0.375
        82 -11.1309     87.7500     88.1444   1.0407704337e+02   4.6905674884e+01    0.3161787    0.2196059 -32.78 0.0006540181    1.495    0.331
        83  -9.8146     76.0210    185.7873   1.2468573539e+02   2.7629387039e+01    0.1740735    0.1409746  67.94  0.000752709    1.097    0.089
        84 -11.7967    117.5592     85.3530   9.5096669791e+01   4.2189152020e+01    0.4125324    0.3143195   9.29  0.001241368    1.664    0.399
        85 -10.5746    114.3053     83.3040   9.5388081967e+01   4.3224254586e+01     0.275812    0.2201621 -20.12  0.001165931    1.363    0.266
        86  -8.8605    242.4422    189.0649   9.2375724467e+01  -3.4555675673e+00    0.4364596    0.2919457  -2.49  0.002066759    1.729    0.422
        87 -11.0666    101.1043     83.1118   9.8953500082e+01   4.5699101886e+01    0.2085995    0.1835897 -12.56 0.0003567859    1.183    0.154
        88 -10.6461     85.3028     82.7373   1.0334849530e+02   4.8386671135e+01    0.2156184    0.1893076  19.43 0.0008783903    1.232    0.189
        89 -10.1708     52.1999    183.0838   1.2904856366e+02   3.1295855605e+01    0.1639853    0.1344305 -77.26 0.0003141433    1.202    0.168
        90 -12.0129    101.6034     78.5168   9.7516572611e+01   4.6513575013e+01    0.4619258    0.3023794 -75.88  0.001885426    2.925    0.658
        91 -10.8251     94.4715     78.2398   9.9462678760e+01   4.7801262748e+01    0.2697222    0.1248453 -41.30  0.001134893    2.052    0.513
        92 -11.9050    107.6004     75.7175   9.5031012156e+01   4.5959599732e+01    0.4309637    0.2411861 -61.35  0.001674385    2.839    0.648
        93 -10.8771     85.1585     77.0645   1.0183582350e+02   4.9539281496e+01    0.2702385    0.1946266  42.19  0.001109643    1.530    0.346
        94 -10.1398     67.0660     77.3174   1.0730987632e+02   5.2073550332e+01    0.1697663     0.161956 -30.67 0.0004575917    1.104    0.094
        95  -9.7172     99.8763    182.1341   1.1937364407e+02   2.4780532779e+01    0.1541234    0.1502512  83.65            0    1.259    0.206
        96 -12.3393    118.8649     68.9145   8.9925585899e+01   4.5026425845e+01    0.4486154    0.3785117 -29.61  0.002012429    1.159    0.137
        97 -11.5916    108.9583     70.1158   9.2984719452e+01   4.6752208649e+01    0.3046872    0.1946646 -34.04 0.0007667661    1.548    0.354
        98 -10.4799     32.9892    178.0312   1.3222778711e+02   3.4486597314e+01    0.3223033   0.08564869 -59.51  0.001402991    3.333    0.700
        99 -11.5627     32.0133     67.1401   1.1571046670e+02   5.7853728418e+01    0.2120013    0.1698056 -36.53  0.000332315    1.120    0.107
       100 -10.2899     10.9488     66.0168   1.2218965195e+02   5.9598662916e+01    0.1675022    0.1230194 -51.28 0.0003410285    1.036    0.035
       101 -10.4476     80.9755     65.5237   9.9746390318e+01   5.2397565106e+01    0.1765007    0.1295958  34.67 5.180308e-05    1.464    0.317
       102 -11.2911    152.1861     63.3422   7.9997536238e+01   3.8606551081e+01    0.3451974    0.2371744  -4.36 0.0008989684    1.993    0.498
       103  -9.6426     62.8569     64.1615   1.0499941295e+02   5.5181655122e+01    0.1723562    0.1298826 -24.70 0.0002583553    1.287    0.223
       104 -13.0024     88.5405     60.8605   9.6023893349e+01   5.2053695690e+01    0.3324177    0.2793558 -24.38 0.0005422349    1.092    0.085
       105 -12.4859    110.4699     60.6834   8.9638242515e+01   4.8145340237e+01    0.3162518    0.3006604  -5.63 0.0005255982    1.044    0.042
       106 -13.2725    151.3976     53.2812   7.7091631730e+01   4.0395999922e+01    0.7411523    0.6508257  17.91  0.001255658    1.182    0.154
       107 -11.2487    140.9266     50.3814   7.8556493346e+01   4.3302289729e+01    0.2683879    0.2596158 -67.92 0.0006299254    1.154    0.134
       108 -11.0148    140.1050     56.1536   8.0578587584e+01   4.2593505409e+01    0.3133117    0.2341241  20.06  0.000334255    1.533    0.348
       109 -12.1119    145.1412     54.6540   7.8930892279e+01   4.1663911589e+01    0.4733281    0.3708835 -73.03  0.001453808    1.695    0.410
       110 -10.2650     16.0641     58.8444   1.1896962574e+02   6.0665963431e+01    0.1520516    0.1264979 -60.70 0.0003159912    1.204    0.170
       111 -11.7857    123.3144    176.5007   1.1360580009e+02   2.1935006860e+01    0.2819887    0.2120079  85.53  0.000722076    1.465    0.317
       112 -10.5342    115.9576     55.9790   8.6632362193e+01   4.7850746184e+01    0.2110511    0.1954676   6.22 0.0003210566    1.013    0.012
       113 -11.6005    121.3854     52.9498   8.4210184246e+01   4.7222638983e+01    0.3055009    0.2355623  69.80 0.0007547738    1.679    0.404
       114  -9.9699     24.9342     52.5361   1.1440350714e+02   6.1223989093e+01    0.1433022    0.1088419  10.94 0.0004669779    1.533    0.348
       115 -12.2666    124.5099     47.0924   8.1479010383e+01   4.7469558249e+01     0.463969    0.2482959 -41.22 0.0009552876    1.984    0.496
       116  -9.9424     98.1337     50.1670   8.9705323022e+01   5.2230164057e+01    0.1705796    0.1645472 -82.29 0.0003907116    1.317    0.240
       117 -10.3453     90.9799    177.2636   1.2052987991e+02   2.7183881504e+01    0.1769067    0.1513256  74.69 0.0004023737    1.035    0.034
       118 -12.1802    132.9209     47.6889   7.9589811137e+01   4.5531419181e+01    0.4911882    0.2475483  43.41  0.002080913    1.929    0.482
       119 -12.0220    156.3162     44.8008   7.3399073023e+01   4.0460106250e+01     0.466649    0.3292899  -3.07  0.002193303    1.788    0.441
       120 -12.5507    188.8530     40.2278   6.5964396303e+01   3.2911506972e+01    0.6338472     0.348741  54.39  0.002575567    1.682    0.405
       121 -11.2432    241.6658     39.3076   5.8286447924e+01   1.9831566394e+01    0.2658638    0.2407815 -41.93 0.0006410077    1.152    0.132
       122  -9.9423    236.3211    176.6342   9.0995666614e+01  -5.0249116538e-01    0.1811566    0.1160905  35.78 0.0006271763    1.465    0.317
       123 -10.0584     73.7300    201.3944   1.2690478666e+02   2.4836874876e+01    0.1705115     0.131028 -56.11 9.791458e-05    1.599    0.375
       124  -9.9481    128.0572     39.5036   7.8060296908e+01   4.7801398439e+01    0.2025168    0.1319951  49.86 0.0003172114    1.468    0.319
       125 -11.7017    138.8890     44.4063   7.7106770428e+01   4.4657965755e+01    0.3431928    0.2650094  64.26  0.001103519    1.411    0.291
       126  -9.2793     40.6966     37.2996   1.0423521903e+02   6.2518970891e+01    0.1000404   0.09104037 -67.89 0.0002756889    1.587    0.370
       127 -10.9368    147.0787     35.9324   7.2537842442e+01   4.3905930761e+01    0.2997358    0.1873159  53.89   0.00142438    1.486    0.327
       128  -9.9285    133.6989     32.6463   7.4415461238e+01   4.7458501574e+01    0.2554635    0.1734297  -8.28 0.0007693914    1.711    0.415
       129 -10.7006    134.6815     29.0586   7.2983011759e+01   4.7688582224e+01    0.2183386     0.180189 -34.01 0.0001883005    1.311    0.237
       130 -10.5410    157.0522     30.9454   6.8913982294e+01   4.2127637802e+01    0.2920985    0.2766056  35.23 0.0008565878    1.044    0.042
       131 -11.6667    214.7250    243.4642   1.0672198107e+02  -5.7242658118e+00    0.2610464    0.1868316  43.58 0.0008031942    1.220    0.180
       132  -9.7893     26.0146     31.7839   1.0788925179e+02   6.4808746378e+01      0.14907    0.1166661 -24.04            0    1.069    0.065
       133 -10.3618     87.9333    172.9670   1.2056311608e+02   2.8546427901e+01    0.1983021    0.1676329  87.38 0.0005539844    1.035    0.034
       134 -11.3029    233.5690    171.6933   9.0482843512e+01   7.8284218730e-01    0.2276892    0.2067605  37.91 0.0004101252    1.152    0.132
       135  -9.8168     36.8850     30.1517   1.0320532809e+02   6.4077204099e+01    0.1589527    0.1359103 -32.08 0.0004548669    1.229    0.187
       136 -10.6244    207.7091     28.5890   5.9927843824e+01   2.9599378287e+01    0.2372622    0.2020181  24.75 0.0007044566    1.406    0.289
       137 -12.2243    200.3344     26.0869   6.0284226522e+01   3.1777899137e+01    0.6318481    0.3348769  89.94  0.001306329    2.662    0.624
       138 -10.8448     79.5853    170.9713   1.2204701685e+02   3.0198640871e+01    0.3018198    0.1743337 -73.01  0.000780354    1.705    0.414
       139 -10.0376     70.6342     26.1756   8.9675507044e+01   6.0436275505e+01     0.179977    0.1010199 -22.69 0.0009431753    1.749    0.428
       140 -10.4713    241.2846     24.1792   5.4766701978e+01   2.1855754839e+01     0.372899    0.1971994 -59.31  0.001666874    2.036    0.509
       141 -11.7565    226.3330     23.5246   5.6281468047e+01   2.5557602529e+01    0.4668236    0.2837465  67.75  0.001525252    1.529    0.346
       142 -10.7736    168.2984     22.8722   6.4359054565e+01   4.0295112471e+01    0.3619488    0.2177682  -0.45  0.001190708    2.397    0.583
       143 -10.1319     82.4043     22.1340   8.4335037538e+01   5.9088133390e+01    0.2336839    0.1987896 -73.37  0.000994704    1.987    0.497
       144 -11.7498    118.6683    169.5448   1.1344462102e+02   2.4194600726e+01    0.2564272    0.2146815  75.60 0.0002804891    1.145    0.127
       145 -11.5968    189.5249     19.9060   6.0134700131e+01   3.5252413681e+01    0.3224182    0.2260806   0.62  0.001042233    1.907    0.476
       146 -12.2581    227.4321    190.9620   9.5438543787e+01  -9.4369614022e-01    0.4595545    0.3165847  16.71  0.001316361    1.580    0.367
       147 -10.2442     70.0885    168.5007   1.2371803829e+02   3.2045378572e+01    0.1718629    0.1164898  45.56  0.000412904    1.514    0.339
       148  -9.8487    245.9885    165.9770   8.7084087307e+01  -7.5358363550e-01    0.1957179    0.1699086 -83.19  0.001106041    1.697    0.411
       149 -10.6585     28.0412    166.0776   1.3204700099e+02   3.7433268270e+01     0.166524    0.1296542 -87.19  0.000318591    1.034    0.033
       150 -10.0151    121.1482    243.6277   1.2301153455e+02   1.0107407303e+01    0.2159482     0.134048  80.39  0.001252885    1.946    0.486
       151 -10.7255     22.4575    165.5041   1.3308893235e+02   3.8084695781e+01    0.1897394       0.1494  87.33  0.000607879    1.060    0.057
       152  -9.2676     48.3077     14.7090   9.3012209628e+01   6.5079234027e+01    0.0968449   0.09010822 -36.99 0.0002421179    1.579    0.367
       153 -10.4613     32.1757    243.0237   1.3722525910e+02   2.2472204090e+01    0.1457228    0.1167242  83.68  0.001237328    1.311    0.237
       154  -9.2436    215.3346     12.2787   5.4767276723e+01   2.9576120824e+01    0.1360362   0.09476752  44.53  0.000314416    1.610    0.379
       155  -9.6757      2.3807    242.8231   1.4146520667e+02   2.5620934795e+01    0.1222386   0.06682072 -76.60 0.0009387392    1.659    0.397
       156 -12.0689    224.6524    241.0845   1.0464736870e+02  -7.0950626823e+00    0.2955492    0.1927856  38.18  0.001260789    1.223    0.182
       157 -11.9740    237.0130    162.3364   8.7905914689e+01   1.5576344581e+00    0.3735592    0.2591002  -5.53 0.0005241283    1.708    0.414
       158 -11.9131    128.2158    188.2357   1.1446222513e+02   1.8717165411e+01    0.3137752     0.253814  38.30 0.0005666631    1.322    0.243
       159 -10.2849     80.8757    162.1304   1.2051416584e+02   3.1895438890e+01    0.1658901    0.1449045 -55.64 0.0005424995    1.290    0.225
       160  -9.9731     56.8741    241.8958   1.3339853172e+02   1.9698902568e+01    0.1470835     0.121352  76.99 0.0005504565    1.263    0.208
       161 -11.8221    235.4405    235.2116   1.0185977606e+02  -8.1866251453e+00    0.3494522    0.1875836  37.54  0.001291931    1.504    0.335
       162 -10.0513    207.7926    233.7702   1.0644449958e+02  -3.3278613090e+00    0.1624575    0.1269659  51.66  0.000423468    1.328    0.247
       163 -10.9151    248.2087    232.6116   9.9258488477e+01  -9.9548256353e+00    0.3903421    0.1518158  29.84  0.001719106    2.755    0.637
