#   1 NUMBER                 Running object number                                     
#   2 MAG_AUTO               Kron-like elliptical aperture magnitude                    [mag]
#   3 X_IMAGE                Object position along x                                    [pixel]
#   4 Y_IMAGE                Object position along y                                    [pixel]
#   5 X_WORLD                Barycenter position along world x axis                     [deg]
#   6 Y_WORLD                Barycenter position along world y axis                     [deg]
#   7 A_WORLD                Profile RMS along major axis (world units)                 [deg]
#   8 B_WORLD                Profile RMS along minor axis (world units)                 [deg]
#   9 THETA_WORLD            Position angle (CCW/world-x)                               [deg]
#  10 FWHM_WORLD             FWHM assuming a gaussian core                              [deg]
#  11 ELONGATION             A_IMAGE/B_IMAGE                                           
#  12 ELLIPTICITY            1 - B_IMAGE/A_IMAGE                                       
         1 -14.4257    221.4852      8.9248   3.5572384743e+01   2.8020537377e+01     1.400669     1.159495  34.51  0.004617457    1.570    0.363
         2 -15.1054    195.1992     39.2255   4.6056122602e+01   3.0780669404e+01     2.872022     1.672305  25.39   0.01167344    2.905    0.656
         3 -11.4599     79.1056     14.7997   5.9501046900e+01   6.3527597471e+01    0.4566213    0.2490938  70.74  0.001416396    2.453    0.592
         4 -10.5416     58.3304      8.3311   6.3727349797e+01   6.8923073896e+01    0.1436632   0.09580371  18.64 0.0007051907    1.719    0.418
         5  -9.7766    167.8669    231.0653   9.2359719468e+01   6.3802877827e+00     0.161275    0.1313358  31.72 0.0004522093    1.179    0.152
         6 -12.7455    248.4939    245.8844   8.0916641124e+01  -5.1649205358e+00    0.5293916    0.2453063 -21.55  0.003562371    2.092    0.522
         7 -16.7316     69.6579    145.0576   1.0292088614e+02   3.7112429352e+01     7.879261     4.143002  66.30   0.03206079    2.535    0.605
         8 -10.3994     56.3374    208.2884   1.1297988683e+02   2.5244615187e+01    0.2280358    0.1493548  71.47  0.001038225    1.490    0.329
         9 -11.0072     42.2618    208.3690   1.1608532281e+02   2.6836412267e+01    0.2656777    0.1197063  59.93 0.0008413859    2.034    0.508
        10 -10.8153     35.6594    208.6659   1.1754475725e+02   2.7489736561e+01    0.1528586   0.09055755  52.57 0.0005711337    1.311    0.237
        11 -11.6605     66.0790    207.1444   1.1072729725e+02   2.4278259063e+01     0.206589    0.1669018  65.15 0.0003533417    1.138    0.121
        12 -12.3403     64.2450    202.3379   1.1073327854e+02   2.5431251007e+01     0.232106    0.2085347 -64.48 0.0009762938    1.366    0.268
        13 -19.2603      5.9010    106.4208   1.1869243724e+02   5.3306977635e+01     17.65062     1.663333 -79.55    0.0347774   11.131    0.910
        14  -9.8836     93.6979    205.4340   1.0441042718e+02   2.0945006452e+01    0.2576194    0.1802095  24.70 0.0008621225    1.479    0.324
        15 -10.3563     96.3900    202.1958   1.0345459395e+02   2.1163138383e+01    0.2232732    0.1872509 -80.74 0.0009246264    1.378    0.274
        16 -11.9814    204.4115    200.1454   8.1179972042e+01   5.2392513186e+00    0.4001953    0.1682507  29.10  0.001925256    2.303    0.566
        17 -11.9663    193.4729    196.0666   8.2474657800e+01   7.3866692675e+00     1.171974    0.6880435 -61.81  0.004449799    5.707    0.825
        18 -11.7525     51.6736    199.2835   1.1335124779e+02   2.7550410568e+01    0.2119793    0.1524277  56.44 0.0003845415    1.140    0.123
        19 -13.0835     53.8414    196.2079   1.1261293289e+02   2.7911063940e+01    0.4254289    0.2859438 -40.73  0.001892269    2.206    0.547
        20 -10.7827     38.9114    199.7029   1.1628579690e+02   2.8901307018e+01    0.1939812    0.1382124  59.81  0.001019084    1.138    0.121
        21  -9.0749     44.5755    197.8304   1.1487056191e+02   2.8653473165e+01    0.1412931   0.09749373  71.97 0.0003816646    1.327    0.246
        22 -11.6202    193.2402    204.6028   8.3887479035e+01   6.2725490657e+00     0.232398    0.1547069  12.55  0.001014244    1.435    0.303
        23 -10.1082     33.0061    196.3107   1.1741926852e+02   3.0209367846e+01    0.1519952   0.07860003  44.96 0.0004418867    1.514    0.340
        24 -12.9387    149.2995    188.4052   8.9947325761e+01   1.5492140543e+01    0.7546692    0.4676615 -71.73  0.003369907    3.253    0.693
        25  -9.2867     68.3033    193.0720   1.0895930714e+02   2.6751372146e+01    0.1585548    0.1047503  87.22 0.0003979708    1.675    0.403
        26  -9.8218     59.6123    220.5019   1.1315936981e+02   2.2588650336e+01    0.2729031    0.2396102  -1.40  0.001960195    1.595    0.373
        27  -9.3955     31.9326    186.6815   1.1707629834e+02   3.2307733773e+01    0.1742376    0.1311428  51.17  0.001139037    1.098    0.089
        28 -10.1230     58.0106    227.7186   1.1398579053e+02   2.1495278862e+01    0.1605258     0.108979  50.03 0.0004052498    1.122    0.108
        29 -10.3684     92.6020    184.8250   1.0227998004e+02   2.5058460800e+01    0.2605109    0.1710149  37.62  0.000729429    1.328    0.247
        30 -12.0309     98.9648    181.1042   1.0027637864e+02   2.4854755703e+01    0.4381283    0.3109684  12.31   0.00140693    1.848    0.459
        31 -12.8242    240.6143    177.9935   7.1408264416e+01   2.8537824420e+00    0.3211383    0.2563336   7.53  0.002302862    1.085    0.078
        32 -11.2852    187.2955    175.9094   8.0161329184e+01   1.1254801784e+01    0.3072673    0.2908773   2.06  0.001114443    1.207    0.171
        33 -10.5070    148.7657    176.0028   8.8032876065e+01   1.7713623661e+01    0.2051865    0.1808884 -35.57 0.0003386923    1.254    0.203
        34 -11.5014    146.7102    172.3205   8.7851327942e+01   1.8719418402e+01    0.3392136    0.2565068 -66.41  0.001414439    1.773    0.436
        35 -11.0268     46.4756    173.1164   1.1246589552e+02   3.3648250996e+01    0.3767259    0.2910811  53.63  0.001458595    1.098    0.090
        36 -12.3869    242.6899    169.9572   6.9638911527e+01   3.5300119096e+00    0.4157041    0.2100263  50.60  0.002100869    2.960    0.662
        37 -11.1463     54.4523    173.5086   1.1046625118e+02   3.2616187037e+01    0.2624159    0.1821765  58.46 0.0006500409    1.275    0.215
        38 -10.9332     84.3257    173.8242   1.0291875443e+02   2.8538815173e+01    0.2255854    0.1978715  30.28 0.0003006182    1.197    0.165
        39  -9.8176    193.7735    170.8384   7.8015921754e+01   1.0949136378e+01    0.1957767    0.1571409   6.05   0.00073337    1.147    0.128
        40 -11.0445    185.2849    168.7689   7.9236753057e+01   1.2683765016e+01    0.2972288    0.2379725 -44.06  0.001223022    1.467    0.318
        41 -10.9198    137.5784    168.5883   8.9252475664e+01   2.0982138327e+01    0.3653371    0.2473062  47.09  0.001400219    1.421    0.296
        42  -9.2841     37.4811    185.5675   1.1567611460e+02   3.1959595246e+01    0.1261859   0.09618618  58.72 0.0002603571    1.062    0.059
        43 -12.5726     94.3291    150.9886   9.6987576601e+01   3.1978212812e+01    0.6664971    0.5782483   9.62  0.003742885    1.370    0.270
        44 -11.5561    134.2346    147.0242   8.6045448020e+01   2.5781577674e+01    0.8285303    0.2675926 -53.45  0.002624634    3.940    0.746
        45 -11.0801    133.0000    140.9564   8.5120430853e+01   2.7243909411e+01    0.4847882    0.2104436 -50.92  0.001861816    2.518    0.603
        46 -10.7135    112.7752    150.9750   9.2138770763e+01   2.8859822805e+01     0.320258    0.2272283  65.65   0.00102843    1.671    0.402
        47 -10.2976    174.8259    148.9961   7.7435746826e+01   1.7770081230e+01    0.2327898    0.1947414 -58.64 0.0006904934    1.499    0.333
        48 -17.6879     32.7552    241.6169   1.1974764132e+02   2.1873699199e+01     8.820989     2.566863  25.12   0.03437037    4.792    0.791
        49 -11.4607    106.3833    137.1009   9.1220940814e+01   3.3020903471e+01    0.5475249    0.3594692 -24.53  0.002328481    2.357    0.576
        50 -11.4696    106.0777    130.8027   9.0040954865e+01   3.4487348189e+01    0.3728302    0.3324172 -81.02  0.001185204    1.181    0.153
        51 -12.3387     94.0976    137.0640   9.4617301110e+01   3.5171795661e+01    0.2784351    0.2715174  -7.77 0.0004098914    1.154    0.133
        52 -10.8952    135.8631    128.2456   8.1679096911e+01   2.9285932392e+01    0.5167243    0.1752493 -48.57  0.001706151    3.153    0.683
        53 -11.2119    114.0137    128.7188   8.7430768271e+01   3.3471953699e+01    0.3568493    0.2958087  17.10  0.000826017    1.392    0.282
        54 -10.0428    160.4902    127.5922   7.5809879874e+01   2.4401226056e+01    0.3047748    0.2154138 -54.40   0.00146754    1.636    0.389
        55 -11.1590    101.3528    124.6656   9.0088817560e+01   3.6745010757e+01    0.2679363    0.2381315 -11.78  0.000345906    1.342    0.255
        56 -11.2157    120.3482    122.6366   8.4382869205e+01   3.3573660560e+01    0.4098855    0.2969657   5.83  0.001799485    2.051    0.512
        57  -9.9801    135.0000    120.4304   8.0088481500e+01   3.1070807698e+01    0.3167117   0.08571799 -45.58 0.0009175557    3.797    0.737
        58 -10.1628    109.5741    118.0945   8.6294982471e+01   3.6690110803e+01    0.2350904    0.1950357  53.76  0.001196974    1.194    0.163
        59 -10.8334    231.3075    113.8926   5.9994022420e+01   1.2731805234e+01    0.2575177    0.2200532 -15.78 0.0007693096    1.027    0.026
        60  -9.9609    167.7215    112.7035   7.0718996795e+01   2.5627253115e+01    0.2951384    0.2147108 -77.38  0.001318102    2.112    0.526
        61 -10.6661    134.6320    104.1409   7.6113909382e+01   3.4504316219e+01    0.6221313    0.1743316 -43.87  0.001824507    3.608    0.723
        62 -11.9416    118.4809    110.1467   8.1908598754e+01   3.6670412384e+01     0.629856    0.4430902  66.39    0.0024277    1.748    0.428
        63 -10.3766    205.4932    110.2545   6.3117091009e+01   1.8164782561e+01    0.2735431    0.2126474  37.18 0.0008190245    1.349    0.259
        64 -10.4832     64.1904     99.9275   9.6558656331e+01   4.8925674277e+01    0.2538248    0.2127468  41.49 0.0007770289    1.217    0.178
        65 -10.9008     89.9391    212.4511   1.0596118782e+02   2.0189211346e+01    0.2308382    0.1710866  57.54  0.000474735    1.256    0.204
        66  -9.2868     57.5163    211.5090   1.1295991727e+02   2.4494149609e+01    0.1809331    0.1273313  72.88 0.0009663168    1.376    0.274
        67  -9.4723    156.2039     82.5773   6.5103755420e+01   3.3701226658e+01     0.206517    0.1405608  42.27 0.0004102252    1.547    0.354
        68 -11.9987     63.2506    250.2492   1.1436287809e+02   1.7167261487e+01    0.2375497     0.105252  42.12  0.001431764    1.560    0.359
        69 -10.9440     71.8978    245.2686   1.1238333556e+02   1.6942565513e+01    0.2466605    0.1457262 -71.58  0.001637277    2.118    0.528
        70 -13.4847    179.5573     53.1301   5.2180872583e+01   3.2740655659e+01     0.766315    0.7106119  26.50 0.0007427653    1.205    0.170
        71  99.0000     50.2306    217.8343   1.1496674448e+02   2.4163344080e+01    0.5185524    0.2209957  54.45  0.002727051    2.008    0.502
        72 -11.0537    184.5128    212.6524   8.6714599991e+01   6.4652981951e+00     0.226335    0.2215628 -22.29  0.001709339    1.457    0.314
        73 -10.9113    189.7403     14.9945   3.9688998273e+01   3.4916116167e+01    0.2341226    0.1911768  88.75 0.0006712031    1.178    0.151
        74 -11.4816     79.0859    237.1202   1.1038066241e+02   1.7378423088e+01    0.2003249    0.1789881 -88.28 0.0008891363    1.360    0.265
        75  -9.4152     63.2011    213.9878   1.1190986427e+02   2.3348429171e+01    0.1503001    0.1221322  48.92  0.001040092    1.058    0.055
