#   1 NUMBER                 Running object number                                     
#   2 MAG_AUTO               Kron-like elliptical aperture magnitude                    [mag]
#   3 X_IMAGE                Object position along x                                    [pixel]
#   4 Y_IMAGE                Object position along y                                    [pixel]
#   5 X_WORLD                Barycenter position along world x axis                     [deg]
#   6 Y_WORLD                Barycenter position along world y axis                     [deg]
#   7 A_WORLD                Profile RMS along major axis (world units)                 [deg]
#   8 B_WORLD                Profile RMS along minor axis (world units)                 [deg]
#   9 THETA_WORLD            Position angle (CCW/world-x)                               [deg]
#  10 FWHM_WORLD             FWHM assuming a gaussian core                              [deg]
#  11 ELONGATION             A_IMAGE/B_IMAGE                                           
#  12 ELLIPTICITY            1 - B_IMAGE/A_IMAGE                                       
         1 -10.5072    122.5578     19.6268   6.1676729192e+01   5.2213609037e+01    0.7577711    0.4811718  89.21  0.003196684    2.645    0.622
         2 -11.4412    119.2855     58.0409   7.6832754205e+01   4.7299263011e+01      1.83329     1.333124 -64.31  0.008416569    1.870    0.465
         3 -12.0106    124.6379     27.7347   6.4325953470e+01   5.0733134065e+01    0.8498131    0.6844802   2.60  0.003548588    1.289    0.224
         4 -12.8580    116.4301     41.6291   7.1683550706e+01   5.0657836156e+01    0.9801976    0.7582862 -80.36  0.004731276    1.929    0.482
         5 -12.7813    120.0259     38.3765   6.9514224516e+01   5.0336553125e+01    0.8245688    0.5720488 -60.51  0.002786392    2.030    0.507
         6 -10.9054    138.5152     32.5982   6.2966139315e+01   4.6739893932e+01     0.615791    0.5630665 -20.79  0.002523797    1.116    0.104
         7 -11.3291    155.2797     23.2095   5.6315347906e+01   4.3666610619e+01     1.599434    0.6286653  53.97  0.006090185    2.254    0.556
         8 -10.6187    146.7286     16.1488   5.5400461812e+01   4.6646426758e+01    0.5733242    0.3821347  54.30  0.002846451    1.370    0.270
         9 -11.9624    132.1384     14.8154   5.7736294773e+01   5.0435687199e+01     1.308527    0.5966581  72.39  0.004839495    2.877    0.652
        10  -9.7809    141.4733     12.3187   5.4989218736e+01   4.8373432301e+01    0.2335777    0.1907869 -16.33  0.000658474    1.298    0.229
        11 -11.2372    165.2202     17.5781   5.2742316490e+01   4.1720437160e+01    0.5174153    0.3092196  33.47  0.001486117    1.968    0.492
        12 -12.4225    163.6844     27.9714   5.6431670115e+01   4.0916049815e+01    0.5913705    0.4175173  29.76 0.0005198666    1.613    0.380
        13 -10.4334     59.9352     24.4610   8.2922781388e+01   6.3923036087e+01    0.6702697    0.2582763 -31.20  0.002822858    2.541    0.607
        14 -12.1689     60.3715     44.9506   9.1048938175e+01   6.0371902629e+01     1.030743    0.5058802 -43.21  0.004929055    1.784    0.440
        15 -11.6729    145.8005     47.6027   6.6634221116e+01   4.2779548383e+01      1.15895    0.5034679 -25.01  0.004074184    2.685    0.628
        16 -10.6568    189.4973     28.5560   5.2527989746e+01   3.4079174174e+01    0.6382745     0.318823 -23.38  0.002565493    2.195    0.544
        17 -11.1945    178.1927     21.4004   5.1983834434e+01   3.7895774125e+01    0.6124437     0.343201  42.93  0.001644549    1.933    0.483
        18 -11.6209    183.1534     25.1540   5.2416538353e+01   3.6154943596e+01    0.7054618    0.3447755  49.97  0.002907017    2.030    0.507
        19 -11.1445      3.3447      1.7802   9.8930947119e+01   7.3615086949e+01     0.386014     0.171572  10.21  0.002188776    2.720    0.632
        20  -9.7854     22.0666      4.0479   8.9996706165e+01   7.1698759295e+01     0.389333    0.1581218 -48.76  0.001208941    3.248    0.692
        21 -10.2034      5.2025      8.9255   1.0116533545e+02   7.2326846057e+01     1.389881    0.5574124 -54.89  0.007185094    2.508    0.601
        22 -11.4659     19.9789     22.5309   9.9399108569e+01   6.8894015719e+01    0.8560043    0.3489898 -38.77  0.002734028    1.946    0.486
        23 -11.4921     26.6233     27.7446   9.8380526466e+01   6.7389065359e+01    0.4739942    0.2967475 -48.30  0.001945132    1.408    0.290
        24 -12.6521     16.8437     13.3645   9.7086783557e+01   7.0721356725e+01     0.716001    0.3695795 -29.67  0.002907247    1.647    0.393
        25 -12.3536    104.6455     12.8351   6.3287005057e+01   5.7062372099e+01    0.6023129    0.4410276 -31.00  0.003326355    1.444    0.307
        26 -12.6547    113.1819     25.0558   6.6116731736e+01   5.3721785291e+01    0.9112136    0.4557313  53.20  0.002925314    1.932    0.482
        27 -11.0345    198.7357     28.5254   5.1236186993e+01   3.1674159342e+01    0.6388508    0.4182299 -12.60  0.002951923    1.865    0.464
        28 -11.0681    138.0174     21.6666   5.9085175519e+01   4.8224666403e+01     1.013503    0.3899022  49.15  0.003039507    2.353    0.575
        29  -9.8378    206.2502     18.1710   4.7355713809e+01   3.0959769419e+01    0.4475631    0.2206868 -68.52  0.001705251    2.768    0.639
        30 -10.8073     91.0781     21.1549   7.0688941206e+01   5.8925024694e+01    0.6093491    0.4259731 -13.54  0.003298596    1.400    0.286
        31  -9.7366     87.3042      7.3027   6.5627546476e+01   6.1302423370e+01    0.5806603    0.3402267  48.41  0.002867452    1.620    0.383
        32 -10.4552     83.1699     19.2485   7.2331029849e+01   6.0709255426e+01    0.6760535    0.2705986  48.77  0.002860908    2.530    0.605
        33 -11.2050     85.9733     13.7863   6.8992267471e+01   6.0845253630e+01    0.4243387    0.3205167  14.29  0.001495231    1.238    0.192
        34 -12.3001     48.7834     12.9590   8.2088410246e+01   6.7225142125e+01    0.6401914    0.3201959  36.40  0.003402947    2.104    0.525
        35 -11.5202     36.2742     18.9057   9.0326811060e+01   6.7910169718e+01     0.616816     0.335985 -39.00  0.002601038    1.548    0.354
        36 -10.9680     32.6721     12.5122   8.9014758499e+01   6.9314471111e+01    0.2048954    0.1962851  23.41 0.0004654875    1.566    0.361
        37 -11.8889     68.5806     17.9472   7.6732485165e+01   6.3491216596e+01    0.4976753    0.4068909  23.38   0.00210914    1.187    0.158
        38 -12.1710    239.1014     16.0330   4.3442015628e+01   2.3079269773e+01     0.925391    0.4601613  68.90  0.003005332    1.971    0.493
        39 -11.9207    244.6273      6.6055   4.0714617362e+01   2.2832980031e+01    0.8516909    0.4757767 -54.10   0.00373795    1.624    0.384
        40 -11.5317    233.9274      7.0098   4.1683159872e+01   2.5310277255e+01    0.6872538    0.3026578  73.01  0.003080888    2.179    0.541
        41 -11.0701    218.7858      3.2562   4.2062924212e+01   2.9390948361e+01    0.3253497    0.2778708 -43.13  0.001292677    1.180    0.152
        42 -11.1917    224.5966      2.1691   4.1274590891e+01   2.8070810269e+01    0.6675248    0.2968861  86.75  0.002392496    2.455    0.593
        43 -11.7429     22.7715     11.1538   9.3127941105e+01   7.0550013951e+01    0.4427744    0.3063651   8.25  0.002462726    1.470    0.320
        44 -10.4960    186.4693     15.0752   4.8893749062e+01   3.6428592247e+01     0.290337     0.252932  85.12 0.0005427254    1.091    0.083
        45 -11.5862    192.6139      7.1814   4.5809159429e+01   3.5646219348e+01    0.8090102    0.4868337  11.05  0.003270645    2.508    0.601
        46  -9.7205    191.4950     17.0280   4.8825056742e+01   3.4903989495e+01     0.331722    0.2712102 -13.93  0.001194231    1.382    0.277
        47 -10.1914    226.0046     15.5277   4.4543910363e+01   2.6296493059e+01    0.3966931    0.1734834 -34.19  0.001681681    2.096    0.523
        48 -10.5903     64.1167     10.6467   7.4907325692e+01   6.5188505603e+01    0.5674548    0.3117955  28.44  0.002949242    1.863    0.463
        49  -9.9010     62.9351      6.4800   7.3287905122e+01   6.5889420857e+01    0.2649932    0.1941933   9.34  0.001306549    1.214    0.176
        50 -11.3126    211.9727      9.6979   4.4414808901e+01   3.0430622461e+01     0.506481    0.3354356   8.92  0.001512871    2.222    0.550
        51  -9.7939    168.8891     10.0449   4.9734940335e+01   4.1546016120e+01    0.3227892    0.2118785  45.44  0.001556166    1.520    0.342
        52  -9.1126    163.2903     10.3096   5.0644242724e+01   4.2978330263e+01    0.2499782    0.1815026  82.55  0.001272279    1.421    0.296
        53  -9.3966    162.7315      6.0502   4.9321350852e+01   4.3532319959e+01    0.2326764    0.2048115 -28.23 0.0005697167    1.226    0.184
        54 -10.1595    184.7470      6.1546   4.6435152900e+01   3.7789523471e+01    0.5133973    0.1834109 -32.88  0.001291804    2.654    0.623
        55 -10.0173    151.5833      7.5416   5.1536630550e+01   4.6269474558e+01    0.4563634     0.214017  59.32  0.001003049    1.854    0.461
        56  -9.6184      1.2619      7.3997   1.0263078058e+02   7.2830358140e+01    0.1717301   0.07170973 -49.69 0.0001649666    1.841    0.457
        57 -10.5579     82.1816      1.3304   6.4339887889e+01   6.2920067002e+01    0.2686929    0.1077322  52.79 0.0003319724    2.370    0.578
        58  -9.2366     78.5078      7.4861   6.8417021480e+01   6.2999544976e+01    0.2202173    0.1757831  40.28 0.0006855163    1.264    0.209
        59 -11.1213     75.1002      3.5363   6.7611800046e+01   6.4060652321e+01    0.5157549    0.3412901  43.31  0.002681985    1.446    0.308
        60 -10.0467     50.2888      6.6088   7.8295113830e+01   6.7859104142e+01    0.1916889    0.1544146  22.36 0.0004944113    1.255    0.203
        61 -10.9145     41.1244      5.1494   8.1468465601e+01   6.9327833514e+01    0.4061881    0.2046244 -12.84  0.001984518    2.400    0.583
        62 -10.3188    175.5940      5.2210   4.7294829843e+01   4.0262853548e+01    0.4065961    0.2787151 -88.63   0.00194333    1.535    0.348
        63 -11.2716    205.3847      2.7443   4.3196535098e+01   3.2805763806e+01    0.5232831     0.326226  79.77  0.001469629    1.511    0.338
        64  -9.9524    122.4028      1.2804   5.4458684010e+01   5.4080382641e+01    0.3755033     0.114039  62.81  0.001344319    2.976    0.664
        65 -10.8709    111.5443      2.1428   5.7104469338e+01   5.6553488734e+01    0.4832269    0.2462896  69.07  0.002138035    2.269    0.559
        66 -10.5210    105.1428      1.8197   5.8442248233e+01   5.8032738229e+01    0.3294458    0.1890635  64.43 0.0008241786    1.857    0.461
        67 -11.0082    142.5568      2.7697   5.1335848895e+01   4.8995110762e+01    0.3654315    0.2923421  41.63   0.00112964    1.173    0.147
        68 -11.8329    133.5018      2.7197   5.2899636618e+01   5.1259176474e+01    0.4288501    0.2663386  56.73   0.00101689    1.422    0.297
        69  -9.2083    169.9906      3.4793   4.7480895272e+01   4.1882749444e+01    0.2001423    0.1090206 -78.01  0.000809023    2.450    0.592
        70  -9.3559    157.6614      2.6740   4.8936315093e+01   4.5149032885e+01    0.2214404    0.1741547  24.02  0.001209245    1.388    0.280
        71  -9.2479    161.0957      1.0000   4.7888123389e+01   4.4408360006e+01     0.397853    0.1248626  68.45  0.001157835    2.856    0.650
        72  -9.9769     13.2541      1.8135   9.3477098567e+01   7.2848483190e+01    0.2335369    0.1523177   2.57  0.001212355    1.507    0.336
        73 -10.1956     47.1907    135.7641   1.1661953556e+02   4.1807651843e+01    0.4408301    0.1785011 -62.17  0.001683184    2.048    0.512
        74  -8.8605     44.4390    133.4208   1.1698430423e+02   4.2651760863e+01    0.1897981    0.1316598  78.21  0.000476117    1.444    0.307
        75  -8.9959    216.5338    135.4479   7.7050647404e+01   1.0228477525e+01    0.1474298    0.1348402   1.63 8.172447e-05    1.035    0.034
        76 -10.6379     92.7665    129.2378   1.0378963317e+02   3.7085701185e+01    0.4087672    0.2986678  86.04  0.001455464    1.605    0.377
        77  -9.4025     87.3190    135.3072   1.0636129920e+02   3.6549905236e+01    0.1348816    0.1083529 -28.23   0.00064892    1.636    0.389
        78  -9.6618    107.6785    146.0506   1.0330676804e+02   3.0713569908e+01    0.2370999    0.1850434  59.66 0.0005739533    1.279    0.218
        79 -10.2026     74.1338    132.6727   1.0927054092e+02   3.9125598711e+01    0.2791947     0.248292  18.58   0.00167365    1.427    0.299
        80 -10.0858     62.0950    132.0173   1.1226757202e+02   4.0898106337e+01    0.3769157     0.290589 -45.61  0.002188412    1.448    0.310
        81 -11.0094     10.7468    127.1838   1.2461394951e+02   4.7120551175e+01    0.4973827    0.1823929 -60.06  0.001934775    2.196    0.545
        82  -8.8120    223.8050    126.9632   7.3717957307e+01   1.0105637097e+01    0.1972362    0.1095369 -33.15  0.000391484    1.723    0.420
        83  -9.3001     22.8211    126.8128   1.2157882837e+02   4.6252579343e+01     0.189915    0.1191965  59.80 0.0007057486    1.682    0.406
        84 -10.7395     18.6655    123.9929   1.2229525492e+02   4.7236093465e+01    0.3200948    0.1553838 -67.06  0.001754274    1.595    0.373
        85 -10.3084     82.3156    124.8865   1.0567830115e+02   3.9745099354e+01    0.4248393     0.322884  10.36  0.001759098    1.902    0.474
        86 -10.7584     55.6361    123.3486   1.1253657982e+02   4.3724185831e+01    0.5105694    0.3539277  21.53  0.002030289    1.924    0.480
        87 -10.8086     46.3610    120.9592   1.1463482381e+02   4.5341440523e+01    0.6092625    0.3279274  85.30  0.002433983    2.532    0.605
        88  -9.4378      2.0295    125.8148   1.2659441562e+02   4.8029442068e+01    0.2162077    0.1203855 -87.13  0.001160369    1.446    0.309
        89 -10.2041      4.3699    120.6722   1.2552579998e+02   4.9021382964e+01    0.4097138    0.1589803 -59.49  0.001397686    2.080    0.519
        90  -9.4576      7.3056    114.8677   1.2416713913e+02   5.0129877279e+01    0.2893977    0.1733741 -86.47  0.001120117    1.403    0.287
        91 -11.5402      2.4633    112.1314   1.2512653244e+02   5.1051402758e+01    0.3116508    0.1909342 -79.91 0.0005539111    1.248    0.199
        92 -11.8961      3.8682    105.4393   1.2400606131e+02   5.2465686774e+01    0.4403302    0.3067982 -85.29  0.001317226    1.187    0.158
        93 -11.6825    104.5165    121.8437   9.9148221548e+01   3.6782747005e+01    0.4769324    0.4367112 -72.88  0.001386045    1.037    0.036
        94  -9.5415     68.0181    123.9922   1.0933137995e+02   4.2000338535e+01    0.3089406    0.2005182  15.04  0.001420638    2.398    0.583
        95  -9.0697    137.9461    122.8391   9.0872134882e+01   3.0018792564e+01    0.2497989    0.1762044  17.88  0.001057182    2.024    0.506
        96  -9.0899    221.4591    120.4772   7.2566977702e+01   1.1709501794e+01    0.1475317    0.1381951 -17.06 0.0001429747    1.021    0.020
        97  -9.3985    148.0943    119.9413   8.7710262212e+01   2.8455584435e+01    0.2439306    0.1924467  -1.93 0.0006271191    1.681    0.405
        98 -11.0594     33.6477    119.6445   1.1783901314e+02   4.6934958436e+01    0.7587388    0.2733669 -50.96  0.002464136    2.692    0.629
        99 -11.4851     49.9932     97.7809   1.0941308298e+02   5.0347020528e+01     1.870821     0.910458 -43.37  0.008611601    2.134    0.531
       100 -11.5972      9.6701     97.3715   1.2135705125e+02   5.3923929919e+01     1.097231     0.510727 -86.18  0.005438633    2.254    0.556
       101 -10.6937     17.4540    100.9493   1.1962068208e+02   5.2584301402e+01    0.3692961    0.2626177  31.50 0.0006815933    1.748    0.428
       102 -11.9590      7.0309     88.7556   1.2091347386e+02   5.6020443423e+01     1.004667    0.5516035  10.47  0.005867999    2.587    0.613
       103 -10.6596     36.3253     92.5124   1.1255116324e+02   5.2959489312e+01     1.230239    0.7163126  74.50  0.002713528    2.623    0.619
       104 -12.1028     22.2670     95.0365   1.1729292264e+02   5.3574132074e+01    0.7111062    0.5019469 -15.60  0.002351732    1.951    0.488
       105 -12.0735     18.4023     90.2348   1.1767535598e+02   5.4950837684e+01    0.4426976    0.2877375 -43.76 0.0004438407    1.528    0.346
       106 -11.2950     28.3269    113.1269   1.1833860452e+02   4.8923532983e+01    0.4379738      0.26754  14.64  0.002449406    2.367    0.578
       107 -12.9891     23.5670    110.5413   1.1927545649e+02   4.9919183707e+01     1.700535    0.6792284 -47.07  0.007807289    2.663    0.625
       108 -12.1231     18.7945    106.2023   1.1998995644e+02   5.1286601840e+01    0.2606754    0.1968728 -60.93 0.0002682096    1.164    0.141
       109 -10.9878     37.3591     85.7160   1.1085514755e+02   5.4412811187e+01    0.3131185    0.2519461  56.04  0.001394567    1.495    0.331
       110 -11.8931     42.9777     85.3337   1.0896116519e+02   5.3948139353e+01    0.4874092    0.4098714   5.60  0.001889894    1.467    0.318
       111  -9.6645    185.1614    118.8278   7.9150627619e+01   2.0252346907e+01     0.220855    0.1865779   5.28  0.000856985    1.333    0.250
       112  -9.7235     80.3364    115.6745   1.0434448775e+02   4.2196072250e+01    0.4774049    0.2779193 -84.04  0.001919741    2.669    0.625
       113  -9.5207     82.0853    102.6649   1.0094359811e+02   4.4949671858e+01    0.2061675    0.1828002 -77.28 0.0004611455    1.136    0.120
       114 -10.7849     90.9190    103.1839   9.8521848346e+01   4.3412655698e+01    0.4393389    0.4168995  41.13  0.001619163    1.150    0.131
       115 -11.2412     79.5836    108.4839   1.0300053833e+02   4.3984666947e+01    0.7761698    0.4967493  61.47  0.003656367    1.986    0.496
       116 -10.2457     85.6794    104.2936   1.0029166248e+02   4.4010953869e+01     0.413124    0.2402636 -37.35  0.001442691    1.984    0.496
       117  -9.7565    113.3298    115.9853   9.5471553983e+01   3.6491226370e+01     0.264735    0.2235875  30.75  0.000397562    1.318    0.241
       118 -10.6516    107.7616    112.2029   9.6044205128e+01   3.8392482734e+01    0.7068042    0.3615873 -64.94  0.002583897    2.667    0.625
       119 -10.8686    101.8499    109.8780   9.7088853897e+01   3.9996707971e+01    0.5175478    0.3467756  35.76  0.002175298    1.654    0.395
       120  -9.9698    103.1242    106.0908   9.5807277093e+01   4.0627765655e+01    0.3102881    0.2442985  46.78 0.0003916398    1.344    0.256
       121  -9.7199     67.4938    114.0116   1.0758311053e+02   4.4411673859e+01    0.3004453    0.2229291  81.57  0.001615514    1.540    0.351
       122  -9.8662     66.9902    110.5170   1.0702382330e+02   4.5297421687e+01    0.2937541    0.2507574  36.83  0.001749417    1.341    0.254
       123  -8.9318    126.6588    113.6756   9.1438377443e+01   3.4370899606e+01    0.1557527    0.1227588  -4.22 0.0007051022    1.729    0.422
       124 -11.1379    170.6333    110.3571   8.0064711054e+01   2.5287125639e+01    0.5168986    0.4435761  28.14  0.001652689    1.239    0.193
       125  -9.8059     94.4724    111.7886   9.9572799350e+01   4.0841324790e+01    0.3111993    0.2418512  68.40  0.001594646    1.483    0.326
       126  -9.7246     48.8407    112.0967   1.1247075248e+02   4.7141265192e+01    0.2098966    0.1848461  61.18  0.001348424    1.249    0.200
       127  -9.9813    120.4620    109.0522   9.1875989054e+01   3.6648874156e+01    0.3513151    0.2621148  -6.05  0.001557461    1.975    0.494
       128  -9.4167     58.4981    108.2566   1.0900337313e+02   4.6913958439e+01    0.2419197     0.119499 -66.05 0.0006233637    1.891    0.471
       129 -10.8862    157.8943    106.2510   8.1845170931e+01   2.9084166938e+01    0.4759322    0.3559297  11.56  0.002076262    1.807    0.447
       130  -9.7154    138.4502     93.1701   8.2899269981e+01   3.6218339806e+01    0.3751788    0.2668827  25.12  0.001292361    1.752    0.429
       131 -10.7681    143.2950    106.0337   8.5269179462e+01   3.2453840084e+01    0.3887232    0.3036746  55.26  0.001407342    1.336    0.252
       132 -11.9601    145.3631    100.4828   8.3248930547e+01   3.3146202545e+01    0.6700412    0.5012615 -39.46  0.001993535    1.323    0.244
       133 -10.0878     57.6473    102.6947   1.0813191772e+02   4.8315254755e+01    0.3704301    0.3259588  -4.11  0.002283963    1.416    0.294
       134 -10.5903     57.9753     97.4288   1.0691881931e+02   4.9496655835e+01    0.5332467    0.3364724  62.72  0.002614723    2.146    0.534
       135 -10.2348     64.3408     99.1734   1.0538281225e+02   4.8288410893e+01    0.2464326    0.2182998 -35.67 0.0006446862    1.206    0.171
       136 -10.3766     68.7621     95.3648   1.0317325369e+02   4.8573505441e+01    0.4016152    0.3506121 -18.17  0.001800934    1.323    0.244
       137 -10.2431    120.5119    101.7267   8.9943308661e+01   3.8250438754e+01    0.3664296    0.2171418 -24.33  0.001359338    2.608    0.617
       138 -11.0702     89.9855     89.3379   9.5211550919e+01   4.6689549595e+01    0.7399908    0.4117345 -31.67  0.002725369    2.303    0.566
       139  -9.7494     66.3040     74.2235   9.8459341867e+01   5.3636237302e+01    0.2829942    0.2202851  70.01   0.00109373    1.771    0.435
       140  -9.9006     60.5347     83.4053   1.0282257768e+02   5.2375271067e+01    0.2468677    0.2220834 -53.82 0.0005800444    1.048    0.046
       141 -10.4122     58.4531     78.2885   1.0218167228e+02   5.3776890932e+01    0.3396528    0.2876365  86.10  0.001177518    1.442    0.306
       142 -11.0062     66.9547     81.8904   1.0035773965e+02   5.1865994975e+01    0.8609117    0.4256889 -51.21  0.003919846    1.747    0.427
       143 -12.9334     52.5958     73.7207   1.0293890473e+02   5.5489953351e+01    0.5300849    0.2814213 -58.30 0.0008668168    1.704    0.413
       144 -10.8744     46.9319     74.2823   1.0501860169e+02   5.6004629235e+01    0.3477353     0.171328 -57.28            0    1.726    0.420
       145 -10.6508     80.2661     83.8603   9.6672985276e+01   4.9479349632e+01    0.7001062    0.5086304 -62.13  0.003619345    1.423    0.297
       146 -11.4502     72.7295     78.6539   9.7609752262e+01   5.1761246855e+01    0.6790972    0.5058478 -18.61   0.00358132    1.603    0.376
       147 -12.1827     77.9978     97.0188   1.0078887129e+02   4.6867979550e+01    0.3659495    0.3047911 -71.96 0.0003606194    1.218    0.179
       148 -11.1757     81.7712     93.0562   9.8664452604e+01   4.7191386963e+01    0.6728845    0.3658312  47.31  0.002998873    2.117    0.528
       149 -10.0482    210.6234     97.7877   6.8744531985e+01   1.8085882259e+01    0.3333932    0.2810104  39.64   0.00111306    1.237    0.192
       150  -9.3334    159.9193     93.2163   7.7758625859e+01   3.1208113138e+01    0.4590342    0.2614138  69.47  0.001607729    2.717    0.632
       151 -10.5618    152.5206     91.5025   7.8984745830e+01   3.3305987769e+01    0.5672761    0.3892956  58.16  0.002489696    1.574    0.365
       152 -10.2201    117.3900     93.2195   8.8442894455e+01   4.0728840345e+01    0.4268167    0.3054181  31.14  0.001232171    1.592    0.372
       153 -11.0675    120.4166     85.3021   8.5318335862e+01   4.1775850161e+01    0.4780337    0.3767107  54.95  0.002352883    1.376    0.273
       154 -10.5109    120.9602     89.5249   8.6413199787e+01   4.0778961420e+01    0.5006233    0.2885591  40.40   0.00196114    1.846    0.458
       155 -10.2921    126.3312     93.1616   8.6023684380e+01   3.8878100155e+01    0.3872847    0.3393882  38.70  0.001085786    1.186    0.157
       156 -10.2913    122.4950     93.5363   8.7151378175e+01   3.9608674501e+01    0.3065763    0.2396894 -34.61 0.0007861165    1.291    0.226
       157 -12.9296    101.8768     90.1709   9.1944118851e+01   4.4403240995e+01    0.4625889    0.3774385 -26.65 0.0005567468    1.313    0.238
       158 -10.1653    104.9358     76.6265   8.7050820964e+01   4.6700362637e+01    0.5268192    0.4245249 -22.07  0.002703182    1.314    0.239
       159 -11.0619    113.3543     84.4325   8.7011694215e+01   4.3412008481e+01    0.6743257    0.3544906 -35.39  0.001950131    2.032    0.508
       160 -10.8586    108.8456     80.8035   8.7199853294e+01   4.5070601318e+01    0.4268194    0.3399009 -14.49  0.001260445    1.451    0.311
       161  -8.9302    211.5046     88.4412   6.6109077777e+01   1.9470890268e+01     0.150887    0.1450304 -13.09 0.0001216216    1.043    0.041
       162  -9.0866    200.2137     88.3844   6.8104290811e+01   2.2228669989e+01     0.215821    0.1506351  68.73 0.0009052653    1.668    0.400
       163 -10.4291    183.3827     85.4171   7.0499022862e+01   2.6919255344e+01    0.7825749    0.3064331 -45.97  0.002542154    2.788    0.641
       164  -9.2553    136.5652     86.1811   8.1330256568e+01   3.8066736318e+01    0.5632056   0.09949199  45.77  0.001271572    5.836    0.829
       165 -11.2535    143.1377     83.9384   7.9015755813e+01   3.7002507841e+01    0.3893484    0.3442428 -53.71  0.000880492    1.167    0.143
       166 -10.3832    165.7528     83.5883   7.3656747142e+01   3.1629097865e+01    0.4615687    0.3575891 -66.63  0.001482821    1.554    0.356
       167 -10.8424    127.5649     83.0456   8.2720409057e+01   4.0705115998e+01    0.3865855    0.3188572 -34.58  0.001527634    1.190    0.160
       168 -10.3781    232.5006     77.2207   5.9808312429e+01   1.6296646084e+01    0.5512784    0.2971402 -46.58  0.002352752    1.847    0.458
       169 -11.7395     14.0802     74.7810   1.1633229283e+02   5.8701268061e+01    0.4611984    0.2930337 -66.23  0.001628542    1.238    0.192
       170 -10.0866     14.4279     67.3065   1.1473245807e+02   6.0317775202e+01    0.3055689    0.2241274 -54.46  0.001532995    1.065    0.061
       171  -9.4382    170.1947     77.7948   7.0983806212e+01   3.1585250402e+01    0.2363257    0.2168727 -74.34  0.000566697    1.174    0.148
       172 -10.2207     98.9524     61.7377   8.3989541717e+01   5.0811793324e+01    0.4937967    0.2807369 -21.18  0.001774024    2.432    0.589
       173 -10.5265     93.7642     76.4655   9.0344237331e+01   4.8814157246e+01    0.5214024    0.3324291  27.62  0.001787354    1.893    0.472
       174 -11.5885     85.6391     73.6716   9.2014636531e+01   5.0804812020e+01    0.6780416    0.6276695  32.91  0.003872128    1.181    0.153
       175 -11.0895     79.0977     67.7150   9.2265976687e+01   5.3112582525e+01    0.7124012    0.5460301  25.86  0.003880869    1.452    0.311
       176 -11.8867     72.7641     47.3556   8.7445755327e+01   5.8088849823e+01    0.7041416    0.5260619 -61.16  0.002358781    1.780    0.438
       177 -11.1919     91.3202     63.1348   8.6831539756e+01   5.1959620656e+01    0.5239217    0.3416707  46.17 0.0009238193    1.699    0.411
       178 -12.0226     89.7603     57.5709   8.5421132439e+01   5.3312717374e+01     1.286469    0.9916499  84.20  0.006269256    2.125    0.529
       179  -9.4808     33.2496     77.7387   1.1048726315e+02   5.6584426801e+01    0.2177655    0.1481417 -54.02  0.001300805    1.179    0.152
       180 -11.7077     40.9260     70.5814   1.0614930827e+02   5.7442071610e+01    0.5099258    0.2419664 -52.67  0.002520203    1.678    0.404
       181 -11.4197     32.1819     71.9226   1.0952773714e+02   5.7967373195e+01    0.5082579    0.2909946  27.52  0.002833961    2.112    0.527
       182 -12.1328      5.1173     62.9474   1.1716357956e+02   6.1798798152e+01    0.7620814    0.2872435 -47.12  0.003119855    2.098    0.523
       183 -11.4448     10.4609     62.7891   1.1520665764e+02   6.1537458362e+01    0.4325444    0.2413234 -55.28 0.0007454316    1.325    0.245
       184 -10.0866    135.4698     77.7037   7.9026496909e+01   3.9993509165e+01    0.4073851    0.1442409  55.29  0.001213813    3.504    0.715
       185  -9.1100    242.6518     76.3094   5.8137512365e+01   1.4104971986e+01    0.1504719    0.1034402 -62.89 0.0007044616    1.709    0.415
       186 -12.0341    186.5159     70.6192   6.5609223260e+01   2.8699634798e+01     1.013777    0.6771185 -39.42  0.003311425    1.463    0.316
       187  -9.8016    184.3908     61.7434   6.3372139591e+01   3.0697288790e+01    0.2894788    0.2618859 -28.96 0.0009097889    1.113    0.101
       188  -9.2684    151.4170     73.5273   7.3840009911e+01   3.7006916459e+01    0.2924047    0.1360665  42.13     0.001033    2.348    0.574
       189  -9.7381    128.5130     64.8838   7.6695229650e+01   4.4001243524e+01    0.5268906    0.3275151 -28.10  0.002271005    1.706    0.414
       190 -10.7480    123.4802     73.0147   8.0686853795e+01   4.3590864778e+01    0.3816925    0.3558804 -50.19   0.00120984    1.106    0.095
       191 -11.1643    123.4941     68.4833   7.9214587167e+01   4.4456560688e+01    0.3799447    0.3360345 -45.93  0.001050308    1.149    0.129
       192 -10.9842    119.8296     68.6091   8.0251496129e+01   4.5233057446e+01    0.4545265    0.3433442 -65.63  0.001792671    1.700    0.412
       193  -9.2931     61.4604     73.0005   9.9734594461e+01   5.4550294736e+01    0.1929821     0.171665  27.73 0.0006158241    1.285    0.222
       194  -9.1105     68.7119     71.3403   9.6819057133e+01   5.3918405318e+01     0.380069    0.2205328 -73.31  0.001353987    3.198    0.687
       195 -11.7811      1.9698     71.5296   1.1981778042e+02   6.0100261536e+01    0.6691788    0.1371908 -67.22  0.002610126    3.297    0.697
       196  -9.8035    161.9607     70.6942   7.0589608958e+01   3.4911240376e+01    0.3294626    0.2670489 -70.69  0.001241384    1.465    0.317
       197  -9.9949    172.4861     68.4973   6.7707111716e+01   3.2633944172e+01    0.3249854    0.2805747  13.58  0.001015217    1.296    0.229
       198 -10.1231    171.6690     65.6495   6.7001443221e+01   3.3323391857e+01    0.4303827    0.4164777 -68.34  0.002297676    1.056    0.053
       199 -11.5420    219.8683     66.3965   5.8823801386e+01   2.0994969123e+01    0.7300862    0.4001046  54.04  0.001864191    1.876    0.467
       200 -11.5154     75.8780     56.5991   8.9670516257e+01   5.5851209182e+01    0.7538818    0.4241458 -52.63  0.003013274    1.916    0.478
       201 -10.2994     21.4977     65.6146   1.1184376284e+02   6.0201777608e+01    0.3007892    0.2103769  82.70  0.001203243    1.932    0.482
       202 -10.4332     25.9556     65.3181   1.1016823348e+02   5.9926746593e+01     0.216203     0.152339 -51.11 0.0003455199    1.118    0.106
       203  -9.9052    192.5937     65.6286   6.3044910188e+01   2.7967301796e+01     0.292868    0.2549097 -76.38 0.0007707929    1.241    0.194
       204 -10.7012     53.3122     49.5154   9.5328745053e+01   6.0434426601e+01     1.059624    0.6852214  77.25  0.003781826    5.465    0.817
       205 -10.9878     33.8505     42.9004   1.0073197575e+02   6.3874552473e+01    0.5453365    0.3392432 -40.41  0.001981412    1.293    0.227
       206 -11.6701     21.2062     47.1883   1.0722136719e+02   6.4098304670e+01    0.5403315    0.2694694 -39.65 0.0009128997    1.710    0.415
       207 -10.5705     28.1161     47.0881   1.0440130717e+02   6.3564716298e+01    0.5487057    0.2531266 -27.86  0.001192984    2.752    0.637
       208 -11.4471     32.9319     58.8652   1.0594155448e+02   6.0715881324e+01    0.5926265    0.3187517   0.57 0.0003412259    2.933    0.659
       209 -11.3531     40.0657     56.3086   1.0252511093e+02   6.0566803580e+01    0.5304492    0.4063776  63.81  0.002205461    1.937    0.484
       210 -11.5540     27.4330     54.0484   1.0670215922e+02   6.2198542784e+01    0.9440019    0.4888029 -23.34  0.004650985    2.540    0.606
       211 -10.7931     20.4848     54.9904   1.0963622740e+02   6.2540847355e+01    0.3346481    0.2233855  -0.09  0.001434065    1.866    0.464
       212 -11.1558     57.5164     61.7081   9.7765494157e+01   5.7451655247e+01    0.7312804    0.5041677  71.61  0.003497636    2.676    0.626
       213 -11.4753     46.4457     49.0858   9.7803409746e+01   6.1339782428e+01    0.4621549    0.3799495  -3.69  0.001733574    1.282    0.220
       214 -11.8214     41.7016     45.3756   9.8405849425e+01   6.2592684104e+01    0.3775957    0.3282227  -2.02 0.0003576608    1.224    0.183
       215 -11.8867     50.7771     61.1380   1.0001186208e+02   5.8393801389e+01    0.4415449     0.335745 -77.28 0.0005862071    1.738    0.425
       216 -11.4249     46.0966     58.1857   1.0083443519e+02   5.9539317777e+01    0.5569352    0.2633406 -52.76  0.002321783    1.799    0.444
       217 -10.1738    106.6157     63.6585   8.2350255738e+01   4.8938814097e+01    0.4301678    0.3088491 -17.14  0.001601943    1.597    0.374
       218 -10.4435    104.9200     57.2933   8.0655008220e+01   5.0467293586e+01    0.4750519    0.3785071 -20.43  0.002481622    1.254    0.203
       219 -10.0836    162.6952     44.0614   6.1924643265e+01   3.9016914137e+01    0.5993094    0.3376902 -14.37  0.002339232    2.318    0.569
       220 -10.7487    159.4937     61.6821   6.8290765864e+01   3.7080940706e+01    0.5393643    0.3898768  21.99  0.002385935    1.717    0.418
       221 -11.5177    156.0344     41.8619   6.2513385833e+01   4.1046412263e+01    0.4707907    0.3919856 -36.59  0.001200073    1.225    0.184
       222 -10.9993    153.0935     36.1227   6.1157897996e+01   4.2598689789e+01     0.313923    0.3020475 -55.59 0.0004257243    1.095    0.087
       223 -11.1236    157.5798     55.1881   6.6605425549e+01   3.8629176369e+01    0.5559133    0.4975032 -56.74  0.002430291    1.186    0.157
       224 -10.7854    155.2442     49.4563   6.5213643051e+01   4.0121084989e+01    0.4647172    0.3093358 -13.95  0.000674833    1.792    0.442
       225  -8.9485    206.0358     61.7429   5.9676392303e+01   2.5157501917e+01    0.2050672    0.1965339  87.86 0.0004118373    1.053    0.050
       226 -10.1696    142.9643    249.5253   1.1107233485e+02   5.4876800866e+00    0.1849582   0.08925398  43.27  0.001033016    1.595    0.373
       227  -9.5496    175.0615    246.4997   1.0514449299e+02   7.9903332312e-01    0.1892634   0.09107517  42.14   0.00103759    1.604    0.376
       228  -9.4965    199.0283    244.5352   1.0073487585e+02  -2.7756599227e+00    0.1873947    0.0910036  40.91  0.001036583    1.610    0.379
       229 -11.3249    113.2167     49.4824   7.5467104039e+01   5.0100071568e+01    0.6120715    0.3846068  29.60  0.002182526    1.834    0.455
       230 -10.8730    127.9392    242.0470   1.1286118336e+02   8.9324511735e+00    0.3971955    0.1703576 -56.04  0.002084268    2.896    0.655
       231 -11.0144    149.3297    238.2803   1.0863665866e+02   6.0885257445e+00    0.4644277     0.231241  49.11  0.002525827    1.666    0.400
       232  -9.5920    147.2855     60.8664   7.0746043994e+01   4.0260468785e+01    0.3648934    0.2000821  52.93   0.00118695    1.815    0.449
       233  -9.3720     68.1670    240.5898   1.2299202237e+02   1.7805901095e+01    0.1437774   0.09137606  38.79 0.0009474785    1.702    0.413
       234 -10.7770    198.5556    232.6975   9.9100252950e+01  -1.2391168433e+00    0.3730173    0.2777992  36.99  0.002472823    1.097    0.088
       235 -11.1135    140.5876     42.7093   6.6109004786e+01   4.4807276290e+01    0.6785852    0.4655802   8.78  0.001860695    1.896    0.473
       236 -11.1571    136.0032     54.7017   7.1358117639e+01   4.4033035817e+01     1.034162    0.5260145 -41.19  0.004129322    1.991    0.498
       237  -9.8101     15.0918    233.7330   1.3111142267e+02   2.5148552299e+01    0.1789069    0.1164222 -86.91  0.000936031    1.347    0.257
       238 -10.2133    247.5249    231.2550   9.0499623919e+01  -8.7429412302e+00    0.1829437    0.1043724 -30.69 0.0007645952    1.957    0.489
       239  -9.5951     23.7284    231.7309   1.2966233124e+02   2.4601439331e+01    0.1483749   0.08141422  66.25  0.001042017    1.336    0.251
       240 -10.4829    242.2917    230.9147   9.1309234747e+01  -7.9284989215e+00    0.2316562    0.1742542  54.95  0.001476792    2.046    0.511
       241  -9.3190    181.2992    228.3313   1.0153945232e+02   2.2101353457e+00    0.1209973    0.0858358  15.35 0.0007031115    1.645    0.392
       242  -9.8187    161.5273     23.4646   5.5304512851e+01   4.2018356961e+01    0.2421345    0.1665593  51.45 2.919283e-05    1.373    0.272
       243  -9.6431      2.1499     56.3683   1.1692575790e+02   6.3348730328e+01    0.1744598     0.137201 -40.72 0.0007549176    1.224    0.183
       244  -9.7448    188.0326     55.1928   6.0763664223e+01   3.0779628380e+01    0.3044949    0.1952136  55.71   0.00115742    1.540    0.351
       245  -9.4288    198.1609     62.8505   6.1280728855e+01   2.6986705049e+01    0.3344336    0.1913465 -45.10 0.0009371308    1.755    0.430
       246  -9.9260     66.9836     54.4640   9.2027646968e+01   5.7619750437e+01    0.2936105    0.1794878 -57.03  0.001162554    1.903    0.474
       247 -10.1352    234.3533    222.9372   9.1327024108e+01  -5.8147100745e+00    0.1663319    0.1322421   8.38  0.000660294    1.103    0.094
       248  -9.2650      9.8457    217.7987   1.3118701486e+02   2.8494435545e+01    0.1488654   0.08312298  70.04 0.0005994758    1.306    0.235
       249 -11.4245     47.8497     30.7963   9.0454814210e+01   6.4555584867e+01     0.661315    0.2665806  29.73  0.002812026    2.883    0.653
       250 -11.5599     57.1844     31.4426   8.6983916704e+01   6.3202925780e+01    0.3411025    0.2724871 -24.36  0.001552242    1.058    0.055
       251  -8.9954      6.8603     55.0997   1.1487880403e+02   6.3376516557e+01    0.1605759   0.09900052 -46.52 0.0002809028    1.297    0.229
       252  -9.2070    238.1100     54.3963   5.3179349341e+01   1.8378833180e+01    0.2438016    0.1799955 -62.73  0.001257174    1.402    0.287
       253 -11.1164    244.9626     51.0134   5.1502157240e+01   1.7255948477e+01    0.6455584    0.3169789 -89.01  0.002285275    3.659    0.727
       254 -10.9327    240.3351     50.3851   5.1889284858e+01   1.8419188182e+01     0.324513     0.306178 -38.59 0.0005716725    1.089    0.082
       255 -10.2447    211.2203     53.0724   5.6456032001e+01   2.5147251281e+01    0.4601668    0.2223557  67.73  0.001724624    2.261    0.558
       256 -10.1071    209.0644     46.8548   5.5030635963e+01   2.6585860005e+01    0.3737551    0.2430727 -87.06  0.001200003    1.911    0.477
       257  -9.6174    203.4849     52.7065   5.7514470486e+01   2.7168018135e+01    0.4988143    0.2119624  57.25  0.001879066    2.284    0.562
       258 -10.7960    202.1712     47.0128   5.6084207266e+01   2.8328033568e+01     0.548232    0.3750622 -30.15   0.00260274    1.465    0.318
       259  -9.0613    197.3257     43.6304   5.5835061244e+01   3.0055279292e+01    0.1536358    0.1467954 -76.28 0.0008430546    1.012    0.012
       260 -10.7894    173.9862     48.0181   6.1064353951e+01   3.5508939793e+01    0.5765708    0.4349527  87.92  0.002677854    1.558    0.358
       261  -9.5738    176.2542     43.4019   5.9206386087e+01   3.5585050932e+01    0.3130935    0.2495078 -82.98  0.001183565    1.423    0.297
       262  -9.9894     90.8131     47.6396   8.1491490578e+01   5.4930255005e+01    0.3003801     0.226751 -36.28  0.001162603    1.255    0.203
       263  -9.5567      2.6993     48.7195   1.1504599773e+02   6.4921435690e+01    0.2457101    0.2338914 -73.46  0.001979351    1.307    0.235
       264  -8.8613      4.3183     39.6511   1.1212552443e+02   6.6686400808e+01    0.1637356   0.09361351 -84.83 0.0007172208    2.751    0.636
       265  -8.7148      2.6717     44.6796   1.1409786766e+02   6.5752728365e+01    0.1303855    0.0970538   4.67 0.0006806231    1.663    0.399
       266  -8.6670      6.0344     43.2646   1.1235967908e+02   6.5868119590e+01    0.2569274    0.1732429 -46.73   0.00126733    1.122    0.109
       267  -9.7882    195.2963     46.8788   5.7099851812e+01   3.0123350786e+01    0.5052777    0.2484391  88.23  0.001509801    4.163    0.760
       268  -9.6645     14.3414     46.3125   1.0976179116e+02   6.4756295235e+01     0.287339     0.144874 -27.42  0.001391903    2.214    0.548
       269 -10.2691     17.7023     41.6020   1.0702244814e+02   6.5476571075e+01     0.493375     0.187815 -35.40  0.002276746    2.668    0.625
       270  -8.8954    219.3130     45.6676   5.3294110240e+01   2.4167901871e+01    0.1562029     0.102064 -61.61 0.0007044876    1.679    0.405
       271 -10.2991    165.6767    212.8931   1.0214418150e+02   7.1933026708e+00    0.3096344    0.2030423  70.62  0.001508806    2.292    0.564
       272 -11.2062     96.0390     41.9118   7.7669644810e+01   5.4899124105e+01    0.8685492    0.4031182  55.23  0.003000808    2.812    0.644
       273 -10.6761    189.0598     41.4144   5.6458852006e+01   3.2513933118e+01    0.5055674    0.2388346 -25.33  0.000925003    2.295    0.564
       274  -9.5190    193.4698     39.1243   5.5093252340e+01   3.1675502750e+01    0.2439318    0.1891508  52.61 0.0003186595    1.296    0.229
       275  -9.8686     86.8575     29.5920   7.5609065109e+01   5.8580360565e+01     0.500999    0.2146545 -22.36  0.001883676    2.940    0.660
       276 -10.7973     80.8048     39.8896   8.1807661151e+01   5.8061541932e+01    0.5395684    0.3746187  47.47  0.002862946    1.657    0.397
       277 -10.6855     77.6835     34.4408   8.0684548772e+01   5.9496266831e+01    0.4262076    0.2775218  43.78   0.00143432    1.675    0.403
       278 -10.5987     81.9368     31.7973   7.8146562421e+01   5.9159411798e+01     0.398749    0.2806692 -52.63  0.002054607    1.899    0.473
       279 -10.4134    231.0293     38.7748   5.0011958150e+01   2.2215497717e+01    0.6055893     0.306904 -69.13  0.001961977    2.837    0.648
       280  -9.3022    217.8135     38.8255   5.1632503799e+01   2.5472283409e+01    0.2077209    0.1576237 -62.30 0.0005700741    1.328    0.247
       281 -10.4288     22.9144     37.0283   1.0335501640e+02   6.5977354544e+01    0.3079015    0.2289613  43.37  0.001452557    1.891    0.471
       282  -9.5245    153.0813    207.8271   1.0380511429e+02   1.0241836024e+01    0.2018727    0.1581181  59.48 0.0008988477    1.257    0.204
       283 -11.2331    176.0935     36.0005   5.6904737937e+01   3.6642703899e+01    0.6868581     0.476093 -76.21  0.002400886    1.796    0.443
       284 -10.0233    182.3211     32.1459   5.4694616074e+01   3.5510300517e+01    0.3458798    0.2161301  31.57  0.001280611    2.025    0.506
       285  -9.3800     61.0252    207.0134   1.2152544075e+02   2.4795939373e+01    0.1817053    0.1340596  70.34 0.0004906963    1.065    0.061
       286 -10.6852    176.4071     30.0484   5.4975442691e+01   3.7328147692e+01    0.4695607    0.2564764  44.36   0.00153902    1.940    0.485
       287 -10.6836      4.2920    204.7474   1.3146616755e+02   3.1434852342e+01    0.2900653    0.1190065 -66.97  0.001673586    2.353    0.575
       288  -9.5683    133.2783     36.9352   6.5723349147e+01   4.7425826978e+01    0.3632186    0.2443887 -83.47  0.001504609    2.458    0.593
       289  -9.0139     94.0792     36.0033   7.5951957281e+01   5.6222566240e+01     0.198084    0.1711207 -72.86 0.0005959461    1.629    0.386
       290  -9.5722    238.5195    204.4643   8.7394490408e+01  -4.2478918246e+00    0.2443757    0.1152483 -31.20  0.001223778    2.213    0.548
       291 -10.4284     16.8380    203.0299   1.2922627496e+02   3.0578711168e+01    0.3518599    0.1147682 -78.51  0.001802609    2.614    0.617
       292 -10.7638    245.5547    200.8043   8.5522783941e+01  -4.9373410046e+00    0.2281966    0.1511959  32.83 0.0007451446    1.336    0.251
       293  -8.8655      7.0564     30.7074   1.0831879127e+02   6.8289809786e+01     0.711912    0.3259991 -39.31  0.004092582    1.732    0.423
       294  -8.7391    207.3174    201.3198   9.2393328546e+01   1.5220945131e+00    0.1339539   0.09089959  12.73 0.0007041384    1.660    0.398
       295 -10.3768    234.6659    196.7916   8.6651270787e+01  -2.6180752489e+00    0.4177431    0.2454818  22.11  0.001947431    1.733    0.423
       296 -10.3003     31.8622     28.7856   9.6453171736e+01   6.6704242671e+01    0.2970548    0.1586219 -41.48  0.001249546    1.495    0.331
       297 -11.0492     13.7332     23.5709   1.0275721805e+02   6.9189840842e+01    0.4591742    0.2620866  28.14    0.0028699    2.152    0.535
       298  -8.3735    141.3011    194.7035   1.0415010870e+02   1.4647276291e+01    0.1325548   0.09642977  71.09 0.0003285837    1.576    0.366
       299 -10.8046    240.6714     33.1364   4.7516384256e+01   2.0638325838e+01    0.4889647     0.388336 -69.35  0.002786561    1.208    0.172
       300 -12.2826      5.1329    185.3055   1.3028348790e+02   3.5141714394e+01    0.7376021    0.3781491  83.23  0.004242828    1.538    0.350
       301 -12.1246    105.9770     20.0963   6.5987016691e+01   5.5937836862e+01    0.3013138    0.2358796  -7.06 0.0003569368    1.257    0.204
       302 -12.1995    105.7425     32.9328   7.1271671081e+01   5.4287570346e+01     0.602908    0.3476243  15.97   0.00176157    2.563    0.610
       303  -9.6659    239.8671    184.6512   8.3423469753e+01  -1.8815972005e+00      0.21598    0.1589059  -8.91 0.0006121567    1.296    0.229
       304 -10.3306     68.5617     32.9327   8.3302434981e+01   6.1251736249e+01    0.4035639    0.2975615  37.85  0.002277109    1.483    0.325
       305 -10.1100    213.0373    181.2623   8.7585376992e+01   3.4559443500e+00    0.2569086    0.1803188  -0.16  0.001299575    1.658    0.397
       306  -9.2156    216.5369     32.1022   4.9965066697e+01   2.6667580886e+01    0.2090101    0.1367321 -29.90 0.0005001547    1.531    0.347
       307  -9.4418    250.1019    179.9249   8.0741580477e+01  -2.9999707715e+00    0.2407679    0.1613958 -18.46  0.001368159    1.406    0.289
       308  -8.9609    204.2678     30.9471   5.1195921509e+01   2.9941400229e+01    0.1874305    0.1226494 -32.00 0.0008879352    1.522    0.343
       309 -11.2536     60.7115     36.0489   8.7500937761e+01   6.1918572455e+01    0.4303066    0.2139409 -35.18  0.002072749    1.802    0.445
       310  -9.5150    221.6443     29.4104   4.8637939649e+01   2.5727035636e+01    0.2516262    0.1687452 -25.99 0.0005989244    1.557    0.358
       311  -9.6527     99.2620     30.0025   7.1958978282e+01   5.6066304415e+01     0.290344    0.2079589  69.80  0.001427506    1.991    0.498
       312  -9.3517     97.5451     26.5027   7.1021824759e+01   5.6905733022e+01    0.2264327    0.2112241  20.02 0.0009054997    1.110    0.099
       313 -10.1240    230.6769     27.4958   4.7140612623e+01   2.3740623509e+01    0.4197033    0.1957944 -38.59  0.001549118    1.920    0.479
       314  -9.9417    206.8492     36.9853   5.2561110568e+01   2.8498938837e+01    0.2456458    0.2109281  72.33 0.0007502185    1.148    0.129
       315  -9.3307     41.2041     28.0578   9.2108048535e+01   6.5826974103e+01    0.3309786    0.1179669 -33.31  0.001218893    2.974    0.664
       316  -9.8596    250.5672     26.6941   4.4973547214e+01   1.9145197305e+01    0.2613718    0.1182004 -31.28 0.0006023046    2.043    0.511
       317 -10.6592    214.2843     23.6477   4.7934734191e+01   2.8277571664e+01    0.4379604    0.3595874  -3.63  0.001971909    1.479    0.324
       318 -10.4096    211.3354     18.7583   4.6937950999e+01   2.9595877283e+01    0.2486105    0.2317305  59.40 0.0002731248    1.149    0.130
       319 -10.0645     51.9953    173.6870   1.2010530824e+02   3.2745890893e+01    0.4066409    0.1745447 -87.26  0.001721556    2.948    0.661
       320  -9.2356     28.1498    175.8797   1.2522385326e+02   3.4921411035e+01    0.1854829     0.124644  75.22  0.001069898    1.217    0.178
       321  -9.8700    169.7842    191.5085   9.7878126830e+01   9.9706676065e+00    0.3398305    0.1951101  32.68 0.0009750627    1.803    0.445
       322  -9.0937    230.2179    175.4122   8.3279976387e+01   1.1433785761e+00    0.1711953    0.1232543  47.73 0.0003470137    1.515    0.340
       323  -8.9623     57.2886    174.9688   1.1912309145e+02   3.1819054566e+01    0.1694541     0.136267  88.78 0.0004131837    1.049    0.047
       324  -9.4118    223.0500     22.3289   4.6611644024e+01   2.6238788139e+01    0.2783863    0.1849146 -43.74 0.0005710015    1.408    0.290
       325  -8.9339    220.7602     19.3216   4.6063881991e+01   2.7160012902e+01     0.164858    0.1615158 -44.38 0.0001390312    1.142    0.124
       326 -10.4136     47.0564     19.1157   8.5722390359e+01   6.6555742632e+01    0.3145396    0.2592793   5.74  0.001450939    1.167    0.143
       327 -10.0730    247.3521    173.9652   8.0004975738e+01  -1.7183464259e+00    0.4657028    0.1486648  34.05  0.001575885    3.997    0.750
       328  -9.7687     39.5859    173.2503   1.2266011823e+02   3.4271459102e+01    0.2055272    0.1591763 -73.57 0.0007769791    1.253    0.202
       329 -10.6960     35.8744    170.1671   1.2314386987e+02   3.5334651626e+01     0.354495    0.1842906 -81.62  0.001977761    1.671    0.402
       330 -10.2676    242.5685     21.9611   4.4572866394e+01   2.1569252308e+01    0.3513131    0.1787246  61.35  0.001659698    2.002    0.501
       331 -10.5606     74.0878     19.7085   7.5582579704e+01   6.2305601280e+01    0.2717566    0.1877499  23.48 0.0008543795    1.425    0.298
       332  -9.8857      8.8828    156.4388   1.2763059176e+02   4.0822938159e+01     0.224909    0.1456806 -61.87  0.001500577    1.559    0.359
       333 -11.7397      9.6192    166.8608   1.2824731220e+02   3.8544719748e+01    0.5352764    0.2902324 -78.18  0.002458475    1.447    0.309
       334 -10.9641     13.9834    158.7167   1.2673851250e+02   3.9907373698e+01    0.4018502    0.1975477 -75.72  0.001709949    1.601    0.375
       335  -8.9409    197.6674    167.8453   8.7835433582e+01   8.5994563163e+00    0.1909859    0.1283617 -46.63 0.0008692854    1.684    0.406
       336 -10.0647    188.7561    164.4993   8.8919248827e+01   1.0976450475e+01    0.4454236    0.2249322 -28.25  0.001457698    2.579    0.612
       337  -8.9908     46.5213    166.0472   1.2046738803e+02   3.5049625330e+01    0.1765461   0.08601757  82.63 0.0008080328    2.420    0.587
       338 -10.0847     18.7644    165.0063   1.2624864236e+02   3.8133713415e+01    0.2376755    0.2231198 -38.67  0.001843948    1.585    0.369
       339 -10.3518     28.2614    162.5160   1.2404318973e+02   3.7769759961e+01    0.4782927    0.1711644 -73.15  0.002277678    2.311    0.567
       340 -10.0393    205.7027    162.5995   8.5177067278e+01   7.8724992881e+00     0.499166    0.2608459  26.86  0.001507784    2.540    0.606
       341  -9.4960    194.5426     18.4658   4.8858637659e+01   3.3950333456e+01    0.2499156    0.2241684  89.28 0.0005732044    1.051    0.048
       342  -9.5088     40.0198    162.2270   1.2147955195e+02   3.6615122847e+01    0.2872851    0.1379012 -79.89  0.001468914    1.893    0.472
       343  -9.4793     79.5335    160.2889   1.1234776304e+02   3.2029111552e+01    0.2458884    0.1218038 -69.57   0.00107997    2.030    0.507
       344  -9.7496    248.8715     33.2799   4.6719339244e+01   1.8711509617e+01    0.2595033    0.1590669 -42.81  0.001329696    1.434    0.303
       345  -9.3702    169.5243     23.7140   5.4057545034e+01   3.9901482954e+01    0.2772066    0.1598592  54.12  0.001237424    1.619    0.382
       346  -9.5772    215.4008    158.2752   8.2407633280e+01   6.6416017307e+00    0.2659955    0.1330766 -30.67  0.001122552    2.099    0.524
       347  -9.1965    223.9796    156.9847   8.0542432061e+01   5.1451509478e+00    0.1728133    0.1537344  -4.20 0.0006933815    1.039    0.037
       348  -9.5656    220.0297     12.5861   4.4370242755e+01   2.8100416832e+01    0.3074363    0.1245341  71.50  0.001248455    2.368    0.578
       349 -10.5892    104.8454    154.4091   1.0549883116e+02   2.9337314491e+01    0.4272303    0.3153786 -63.37  0.002280872    1.328    0.247
       350  -8.6894     94.4707     12.4083   6.5860863389e+01   5.9285955561e+01    0.1327973    0.1167618  18.13 0.0001526857    1.031    0.030
       351 -12.2150     22.8085    149.4082   1.2400274131e+02   4.1164582886e+01    0.5956658     0.334723 -50.34  0.001286641    2.096    0.523
       352 -10.4793     15.5717    147.7595   1.2546478088e+02   4.2160123081e+01    0.3236178    0.2175025  65.68  0.001167988    1.386    0.278
       353 -11.7235     12.7729    139.4455   1.2533494011e+02   4.4227244530e+01    0.8036471    0.3739847 -84.16  0.004323469    1.821    0.451
       354 -10.9166     31.3682    153.0681   1.2244838488e+02   3.9540048814e+01    0.4405911    0.2612416 -84.01  0.002595623    1.421    0.296
       355 -11.2922     62.9844    150.0293   1.1476058662e+02   3.6624126158e+01    0.4051949    0.3751696  69.82  0.001830186    1.184    0.156
       356 -10.4396     70.9326    151.5057   1.1308208749e+02   3.5227016915e+01    0.3406217    0.1990897  59.14  0.001077345    1.804    0.446
       357 -11.6827      3.7463    147.4740   1.2803405672e+02   4.3156097123e+01    0.6311858    0.3491571 -77.07  0.003388376    1.374    0.272
       358 -11.3945      4.1786    141.8577   1.2749237227e+02   4.4346448719e+01    0.3760406    0.2702559  40.28  0.002413784    1.639    0.390
       359 -12.3555      3.9940    137.0425   1.2713149536e+02   4.5415389720e+01     0.255441    0.1760887 -78.00 0.0003794376    1.118    0.105
       360  -9.1541    141.0500    153.2754   9.6866726193e+01   2.2868351647e+01    0.2049612    0.1812456  51.69 0.0003467966    1.086    0.079
       361  -9.7042     47.7564    151.9729   1.1858994238e+02   3.8037834623e+01    0.2743773     0.230632  39.12  0.001072401    1.425    0.298
       362 -11.1958     47.2108    146.8119   1.1807920446e+02   3.9269881432e+01    0.5005122    0.4209241 -64.98  0.003308187    1.231    0.188
       363  -9.5905    239.7823    146.5864   7.5461068973e+01   3.6774623883e+00     0.249313    0.1830709 -25.60 0.0006710196    1.270    0.213
       364 -10.6288    249.5801    142.3998   7.2890026641e+01   2.4321600902e+00    0.5651805    0.2397694 -29.47  0.002331889    2.259    0.557
       365  -9.9606    214.8878    151.0074   8.0912214508e+01   7.9458813328e+00    0.2896962    0.2453794 -24.31  0.001013625    1.156    0.135
       366 -10.6774     33.0151    144.2792   1.2112548031e+02   4.1347454907e+01    0.2632606    0.2089422  74.48 0.0007695683    1.164    0.141
       367 -10.0772    133.3495    140.1400   9.5929830690e+01   2.7202467268e+01     0.342728    0.2719024  48.67  0.001232926    1.243    0.195
       368  -9.6857     27.2395    139.9977   1.2200982179e+02   4.2866609659e+01    0.2197765     0.111578 -64.82  0.000683134    1.629    0.386
       369 -11.9965     23.4935    135.8248   1.2244410544e+02   4.4147120566e+01    0.6887637     0.375193  47.23  0.001239199    1.931    0.482
       370 -11.9483     29.9439    132.9277   1.2053798547e+02   4.4223267513e+01    0.4634273    0.2809533 -85.32 0.0003487985    1.457    0.314
       371 -10.5165     80.3232    136.3560   1.0833226809e+02   3.7371826345e+01    0.4448204    0.3471521 -10.91  0.001547946    1.987    0.497
