#   1 NUMBER                 Running object number                                     
#   2 MAG_AUTO               Kron-like elliptical aperture magnitude                    [mag]
#   3 X_IMAGE                Object position along x                                    [pixel]
#   4 Y_IMAGE                Object position along y                                    [pixel]
#   5 X_WORLD                Barycenter position along world x axis                     [deg]
#   6 Y_WORLD                Barycenter position along world y axis                     [deg]
#   7 A_WORLD                Profile RMS along major axis (world units)                 [deg]
#   8 B_WORLD                Profile RMS along minor axis (world units)                 [deg]
#   9 THETA_WORLD            Position angle (CCW/world-x)                               [deg]
#  10 FWHM_WORLD             FWHM assuming a gaussian core                              [deg]
#  11 ELONGATION             A_IMAGE/B_IMAGE                                           
#  12 ELLIPTICITY            1 - B_IMAGE/A_IMAGE                                       
         1 -13.6655    219.8848      8.0432   3.6203648290e+01   2.9169791148e+01     1.300142       1.0747  38.52  0.004194523    1.518    0.341
         2 -14.2415    193.9150     38.8146   4.7186098040e+01   3.1849241283e+01     2.224974     1.404591  17.63  0.009618711    2.465    0.594
         3  -9.9150     80.4391     15.2666   6.1145621733e+01   6.3654210604e+01    0.2683711    0.2245744  77.26  0.001047123    1.425    0.298
         4 -10.1441    189.4387     14.7011   4.0541152041e+01   3.5755030841e+01     0.249915    0.2096784 -68.80 0.0007754611    1.115    0.103
         5 -11.0767     68.3301      3.3249   5.8675856264e+01   6.7848183291e+01    0.3621593    0.1840859  39.07  0.001622681    1.979    0.495
         6  -9.2910    167.7784    231.5690   9.3849307169e+01   6.7058349005e+00    0.1883124    0.1354347  15.18 0.0007104237    1.251    0.201
         7 -11.9669    248.9999    246.0834   8.2277253122e+01  -4.7411532946e+00    0.4254007    0.2659564 -19.03  0.003374895    1.546    0.353
         8  -9.3411    157.4680    233.4915   9.5998971995e+01   7.8370550828e+00     0.114748   0.08806505  27.90 0.0003051589    1.015    0.015
         9 -11.2330     65.4549    205.3577   1.1192865774e+02   2.4650298969e+01     0.366451    0.1867425 -86.73  0.001218483    2.421    0.587
        10 -12.9487     31.8018    206.2814   1.1930385424e+02   2.8175276995e+01    0.3111677    0.1409903  47.69  0.001001035    1.662    0.398
        11  -8.8482     93.6719    205.4478   1.0574054776e+02   2.1025437644e+01    0.2353513    0.1592445  18.60 0.0007617128    1.739    0.425
        12  -9.3422     96.4969    202.0104   1.0475548300e+02   2.1270176364e+01    0.2101916    0.1182298 -57.38  0.001145833    2.066    0.516
        13 -10.9215    192.8849    194.7295   8.3854974347e+01   8.0959886010e+00     0.772639    0.4296213 -59.05  0.003038384    5.123    0.805
        14 -11.1488     53.4451    200.5561   1.1421956414e+02   2.6982844566e+01    0.2121419    0.1586924  41.55 6.817343e-05    1.170    0.145
        15 -12.4014     55.0683    196.9309   1.1358406792e+02   2.7512323126e+01    0.4811035    0.2776996 -46.64  0.002088239    2.470    0.595
        16 -11.3628    141.0122    199.1906   9.4783674208e+01   1.5287701031e+01    0.3043602    0.2272075 -80.98  0.001749188    2.079    0.519
        17 -11.5641    133.3623    194.6347   9.5767315384e+01   1.7219868971e+01    0.3248172    0.2456986 -64.87  0.001481736    1.684    0.406
        18  -8.5258     69.4627    199.4396   1.1053892391e+02   2.5297685883e+01    0.1243188   0.09770195  53.28 4.120866e-06    1.046    0.044
        19  -9.4885     58.4101    228.4794   1.1505496441e+02   2.1286367640e+01    0.1123864    0.0844011  51.28 0.0001240047    1.020    0.020
        20 -10.3273     40.0156    223.8301   1.1849053232e+02   2.4090163797e+01    0.1848604    0.1228459  52.95 0.0007202111    1.129    0.115
        21  -9.2108     81.8394    194.3704   1.0724516460e+02   2.4699114352e+01    0.2079791    0.1567566  74.76  0.001092952    1.376    0.273
        22 -11.3586    149.6281    188.2358   9.1355215585e+01   1.5779745827e+01     0.446449    0.3239233 -76.52  0.002128116    2.259    0.557
        23  -9.6123     93.5919    186.1377   1.0360697518e+02   2.4707546875e+01    0.2435324    0.1813571  54.92 0.0004478609    1.239    0.193
        24 -10.9983     98.8875    181.3392   1.0176273409e+02   2.4898365786e+01    0.3677234    0.2805853   2.38  0.001646235    1.784    0.440
        25  -9.4713    128.3440    185.3154   9.5530572504e+01   1.9649579881e+01    0.1308671   0.09791354   1.66 0.0007048024    1.714    0.416
        26 -11.1418    143.1947    179.1474   9.1299679624e+01   1.8384692607e+01      0.36871    0.1880433 -49.84  0.001387404    2.234    0.552
        27 -10.0885    188.0260    176.4746   8.1643763596e+01   1.1486254696e+01    0.3094374    0.2862592 -15.85  0.001730137    1.217    0.178
        28  -9.5037    149.1904    176.7451   8.9601769462e+01   1.7824708282e+01    0.1965341    0.1790097 -60.97 0.0003124551    1.324    0.244
        29  -9.6928     53.6418    221.1985   1.1556864403e+02   2.3096032123e+01    0.3086803   0.08975048  47.29  0.001435274    2.528    0.604
        30 -10.2475    233.9806    174.9877   7.3341142838e+01   4.6555999459e+00    0.1492691    0.1178229   2.35  0.001017839    1.016    0.016
        31  -9.7118     84.0514    173.5655   1.0437661274e+02   2.8630315048e+01    0.1874223    0.1683691  82.15 0.0004256319    1.122    0.109
        32 -10.0191     46.3424    173.0962   1.1375291707e+02   3.3480889171e+01    0.3552942    0.2275819  20.14  0.001955337    1.859    0.462
        33 -10.6420    138.3130    170.0947   9.0893809983e+01   2.0843506753e+01    0.3539626    0.2362785  29.33  0.001393276    1.452    0.311
        34  -9.5767    185.6685    169.9771   8.0916599300e+01   1.2867164073e+01    0.1800206    0.1570866 -13.06 0.0006535278    1.127    0.113
        35  -9.0554    194.1814    171.7912   7.9632249112e+01   1.1193255933e+01    0.1825196     0.168239  17.37 0.0006986299    1.191    0.160
        36  -9.9795     56.1646    174.8985   1.1146250511e+02   3.1961906549e+01    0.3815467    0.1415067  45.01  0.001683905    2.253    0.556
        37  99.0000     58.7203    220.0244   1.1444442621e+02   2.2734198426e+01    0.3576877    0.1700712  39.07  0.001602516    1.604    0.377
        38  -9.0074    188.1201    162.9990   7.9131793683e+01   1.3546826301e+01    0.1968797    0.1505806 -60.71 0.0006714745    1.956    0.489
        39 -11.5616     94.6915    151.1861   9.8483216730e+01   3.1923624813e+01    0.6175166    0.5611117 -12.28  0.002510873    1.322    0.244
        40 -10.7535    133.8114    145.3657   8.7438274111e+01   2.6465080093e+01      1.11625    0.2948723 -54.61   0.00289766    5.892    0.830
        41  -9.6705    187.2043    151.5704   7.7056051029e+01   1.5533548197e+01    0.1902317    0.1180372  29.25  0.000931036    1.634    0.388
        42  -9.4421     58.7786    250.8141   1.1628153236e+02   1.7603939863e+01   0.08322224   0.06459593  31.97 0.0006297975    1.308    0.236
        43  -9.2032    174.9765    149.0070   7.8970649073e+01   1.8170860900e+01    0.2031726    0.1741428 -85.88  0.000758845    1.682    0.406
        44  -8.6355    109.4579    147.5166   9.3973995966e+01   3.0320268755e+01    0.1425416    0.1305189  59.32 0.0008082866    1.057    0.054
        45  -9.8395     86.5282    143.1976   9.9411985158e+01   3.5006109963e+01    0.3622736    0.1913441  55.16   0.00153349    2.121    0.528
        46 -10.6592    106.6069    137.3510   9.2852373717e+01   3.3054654410e+01    0.4574553    0.3231718 -28.98   0.00216111    1.860    0.462
        47 -10.5821    105.8477    130.7288   9.1760153212e+01   3.4680633028e+01    0.3835024    0.3211584 -70.09  0.001183528    1.256    0.204
        48 -11.7210     94.6623    137.2582   9.6121938148e+01   3.5088713438e+01    0.2778366    0.2595876 -38.65 0.0003217852    1.189    0.159
        49 -10.4394    135.6615    128.0469   8.3344791894e+01   2.9677023813e+01    0.6856551    0.1404587 -49.22  0.001708303    5.543    0.820
        50  -9.2927    161.0128    128.0182   7.7398896878e+01   2.4637041247e+01    0.2551899    0.1553374 -62.82  0.001018926    2.581    0.613
        51 -10.3406    101.6701    124.7727   9.1714928996e+01   3.6781624578e+01     0.267986    0.2380042  -3.18 0.0005848848    1.338    0.253
        52 -10.5206    120.2497    123.0423   8.6195673420e+01   3.3741545807e+01    0.4400659    0.3198525  -9.19  0.001955352    2.044    0.511
        53 -10.4634    114.2707    128.9609   8.9092037429e+01   3.3558529981e+01     0.317371    0.2887174 -19.24 0.0007343921    1.231    0.188
        54  -8.1139     48.6965    217.5011   1.1636467373e+02   2.4307649806e+01    0.2514976    0.1493867  16.83  0.001427659    2.262    0.558
        55  -9.3844    109.8840    118.1095   8.7930814559e+01   3.6812088056e+01    0.2163025    0.2083901  62.84 0.0003416938    1.016    0.016
        56  -9.9832    231.3369    113.7300   6.1292252768e+01   1.3315874585e+01    0.2441655    0.2070849  -9.74 0.0008008403    1.064    0.060
        57  -9.1867    167.7239    112.6922   7.2293404052e+01   2.6110663956e+01    0.2946416    0.2173863 -79.05  0.001322732    2.105    0.525
        58 -11.3040    118.5344    109.9906   8.3586913021e+01   3.6954258358e+01    0.5611649    0.4073238  66.89   0.00222409    1.688    0.408
        59  -9.3571    205.3718    110.0888   6.4523165419e+01   1.8777333605e+01    0.2374755    0.2045152  51.29 0.0006443682    1.302    0.232
        60  -9.5474    134.6585    105.3660   7.8122332244e+01   3.4613438523e+01    0.4207888    0.1409854 -45.78  0.001343008    3.010    0.668
        61  -9.9522     65.3937    100.2358   9.7988143500e+01   4.8602282708e+01    0.3143316     0.212157  26.93  0.001391269    1.658    0.397
        62 -11.2439     63.1079    250.3583   1.1545197491e+02   1.7199527780e+01    0.2346986     0.100046  38.78  0.001414425    1.636    0.389
        63  -8.5322    155.3547     82.3156   6.6778369280e+01   3.4485281743e+01    0.1594644    0.1195515  15.04 0.0007045621    1.741    0.426
        64  -9.7112    184.8156    212.7995   8.8143905078e+01   6.8195950648e+00    0.1499792    0.1305924  35.41  0.001072292    1.340    0.254
        65  -8.8075    184.3159     77.0377   5.9609036277e+01   2.8604536717e+01    0.2105776    0.1839661 -34.55 0.0007138944    1.080    0.074
        66  -9.0100     66.9482     70.9834   8.9915251715e+01   5.5527557830e+01    0.2154804    0.2025087 -51.59 0.0003050571    1.009    0.009
        67 -19.5268     15.6405    145.7064   1.1979972606e+02   4.2676723544e+01     18.66356     4.672878 -83.25   0.06543259    3.941    0.746
        68 -12.8142    178.4123     52.9365   5.3578926292e+01   3.3725114695e+01     0.701331    0.6506742  16.45 0.0007926063    1.190    0.160
        69 -12.1597     48.9889    248.1225   1.1796038001e+02   1.9072690144e+01    0.1713758    0.1312798  77.30 0.0007564466    1.350    0.259
        70 -10.4508     71.8568    245.3690   1.1350263793e+02   1.6987298063e+01    0.2689315    0.1486884 -75.82    0.0017542    2.262    0.558
        71  99.0000     57.2297    208.2760   1.1394612095e+02   2.5064869994e+01     0.339018    0.1913871 -43.75  0.001797799    2.806    0.644
