#   1 NUMBER                 Running object number                                     
#   2 MAG_AUTO               Kron-like elliptical aperture magnitude                    [mag]
#   3 X_IMAGE                Object position along x                                    [pixel]
#   4 Y_IMAGE                Object position along y                                    [pixel]
#   5 X_WORLD                Barycenter position along world x axis                     [deg]
#   6 Y_WORLD                Barycenter position along world y axis                     [deg]
#   7 A_WORLD                Profile RMS along major axis (world units)                 [deg]
#   8 B_WORLD                Profile RMS along minor axis (world units)                 [deg]
#   9 THETA_WORLD            Position angle (CCW/world-x)                               [deg]
#  10 FWHM_WORLD             FWHM assuming a gaussian core                              [deg]
#  11 ELONGATION             A_IMAGE/B_IMAGE                                           
#  12 ELLIPTICITY            1 - B_IMAGE/A_IMAGE                                       
         1 -11.6298     80.3620     23.3867   9.1867344619e+01   6.1687568266e+01    0.6145796    0.2956226  36.80 0.0005180797    2.223    0.550
         2  -9.2561     27.6407     22.3325   1.1719183751e+02   7.0450144287e+01     0.629014    0.2501603 -31.92   0.00238705    3.134    0.681
         3  -8.9813     46.1313     20.8588   1.0584165087e+02   6.8368583983e+01    0.4598155    0.1964414 -39.19   0.00145878    2.144    0.534
         4  -7.4423    146.8335     19.1678   7.3112271192e+01   4.5995697199e+01    0.1988868    0.1597952  31.34 0.0003884098    1.288    0.224
         5  -9.4576    128.1060     15.8948   7.5275713760e+01   5.1208327877e+01     0.483658    0.3187056  22.06  0.001211263    1.741    0.426
         6  -9.4254    134.0062     13.5699   7.3209580767e+01   4.9924133260e+01    0.3104821    0.2346891  19.24 0.0001898028    1.429    0.300
         7  -7.8177    137.2639     10.6411   7.1477039065e+01   4.9366367777e+01    0.2275726    0.1667822 -32.59 0.0004720844    1.400    0.285
         8  -9.0008    103.4095     16.7876   8.1397981087e+01   5.7317967141e+01    0.7784047    0.3435534  18.21  0.001794685    7.452    0.866
         9  -9.4436     64.2196     14.2459   9.3520343589e+01   6.6327337286e+01    0.4621668    0.2550886  18.29  0.001710841    2.563    0.610
        10  -8.3606     96.3112     13.5748   8.1835541332e+01   5.9409748904e+01     0.358321     0.205904   0.70  0.001493102    2.240    0.554
        11  -8.3421     71.8073      8.8410   8.7416348840e+01   6.5523546976e+01    0.3624623    0.1736148 -34.79  0.001013627    2.113    0.527
        12  -9.3210     79.3271     12.9552   8.6912824067e+01   6.3377594626e+01    0.4282389    0.2692066  54.40   0.00133037    1.659    0.397
        13  -9.4055     31.3088     11.1698   1.0915341283e+02   7.2190142320e+01    0.3855793    0.2364004 -13.26 0.0004848176    1.859    0.462
        14  -8.7775    125.1910     10.2620   7.3511878739e+01   5.2544042571e+01    0.3225211    0.2376746   8.07  0.001042759    1.480    0.324
        15  -9.4297    129.8934      6.4872   7.1077547481e+01   5.1681023176e+01    0.4775416    0.2053638  46.89  0.001324679    2.209    0.547
        16  -8.9085     74.4641     13.5130   8.8984491906e+01   6.4350533503e+01    0.3386173    0.2545375   8.24  0.001125235    1.344    0.256
        17  -9.0292    234.7792      6.7926   5.9921049537e+01   2.5865839864e+01    0.3257063    0.2045322 -19.98 0.0009971922    1.543    0.352
        18  -9.0870    119.1761      6.9035   7.3257072394e+01   5.4419997433e+01    0.2703365    0.2162799  27.72 0.0002820218    1.240    0.194
        19  -9.6858     46.5461      6.4946   9.7406733006e+01   7.0692814433e+01    0.4511864    0.2657363  27.26  0.001076289    1.763    0.433
        20  -8.7079     41.4901      5.5119   9.9564535992e+01   7.1674071653e+01    0.3533292    0.2118435 -21.70   0.00138155    1.627    0.386
        21 -10.2449      7.8564      5.3997   1.2276600432e+02   7.5630510065e+01    0.5415998    0.2509462  -1.49  0.002533203    2.774    0.640
        22  -8.7213     76.4829      5.2861   8.3720574289e+01   6.4935677638e+01    0.3978834    0.2571636 -38.62  0.001865475    1.734    0.423
        23  -9.0740     32.3569      5.9822   1.0536964231e+02   7.2957303005e+01    0.2302668    0.1836811   0.47 0.0003923207    1.140    0.123
        24  -7.3896    179.4879      5.4909   6.4067908667e+01   3.8901849767e+01    0.1333591    0.1290152 -75.20 0.0008104815    1.010    0.010
        25  -9.7860    110.6290      3.4134   7.3451219642e+01   5.6927426563e+01    0.4297853    0.2539786 -25.01  0.001468152    1.727    0.421
        26  -8.4205    105.6509      1.7908   7.3770646764e+01   5.8331089420e+01    0.2900678    0.1859205  59.17  0.001420722    1.451    0.311
        27  -7.5654     91.1937      5.1388   7.9052797969e+01   6.1561818588e+01    0.1797192     0.166679 -78.12 0.0004485762    1.315    0.239
        28  -7.8416     84.4281      3.7320   8.0285915267e+01   6.3299774699e+01    0.2032952    0.1272094  -2.04 0.0009049725    1.740    0.425
        29  -8.4884    143.0430      2.2677   6.7333199680e+01   4.8602827098e+01    0.2401342    0.2015712   3.76  0.000353103    1.269    0.212
        30  -8.8002     55.6016      3.3075   9.0898225130e+01   6.9501269593e+01     0.303746    0.1651632  44.09 0.0008579048    1.794    0.443
        31  -7.9868    155.9380      7.0921   6.7346194542e+01   4.4811971291e+01    0.2231496    0.1515432  35.13 0.0003709694    1.590    0.371
        32  -8.3681      3.0334      1.8030   1.2488500722e+02   7.6668056849e+01    0.2070889    0.1489438 -13.15 0.0006677191    1.328    0.247
        33  -8.5204    100.7059      6.7318   7.7322349646e+01   5.9094371140e+01    0.2798465    0.1820137  36.64 0.0008675522    1.483    0.326
        34  -9.2961      1.7775    109.4078   1.4671375732e+02   5.1345386627e+01    0.4365527   0.09383786 -71.26  0.001637827    3.303    0.697
        35  -9.1557    164.9726    250.1309   1.2287961733e+02   5.7160501548e+00    0.2054602    0.1135349  27.21 0.0008645446    1.367    0.269
        36  -8.8362     54.9567    250.6464   1.4292985562e+02   1.8521148419e+01    0.1450657   0.07230476  35.31 0.0009641161    1.522    0.343
        37  -7.6690    133.8330    106.7263   1.0480646401e+02   3.4594687042e+01    0.4077839    0.2019489 -31.97  0.001382626    2.401    0.584
        38  -7.5831    123.6745    107.6453   1.0774990849e+02   3.6428168935e+01     0.159195    0.1169756  -5.51 0.0007046359    1.768    0.434
        39  -7.0214     76.2897    107.3152   1.2187893387e+02   4.4706956787e+01    0.1444121    0.1073056 -27.27 0.0002236683    1.591    0.372
        40  -7.4681    109.2308    106.5697   1.1155049429e+02   3.9406735085e+01     0.204933    0.1421694  24.77 0.0009341842    1.613    0.380
        41  -9.3026     14.4249    105.1502   1.4224893000e+02   5.1669893003e+01    0.3395311    0.1420631 -51.47  0.001553365    2.310    0.567
        42  -9.2773    247.8270    103.5101   8.2105813664e+01   1.2253499566e+01    0.2453507    0.1208563 -43.14  0.001141717    2.272    0.560
        43  -7.0306    189.6952    104.6886   9.1731694661e+01   2.3276908558e+01    0.1492256    0.1062605   8.02 0.0003445467    1.614    0.381
        44  -7.7754     94.1991    103.3143   1.1527279885e+02   4.2807975392e+01    0.2935876    0.1374514  28.25  0.001023223    2.625    0.619
        45  -7.1982    140.4814     99.4720   1.0116952828e+02   3.4665030940e+01     0.153874    0.1423282   0.93 1.193791e-05    1.046    0.044
        46  -9.1465    242.1434     95.1719   8.0942380132e+01   1.4331658641e+01     0.179113     0.145013 -42.85 0.0007656826    1.364    0.267
        47  -7.4152     81.4948     95.0219   1.1732855765e+02   4.6825028453e+01    0.2223587    0.1107817 -35.13 0.0008104348    2.625    0.619
        48 -10.2637     20.2246     92.0640   1.3868943314e+02   5.4517994671e+01     0.572392    0.2924653 -40.93  0.002744095    2.137    0.532
        49  -9.9271     12.0213     93.9142   1.4188486713e+02   5.4573654716e+01    0.3856945    0.2086015 -41.01  0.001716187    2.013    0.503
        50  -8.8133     44.1485     91.9633   1.2985404289e+02   5.2492608134e+01    0.2869764    0.2115048 -25.88  0.001531146    1.582    0.368
        51  -8.1419     96.6044     90.3119   1.1113831566e+02   4.5334995961e+01    0.3838251    0.2512389   6.50  0.001546822    2.387    0.581
        52  -8.2478     56.4595     91.5082   1.2525520873e+02   5.1207728899e+01     0.140744    0.1280809 -51.72 -0.0002107214    1.037    0.035
        53  -7.5957    110.2264     90.7512   1.0704834527e+02   4.2664206499e+01    0.2414967    0.1234545  29.35 0.0008768402    2.476    0.596
        54 -10.2349     37.4306     81.1040   1.3027742465e+02   5.5849777696e+01    0.6536723    0.3440052 -19.35  0.002645992    3.025    0.669
        55  -8.5829     88.5904     78.6470   1.1042831393e+02   4.9386364937e+01     0.479789    0.2597114  17.70  0.001656279    3.225    0.690
        56  -9.7558      8.4087     77.1449   1.4124270563e+02   5.8907156283e+01    0.6566746    0.2563948 -37.84  0.002788448    2.914    0.657
        57  -7.7924    184.5027     78.0088   8.5519082544e+01   2.8638255858e+01    0.2212629    0.1383104 -29.50 0.0005390739    1.513    0.339
        58  -8.9671     48.2885     77.5054   1.2516089582e+02   5.5600180263e+01    0.3463684    0.1998357 -29.17  0.001473819    2.191    0.544
        59 -10.1857     24.1696     73.6056   1.3421572988e+02   5.8824446526e+01    0.6515481    0.1856543 -50.55  0.002442754    2.881    0.653
        60  -8.1835     23.4099     69.2568   1.3370830880e+02   5.9954424061e+01    0.2209962    0.1705294 -73.64 0.0004275886    1.189    0.159
        61  -7.9303     74.9426     74.0434   1.1390609166e+02   5.2746671559e+01    0.2182942    0.2033979 -23.06 0.0004268708    1.044    0.042
        62  -6.9475    129.3185     69.3440   9.5017790015e+01   4.2900320460e+01    0.1628001    0.1191408   7.62 0.0007049203    1.721    0.419
        63  -7.9856    105.8484     67.1381   1.0104836185e+02   4.8474922304e+01     0.220366    0.1799802   6.69  0.001079508    1.363    0.266
        64  -8.8083     83.9825     64.0299   1.0736668487e+02   5.3412160013e+01    0.4082476    0.2755478 -12.31  0.001392517    2.028    0.507
        65  -9.1457     18.1667     62.1055   1.3462152283e+02   6.2070216072e+01    0.4554859    0.1929013 -37.72  0.001957976    2.522    0.604
        66  -7.5297    148.0388     63.5342   8.8510138262e+01   3.9528470474e+01    0.2236603    0.1185226  32.01 0.0008042376    2.486    0.598
        67  -7.7108    121.8696     61.9626   9.4536491549e+01   4.5954379514e+01    0.4054664    0.2391592   2.82  0.001304861    3.555    0.719
        68  -9.9488     36.8977     59.2620   1.2534700226e+02   6.1228298841e+01    0.4693385    0.2775758 -24.16  0.002197769    2.067    0.516
        69  -9.5778     62.5474     61.2933   1.1475833009e+02   5.7565282513e+01    0.7859598    0.3282399  23.17  0.002668583    3.570    0.720
        70  -9.3368     26.0701     60.5342   1.3065235813e+02   6.1889695308e+01     0.291131    0.2522301 -37.22  0.001616734    1.124    0.110
        71  -8.5312     97.9048     57.8836   1.0034471810e+02   5.1958448617e+01    0.6860002    0.3698893  -7.64  0.001519005    7.930    0.874
        72  -7.8428    111.1462     58.5524   9.6414748150e+01   4.8993759972e+01    0.2854734    0.1899822   5.43  0.001148051    2.211    0.548
        73  -7.7804     49.7442     58.4492   1.1931828243e+02   5.9969721421e+01    0.1834044    0.1341791   5.78 0.0005624162    1.589    0.371
        74  -9.1637    245.2390     55.3505   7.1018448419e+01   1.8654027369e+01    0.2314406    0.1917967 -23.84 0.0003186979    1.045    0.043
        75  -9.9466     74.9850     50.4269   1.0583720619e+02   5.7879051752e+01    0.4647048    0.2930389 -21.82 0.0003305828    1.929    0.482
        76  -8.6956    248.8917     51.3337   6.9681001485e+01   1.8402884516e+01    0.2290508    0.1701608  18.98 0.0007074402    1.619    0.382
        77  -8.1469    118.4074     50.9337   9.1521442570e+01   4.8701169144e+01    0.2412372    0.2075361  59.02 0.0006125526    1.266    0.210
        78  -8.3909    106.4082     49.0529   9.4301874616e+01   5.1771848721e+01    0.4042494    0.2210747  14.77   0.00118951    4.317    0.768
        79  -9.9013     11.0279     46.1999   1.3471407456e+02   6.6337786059e+01     0.782794    0.3857122 -18.21  0.003291984    2.499    0.600
        80  -8.9859      2.7429     42.6074   1.3832718011e+02   6.7566755973e+01    0.6231507    0.1167184 -61.08   0.00234226    2.995    0.666
        81  -9.4569     58.3035     41.0300   1.0916199324e+02   6.2591883987e+01    0.4026055    0.2385112 -16.19  0.001564171    2.432    0.589
        82  -8.3919     92.1081     37.1521   9.4050738263e+01   5.6972340516e+01    0.3987242    0.2612804 -55.30  0.001382017    2.057    0.514
        83 -10.5055     83.2041     40.0489   9.8457938273e+01   5.8322067567e+01    0.4363172     0.297156 -17.47 0.0002261646    1.639    0.390
        84  -9.1466     87.8219     37.8766   9.5850022465e+01   5.7759939749e+01     0.662334     0.488401 -80.37   0.00286244    2.411    0.585
        85  -9.5382      6.6093     33.9774   1.3417961217e+02   6.9440187676e+01    0.3922204     0.236721 -38.54  0.001571198    1.469    0.319
        86  -9.0584     35.6514     37.7169   1.1901774949e+02   6.6315859492e+01    0.3604465    0.2158003 -55.17 0.0007369965    1.551    0.355
        87  -8.5550     38.4972     35.4799   1.1663853713e+02   6.6476526782e+01    0.2556548    0.2218917  24.35 0.0007183563    1.283    0.221
        88  -7.5229    123.8532     39.4164   8.5684708875e+01   4.9243581090e+01     0.209733    0.1335189  42.49 0.0005099105    1.564    0.361
        89  -9.6663     67.8869     36.9394   1.0319462890e+02   6.1801152819e+01     0.414503    0.3751333  -5.88  0.001903369    1.029    0.028
        90  -8.5902     73.5997     34.2218   9.9612555397e+01   6.1250791633e+01    0.3298326    0.2371788  -4.89  0.001609512    1.600    0.375
        91  -9.2458     45.3194     49.2054   1.1831384879e+02   6.2632638475e+01    0.4991764    0.2719061 -27.33  0.001999136    2.293    0.564
        92  -7.9158    105.6846     36.9753   8.9663212657e+01   5.3958009895e+01    0.3286673    0.1651974  30.62  0.001173123    2.708    0.631
        93  -9.7743     22.9796     35.6869   1.2523473219e+02   6.7990782792e+01    0.4667965    0.2797672  15.85  0.002478749    1.876    0.467
        94  -9.2503     22.0093     32.2295   1.2458826809e+02   6.8848226156e+01    0.2907666    0.2546897   3.52  0.001140498    1.245    0.197
        95  -9.0660     56.2166     35.3450   1.0771043384e+02   6.4063106174e+01    0.3377277    0.2232611  -8.15  0.001027929    1.920    0.479
        96  -8.9882      1.7496     28.4460   1.3566807769e+02   7.0925101184e+01    0.5134107    0.1365119 -67.33  0.002023114    2.891    0.654
        97  -8.8221     61.7246     27.1314   1.0135349464e+02   6.4691991740e+01    0.2831094    0.2040486   4.66 0.0008342925    1.555    0.357
        98  -9.1909     42.1951     27.3636   1.1114950738e+02   6.7688590864e+01    0.3577416    0.2478345 -43.91  0.001095199    1.327    0.246
        99  -7.6706    151.7793     27.4007   7.5265804866e+01   4.3779265759e+01    0.2096935    0.1283491  52.10 0.0006823967    1.578    0.366
       100  -9.5692     69.9356     25.4614   9.6970443330e+01   6.3465443233e+01    0.2977086    0.2485447 -19.68  0.001268569    1.112    0.100
       101 -10.0270    225.4163    248.0183   1.1232852085e+02  -1.3901281203e+00    0.3296156    0.1554435  30.61  0.002025623    1.621    0.383
       102  -9.5669    197.5424    249.1138   1.1708853193e+02   1.8092048205e+00    0.2341091    0.1062289  21.25  0.001341068    1.988    0.497
       103  -8.3737    144.8952     23.4875   7.5057180268e+01   4.6016012952e+01    0.2553934     0.195067   5.12 0.0003099122    1.453    0.312
       104  -7.4490    118.3049     24.3494   8.0951224024e+01   5.2707260195e+01    0.1591869    0.1066617  23.36 0.0005617416    1.701    0.412
       105  -7.9535    128.7299     22.8281   7.7965326133e+01   5.0258275051e+01     0.240525    0.1811139  14.06  0.001176319    1.462    0.316
       106  -8.9067     63.4398     22.8402   9.8441485783e+01   6.5123470217e+01    0.2566164    0.1997136 -46.98  0.001181928    1.487    0.327
       107  -9.0548    182.5077    249.5145   1.1972302407e+02   3.6086730565e+00    0.2043441   0.07691491  26.48   0.00103959    2.350    0.574
       108  -8.5911     92.6235     20.8381   8.6450874579e+01   5.9348798776e+01    0.2858616    0.1681215  31.89 0.0009378906    1.841    0.457
       109  -8.3198    140.2707     20.0179   7.4586112203e+01   4.7607463725e+01    0.2361715    0.2010468  59.74 0.0004616086    1.147    0.128
       110  -8.2690      9.4056     19.8652   1.2797992614e+02   7.2485325527e+01       0.2453    0.1768057   2.96 0.0009258451    1.509    0.337
       111  -8.1273      5.3996     18.7688   1.3032459479e+02   7.2949327463e+01    0.1781747    0.1521525 -50.85 0.0002761448    1.113    0.101
       112  -8.5023    163.0000    244.9824   1.2263851862e+02   6.5730457605e+00    0.1432365   0.06243655 -44.00 0.0006155491    2.971    0.663
       113  -7.5593    122.3795    240.1878   1.2963844630e+02   1.2343301060e+01    0.1236227    0.1041895  88.69 0.0005760752    1.647    0.393
       114  -9.5170    188.4221    234.4489   1.1675849382e+02   4.5575742199e+00     0.195627    0.1819173  56.60  0.001035039    1.816    0.449
       115  -7.0964     47.2975    235.6658   1.4354288194e+02   2.1609120240e+01    0.1104935   0.05646369  56.06 0.0001960337    1.648    0.393
       116  -8.4169     32.9202    229.0967   1.4591661367e+02   2.4072397124e+01    0.1503915    0.1169585  51.45 0.0004317399    1.056    0.053
       117  -7.1359    143.2950    211.7229   1.2227315675e+02   1.3700328559e+01    0.1125119   0.08300976  50.91 0.0002505482    1.529    0.346
       118  -7.2243     52.5136    206.4601   1.4073827310e+02   2.6086737693e+01    0.1141441   0.08921149  53.53 0.0001449949    1.040    0.039
       119  -7.7364     11.3548    206.6898   1.4916827468e+02   2.9866741873e+01    0.1173381   0.05277388  55.20 0.0007043675    1.728    0.421
       120 -10.1516    177.3658    201.4059   1.1402965884e+02   1.0286747105e+01    0.2178428    0.1761938  18.40 0.0001980279    1.040    0.038
       121  -7.7870    165.4842     17.5323   6.9685559051e+01   4.1334054091e+01     0.139219    0.1362649  46.78   0.00080945    1.026    0.025
       122  -6.8606    178.2981    186.6756   1.1144772191e+02   1.2262192827e+01    0.1126261    0.1000039  58.83 0.0003466615    1.628    0.386
       123  -7.4059    151.4589    149.4425   1.1027274159e+02   2.2905489749e+01    0.1409075    0.1254434  12.90 8.263712e-05    1.027    0.026
       124  -7.6294    133.5084    147.5218   1.1412277588e+02   2.6434324225e+01     0.140125      0.12995  22.33 0.0004479967    1.016    0.016
       125  -8.4415    123.1837    147.0175   1.1657267503e+02   2.8306953159e+01    0.2019462    0.1873277   9.96 0.0004547971    1.062    0.058
       126  -9.0817     67.5024    144.8279   1.3099495357e+02   3.7087457072e+01    0.4451939    0.2665194  60.94  0.002167778    1.905    0.475
       127  -8.4314    188.2475    138.0609   9.9967155510e+01   1.8148880600e+01    0.2158365    0.1799598  24.16  0.000316276    1.132    0.117
       128  -7.1183    140.3079    138.3053   1.1059461946e+02   2.7026676479e+01    0.1455826    0.1087836  -0.64 0.0002658382    1.608    0.378
       129  -8.0356      5.5070    133.5291   1.4718021889e+02   4.5465755408e+01    0.1191959   0.09846052  81.90 4.439254e-05    1.004    0.004
       130  -7.2553    121.1479    131.8504   1.1405593261e+02   3.1792692877e+01     0.189626    0.1603926  -5.44 0.0003890683    1.304    0.233
       131 -10.1333    234.3846    130.6568   9.0140407305e+01   1.1022255407e+01    0.2577823     0.205595  18.21 0.0002907561    1.198    0.166
       132  -7.2407    143.7066    126.6412   1.0719090191e+02   2.8670198017e+01    0.1527115    0.1114639  -4.58 0.0007030445    1.696    0.410
       133  -7.1544     85.3508    121.3416   1.2193978697e+02   4.0057436006e+01    0.1497888    0.1084383 -21.01 0.0007043185    1.803    0.445
       134  -8.0905     12.2394    121.5592   1.4441646591e+02   4.7847311638e+01    0.1534403    0.1175856 -11.19 0.0009471261    1.695    0.410
       135  -7.5053    119.3587    119.2846   1.1175466469e+02   3.4778831846e+01    0.1516887    0.1144454  -0.29 0.0007020221    1.676    0.403
       136  -7.5712     99.2105    119.2063   1.1740884393e+02   3.8342511991e+01    0.2413629    0.1526852 -14.21  0.000938742    2.722    0.633
       137  -7.4887    181.1493    115.7783   9.6197154658e+01   2.3201338684e+01    0.1962681     0.154904   5.66 0.0003485518    1.298    0.229
       138  -8.9826    237.8410    111.9649   8.5437279811e+01   1.2909265893e+01    0.3357604     0.114186 -40.10  0.001274587    3.096    0.677
       139  -7.4285    142.3578     10.2849   7.0500686039e+01   4.8068494681e+01    0.1556541   0.09736803  37.93 0.0007020624    1.674    0.403
       140  -8.5958    246.0000    110.9852   8.4047991897e+01   1.1616250626e+01     0.219527    0.0624381 -29.44 0.0008082883    2.983    0.665
       141  -7.5766    142.6978    111.6505   1.0381771521e+02   3.1813446556e+01    0.1566875    0.1151583  -1.83 0.0007039382    1.695    0.410
       142  -8.5853     23.7844    111.3777   1.3983860315e+02   4.9500392202e+01    0.1610833    0.1228428  -2.82 0.0008092697    1.652    0.395
