#   1 NUMBER                 Running object number                                     
#   2 MAG_AUTO               Kron-like elliptical aperture magnitude                    [mag]
#   3 X_IMAGE                Object position along x                                    [pixel]
#   4 Y_IMAGE                Object position along y                                    [pixel]
#   5 X_WORLD                Barycenter position along world x axis                     [deg]
#   6 Y_WORLD                Barycenter position along world y axis                     [deg]
#   7 A_WORLD                Profile RMS along major axis (world units)                 [deg]
#   8 B_WORLD                Profile RMS along minor axis (world units)                 [deg]
#   9 THETA_WORLD            Position angle (CCW/world-x)                               [deg]
#  10 FWHM_WORLD             FWHM assuming a gaussian core                              [deg]
#  11 ELONGATION             A_IMAGE/B_IMAGE                                           
#  12 ELLIPTICITY            1 - B_IMAGE/A_IMAGE                                       
         1 -12.3493    243.9801      9.2194   5.7588116194e+01   2.4041665481e+01      1.75537     1.126093 -66.31   0.01070348    1.328    0.247
         2 -10.9610    231.3678     16.3582   6.0141062300e+01   2.6007946844e+01    0.5235458     0.292931 -34.73  0.002404885    1.909    0.476
         3  -9.9432    188.5431      7.6069   6.2538974437e+01   3.6980731780e+01    0.5559527    0.2573898 -27.71  0.002642602    2.500    0.600
         4 -10.3836    194.3990      6.8878   6.1706919072e+01   3.5654104337e+01    0.4201337    0.3040876  47.80  0.002476887    1.554    0.357
         5  -8.1463    175.2164      3.6039   6.3104890955e+01   4.0550361578e+01    0.1837146   0.09699485  60.25 0.0003904068    1.609    0.378
         6  -7.7756    168.4718    233.4910   1.1925280017e+02   1.1430667048e+00    0.1328311    0.1152588  46.65 0.0004580176    1.067    0.063
         7 -11.2561    247.6782    248.8855   1.0697085532e+02  -1.3987191328e+01     1.015461    0.7293559   1.75  0.006803181    1.233    0.189
         8  -8.6919    103.4861    250.2178   1.3404131669e+02   9.2487423604e+00    0.2470679    0.1814723  23.28 0.0008236332    2.015    0.504
         9 -17.2409     49.6429    240.0566   1.4279267807e+02   1.8996837880e+01     3.127385     2.356725  58.26   0.01212811    1.215    0.177
        10 -10.1166    196.2311    205.7342   1.0889899429e+02   9.1896837002e-01    0.3838098    0.1814737  47.23  0.001617974    2.134    0.531
        11  -8.6748    133.6962    202.7879   1.2149480071e+02   1.3372177367e+01    0.2048484     0.172508  45.61  0.001135313    1.138    0.121
        12  -9.0557    204.2390    200.8217   1.0636763403e+02   2.9570854141e-01    0.3099198   0.09732424  47.94  0.001007552    3.572    0.720
        13 -10.3239    137.7762    198.4943   1.1988450039e+02   1.3511321827e+01    0.3709252    0.2740384  43.33  0.001349251    1.288    0.224
        14  -8.3030      2.7667    198.1772   1.4799371275e+02   3.2817546826e+01     0.169704    0.1200936  67.98 0.0004564457    1.235    0.190
        15 -10.8656    146.7318    193.0930   1.1696826498e+02   1.2935162302e+01    0.4809927    0.3770741  60.21  0.002495066    1.288    0.224
        16  -8.1642    168.8081    193.8476   1.1232276120e+02   8.4470821347e+00    0.2003619    0.1685225  72.05 0.0004293649    1.355    0.262
        17  -9.4356    157.3983    194.1006   1.1482486321e+02   1.0642166849e+01    0.2823295    0.1875458  76.26  0.001189162    2.309    0.567
        18  -9.6620    194.8751    199.0182   1.0789317231e+02   2.3843037629e+00    0.3254578    0.1904444 -64.62   0.00125567    3.141    0.682
        19 -10.2633     72.8770    192.0677   1.3319371061e+02   2.5987427130e+01    0.3766941    0.3029457 -83.91  0.002254844    1.097    0.089
        20  -8.9735    147.3033    225.9365   1.2232178742e+02   6.2882948956e+00    0.1850859    0.1746508  59.19 0.0007789267    1.078    0.073
        21  -9.2676     44.8980    186.5023   1.3855653079e+02   3.0989148283e+01    0.2734491     0.169577  37.62 0.0009108779    1.813    0.448
        22  -9.8928     52.9693    183.2349   1.3642475635e+02   3.0737379795e+01    0.2800834      0.21801  47.06 0.0008766142    1.379    0.275
        23 -10.5659     45.2760    182.9378   1.3806674174e+02   3.1758180431e+01    0.5780966    0.2150133  32.76  0.001931394    3.196    0.687
        24  -9.8897    158.2152    218.6492   1.1893748151e+02   5.6593541809e+00    0.4199596    0.1495873  43.30  0.001589875    2.514    0.602
        25 -10.3401    167.7281    217.2357   1.1675006660e+02   4.1599134271e+00    0.4366529    0.1680961  44.22  0.001711131    2.355    0.575
        26  -9.3056     32.5269    181.4373   1.4063578649e+02   3.3559346905e+01    0.2351704    0.1581219  65.61 0.0005088717    1.410    0.291
        27 -10.3539     29.4950    181.5337   1.4128752684e+02   3.3862741844e+01    0.3523165    0.2033296  68.35  0.001378046    1.724    0.420
        28  -8.0088    140.5036    180.9891   1.1611159350e+02   1.6763743671e+01    0.2059187    0.1300914 -79.19 0.0007965811    2.415    0.586
        29  -9.9563     48.6390    177.2833   1.3664755803e+02   3.2654877956e+01    0.4026766    0.2241669  53.70  0.001755809    1.824    0.452
        30  -9.2700     21.7515    173.3969   1.4209714993e+02   3.6494314509e+01    0.3493771    0.1546326  40.08  0.001818334    2.373    0.579
        31  -9.2607     25.7762    175.4250   1.4144372088e+02   3.5634595834e+01    0.2466496    0.1963022  24.03   0.00144706    1.742    0.426
        32 -10.1575     29.3523    173.3577   1.4044827481e+02   3.5740505875e+01    0.3641902    0.2978185  56.45  0.002186747    1.310    0.237
        33  -8.8313     93.8183    173.1285   1.2558002091e+02   2.7125892758e+01    0.3213972    0.2522611 -35.98 0.0009847372    1.615    0.381
        34  -8.2402     96.4982    168.0064   1.2405731689e+02   2.7887466535e+01    0.3227473    0.2000969 -41.30  0.001447709    1.957    0.489
        35  -9.6188     46.7941    170.4160   1.3619546410e+02   3.4478792018e+01    0.3454396    0.2456372 -26.44   0.00182979    2.306    0.566
        36  -9.7855     42.0640    169.0385   1.3710136493e+02   3.5354000135e+01     0.325431    0.1904844  31.57 0.0008301817    2.077    0.518
        37  -7.9047    120.0754    170.2786   1.1882052485e+02   2.3134564361e+01    0.2471394    0.1588274  68.94  0.001010676    1.984    0.496
        38  -9.0890     21.5968    169.2473   1.4169911195e+02   3.7453643663e+01    0.2858341    0.1498496 -44.42  0.001433401    2.579    0.612
        39 -10.7106    183.8147    211.3612   1.1244034892e+02   2.2313588481e+00    0.4735003    0.2657649 -44.45  0.002227492    1.931    0.482
        40  -7.6569    195.8203    170.1489   1.0181530831e+02   7.7028455650e+00    0.2097573    0.1745777  -2.83 0.0008828492    1.365    0.268
        41 -10.0833     73.3972    161.7254   1.2861054872e+02   3.3021868212e+01    0.4052655    0.2570923  49.56  0.001805544    1.634    0.388
        42  -9.8637     74.5864    156.7611   1.2748757704e+02   3.4037546240e+01    0.3427742    0.2758388  77.50  0.001415622    1.258    0.205
        43  -7.6574    101.5081    159.4580   1.2126783707e+02   2.9057637239e+01    0.1470581    0.1363226 -82.86 5.998866e-05    1.014    0.014
        44  -8.6807     23.7407    157.7222   1.3993248053e+02   3.9898165723e+01    0.3270747    0.1829545  67.30  0.001728488    2.003    0.501
        45  -8.8655     54.5896    156.2594   1.3236488991e+02   3.6873642722e+01     0.232731    0.1459661  49.54 0.0007461023    1.697    0.411
        46  -8.3336    104.0788    154.4863   1.1966248514e+02   2.9788107361e+01    0.2177886    0.1451091  43.91  0.001014915    1.543    0.352
        47  -8.9602    114.7764    152.9439   1.1667126397e+02   2.8193360506e+01    0.2516102    0.2107964  57.62 0.0002986471    1.208    0.173
        48  -9.5892     91.0262    153.7126   1.2280349889e+02   3.2210119567e+01     0.325258    0.2623914 -36.85 0.0007577072    1.445    0.308
        49  -9.2451     46.7813    148.0798   1.3306231359e+02   3.9758334637e+01    0.2395416    0.1957645  25.74 0.0007705942    1.537    0.350
        50 -10.5537     68.3976    143.7133   1.2677573680e+02   3.8056604790e+01    0.7492264    0.3901383  68.35   0.00273256    3.456    0.711
        51  -7.7309    115.7812    145.5465   1.1485050908e+02   2.9748024450e+01    0.2269788    0.1382471  55.84 0.0009490688    1.846    0.458
        52  -8.7647      6.9788    144.3955   1.4231410026e+02   4.4367677368e+01    0.2085021    0.2016405 -63.57  0.001017706    1.328    0.247
        53  -9.7437    226.5290    139.7830   8.9116382824e+01   7.1877603867e+00    0.2438232    0.2426607  69.83 0.0004177857    1.087    0.080
        54  -8.5434    103.3894    138.5196   1.1651915682e+02   3.3710985129e+01    0.2431731    0.2319732  84.52 0.0004481988    1.052    0.050
        55  -9.2419    113.1717    137.5243   1.1374531247e+02   3.2133944759e+01    0.3426118    0.2356088 -34.37 0.0004595179    1.703    0.413
        56  -7.9699     79.4062    135.6363   1.2229909918e+02   3.8387940975e+01    0.2788401    0.1275563  42.55  0.001138905    2.337    0.572
        57  -7.9027    180.1380    146.1059   9.9742346659e+01   1.5990223399e+01    0.2197474    0.2056823  -0.80   0.00114063    1.151    0.131
        58  -7.6983    155.7134    129.6364   1.0128611400e+02   2.5015178032e+01     0.160768    0.1270904  -7.04 0.0007022082    1.692    0.409
        59  -9.8638    167.6161    208.9347   1.1533726199e+02   5.7334838049e+00    0.2539724     0.249041 -33.33 0.0003898955    1.106    0.096
        60  -8.8705     38.3988    123.8224   1.3131100591e+02   4.6384151719e+01    0.2858563    0.1208702  45.67  0.001244499    2.906    0.656
        61  -7.5713    173.5241    123.5290   9.5723470755e+01   2.2250683192e+01    0.1557552    0.1536294 -48.10  0.000195647    1.031    0.030
        62  -8.4569    244.9536    121.0901   8.1809407278e+01   6.8223768071e+00    0.2036868    0.1862943 -41.48 0.0002905768    1.033    0.032
        63  -7.6874    185.3142    222.3248   1.1407067176e+02   3.0330239045e-02    0.1363609    0.1007678   6.93 0.0007042172    1.664    0.399
        64  -6.9812     37.6631    118.7394   1.3061076347e+02   4.7636164898e+01    0.1262623    0.0874226 -35.91 0.0001608543    1.581    0.367
        65  -7.6556     16.5055    113.5073   1.3570060213e+02   5.0673075643e+01    0.1230304   0.09741477 -66.74 -0.0002134878    1.036    0.035
        66  -7.6805    146.1720     78.5593   8.9725187497e+01   3.7601540548e+01    0.1975752    0.1397323  40.14 0.0003468045    1.467    0.318
        67  -8.3861    183.6277     76.4907   8.1339780850e+01   2.8887549129e+01    0.2476634    0.2337144  80.31 0.0002262008    1.026    0.026
        68  -8.0969      7.6634     74.3051   1.3113592742e+02   5.9697889686e+01    0.1045901   0.08454206  81.12 0.0002735931    1.671    0.401
        69  -9.6033    239.2868     65.4024   7.0051450115e+01   1.7485465495e+01    0.2362023     0.221875 -68.90 0.0003522028    1.142    0.125
        70  -8.4465    125.0096     62.1268   8.9851612962e+01   4.5254940927e+01    0.2088896    0.1911338  22.00 0.0002958584    1.073    0.068
        71  -7.4712    243.3556     61.2915   6.8639544333e+01   1.7217882640e+01    0.1259043    0.1057291  31.11 0.0007028772    1.684    0.406
        72  -8.3049    160.0019     53.5487   7.9432266875e+01   3.8379398056e+01    0.2236322    0.1982444 -41.44  0.001075612    1.184    0.155
        73  -7.3520    181.6096     49.7634   7.4488587280e+01   3.3604366220e+01    0.1460203    0.1007064  41.24 0.0006916238    1.649    0.393
        74  -9.9003    136.2419     39.2530   7.9947950252e+01   4.6035126287e+01    0.2421931    0.2242374  17.47 0.0002988368    1.113    0.102
        75  -9.4975    172.6050     37.3968   7.2582600734e+01   3.7506285558e+01    0.3740548    0.1836241  47.29  0.001288063    2.103    0.525
        76  -7.5609    147.4728     34.5931   7.6218498981e+01   4.3971332775e+01     0.138787      0.12235  51.27 -6.04313e-05    1.049    0.047
        77  -8.6759    177.8349     30.9939   7.0013385464e+01   3.7018600911e+01    0.2821178    0.2231731  -4.72 0.0009692012    1.660    0.397
        78  -9.4471    227.1224    249.3658   1.1070378155e+02  -1.1031101604e+01    0.2814295    0.1254656  29.83   0.00136132    2.149    0.535
        79  -7.6188    203.5132     11.4221   6.1800692193e+01   3.3021386456e+01    0.1296873    0.1069197  88.93 9.051507e-05    1.013    0.012
        80  -8.1886    189.3096    248.6519   1.1758803956e+02  -4.8734927508e+00    0.1196263   0.09524287  68.41 0.0007044706    1.709    0.415
        81  -7.7678    117.3054    240.3180   1.3027202388e+02   8.8194765874e+00    0.1153967    0.1014001   7.20  0.000239851    1.630    0.386
        82  -8.7721    186.2301    232.2335   1.1556019929e+02  -1.7881295262e+00     0.548205    0.2117233 -54.06  0.001958196    4.325    0.769
