#   1 NUMBER                 Running object number                                     
#   2 MAG_AUTO               Kron-like elliptical aperture magnitude                    [mag]
#   3 X_IMAGE                Object position along x                                    [pixel]
#   4 Y_IMAGE                Object position along y                                    [pixel]
#   5 X_WORLD                Barycenter position along world x axis                     [deg]
#   6 Y_WORLD                Barycenter position along world y axis                     [deg]
#   7 A_WORLD                Profile RMS along major axis (world units)                 [deg]
#   8 B_WORLD                Profile RMS along minor axis (world units)                 [deg]
#   9 THETA_WORLD            Position angle (CCW/world-x)                               [deg]
#  10 FWHM_WORLD             FWHM assuming a gaussian core                              [deg]
#  11 ELONGATION             A_IMAGE/B_IMAGE                                           
#  12 ELLIPTICITY            1 - B_IMAGE/A_IMAGE                                       
         1 -13.0811    201.9922     32.8768   6.0932407674e+01   3.1167904258e+01    0.9366627    0.8618019 -38.32  0.006019449    1.376    0.273
         2 -13.3266      2.3991     18.0908   1.0906734524e+02   7.0018939165e+01     1.099516    0.4170729 -45.65  0.006037295    2.571    0.611
         3 -12.9963      3.7412      4.6131   1.0279772704e+02   7.1632638134e+01    0.8029233    0.5168328 -35.44  0.005965425    1.656    0.396
         4 -13.5762    219.4748     15.5439   5.5526294297e+01   2.9440663046e+01    0.8929651    0.7716206  61.50  0.005716434    1.459    0.315
         5 -11.5740    198.4831    246.0825   1.0679333917e+02  -7.1005817709e+00    0.3557288    0.2497553  34.21  0.002079186    1.322    0.244
         6 -10.9785    184.0011    250.5060   1.1038816971e+02  -5.5911467778e+00    0.3371805    0.1952896  30.75  0.001146304    1.585    0.369
         7 -10.8974    185.9816    247.1251   1.0945006585e+02  -5.3380957054e+00    0.3136531    0.2346255 -71.99  0.001695549    2.170    0.539
         8 -10.5442    169.2566    248.8907   1.1311468376e+02  -2.9762375201e+00    0.2979995    0.2203207  -7.14 0.0005113535    1.666    0.400
         9 -11.8194    170.5143    243.8651   1.1206960937e+02  -2.2982621525e+00    0.4320297    0.2336334  48.94  0.001220961    2.008    0.502
        10 -10.4994    162.4354    250.4588   1.1474776534e+02  -2.1480303701e+00    0.3638265    0.1378063  40.41 0.0007955736    2.329    0.571
        11 -10.8782    143.6759    249.5727   1.1847834302e+02   1.0739200444e+00    0.3134896    0.2331119  76.41  0.001524036    1.784    0.440
        12 -11.1745    100.3285    247.8867   1.2722298774e+02   8.4150907539e+00     0.612946    0.3438998  43.86  0.003076075    1.554    0.357
        13 -12.0478    102.2604    239.1367   1.2573805432e+02   9.8970267749e+00    0.6048093    0.4832652 -71.94            0    1.312    0.238
        14 -10.5847     97.0141    239.2206   1.2685389971e+02   1.0712112136e+01     0.381085    0.2465327  75.11  0.001780143    1.790    0.441
        15 -13.2659    124.4923    245.2267   1.2186470934e+02   5.0555395690e+00     1.322023    0.7645531  51.16  0.004385892    1.649    0.393
        16 -12.6755    112.8152    248.2529   1.2469464999e+02   6.3590824766e+00     1.530481    0.4752619  42.81  0.005868184    2.730    0.634
        17  -9.8502     81.5449    248.1364   1.3107078962e+02   1.1237796323e+01     0.306206    0.1523348 -71.07  0.001211721    2.205    0.547
        18 -11.3974     87.3385    248.6044   1.2995380727e+02   1.0272877406e+01     0.547071     0.319705  46.28  0.001702337    1.482    0.325
        19 -11.7159     88.1880    241.8713   1.2901322905e+02   1.1529456786e+01    0.9481617     0.310391  41.61   0.00378473    2.619    0.618
        20 -11.3111     87.4022    237.0111   1.2860445489e+02   1.2674172806e+01    0.6283077    0.3328694  53.00  0.003001413    1.763    0.433
        21 -10.5530     84.3526    230.0058   1.2840568636e+02   1.4654638977e+01    0.3328534    0.2268775 -57.45   0.00139372    1.572    0.364
        22  -9.1699     66.7654    239.7717   1.3316932415e+02   1.5135117947e+01    0.2510401    0.1530963  65.52  0.001170605    1.565    0.361
        23  -9.5245     68.6889    246.5727   1.3347652577e+02   1.3432117485e+01     0.203353    0.1579031  46.69 0.0009108054    1.248    0.199
        24 -11.2529     59.7223    245.7602   1.3516570924e+02   1.4855032162e+01    0.4617991    0.4553954  61.88  0.002746474    1.398    0.284
        25 -10.3562     50.7332    249.2841   1.3722315705e+02   1.5334475280e+01    0.3125536    0.2833249  11.03    0.0021225    1.688    0.408
        26 -14.0410      3.1582    190.3824   1.4172795821e+02   3.3776453533e+01     6.028238    0.6370906 -74.71   0.01240176   11.231    0.911
        27 -13.1567     13.7414    215.8489   1.4162721483e+02   2.6953114036e+01     1.583238    0.7446254 -73.38  0.007224117    1.775    0.437
        28 -12.7237     26.6445    247.5648   1.4157022579e+02   1.8691202600e+01     0.863455    0.6825019  43.95   0.00547855    1.440    0.306
        29 -11.5461    129.0538    235.0036   1.1945201467e+02   6.3328783397e+00    0.3523009    0.2593507  77.59   0.00108851    1.674    0.402
        30 -13.8335      6.2210    245.8366   1.4508175231e+02   2.1306755872e+01     1.398058     1.108927 -83.80   0.01042589    1.282    0.220
        31 -10.1686    168.4918    234.0949   1.1090961327e+02  -1.8717788091e-01    0.3840904    0.1932206  19.61    0.0013931    3.399    0.706
        32 -10.8755    113.3699    230.9773   1.2226526065e+02   9.7980276081e+00    0.3003157    0.2817874 -69.45  0.001117196    1.157    0.135
        33 -11.0094    109.5437    231.9812   1.2323419183e+02   1.0218088521e+01    0.4469247      0.26979  82.17  0.001944543    2.483    0.597
        34 -11.2266    105.6181    228.5343   1.2361382768e+02   1.1599952024e+01     0.348464     0.296999  -9.65  0.001613149    1.625    0.385
        35  -8.5162     78.2624    233.3769   1.3009775175e+02   1.4839248191e+01    0.1232774    0.1004877 -39.37 0.0006981508    1.669    0.401
        36  -8.9999    156.4962    232.4854   1.1318080998e+02   2.1539735661e+00    0.1366195    0.1252813  28.71 0.0001662848    1.025    0.024
        37 -10.3095     98.6481    230.9275   1.2544833486e+02   1.2213426610e+01    0.2920631    0.1977067  23.18  0.001449067    1.925    0.480
        38 -10.3150     56.4648    228.5251   1.3411715081e+02   1.9012193253e+01    0.2945274    0.2659247  40.85   0.00192141    1.346    0.257
        39 -10.6768     79.2507    225.5244   1.2895621165e+02   1.6420288713e+01     0.427473    0.3315855 -80.58  0.002091677    1.241    0.195
        40  -9.4693     77.1687    220.8032   1.2882955686e+02   1.7795494566e+01    0.2436423    0.1696748  86.33 0.0003743465    1.470    0.320
        41  -9.0666     92.4165    226.2432   1.2618811963e+02   1.4227523258e+01    0.1828853     0.124198 -81.96 0.0005036742    1.596    0.373
        42  -8.9923     51.3529    225.5494   1.3487196520e+02   2.0358681369e+01    0.1909557    0.1328742 -55.77 0.0005124433    1.638    0.389
        43  -9.7821    117.3469    224.4705   1.2045552355e+02   1.0520420997e+01    0.2715809    0.2379735 -22.84 0.0008924565    1.431    0.301
        44  -9.4229     65.1011    224.0965   1.3182608449e+02   1.8807257881e+01     0.367684    0.1562836 -53.25  0.001571364    2.627    0.619
        45  -8.9312    164.3089    224.0266   1.1010767462e+02   2.4540159197e+00    0.1828318     0.174277 -43.86 0.0003521683    1.127    0.112
        46 -10.9309    243.9861    242.2657   9.7570235472e+01  -1.2954491281e+01    0.2085171    0.1283996 -14.04 0.0008160241    1.635    0.388
        47 -11.0678     98.9849    222.9309   1.2430124571e+02   1.3908560564e+01     0.392391    0.2807159  56.33  0.001447692    1.316    0.240
        48  -9.1890     87.3099    223.5359   1.2695340081e+02   1.5630384492e+01    0.2558248     0.169212  60.07 0.0009026441    1.467    0.318
        49 -10.4704     70.6935    219.5076   1.3008708889e+02   1.9045987724e+01    0.4877628    0.3200624 -82.12   0.00256833    1.519    0.342
        50 -10.5581    141.7903    219.4150   1.1424128263e+02   7.3528562959e+00    0.3937717    0.2748798 -49.70   0.00116639    1.516    0.340
        51  -9.3193    250.5050    220.4684   9.2560694611e+01  -1.0516152103e+01      0.12475    0.1012093 -13.49 5.535236e-05    1.011    0.011
        52  -9.5908    246.0000    218.9767   9.3079427881e+01  -9.6663663857e+00    0.2039386   0.06292457 -40.52 0.0005748422    2.939    0.660
        53  -8.6985     99.3095    218.2815   1.2358066633e+02   1.4895473624e+01    0.1288641    0.1119535 -13.43 0.0003469478    1.564    0.361
        54  -9.9425    117.9650    214.8322   1.1885212318e+02   1.2527604140e+01    0.2259371     0.198529 -71.06 0.0004584449    1.165    0.142
        55  -9.5711    111.6838    215.1326   1.2032417968e+02   1.3538465486e+01    0.2501372    0.1963923  36.33 0.0002914887    1.295    0.228
        56  -9.5571     87.9308    212.5508   1.2534847038e+02   1.8033822725e+01    0.3227913    0.2033517  88.57  0.001061612    1.923    0.480
        57 -10.4388     62.7300    208.5802   1.3052742553e+02   2.2717660050e+01    0.4949953    0.3045745 -59.27  0.002164979    1.606    0.377
        58 -10.1397     63.9405    205.1046   1.2982334961e+02   2.3370534531e+01    0.2692896     0.187849  87.49 0.0002924417    1.413    0.292
        59 -10.5937     56.0821    208.8810   1.3204700632e+02   2.3557458950e+01    0.5999832    0.2809858 -79.06  0.002408458    2.344    0.573
        60  -8.6180    134.3916    207.7392   1.1394431631e+02   1.1198530510e+01    0.1956556     0.135589 -43.60 0.0008566818    1.562    0.360
        61  -9.0500    112.3220    208.0958   1.1908523800e+02   1.5025494976e+01    0.1982442     0.177668 -75.67 0.0003725862    1.114    0.103
        62  -8.6515    119.3360    207.2978   1.1733413531e+02   1.3985100573e+01    0.1420197     0.116425  -8.89 0.0004413101    1.653    0.395
        63 -10.8315    136.0550    225.3434   1.1646255974e+02   7.1185012021e+00    0.5269162    0.2158595 -50.36  0.001488896    2.588    0.614
        64 -10.4816    246.7015    205.9949   9.0558464403e+01  -7.6470905016e+00    0.2602845    0.1490464   8.13  0.001179897    2.678    0.627
        65 -10.8090    106.9202    203.6237   1.1963305423e+02   1.6988752325e+01    0.2691742      0.21783 -72.53 0.0003519956    1.242    0.195
        66  -8.9714     90.5108    204.9687   1.2367619385e+02   1.9396114360e+01    0.3415018    0.1561554  26.32  0.001207028    3.314    0.698
        67  -9.8506     83.7623    201.5522   1.2475691945e+02   2.1276587972e+01    0.2528386    0.1989972  88.58 0.0002530547    1.248    0.199
        68  -9.8324     75.0208    200.1031   1.2660173784e+02   2.2960103766e+01    0.2258835    0.1854185 -73.65            0    1.144    0.126
        69 -10.1158     43.9250    200.1358   1.3375884178e+02   2.7197394003e+01    0.3458452    0.3267499 -26.08  0.002234838    1.432    0.302
        70 -13.4559     40.6374    243.2855   1.3863419168e+02   1.7884284247e+01     1.463277    0.9398405  67.10  0.004386963    1.321    0.243
        71  -9.4775    250.6036    200.2243   8.8801263038e+01  -7.2426583227e+00    0.1890601     0.102714 -30.98 0.0009522521    1.687    0.407
        72  -8.5296    130.4975    199.3853   1.1339250706e+02   1.3786938539e+01    0.1465965    0.1377881  56.54 0.0007991772    1.028    0.027
        73 -12.5106    135.2563    235.2941   1.1816275441e+02   5.2247788558e+00    0.8127632    0.5028915 -62.64  0.004006082    1.897    0.473
        74 -10.4794     26.2762    192.4762   1.3688570295e+02   3.1054202634e+01    0.3861389    0.2489704  77.83  0.002153557    1.472    0.320
        75  -9.2958     21.5931    192.8645   1.3796403418e+02   3.1451365872e+01    0.3264922     0.184444  68.50  0.001057038    1.800    0.444
        76  -9.7927     33.7177    192.3565   1.3519742616e+02   3.0266491805e+01    0.3396352    0.1929461  83.51 0.0009650603    1.844    0.458
        77  -9.9841     30.5260    193.4368   1.3603467334e+02   3.0364140269e+01    0.2702984    0.1850064 -64.90 0.0006409985    1.342    0.255
        78 -11.7850     54.6134    193.8620   1.3055371513e+02   2.7344860815e+01    0.5120426    0.3507648 -51.07 0.0005780077    1.590    0.371
        79 -14.3925     31.1652    218.8089   1.3837904353e+02   2.4381754654e+01      1.63854     1.494241 -60.30   0.01127844    1.411    0.291
        80  -8.3962     97.7281    196.3136   1.2064657018e+02   2.0274137289e+01    0.1476312     0.106924  77.38 0.0002338966    1.555    0.357
        81  -9.7762    249.8518    193.1753   8.7593282905e+01  -5.9380112233e+00    0.2592283    0.1629463   1.94  0.001267832    2.265    0.558
        82  -8.2973     38.6359    192.2584   1.3406418922e+02   2.9723891159e+01    0.1374904   0.08557177  66.12 0.0006973139    1.633    0.388
        83  -9.2763     66.9674    243.5378   1.3351354238e+02   1.4309856826e+01    0.2903942    0.2171931  18.23   0.00120946    1.996    0.499
        84  -9.2728    191.5216    191.5087   9.8289584683e+01   4.0985005839e+00    0.2411807    0.2267667 -20.95 0.0006067743    1.014    0.014
        85 -12.8700     24.9340    225.4619   1.4019512568e+02   2.3608380850e+01    0.5332545    0.3812462 -48.45 0.0007700592    1.908    0.476
        86  -9.4581     76.2132    187.2026   1.2444210990e+02   2.5922211933e+01    0.5138313    0.2697203  84.71  0.001776996    3.405    0.706
        87 -10.7592      9.3067    185.5795   1.3997550709e+02   3.4356613906e+01    0.5924859    0.2207517 -89.23  0.002264597    3.321    0.699
        88  -9.1579     83.3667    186.9213   1.2264208534e+02   2.4889120317e+01    0.2050576    0.1692623 -71.15 0.0005146097    1.139    0.122
        89  -9.5934     71.3064    187.1050   1.2562802950e+02   2.6676284819e+01    0.2359101    0.1876687  55.59 0.0002925402    1.244    0.196
        90 -11.5383     61.1135    185.8676   1.2793455260e+02   2.8427697839e+01    0.2898845    0.2437742 -52.43 0.0004387112    1.291    0.225
        91  -9.5981    106.9649    185.6943   1.1662101949e+02   2.1255101314e+01    0.2318951    0.2057434 -67.77 0.0003853735    1.098    0.089
        92  -8.9420     30.0124    183.5214   1.3506442985e+02   3.2807064051e+01    0.1851577    0.1551886  84.46 0.0006488136    1.068    0.063
        93  -9.6615     24.6302    183.9368   1.3635829410e+02   3.3272624822e+01    0.1894062    0.1818623 -62.43 0.0008086403    1.295    0.228
        94  -9.3877     36.8164    181.7739   1.3325470465e+02   3.2480553020e+01    0.3570236    0.1093535 -54.74  0.001330394    3.010    0.668
        95  -9.5886     27.0987    179.7004   1.3531400383e+02   3.4041738682e+01    0.2390883    0.1554774 -68.42 0.0001890977    1.303    0.232
        96 -11.5150    117.1923    238.0735   1.2242805614e+02   7.6888931480e+00    0.5070749    0.3364463 -25.39  0.002346448    2.553    0.608
        97  -8.3817    103.2137    175.9846   1.1581184436e+02   2.4288067178e+01    0.1936368    0.1185481 -58.20 -0.000430966    1.587    0.370
        98 -10.7378     72.5340    173.8217   1.2326352518e+02   2.9797189482e+01     0.273551    0.2394969 -62.86 0.0004412928    1.110    0.099
        99 -10.1129     19.0404    173.5444   1.3652922255e+02   3.6333099157e+01    0.4366006    0.2201797  81.50  0.001575943    2.340    0.573
       100 -11.3814    248.5224    172.3625   8.3782351275e+01  -2.0763771704e+00     0.496018    0.3608294 -13.28  0.002749124    1.578    0.366
       101 -10.5091     57.8561    173.3873   1.2693817689e+02   3.1966757561e+01    0.3071176    0.2530069  47.27 0.0009095081    1.285    0.221
       102 -10.3892     12.1410    172.9298   1.3808961470e+02   3.7111745483e+01    0.3194747    0.1782248 -69.59  0.001741858    1.440    0.306
       103 -10.5417     12.2479    153.7827   1.3591372469e+02   4.1710456772e+01    0.3006853    0.1463216 -76.61  0.001021966    1.797    0.444
       104 -11.8578     10.2180    157.6232   1.3687772075e+02   4.0951761030e+01    0.5928143    0.2754113  84.44  0.002118177    2.779    0.640
       105 -10.8706      2.7033    172.7528   1.4025392025e+02   3.7946999093e+01    0.3868548    0.2161959  86.03   0.00105602    1.677    0.404
       106 -11.7887     11.2942    166.3564   1.3759071862e+02   3.8762671700e+01     0.647432    0.3399766  41.12  0.003369041    2.071    0.517
       107 -10.3088     27.5610    171.5453   1.3424636241e+02   3.5980950245e+01    0.3365924    0.1967771 -47.01  0.000561587    1.888    0.470
       108  -9.1745     51.7783    171.0426   1.2813579053e+02   3.3340309459e+01    0.2157413     0.193227  54.39 0.0005181259    1.198    0.166
       109  -8.7055    166.9344    170.7050   9.9344195889e+01   1.3275130696e+01    0.1728657    0.1381548  37.74 0.0003311376    1.292    0.226
       110  -8.6119     96.1452    169.3598   1.1639659061e+02   2.7151158343e+01    0.2065261    0.1312232  51.53 0.0003299031    1.662    0.398
       111 -10.4951     44.3052    165.3422   1.2922111574e+02   3.5673722045e+01    0.6088234    0.2127771 -50.50  0.001844363    2.836    0.647
       112  -8.9317     43.1674    161.1575   1.2890575956e+02   3.6848201781e+01    0.1858917    0.1437459  78.93   0.00024524    1.323    0.244
       113 -11.5152     80.2420    165.8147   1.1990244507e+02   3.0635251285e+01    0.5666494    0.4561212  18.15  0.002917442    1.537    0.349
       114 -10.0397     81.9978    158.3756   1.1807713645e+02   3.2226542660e+01    0.5128412    0.2383658 -64.95 0.0008971751    2.286    0.562
       115 -10.3477     67.7527    166.4183   1.2328643931e+02   3.2348699457e+01    0.3791689    0.2525363  27.10  0.001287183    1.788    0.441
       116  -8.5439     38.5316    167.5378   1.3100343459e+02   3.5792370260e+01    0.1368991    0.1150151 -83.44 0.0001009816    1.040    0.039
       117 -12.1976    245.1458    163.0795   8.2497587867e+01   1.5666734933e-01    0.7995053    0.2908143 -47.98  0.003073051    2.661    0.624
       118 -10.6501    249.2987    160.8600   8.1381522721e+01  -1.2226443499e-01     0.362698    0.2197845 -48.55  0.001867125    1.518    0.341
       119 -11.0736    247.4489    157.2693   8.0962059761e+01   8.3864381094e-01    0.6928933    0.3507384  62.59  0.002698764    3.785    0.736
       120 -10.3881     29.0915    161.2991   1.3256684510e+02   3.8338699674e+01    0.2859683    0.1878045  79.82 0.0009497341    1.633    0.388
       121 -10.3574     66.9805    161.5502   1.2267060244e+02   3.3681685036e+01    0.2591604    0.1911467 -62.43  0.001334229    1.230    0.187
       122  -8.3915     37.3247    162.6972   1.3064397389e+02   3.7125309864e+01    0.1387016   0.09331203  72.79 0.0003297263    1.639    0.390
       123 -10.0504     24.0332    162.0336   1.3394591713e+02   3.8657151284e+01    0.1971496    0.1616251 -71.35            0    1.054    0.052
       124 -10.8960      4.9361    167.0258   1.3917376817e+02   3.9127089180e+01    0.3460933    0.2461172  45.88  0.001350649    1.563    0.360
       125  -9.7442     46.4231    156.3300   1.2731082029e+02   3.7669091739e+01    0.2331527    0.2028802 -74.93   0.00014953    1.012    0.012
       126 -10.8929     27.2869    155.4538   1.3224792528e+02   3.9953935496e+01    0.4126626    0.1613525  37.67  0.001804544    2.715    0.632
       127  -9.8736     32.3307    153.4924   1.3064441717e+02   3.9931250253e+01    0.3130536    0.1466668 -80.10  0.001288532    2.429    0.588
       128 -10.8168    249.3988    151.1201   7.9422810249e+01   1.6371370064e+00    0.4005559    0.2644765 -48.86  0.002133176    1.356    0.262
       129  -9.1115     54.8636    151.1818   1.2417638952e+02   3.7915007670e+01    0.2905256    0.1502679 -42.81  0.001230636    2.158    0.537
       130 -10.7279    241.0177    150.4824   8.0629042727e+01   3.1939321271e+00    0.2772495    0.1773438 -29.71  0.001055358    1.635    0.388
       131 -10.0205     94.3974    150.2579   1.1311682605e+02   3.2206629325e+01    0.3107127    0.2785129  33.97 0.0009778383    1.205    0.170
       132  -9.8371     87.0014    151.0167   1.1529090198e+02   3.3260908575e+01    0.2200882    0.2030192 -69.54   0.00119627    1.014    0.014
       133 -10.1870     82.6235    149.1789   1.1612764885e+02   3.4427411868e+01    0.2513238    0.2417672 -61.56 0.0003076584    1.058    0.055
       134 -11.1294     21.8061    149.2044   1.3283825222e+02   4.1996906132e+01     0.481564    0.1572076  40.20  0.001952861    3.292    0.696
       135 -11.9091     68.1324    144.1715   1.1919459343e+02   3.7868315627e+01    0.7358125     0.511974 -88.63  0.002553527    1.770    0.435
       136  -9.9074     55.6818    147.2991   1.2327371036e+02   3.8778475100e+01    0.2157787    0.1075748  55.03 0.0005483347    2.688    0.628
       137 -12.1154      8.8463    144.1992   1.3561176839e+02   4.4279511256e+01    0.4792739    0.2045704 -54.36  0.002316869    1.952    0.488
       138 -12.7155      5.8289    141.8811   1.3611814071e+02   4.5054778247e+01    0.6938167    0.4326902 -44.33  0.002351617    1.642    0.391
       139 -11.9429    247.7233    112.8347   7.1941269532e+01   8.8961416775e+00    0.5053908    0.4783684 -34.81  0.003275675    1.241    0.194
       140  -9.5051    236.0456    146.1029   8.0542568745e+01   4.9023046877e+00    0.2049786    0.1769749 -22.24 0.0005353509    1.231    0.187
       141  -8.9920     40.5350    147.4986   1.2751199116e+02   4.0537369828e+01    0.1379256    0.1181916 -75.01 0.0005690646    1.048    0.046
       142 -10.0392    133.2617    141.2765   1.0085128506e+02   2.6984815015e+01    0.4105971    0.2566386 -59.13  0.001223565    1.722    0.419
       143 -11.2903     16.8563    140.2145   1.3292722368e+02   4.4601677344e+01    0.2987615    0.2579224  74.73 0.0005041977    1.245    0.197
       144  -8.8001     97.7440    146.3931   1.1139232016e+02   3.2579703462e+01     0.194266    0.1494642  23.92 0.0002484209    1.522    0.343
       145  -9.3891    107.5515    135.8500   1.0636266962e+02   3.3359846833e+01    0.3629246    0.2455474 -19.73  0.001470063    2.221    0.550
       146 -11.8318    245.1494    121.4070   7.4048973287e+01   7.8295607281e+00    0.7534614    0.4361951  77.94  0.003233952    2.948    0.661
       147 -12.9857      3.2937    122.8657   1.3427740145e+02   4.9696925086e+01    0.9509262    0.3499177 -65.02    0.0044175    2.036    0.509
       148 -10.0669     44.2279    129.8898   1.2339783731e+02   4.4439908129e+01    0.2068614    0.1708917 -80.94 0.0006037124    1.241    0.194
       149 -10.3328     33.5702    128.0099   1.2621856542e+02   4.6023722469e+01    0.3646632    0.1992839  80.09   0.00141413    3.382    0.704
       150 -11.4165     13.3720    127.6587   1.3207677527e+02   4.7872233236e+01    0.2488148     0.185242 -51.90 0.0008545445    1.183    0.155
       151  -9.7039     66.5985    126.7753   1.1608559534e+02   4.2347471801e+01    0.2086428    0.1314337 -67.36 0.0007610882    1.687    0.407
       152 -11.8227     17.1647    122.4436   1.3014728329e+02   4.8807010267e+01    0.3412763    0.2007223  35.22  0.001864518    1.996    0.499
       153  -9.3721     47.9836    126.0329   1.2153081226e+02   4.4937433035e+01    0.2039043    0.1831071 -55.91 0.0003451177    1.024    0.023
       154 -12.7976    248.0818    101.3547   6.9574813799e+01   1.0850794407e+01    0.8948251    0.5869495 -32.89  0.004729411    1.705    0.413
       155  -8.8430    234.2797    125.3356   7.6496800784e+01   9.1494867968e+00    0.1334147    0.1063724 -16.14 0.0003804862    1.614    0.380
       156 -10.5007    231.9338    116.6261   7.5023381582e+01   1.1227706599e+01    0.2810691    0.1826345 -51.21 0.0007579611    1.367    0.269
       157 -13.1335      9.0399    112.1130   1.3090576417e+02   5.1795138237e+01    0.8359741    0.3822431 -75.98  0.002366588    2.365    0.577
       158  -9.1267     94.1744    133.1081   1.0945628351e+02   3.6446546200e+01    0.2229854    0.1945587 -27.86  0.000347691    1.236    0.191
       159 -12.7050     14.2041    100.8406   1.2724785796e+02   5.3974121662e+01    0.5709444    0.3292657 -36.93  0.003162956    1.649    0.393
       160 -11.8559    248.0491    142.4448   7.7888410727e+01   3.4576889965e+00    0.5955307    0.5278686  -8.12  0.003676594    1.321    0.243
       161  -8.5400     71.7594    100.0549   1.0811657347e+02   4.7733996097e+01    0.1753392    0.1126119 -50.47 0.0003066132    1.476    0.322
       162 -12.5651    248.0265    134.6123   7.6309347697e+01   4.8978865594e+00     1.076718    0.6480901 -37.17  0.005476299    1.529    0.346
       163 -10.0247     32.8360    115.1642   1.2404977608e+02   4.9135243933e+01    0.1935074     0.135461 -39.98 0.0008255514    1.351    0.260
       164  -9.4985    167.5401    112.8235   8.5866743868e+01   2.5817042768e+01    0.2925808    0.2295265 -89.05 0.0009191608    1.517    0.341
       165 -10.0020    249.7107    117.9424   7.2697082918e+01   7.6171253009e+00    0.2323038    0.2055551  73.00 0.0007140273    1.282    0.220
       166  -9.1414    160.6704     79.3181   7.8760092763e+01   3.3798670257e+01    0.1522641    0.1109449 -79.84 0.0004480363    1.685    0.406
       167 -10.9972      2.4812     76.5747   1.2634651778e+02   5.9895570289e+01    0.2993008   0.09105372 -59.81   0.00132189    2.585    0.613
       168 -11.5759    150.0560    246.7599   1.1674571868e+02   5.4198583571e-01    0.3652154    0.2906891   9.78   0.00210481    1.452    0.311
       169 -10.8470     74.0938    243.6826   1.3209632933e+02   1.3256070940e+01    0.3946441     0.292706 -59.87  0.002320407    1.509    0.337
       170 -12.1650    179.3814    243.6272   1.1021800764e+02  -3.6934152653e+00    0.5948367      0.27473  31.77  0.002337102    2.122    0.529
