#   1 NUMBER                 Running object number                                     
#   2 MAG_AUTO               Kron-like elliptical aperture magnitude                    [mag]
#   3 X_IMAGE                Object position along x                                    [pixel]
#   4 Y_IMAGE                Object position along y                                    [pixel]
#   5 X_WORLD                Barycenter position along world x axis                     [deg]
#   6 Y_WORLD                Barycenter position along world y axis                     [deg]
#   7 A_WORLD                Profile RMS along major axis (world units)                 [deg]
#   8 B_WORLD                Profile RMS along minor axis (world units)                 [deg]
#   9 THETA_WORLD            Position angle (CCW/world-x)                               [deg]
#  10 FWHM_WORLD             FWHM assuming a gaussian core                              [deg]
#  11 ELONGATION             A_IMAGE/B_IMAGE                                           
#  12 ELLIPTICITY            1 - B_IMAGE/A_IMAGE                                       
         1 -14.9142    167.0788     47.8902   6.9539750078e+01   3.7372885809e+01      1.39523     1.147255  -6.00   0.00401692    1.356    0.262
         2 -15.2475    185.4842     15.9243   5.6595283698e+01   3.6593857693e+01     2.208531     1.359773  71.00  0.007163185    1.546    0.353
         3 -11.2927     90.6402    244.7071   1.2568178520e+02   1.5204813051e+01    0.2323543    0.1715917 -34.91  0.001535682    2.497    0.600
         4 -19.7841     70.6349    163.8027   1.2136078858e+02   3.3008405039e+01     15.79631     6.850461 -69.25   0.07231269    2.332    0.571
         5 -12.4778     11.6253    205.9832   1.3680073540e+02   3.1108040546e+01    0.2735289    0.1772884  41.67  0.001782224    1.578    0.366
         6 -10.8913    113.0081    195.1409   1.1624298667e+02   2.0378377454e+01    0.3538038    0.3048011 -25.50  0.001736643    1.610    0.379
         7 -10.7682    133.9320    196.0726   1.1208464347e+02   1.6740252784e+01    0.1893623    0.1602573  54.68  0.000375118    1.051    0.048
         8 -11.5077    219.4745    195.0537   9.5325373649e+01   1.7416475917e+00      0.17716    0.1210891 -29.20 0.0005696536    1.571    0.363
         9 -12.3851    102.5053    240.4849   1.2325414154e+02   1.4207747573e+01    0.2229113    0.1482267  55.60  0.001520278    1.183    0.155
        10 -10.8960    163.0055    245.2178   1.1309398307e+02   4.3924312102e+00     0.277478    0.1272573  41.65 0.0008371102    1.655    0.396
        11 -12.0916    134.4334    239.5198   1.1749192286e+02   9.6141589240e+00    0.1855019    0.1712386 -67.40 0.0007757416    1.374    0.272
        12 -10.7307    151.2590    236.1686   1.1408133582e+02   7.4715559975e+00    0.1920343    0.1290817  37.46 0.0009683507    1.233    0.189
        13 -11.4541     36.3835    186.4331   1.3096439630e+02   3.2405239375e+01    0.2450074    0.1918302 -40.34  0.001668607    1.972    0.493
        14 -12.6403    162.5406    181.2979   1.0384617463e+02   1.4227873360e+01    0.3337916    0.2411648 -67.81   0.00173925    1.898    0.473
        15 -13.1486    104.4286    249.3082   1.2371607766e+02   1.2590936567e+01    0.2912736    0.2387376 -14.17  0.002048556    2.212    0.548
        16 -13.6090    187.5293    175.1522   9.7671414383e+01   1.0531093924e+01    0.7505878    0.4495896 -49.86  0.002709023    2.068    0.516
        17 -11.3169    186.9263    165.4270   9.5902468582e+01   1.2262923791e+01     0.360218    0.2688294 -46.21  0.001143505    1.521    0.343
        18 -11.3969    166.9280    176.1517   1.0202619155e+02   1.4298860032e+01    0.2018964    0.1743599  61.55 0.0003030289    1.252    0.201
        19 -12.1477    194.1478    171.6094   9.5687172071e+01   9.8354726714e+00    0.3211745     0.305902  77.93  0.001230404    1.304    0.233
        20 -10.7750    114.8095    229.5690   1.1996475800e+02   1.4130827826e+01    0.1461143    0.1434448 -30.63  0.001118899    1.390    0.281
        21 -12.4497    176.7664    169.2547   9.8712910413e+01   1.3602382070e+01     0.290861    0.2011442 -47.47  0.001495357    1.641    0.391
        22 -11.5154    240.2281    169.5578   8.6824288911e+01   1.5658409656e+00    0.1838567    0.1088044  30.90 0.0004153127    1.610    0.379
        23 -11.7591     30.6672    182.9353   1.3183273800e+02   3.3697267190e+01    0.1898553    0.1485151  43.47 0.0007945386    1.405    0.288
        24 -11.9536     25.6949    165.0904   1.3145956067e+02   3.7841094133e+01    0.2847184    0.1981459  31.92  0.001909878    1.716    0.417
        25 -12.0318    139.7902    162.0231   1.0526869890e+02   2.2084683932e+01    0.2561349    0.1910816  43.85 0.0006215463    1.243    0.195
        26  -9.9924    128.6343    227.4285   1.1717814012e+02   1.2347913431e+01     0.114678   0.09576271  44.59 2.649886e-05    1.108    0.097
        27 -10.9735    140.1801    219.2695   1.1401616642e+02   1.1792773931e+01    0.3501356    0.1617213 -60.95  0.001650628    3.098    0.677
        28 -11.1613    186.9289    154.3894   9.3645698818e+01   1.4151031308e+01    0.5961467    0.2414493  40.06  0.002255585    2.416    0.586
        29 -10.7295    191.6729    151.5661   9.2089901852e+01   1.3667946075e+01    0.2759369    0.1922031 -49.25 0.0009428851    1.670    0.401
        30 -10.3721      6.4967    155.5736   1.3483920380e+02   4.1471942853e+01    0.1089962   0.08467256  89.48 0.0001033447    1.061    0.057
        31 -11.7796    161.8962    149.7849   9.7964600092e+01   2.0110500030e+01    0.2729869    0.1954933 -76.87  0.001233208    2.118    0.528
        32 -10.7984      7.4667    149.5775   1.3420211953e+02   4.2657382769e+01    0.2778955    0.1504848 -38.92  0.001508805    3.035    0.671
        33 -11.2880    174.4928    148.9935   9.5084209707e+01   1.7668615204e+01    0.2762603    0.2349292  58.55 0.0006253649    1.258    0.205
        34 -10.8668    152.4712    219.5399   1.1172544556e+02   9.7287904228e+00    0.2065645    0.1728199  44.77   0.00052883    1.036    0.035
        35 -13.4257      5.1849    112.5105   1.3155128842e+02   5.0844312688e+01    0.4798366    0.4127001 -46.34  0.003641183    1.369    0.269
        36 -12.7508     13.9644    142.4082   1.3216403618e+02   4.3687498408e+01    0.4263365     0.230655 -60.49  0.002565344    1.729    0.422
        37 -13.5583      2.7870    126.2090   1.3343807104e+02   4.7998441457e+01    0.7593955    0.4070115 -88.52  0.004585812    1.562    0.360
        38 -13.6700      6.9286    120.4849   1.3188412915e+02   4.8978527611e+01    0.6381007    0.3233621  81.61  0.002662155    1.976    0.494
        39 -11.0716     12.7725    138.1733   1.3207459615e+02   4.4696688028e+01    0.1722032    0.1168539 -50.92 0.0005390433    1.674    0.403
        40 -13.2736      7.4888    138.8223   1.3336605928e+02   4.4949903487e+01    0.5001774    0.3765327  85.77  0.001696631    1.063    0.059
        41 -11.0769      1.9118    139.8791   1.3473016013e+02   4.5115201651e+01    0.1837558    0.1315998 -73.40 0.0003988225    1.213    0.176
        42 -12.7932    160.8037    128.3676   9.3472744907e+01   2.4479231437e+01    0.5284013    0.4138759 -80.04  0.002517004    1.717    0.418
        43 -12.0532    168.4262    113.4499   8.8131585621e+01   2.5673580109e+01    0.4072002    0.3336523 -72.19 0.0008471757    1.512    0.339
        44 -11.0758    231.2608    113.7195   7.6089566073e+01   1.1536744342e+01    0.2586697    0.2280697  11.84 0.0007697286    1.122    0.109
        45 -11.0261    205.4077    110.1275   7.9758687514e+01   1.7809311915e+01    0.3308714    0.2185002  44.30  0.001038246    1.513    0.339
        46 -11.2192      1.5583    106.2184   1.3188586765e+02   5.2443760851e+01    0.2757366   0.08127771 -71.65  0.001061394    2.470    0.595
        47 -11.1707    217.6051    218.2138   9.9603412519e+01  -9.1726664964e-01    0.1964072     0.113429 -36.92 0.0009561158    2.060    0.515
        48 -11.6531     10.0388    101.9810   1.2904189278e+02   5.2871238445e+01    0.2728434     0.212382 -80.69 0.0009383993    1.061    0.058
        49 -12.8236    103.9558    236.6070   1.2263468312e+02   1.4608802690e+01    0.2699896    0.1932408  55.76  0.001443868    1.093    0.085
        50 -10.5343    146.2464     82.7565   8.4891820956e+01   3.6655963302e+01     0.212144    0.1801818   9.27 0.0007558349    1.327    0.247
        51 -12.6529    100.6917    245.4441   1.2401662762e+02   1.3699454508e+01    0.3346703    0.2505054  75.01  0.002475079    1.312    0.238
        52 -14.3427    155.0335     61.7997   7.6440914538e+01   3.8254449780e+01     1.255062      1.02815  29.53 0.0009547946    1.289    0.224
        53 -13.2235    171.6422     39.8502   6.6151413883e+01   3.7323044328e+01    0.4539909    0.4351384  -7.13 0.0008911508    1.088    0.081
        54 -11.6924    158.7958    212.1704   1.0949443211e+02   9.8034776296e+00    0.2183673     0.150652 -68.69  0.001217665    2.120    0.528
        55 -11.0592     13.6232     59.9499   1.2109677066e+02   6.1885242319e+01    0.1727981    0.1705897  77.71 0.0004021867    1.264    0.209
        56 -10.8036    113.3324    206.2870   1.1759231632e+02   1.8296706320e+01    0.1863014    0.1570169  45.08 0.0007469752    1.146    0.127
