#   1 NUMBER                 Running object number                                     
#   2 MAG_AUTO               Kron-like elliptical aperture magnitude                    [mag]
#   3 X_IMAGE                Object position along x                                    [pixel]
#   4 Y_IMAGE                Object position along y                                    [pixel]
#   5 X_WORLD                Barycenter position along world x axis                     [deg]
#   6 Y_WORLD                Barycenter position along world y axis                     [deg]
#   7 A_WORLD                Profile RMS along major axis (world units)                 [deg]
#   8 B_WORLD                Profile RMS along minor axis (world units)                 [deg]
#   9 THETA_WORLD            Position angle (CCW/world-x)                               [deg]
#  10 FWHM_WORLD             FWHM assuming a gaussian core                              [deg]
#  11 ELONGATION             A_IMAGE/B_IMAGE                                           
#  12 ELLIPTICITY            1 - B_IMAGE/A_IMAGE                                       
         1 -13.9285     68.6331    144.5248   9.5589374419e+01   3.7618305873e+01     4.369205     2.343383  75.70  0.002885738    4.570    0.781
         2 -13.6102    206.4715     42.5411   3.7380002200e+01   2.9318244751e+01     1.684629     1.324547  26.54   0.00804519    1.932    0.483
         3 -13.4341    219.6568     31.0067   3.3513063929e+01   2.7984921986e+01     0.984214    0.8098723  36.08  0.006422881    1.783    0.439
         4 -11.9814    246.1152      9.1914   2.7226950307e+01   2.5262724217e+01    0.5834416    0.3089016  78.75  0.003697647    1.769    0.435
         5 -12.2547    245.8940      3.8097   2.6268569713e+01   2.5873556431e+01    0.6476531    0.3173553  74.80  0.004025255    1.922    0.480
         6  -9.4455      2.3843      2.7816   8.0965512753e+01   7.4367336825e+01    0.2288616   0.07452043 -35.27  0.001128594    2.695    0.629
         7  -9.4056     49.8783      3.1920   5.6778619966e+01   6.7866587514e+01    0.1691976    0.1456628  33.70  0.000682778    1.238    0.192
         8  -8.8936     44.7632      1.4190   5.7924855376e+01   6.8904719398e+01    0.2184955    0.1024184  50.72 0.0009698549    2.156    0.536
         9  -9.4879    111.4599    203.9632   9.4078637788e+01   1.6409221827e+01     0.221866    0.1789996  34.94 0.0001183532    1.180    0.153
        10  -9.9977    102.4167    250.2600   1.0236688553e+02   8.0928905741e+00    0.2420623    0.1882806  65.40  0.001322712    1.396    0.284
        11 -10.9367    101.5729    244.2655   1.0185868685e+02   9.3669316234e+00    0.3985192    0.1812365 -62.88  0.001815462    2.604    0.616
        12 -10.3100     91.8587    250.0153   1.0460605953e+02   9.5978687720e+00    0.3910452    0.1540529  31.43  0.001279075    2.345    0.574
        13 -15.0694      5.3284    184.9855   1.1824905250e+02   3.4009637500e+01     11.19883    0.9977477 -74.86   0.02106063    7.919    0.874
        14 -10.6741    239.3842    176.3653   6.1368799538e+01   1.0034639778e+00    0.2314968    0.1632805  35.80  0.001349068    1.633    0.388
        15  -9.1582    186.1909    174.1832   7.0989171630e+01   1.0003438034e+01    0.3481831    0.2603229  57.03  0.001721971    1.761    0.432
        16  -9.7558     86.3236    173.4021   9.5626559521e+01   2.7657537195e+01    0.4827543     0.304273   8.77  0.001987332    2.325    0.570
        17 -11.3564     62.5406    172.4073   1.0202465471e+02   3.1268048561e+01     0.470444    0.2993032 -32.63  0.001333483    2.049    0.512
        18 -11.2084     67.3629    167.6450   9.9955405518e+01   3.1843816277e+01    0.3757005    0.2881241 -28.82  0.001057396    1.558    0.358
        19 -11.7850     84.4994    152.5294   9.2366770242e+01   3.3224187339e+01     1.247883    0.6615254 -53.53   0.00514628    1.782    0.439
        20 -12.1169     76.8035    158.4775   9.5717652358e+01   3.2864550495e+01     1.073033    0.5838019  59.37  0.000511389    2.602    0.616
        21 -12.7537     64.2996    154.5165   9.8687900573e+01   3.5629909998e+01    0.5262119    0.3733957 -31.61  0.000926883    1.654    0.395
        22  -9.9141    204.1590    199.8471   7.2374298645e+01   2.1619951670e+00    0.1983667    0.1461905  -8.67  0.001085845    1.339    0.253
        23 -10.3034     28.9634    155.5100   1.0917861793e+02   3.9353482779e+01    0.2571249    0.2276444 -89.18 0.0006046655    1.064    0.061
        24 -10.9043     23.8477    148.2016   1.0974347556e+02   4.1680605280e+01     0.470077    0.2433701 -87.48  0.002059731    2.150    0.535
        25 -10.2381    133.7504    144.8380   7.6915541511e+01   2.6341089157e+01     1.061753      0.26366 -53.46  0.002435826    5.624    0.822
        26  -9.0408    174.9137    149.1655   6.8028170303e+01   1.7251523402e+01    0.2284986    0.2090087 -75.43 0.0006593937    1.278    0.217
        27 -10.2159     54.3135    147.6682   1.0052210744e+02   3.8673203441e+01    0.3351057     0.217176 -57.38  0.001612606    1.400    0.286
        28 -16.4731     15.6604    242.2541   1.1971347140e+02   2.0268668906e+01     7.184901     2.870957  20.18   0.03070622    4.004    0.750
        29  -8.7064     35.3040    143.0620   1.0559719210e+02   4.1952827834e+01    0.3190168    0.1331073 -54.53 0.0008807715    2.059    0.514
        30  -9.8023     32.3351    143.3232   1.0654247928e+02   4.2171171468e+01    0.3599871    0.2628252 -17.56     0.001483    1.696    0.411
        31  -9.5713     98.6026    139.7822   8.5557723503e+01   3.4114882047e+01    0.2909915    0.2788865 -87.12 0.0007980071    1.104    0.094
        32  -8.9960    101.5125    136.9385   8.4060567891e+01   3.4306671714e+01    0.3376118    0.2303983 -28.96 0.0008640264    1.733    0.423
        33 -11.6632     86.6256    138.0370   8.8766893757e+01   3.6563171032e+01    0.3223647    0.2862649 -48.36 0.0004591912    1.078    0.072
        34  -8.8922    110.7958    167.5084   8.7878061628e+01   2.5137206831e+01    0.2949267     0.201835 -74.70  0.001145046    1.863    0.463
        35 -10.2822     16.9696    132.4813   1.0978131698e+02   4.6239754491e+01    0.3054636    0.1944844  56.13  0.001139411    1.837    0.456
        36  -9.3655    105.6140    130.7980   8.1422461978e+01   3.5063958497e+01     0.369375    0.2715408 -63.44  0.001293014    1.502    0.334
        37  -9.6798    109.2166    129.6188   8.0087068637e+01   3.4678160790e+01    0.4138019    0.2753832  19.74  0.001174411    1.869    0.465
        38 -11.4363    240.5779    169.7330   5.9875514281e+01   1.9574426879e+00    0.4505402    0.2810681   6.16   0.00179521    2.289    0.563
        39  -9.3830     44.5304    165.5233   1.0606733674e+02   3.5199282638e+01    0.2731462    0.2106544  72.09 0.0007203215    1.345    0.257
        40  -9.4422     97.2848    124.8743   8.2489498257e+01   3.8007385188e+01    0.2878029    0.2336117  -2.68  0.001146377    1.437    0.304
        41  -9.6729    135.5230    128.5843   7.2575887328e+01   2.9727892289e+01    0.5177034    0.1520407 -46.30   0.00150562    3.324    0.699
        42  -7.8575    101.6663    163.3252   8.9562734865e+01   2.7722297374e+01    0.1595598    0.1187701  71.90 0.0007051171    1.712    0.416
        43  -9.0712    106.7480    118.2972   7.7994709902e+01   3.7826746567e+01    0.2062785    0.2056918 -19.93 0.0005005933    1.053    0.051
        44  -9.8821    231.3331    113.6833   4.9820221670e+01   1.3247139465e+01    0.2547851    0.2202321 -49.32 0.0007608387    1.046    0.044
        45 -13.1941     35.4113    196.6331   1.1200673008e+02   2.8430916212e+01     0.898187    0.7222731 -82.94  0.002355021    1.125    0.111
        46  -9.0680    205.5623    110.1886   5.3092107384e+01   1.8811063794e+01    0.2326572    0.1993246  53.89 0.0005614531    1.286    0.223
        47  -8.2054     79.5113    114.5028   8.5576824938e+01   4.3535803265e+01    0.1501139    0.1440439 -42.26 0.0008101367    1.047    0.045
        48 -10.4791     32.3157    156.3200   1.0832001290e+02   3.8828926893e+01     0.495836    0.2518585 -73.97  0.002230058    1.835    0.455
        49  -9.7222    241.4847    102.4686   4.6066335883e+01   1.3300766562e+01    0.1307071    0.1079318 -49.78 0.0002227869    1.024    0.023
        50 -10.9863    249.8110     99.2386   4.4358516885e+01   1.2358122499e+01    0.4129496    0.1220519 -39.02  0.001604095    2.837    0.648
        51  -8.5136     27.7541     94.5305   9.9444923285e+01   5.4802301942e+01    0.1753045    0.1221383  36.46  0.000937934    1.675    0.403
        52 -10.3402    242.0092     95.5055   4.4562215057e+01   1.4337601457e+01    0.2993623    0.1567478 -72.83  0.001124163    3.989    0.749
        53  -9.1248     52.9993     90.7352   8.8807123093e+01   5.2978885997e+01    0.1994223      0.17915 -17.71 0.0004744907    1.051    0.048
        54 -14.0346     45.0759    187.3112   1.0861637200e+02   2.9644539668e+01     2.527497     1.417963  49.99    0.0108626    1.789    0.441
        55  -8.5555    160.5457     83.5315   5.4836254945e+01   3.3421736372e+01    0.1440051    0.1408759 -75.78  0.000138192    1.014    0.013
        56  -9.0773     46.4791     61.8007   8.2731135816e+01   5.9948510498e+01    0.2031088    0.1695139  26.20 0.0005641517    1.283    0.220
        57 -12.2147    197.2428     48.7944   3.9930883317e+01   3.0498057228e+01     0.752346    0.4929657  44.02  0.001146084    1.928    0.481
        58 -10.5841    119.8390    244.9599   9.7944661137e+01   6.6168137192e+00    0.2738905    0.1875364 -54.82 0.0009828112    1.672    0.402
        59 -10.6446     13.4216     59.9665   9.6992717864e+01   6.3631282697e+01    0.2634807    0.1983952 -43.00 0.0004169474    1.115    0.103
        60  -9.1496    122.6147    199.7858   9.0661616792e+01   1.5550409501e+01    0.3068126    0.2253135  76.82 0.0008195795    1.904    0.475
        61  -9.1079    198.0590     23.7580   3.4027550678e+01   3.3436663673e+01    0.2056625    0.1643709 -47.01 0.0007070337    1.266    0.210
        62  -9.3084     99.3649    180.8713   9.3383015981e+01   2.3772562920e+01     0.269948    0.2179922  24.73 0.0005896456    1.299    0.230
        63  -8.6877    189.6450     14.8191   3.2823280269e+01   3.6259350725e+01    0.1677602    0.0963345 -46.41 0.0006165073    1.672    0.402
        64 -14.8040      9.5773    208.1867   1.1889679514e+02   2.8221890949e+01     2.913968     1.086266 -61.97  0.005395635    2.513    0.602
        65 -10.0210     74.5962    207.8557   1.0369136255e+02   2.0977040791e+01    0.3165416    0.2288065 -87.71 0.0009687188    1.499    0.333
        66 -10.8507    194.4911    197.9718   7.3970341739e+01   4.0095216739e+00     1.089608    0.4506275 -52.10  0.003963872    3.327    0.699
        67 -10.4685    139.3288    216.8152   8.9485236379e+01   9.1963521597e+00    0.2689985    0.2315582 -82.12 0.0009500918    1.483    0.326
