#   1 NUMBER                 Running object number                                     
#   2 MAG_AUTO               Kron-like elliptical aperture magnitude                    [mag]
#   3 X_IMAGE                Object position along x                                    [pixel]
#   4 Y_IMAGE                Object position along y                                    [pixel]
#   5 X_WORLD                Barycenter position along world x axis                     [deg]
#   6 Y_WORLD                Barycenter position along world y axis                     [deg]
#   7 A_WORLD                Profile RMS along major axis (world units)                 [deg]
#   8 B_WORLD                Profile RMS along minor axis (world units)                 [deg]
#   9 THETA_WORLD            Position angle (CCW/world-x)                               [deg]
#  10 FWHM_WORLD             FWHM assuming a gaussian core                              [deg]
#  11 ELONGATION             A_IMAGE/B_IMAGE                                           
#  12 ELLIPTICITY            1 - B_IMAGE/A_IMAGE                                       
         1 -13.1818    200.3886     36.7432   5.4426238015e+01   3.0188065914e+01      2.40047     1.210571  37.50  0.009541064    2.485    0.598
         2 -12.8378    212.1576     23.1593   4.9026928425e+01   2.8812028323e+01     1.070085    0.4896813 -23.28   0.00433981    1.992    0.498
         3 -13.0854    218.8553     17.7416   4.6825278258e+01   2.7752680021e+01     0.936103    0.6136922   2.10  0.001266706    1.784    0.439
         4 -11.0206      2.6950      4.0623   1.0774267401e+02   7.6422819522e+01    0.5406739    0.1641745 -55.24  0.002446334    2.271    0.560
         5  -9.9457    240.0834      1.4545   4.0822036818e+01   2.4370788084e+01    0.4036234    0.1230481  76.22  0.001556529    3.579    0.721
         6 -15.2408     40.9561    198.3758   1.2342666087e+02   2.9829111031e+01     8.544432      2.61392  65.34   0.03300666    4.764    0.790
         7 -13.9967    137.5080    247.7415   1.0955781498e+02   1.0793065612e+01     1.998445    0.3609526  36.49  0.007710808    4.318    0.768
         8 -11.6853     32.6960    245.1817   1.2712069781e+02   2.3087385190e+01    0.3286898    0.2316074 -88.10  0.002877311    1.552    0.356
         9 -11.8120     38.2280    244.6026   1.2618297280e+02   2.2636067383e+01    0.4951066    0.2571201  78.84  0.003641603    1.936    0.483
        10 -12.5846      5.4157    247.2035   1.3157888798e+02   2.5244325430e+01    0.7738336    0.3578396  60.50  0.002249903    1.504    0.335
        11 -14.7299     12.1610    233.6607   1.3015763629e+02   2.6687440763e+01     14.74598     1.548865 -84.42   0.03406924   21.270    0.953
        12 -10.7903    103.0226    235.7179   1.1444638922e+02   1.6684306800e+01    0.1851044    0.1198037  63.14   0.00102318    1.643    0.391
        13 -13.0362     28.4249    218.7881   1.2682220474e+02   2.7571095027e+01    0.4589121     0.272389 -76.16   0.00166727    1.830    0.454
        14  -9.7694     49.2042    233.3476   1.2380066626e+02   2.3200748384e+01      0.18124    0.1161202  63.37 0.0004282989    1.285    0.222
        15 -13.8204     35.9906    210.9699   1.2507072250e+02   2.8139478998e+01    0.8708473    0.5229641  53.27  0.004062559    1.240    0.194
        16  -9.9133    192.2732    193.2541   9.3100347152e+01   9.7917362696e+00    0.3296435    0.1956239 -62.71  0.001177222    7.016    0.857
        17 -11.5909     57.2700    188.4442   1.1941063962e+02   2.9873587131e+01    0.3054566    0.2316788 -42.65  0.001396469    1.891    0.471
        18 -10.4406     92.9716    233.3165   1.1604006398e+02   1.8256397404e+01    0.1516971    0.1045448  43.51 0.0004721615    1.083    0.077
        19  -9.0232     73.1558    187.6655   1.1599613698e+02   2.8130169004e+01    0.1893151    0.1081096  54.66  0.000688756    1.548    0.354
        20 -11.6242     63.3759    181.6465   1.1754131952e+02   3.0437262605e+01     0.229458    0.2225367 -39.81 0.0007659188    1.375    0.272
        21  -9.4989     37.0286    230.9311   1.2581325730e+02   2.4803989869e+01    0.1701323   0.07527144  57.59  0.001109374    1.755    0.430
        22 -10.2240    103.5242    172.5079   1.0770763815e+02   2.6822306727e+01    0.2379152    0.0920359  46.21  0.001037627    2.348    0.574
        23 -10.9379     73.9248    170.4913   1.1410748215e+02   3.1288495922e+01     0.213703    0.1920974  57.09 0.0004008007    1.098    0.090
        24 -13.1651     60.4840    167.6289   1.1688517654e+02   3.3515859442e+01    0.4208647    0.2660337 -46.28   0.00164435    2.108    0.526
        25 -12.0661     81.9020    162.3963   1.1133121535e+02   3.1840442601e+01    0.7127595     0.438747  52.52  0.003990029    1.501    0.334
        26 -13.0197     65.5914    141.2197   1.1265738691e+02   3.8439688991e+01     2.163634    0.9830993  81.48  0.006609489    4.841    0.793
        27  -9.6515    235.6729    158.3336   7.9567285688e+01   7.1931321487e+00    0.1062968   0.09741566 -47.75 0.0007051596    1.717    0.417
        28  -9.8878     95.9682    147.5280   1.0588727136e+02   3.2840780924e+01    0.2459529    0.2344037  76.58  0.000813609    1.062    0.058
        29  -9.3199     98.9705    143.8281   1.0455854962e+02   3.3142315847e+01    0.2013501    0.1630841 -17.84 0.0004359691    1.663    0.399
        30 -11.9618     84.0594    146.2272   1.0864119592e+02   3.4867159264e+01    0.2616929    0.2288884 -54.74 0.0005304649    1.259    0.206
        31 -10.2634     33.2508    143.8095   1.2127526988e+02   4.1473420130e+01     0.247468    0.1017303  44.11  0.001231786    2.132    0.531
        32  -9.9831    107.8785    133.3362   1.0049332708e+02   3.3881011337e+01    0.3880368    0.3032022 -79.66  0.001605494    1.470    0.320
        33 -10.4476     95.2966    130.7392   1.0325222103e+02   3.6486768480e+01    0.2439831    0.2185266 -16.35 0.0003716488    1.358    0.264
        34  -9.2796    105.8993    121.6515   9.8713250822e+01   3.6687744767e+01    0.1862784    0.1660575  48.52 0.0003564658    1.099    0.090
        35 -10.0721    168.3442    113.1579   8.1861155925e+01   2.6174745250e+01    0.3252842    0.2664296 -72.49  0.001025795    1.674    0.403
        36  -9.3666    204.1862    110.9019   7.4455160868e+01   1.9114307481e+01    0.2921105    0.1648367  25.28  0.001259257    2.196    0.545
        37 -10.8855     52.2076    110.1212   1.1196397659e+02   4.7193970073e+01    0.3396329    0.1670849 -63.87  0.001599212    1.824    0.452
        38  -9.9857    245.4859    106.5019   6.6999981205e+01   1.1714443231e+01    0.1322726    0.1084298  -7.11 0.0001730282    1.009    0.008
        39  -8.6511    184.5150     77.4483   6.9085988129e+01   2.8462616047e+01     0.149681    0.1379295  -1.73 5.615329e-05    1.039    0.037
        40 -11.4699      9.0878     58.5399   1.1921750628e+02   6.3505460856e+01    0.4293085   0.09432929 -63.50  0.001642016    2.897    0.655
        41 -14.8534     10.2730    206.8848   1.2969928374e+02   3.1203962051e+01     8.635527          nan  35.43  0.006082907    9.431    0.894
        42 -10.6603     70.1497    249.9377   1.2111242102e+02   1.8562049041e+01    0.2035416    0.1235342  46.33  0.001344187    1.149    0.130
        43 -10.6348     28.5362    249.5102   1.2795184161e+02   2.2857596069e+01    0.2346095    0.1933075  52.80  0.002228935    1.284    0.221
        44 -11.0353     83.1667    245.8312   1.1865682828e+02   1.7663420884e+01    0.2264199    0.1523997  76.68  0.000889044    1.673    0.402
        45  -9.7518    189.7231     14.9950   4.8835306678e+01   3.5248506400e+01    0.2065691    0.1830692 -29.98 0.0007481022    1.075    0.070
        46 -12.6978      4.3571    183.8193   1.3008850845e+02   3.5831690702e+01     1.051836    0.4070358 -88.89 0.0006456529    2.315    0.568
