#   1 NUMBER                 Running object number                                     
#   2 MAG_AUTO               Kron-like elliptical aperture magnitude                    [mag]
#   3 X_IMAGE                Object position along x                                    [pixel]
#   4 Y_IMAGE                Object position along y                                    [pixel]
#   5 X_WORLD                Barycenter position along world x axis                     [deg]
#   6 Y_WORLD                Barycenter position along world y axis                     [deg]
#   7 A_WORLD                Profile RMS along major axis (world units)                 [deg]
#   8 B_WORLD                Profile RMS along minor axis (world units)                 [deg]
#   9 THETA_WORLD            Position angle (CCW/world-x)                               [deg]
#  10 FWHM_WORLD             FWHM assuming a gaussian core                              [deg]
#  11 ELONGATION             A_IMAGE/B_IMAGE                                           
#  12 ELLIPTICITY            1 - B_IMAGE/A_IMAGE                                       
         1 -13.6104     30.1146     59.8825   1.1217258316e+02   6.2108414959e+01     1.220107    0.6879607  35.10  0.004186264    1.932    0.482
         2 -11.9159     42.5943     20.6008   9.2400227374e+01   6.9649880841e+01    0.5758105     0.360029  29.48  0.001842188    1.762    0.432
         3 -11.9361    216.4849     14.4168   4.6419368406e+01   2.8148113674e+01    0.5775218    0.3808722  -0.92  0.002633989    1.811    0.448
         4 -13.3143    186.5389      6.6420   4.6842154785e+01   3.6641205216e+01    0.8566471    0.5043755 -66.73   0.00379192    1.875    0.467
         5 -11.7351     43.9277      8.4715   8.4944119589e+01   7.1729776390e+01    0.2877322    0.2666605 -39.74  0.001205991    1.212    0.175
         6 -11.3815     58.1519      8.1116   7.7206181715e+01   6.9348595044e+01    0.3950292     0.309351  31.90  0.002249079    1.287    0.223
         7 -10.7726     54.9207      2.6087   7.5289318420e+01   7.0779324919e+01    0.2476315    0.1769008  62.03  0.001298203    1.878    0.467
         8 -11.1511     95.2330    224.8873   1.1505750014e+02   1.9255032454e+01    0.2321053    0.1283734  60.10  0.001437364    1.814    0.449
         9 -11.2223    149.2054    221.7981   1.0461796704e+02   1.2215686818e+01    0.3062002    0.1885083 -37.24  0.001974377    2.198    0.545
        10 -11.6698    227.0058    221.7911   9.1256524408e+01   1.1825344277e+00    0.1873042    0.1579374  59.20  0.001359232    2.311    0.567
        11 -10.0833    174.0000    221.4987   1.0010294563e+02   8.6585010827e+00    0.1988412   0.06496623 -42.31 0.0009428269    4.000    0.750
        12 -10.7633    239.8114    216.0419   8.8428978850e+01   4.2946675305e-03     0.239121   0.06425094 -36.55  0.001026374    5.233    0.809
        13 -11.3025    223.7357    212.9893   9.0495956438e+01   2.4667824698e+00    0.2492203    0.1032756  22.64  0.001199816    2.772    0.639
        14 -10.8828    115.9874    209.2397   1.0956323048e+02   1.8796734220e+01    0.2424676    0.1471968 -77.29  0.001402831    2.485    0.598
        15  -9.8825     85.6711    209.3331   1.1562279445e+02   2.2938666067e+01    0.1222158   0.06646194  58.45  0.000705189    1.720    0.419
        16 -10.5765     48.6525    201.4377   1.2255547513e+02   2.8770887967e+01    0.2706389    0.1108006  80.25  0.001319019    3.089    0.676
        17 -10.8222     41.6109    201.0938   1.2396979600e+02   2.9595567618e+01    0.1990314     0.156564 -74.79 0.0009608091    1.509    0.337
        18 -10.7642    112.1582    197.0257   1.0900079323e+02   2.1292191839e+01     0.259409    0.1409252 -79.25  0.001260488    3.160    0.684
        19 -10.2187    215.3340    193.5409   8.8866133524e+01   5.7148884404e+00    0.1885146   0.09484781 -44.87 0.0009436593    3.232    0.691
        20 -12.3292    159.5099    191.6274   9.8729617272e+01   1.4777063610e+01     0.560526    0.4162731  78.34  0.003209413    2.282    0.562
        21 -10.9488    224.1798    183.5114   8.5726632793e+01   5.4786070421e+00    0.1848413    0.1334728 -47.33  0.001124542    2.272    0.560
        22 -10.5932    183.2517    183.0465   9.2853716326e+01   1.2092914758e+01    0.2772148     0.167799 -31.48  0.001575859    1.907    0.476
        23 -10.5284     38.3328    175.3253   1.2315392607e+02   3.4773756111e+01    0.1018391   0.08760839 -38.43 0.0007051065    1.710    0.415
        24 -10.1744    176.0000    170.9837   9.2215881520e+01   1.5013972436e+01    0.1896777   0.07340433 -40.14 0.0008063026    2.969    0.663
        25 -11.2427    121.0115    168.2560   1.0336649156e+02   2.4894590457e+01    0.2964319     0.167497 -68.77  0.001410346    2.515    0.602
        26 -10.5968     55.0486    167.1120   1.1865738432e+02   3.4563152983e+01    0.2779133    0.1441466  65.16  0.001404501    1.906    0.475
        27  -9.8214    133.2819    195.6528   1.0450698297e+02   1.8323769717e+01    0.1187216   0.08409327  62.98 0.0004661742    1.644    0.392
        28 -10.4526     92.4751    159.9845   1.0886585608e+02   3.0983499170e+01     0.182518    0.1046111  83.41 0.0008100906    2.612    0.617
        29 -11.7819    106.2430    157.7789   1.0524568344e+02   2.9277556719e+01    0.5407674    0.3181128  66.95  0.002522851    2.235    0.552
        30 -11.0339    167.3721    157.0019   9.1442696130e+01   1.8686683683e+01    0.3071802     0.231112 -75.39  0.001588962    2.211    0.548
        31 -10.6100    218.3679    156.5571   8.1796816164e+01   9.6038823530e+00    0.2324793   0.09787588 -43.40 0.0009615345    3.382    0.704
        32 -10.7620    118.0347    156.5437   1.0226031703e+02   2.7570486643e+01    0.2001661    0.1800052 -65.37  0.001193833    1.246    0.198
        33 -10.0078      7.0000    155.9974   1.2942051343e+02   4.1539855964e+01    0.1748754   0.05363818 -83.73  0.000676579    2.893    0.654
        34  -9.7279     23.4891    153.5261   1.2530740463e+02   4.0688086539e+01    0.1204836   0.09000523  66.22 7.031154e-05    1.060    0.056
        35  -9.9045     40.2107    152.4435   1.2105304588e+02   3.9288107369e+01    0.1713519    0.0889831  46.70 0.0007259359    1.626    0.385
        36 -10.5401    189.7604    150.2981   8.5719442395e+01   1.5573496497e+01    0.2958488    0.1766359 -50.47  0.001413235    2.355    0.575
        37 -11.3222    107.4699    145.5072   1.0303152310e+02   3.1527410326e+01    0.5081802    0.2667688  70.10  0.001784946    3.854    0.741
        38 -10.5366     55.7727    146.1703   1.1645628152e+02   3.8891916145e+01     0.232456   0.09891432  62.87 0.0009517561    2.835    0.647
        39 -10.4302    148.4839    144.9884   9.3215777312e+01   2.4239570600e+01    0.1838359    0.1234444 -74.60 0.0008102532    2.546    0.607
        40  -9.9368    181.8000    142.1920   8.5630138818e+01   1.8304258970e+01    0.2120409    0.1544048 -87.68  0.000946263    2.819    0.645
        41 -10.2886    132.3082    131.9894   9.4408417164e+01   2.9759962953e+01    0.2173688    0.1161865 -70.52 0.0007032381    4.148    0.759
        42 -11.6232     83.0962    130.9203   1.0704291611e+02   3.8553485496e+01    0.4745175    0.2199094 -69.57  0.001968573    2.521    0.603
        43 -12.0753     99.0034    128.1307   1.0221316578e+02   3.6611445825e+01    0.6628329    0.3715064  75.09  0.002444945    3.307    0.698
        44 -10.7423     59.0778    124.3275   1.1288108515e+02   4.3401688873e+01    0.4072134    0.1840457  80.48  0.001374157    4.130    0.758
        45 -10.0521    117.3537    125.6625   9.6871376951e+01   3.3869852201e+01     0.151874    0.1083209  74.39 0.0007043256    1.800    0.444
        46 -11.0676     43.1002    122.4311   1.1734414517e+02   4.5707643390e+01    0.5353363    0.2193995  86.25  0.001975329    3.527    0.717
        47 -11.2796     27.0628    120.9021   1.2193795752e+02   4.7629203204e+01    0.5988743    0.2028191  75.07  0.001947037    4.785    0.791
        48 -10.8510     14.3974    121.3822   1.2568773552e+02   4.8545359701e+01    0.3403159    0.2541542 -10.77  0.002134116    1.954    0.488
        49 -11.6617    193.5413    118.6434   7.8181384960e+01   1.9597728409e+01    0.4539885     0.396456 -80.05    0.0014926    1.576    0.365
        50 -10.3287     71.3253    120.6429   1.0873381127e+02   4.2613203987e+01    0.1485061   0.09443496  69.56 0.0007044899    1.774    0.436
        51 -10.6142      2.3019    115.4783   1.2886434671e+02   5.0705803161e+01    0.2141409   0.08816843 -84.36 0.0008857221    2.019    0.505
        52 -10.7249    108.1616    112.6496   9.6587219863e+01   3.8353839422e+01    0.4316446    0.1962982 -67.43  0.001339174    4.097    0.756
        53 -10.9518     78.5785    112.2133   1.0509766023e+02   4.3495327711e+01    0.4249608    0.2311115 -87.88  0.001612236    3.005    0.667
        54 -10.6453    174.1895    111.0784   8.0182585171e+01   2.4934043095e+01     0.321205    0.1936588 -43.31  0.001335327    1.774    0.436
        55 -11.7315    159.9536    110.7499   8.3152879049e+01   2.8090478265e+01    0.5501446    0.3042521 -51.31  0.002270683    2.191    0.544
        56 -10.9066     91.6492    110.2458   1.0080219947e+02   4.1834602484e+01    0.4674916    0.1284292 -55.02  0.001485561    3.594    0.722
        57 -11.5695     13.8756    109.0403   1.2494675970e+02   5.1447686671e+01    0.5128102    0.2115715 -85.19  0.002429269    2.143    0.533
        58 -12.1083     44.3979    100.6677   1.1404502506e+02   5.0745021950e+01    0.6719874    0.3370969  81.16  0.002790407    2.659    0.624
        59 -11.4029    127.6676    100.9230   8.8502033512e+01   3.6955121992e+01    0.3960587    0.1790983 -52.40  0.001447102    2.524    0.604
        60 -10.8448     82.0060    100.5007   1.0167403960e+02   4.5679189325e+01    0.2698135    0.1981775 -82.83 0.0008605208    1.518    0.341
        61 -11.2735     62.6411     95.4036   1.0695164996e+02   4.9782950053e+01     0.359198    0.1735392 -81.06  0.001316474    3.062    0.673
        62 -12.7304    170.3227     90.8526   7.5749898882e+01   2.9243718792e+01    0.4325022    0.3404624  74.16  0.001045816    1.554    0.356
        63 -12.5345    108.5696     99.0957   9.3306355196e+01   4.1232757356e+01    0.7884859    0.4773397  75.59  0.002860866    3.060    0.673
        64 -12.4006    140.4436    103.3399   8.5864946747e+01   3.3732217746e+01     0.705129    0.3722766 -51.09  0.002834315    2.139    0.532
        65 -10.9928     34.0423     87.5300   1.1566154704e+02   5.4992338827e+01    0.5166799    0.1597662 -70.80  0.001947172    2.871    0.652
        66 -11.8304     42.3596     87.9017   1.1268304074e+02   5.4069637529e+01    0.3479993    0.2365587 -10.05  0.001197976    2.217    0.549
        67 -10.4791    151.5229     87.4757   7.8933712080e+01   3.4246292584e+01    0.2678443    0.1498388 -25.56  0.000712311    2.237    0.553
        68 -11.3666     86.9150     86.8827   9.6871632495e+01   4.8006764221e+01    0.4655004    0.2954274  78.54  0.001868045    2.539    0.606
        69 -10.9511     45.4702     81.8950   1.1042007414e+02   5.5197363813e+01    0.2659567    0.1587613 -83.28 0.0007137819    1.802    0.445
        70 -11.2669    104.4585     83.1042   9.0283831662e+01   4.5542000705e+01    0.4171944     0.246358 -73.16  0.001501079    2.927    0.658
        71 -10.8064     23.8200     79.7144   1.1833950720e+02   5.7779257619e+01    0.4070718    0.1541669 -88.14  0.001500373    3.316    0.698
        72 -10.2591    141.5335     76.0306   7.7945371599e+01   3.8731203634e+01     0.225385    0.1521024 -38.93 0.0003280716    1.494    0.331
        73 -11.1013     62.5064     72.5588   1.0178458139e+02   5.5278243839e+01    0.6238154     0.132561 -58.36  0.001748475    4.459    0.776
        74 -11.3706     82.1419     73.1516   9.4730742529e+01   5.1991652045e+01    0.4040998    0.2571078  81.62  0.001561775    2.796    0.642
        75 -10.6114    116.0156     73.0202   8.3814966826e+01   4.5226057100e+01    0.2804142    0.1633615 -64.66  0.001017138    2.629    0.620
        76 -11.5552    223.4809     71.2077   6.1346206391e+01   1.9870284582e+01    0.3093615    0.2270342 -38.57 0.0008421117    1.315    0.240
        77 -10.4362    140.7377     82.8965   8.0198150741e+01   3.7625273213e+01    0.3049792    0.1929668 -44.34    0.0013228    1.617    0.381
        78 -10.7001     51.6995     70.6111   1.0551887955e+02   5.7199543131e+01    0.2453297    0.1633518 -86.40  0.001062069    1.767    0.434
        79 -11.8890     20.7183     51.2951   1.1470061884e+02   6.4936404395e+01     0.554755    0.2948587 -69.77  0.002566799    1.603    0.376
        80 -11.9758    221.1952    248.5911   9.5733781867e+01  -4.3002835071e-01     0.413353    0.1614002  43.50  0.002328923    2.612    0.617
        81 -11.4178      8.5619     56.4394   1.2138595988e+02   6.4423722484e+01    0.4862277    0.2548928  83.17  0.002451001    1.978    0.495
        82 -12.6766    149.4828     52.2652   6.8349228466e+01   4.0888602567e+01     0.344521    0.3021832  57.96  0.000448205    1.138    0.121
        83 -11.2349    237.5062     63.5202   5.7571532198e+01   1.7770909476e+01    0.1356777    0.1202508 -23.65 0.0001622632    1.017    0.016
        84 -10.1208     53.0000     51.0042   9.9405113126e+01   6.1655998421e+01    0.2326745   0.07282349 -56.03  0.000534535    2.913    0.657
        85 -11.7818     19.3887     59.4173   1.1692171743e+02   6.3061952948e+01    0.3651719    0.1946685 -52.80   0.00141445    1.676    0.404
        86 -10.5706    156.9869     44.9918   6.4289233797e+01   4.0041703707e+01    0.2315964    0.2230344  48.22 0.0004239292    1.036    0.034
        87 -10.1587     10.6577     44.3000   1.1832181902e+02   6.7239900683e+01    0.1741371    0.1453197  50.64 0.0005811622    1.372    0.271
        88 -10.9908      6.1660     43.3371   1.2047914777e+02   6.7685999883e+01     0.426682    0.2362029  63.73  0.002222865    2.154    0.536
        89 -11.3605     69.7879     42.0696   8.8831686033e+01   6.0989334417e+01    0.5164694     0.292619  59.87   0.00206277    2.718    0.632
        90 -11.2959     36.8657     38.6371   1.0302261345e+02   6.6472730753e+01    0.3085543    0.2528781 -60.14  0.001147587    1.123    0.110
        91 -11.6654     41.6669     37.5781   1.0016685805e+02   6.6158659460e+01    0.3675754    0.2597931 -32.56  0.001039147    1.463    0.316
        92 -11.1749    120.1530     34.4095   6.8608914811e+01   5.1302005556e+01    0.3186262    0.2776322  76.04 0.0007576958    1.242    0.195
        93 -10.2658     73.4096     32.5975   8.3276853893e+01   6.2210644168e+01    0.2772067    0.1305335  58.10  0.000956557    3.419    0.708
        94 -10.1415    106.2009     30.1535   7.0661808292e+01   5.5445632655e+01    0.2365817     0.197003  20.65 0.0006538641    1.290    0.225
        95 -10.5530    101.5715     28.5978   7.1360002092e+01   5.6808231049e+01    0.4678338    0.1518398 -39.80  0.001517285    3.037    0.671
        96 -10.6926     68.2091     24.3126   8.1541929271e+01   6.4734260358e+01    0.2587661     0.183741 -41.36  0.000558864    1.359    0.264
        97 -11.2180     23.4527    240.1571   1.2895104705e+02   2.5022819017e+01    0.2146626   0.05632345  53.40  0.001221138    2.364    0.577
        98 -10.4197      8.3136    240.3495   1.3151913366e+02   2.6377879262e+01   0.07320707    0.0720412 -65.88 0.0004648324    1.723    0.420
        99 -10.0523     88.3164     17.6590   7.0390768919e+01   6.1591309869e+01    0.1476366    0.1130843 -64.35 0.0004709685    1.708    0.415
       100 -10.9660    239.7470     20.6838   4.6215610003e+01   2.2029710313e+01     0.244541     0.219041 -73.26 0.0005764785    1.158    0.136
       101 -10.1391      2.6603    240.3133   1.3246013942e+02   2.6872549713e+01    0.1053653   0.03804814  54.36 0.0005692071    1.698    0.411
       102 -11.1090     12.6815    227.5223   1.3047830279e+02   2.7971015394e+01    0.1907493    0.1089055  56.95 0.0005947957    1.184    0.155
       103 -10.0265    104.3483    225.1801   1.1335745519e+02   1.8012651287e+01    0.1312296   0.09757476  86.56 0.0009422443    1.676    0.403
