#   1 NUMBER                 Running object number                                     
#   2 MAG_AUTO               Kron-like elliptical aperture magnitude                    [mag]
#   3 X_IMAGE                Object position along x                                    [pixel]
#   4 Y_IMAGE                Object position along y                                    [pixel]
#   5 X_WORLD                Barycenter position along world x axis                     [deg]
#   6 Y_WORLD                Barycenter position along world y axis                     [deg]
#   7 A_WORLD                Profile RMS along major axis (world units)                 [deg]
#   8 B_WORLD                Profile RMS along minor axis (world units)                 [deg]
#   9 THETA_WORLD            Position angle (CCW/world-x)                               [deg]
#  10 FWHM_WORLD             FWHM assuming a gaussian core                              [deg]
#  11 ELONGATION             A_IMAGE/B_IMAGE                                           
#  12 ELLIPTICITY            1 - B_IMAGE/A_IMAGE                                       
         1 -13.8569    224.7256      3.5547   3.8604839490e+01   2.8389203364e+01     2.202058    0.9100993  58.64  0.008144022    2.430    0.588
         2 -13.7100    182.2211     47.1672   5.5670141520e+01   3.3709347827e+01     1.104912    0.9329731 -18.26 0.0008107429    1.304    0.233
         3 -13.9515    193.2219     38.0419   5.1279333965e+01   3.2153619964e+01     1.360579     1.063398 -36.20  0.003268539    1.287    0.223
         4 -14.6499    201.6868     28.2683   4.7382612612e+01   3.1258074318e+01     1.769357     1.342253  34.24  0.001374091    1.626    0.385
         5 -12.9113     60.2946      4.3800   6.9474638609e+01   6.6885286069e+01    0.7135558     0.346296  42.37  0.003705038    1.940    0.485
         6 -19.1687     12.6229    172.7942   1.2605113805e+02   3.6873054590e+01     17.21866      3.99465 -80.05   0.06250922    4.171    0.760
         7 -14.0041     62.5522    189.4586   1.1700536766e+02   2.7764186777e+01    0.8429127    0.7422116 -57.56  0.003891274    1.423    0.297
         8 -16.2924     71.6648    149.7503   1.0979139819e+02   3.5565552487e+01     15.73652     7.253207  78.22   0.01199357    7.687    0.870
         9 -11.3603    207.9980    196.2424   8.7494487841e+01   1.7077619184e+00    0.2810942    0.1830421 -44.60  0.001311926    1.800    0.445
        10 -10.0575    159.9420    197.0200   9.7218946080e+01   1.0323385711e+01    0.2022455    0.1846066  46.47 0.0003726502    1.049    0.047
        11  -9.8224     33.3178    196.6737   1.2363753609e+02   2.9734660179e+01    0.1985702     0.126897  68.90 0.0007193175    1.285    0.222
        12 -10.3360     82.0781    195.0909   1.1348656579e+02   2.3852790959e+01    0.2842229    0.2616389  46.38  0.001536805    1.283    0.221
        13 -10.7870     96.5226    190.5221   1.0980888888e+02   2.2623241750e+01    0.2946443    0.2647051  21.88 0.0009832332    1.425    0.298
        14 -10.0597    154.1567    185.6378   9.6478492509e+01   1.3525347795e+01    0.2560329     0.189613 -82.08  0.001266376    1.881    0.468
        15 -11.3783    147.0010    184.1722   9.7766454124e+01   1.5153799487e+01    0.3948955    0.2631749  64.69  0.001276441    1.832    0.454
        16 -10.6806     99.4204    180.7554   1.0780881469e+02   2.4254649666e+01    0.2479968    0.2201161  66.31 0.0006230926    1.040    0.039
        17 -10.1684    204.7625    176.8907   8.4381146662e+01   5.4295952285e+00    0.2557441    0.1948087 -53.45  0.001347397    1.647    0.393
        18 -11.4110    140.6625    174.3269   9.7416315930e+01   1.8337032578e+01    0.3411594    0.2324409  81.29  0.001513127    2.171    0.539
        19 -12.3679     74.6578    175.5345   1.1271386276e+02   2.9177468100e+01    0.4653571    0.3395307 -36.36  0.001824785    1.999    0.500
        20 -12.3004     79.0001    170.0648   1.1098165496e+02   2.9787930325e+01    0.3424971    0.2561482 -57.22  0.001937358    1.401    0.286
        21 -11.9081     45.8068    172.9696   1.1891986043e+02   3.3470869631e+01    0.3878603    0.3493379  68.68  0.001999317    1.209    0.173
        22 -10.7690     55.7257    174.7242   1.1689534921e+02   3.1883865241e+01    0.3630507    0.1963154  53.00  0.001896133    1.748    0.428
        23 -11.4883    131.7862    172.4087   9.9081371408e+01   2.0407113543e+01    0.4049012    0.2440699  22.43  0.001471891    2.519    0.603
        24 -10.5037    230.3763    166.5875   7.7448145066e+01   2.3249604188e+00    0.2618775    0.1084845 -47.29 0.0009513664    3.294    0.696
        25 -10.0334    161.6785    166.3574   9.1207189774e+01   1.5854958382e+01    0.2401085     0.216229  80.31 0.0006800134    1.247    0.198
        26 -14.9010     85.3603    229.7137   1.1647950488e+02   1.6576293753e+01     1.852787     1.133936 -70.61   0.00862251    1.756    0.430
        27  -9.4380    156.4140    159.4482   9.0975662958e+01   1.8321733053e+01    0.1456151     0.140925  56.72 4.670309e-05    1.028    0.027
        28 -12.2704     92.8923    154.3408   1.0520557240e+02   3.1282827453e+01    0.6141453    0.4481617 -26.02  0.002969302    2.061    0.515
        29 -11.4041    133.8783    145.2091   9.3272053894e+01   2.5942077583e+01      1.17853    0.3193922 -55.41  0.002924247    5.370    0.814
        30 -10.6744    174.3685    148.8505   8.4704967151e+01   1.6742540748e+01    0.3121974    0.2720875  85.39  0.000952801    1.385    0.278
        31  -9.2252    108.8425    146.8976   9.9843815714e+01   3.0305983990e+01    0.1959815    0.1617333  82.97   0.00101681    1.277    0.217
        32 -10.6371    143.6092    145.8488   9.1064167544e+01   2.3829945317e+01    0.3111635    0.1940825 -62.69  0.001300853    1.941    0.485
        33 -10.5924     86.9582    145.4198   1.0516277349e+02   3.4328176687e+01    0.3075464     0.254429 -81.40 0.0008323162    1.147    0.128
        34 -11.2988    105.8583    139.3286   9.9106719247e+01   3.2606057442e+01     0.572026    0.3897313 -29.82  0.002549388    2.030    0.507
        35 -12.3389     93.2000    139.6449   1.0247692083e+02   3.4698912488e+01    0.2762274    0.2492514 -50.53 0.0004353281    1.171    0.146
        36 -15.6335     56.1643    204.7670   1.1980170065e+02   2.5371633212e+01     9.015238     1.916994  54.45   0.02516335    6.895    0.855
        37 -11.2393    135.7175    127.8737   8.8900846758e+01   2.9447402373e+01    0.6809219    0.1493848 -50.39   0.00163229    5.178    0.807
        38 -10.8232    105.9643    130.7995   9.7294666748e+01   3.4593873718e+01    0.3578947    0.3040626 -80.40  0.001150945    1.209    0.173
        39 -10.8698    113.6520    130.2359   9.5133209343e+01   3.3306527378e+01    0.3397523    0.2834959 -28.26 0.0007894919    1.399    0.285
        40 -10.0787    160.7574    127.8612   8.2850965334e+01   2.4026839356e+01     0.309492    0.2206614 -62.42  0.001357187    1.672    0.402
        41 -10.9757    101.0387    126.2315   9.7628771136e+01   3.6551869613e+01    0.2966031     0.252085 -25.82  0.001213724    1.395    0.283
        42 -11.1746    119.7295    123.4191   9.1960968718e+01   3.3713795285e+01    0.5644141    0.3444782 -19.67    0.0019503    3.250    0.692
        43 -12.3805    193.0611    194.7755   9.0115415871e+01   4.6281044889e+00     1.134924    0.5951358 -63.10  0.003481426    6.039    0.834
        44 -10.1292    109.1988    119.0766   9.3763485584e+01   3.6749531266e+01     0.229278    0.2126067  48.17 0.0002859947    1.121    0.108
        45  -9.9299    167.6111    112.4353   7.7360551355e+01   2.5670554695e+01    0.3451552    0.2446273 -73.65  0.001421298    2.011    0.503
        46  -9.5730    135.0000    112.9994   8.5376212155e+01   3.2913285752e+01    0.2636379   0.08801454 -45.51  0.000802516    2.943    0.660
        47 -11.7969    118.6968    109.9550   8.8900574480e+01   3.7001135323e+01    0.5985309    0.5048171  83.44  0.002721489    1.378    0.274
        48 -10.2457    205.4849    110.2475   6.8994679800e+01   1.7267150784e+01    0.3087558    0.2397864  41.64 0.0008304077    1.351    0.260
        49  -9.7949    134.6545    105.5231   8.3479217307e+01   3.4628840704e+01    0.2858168    0.1451696 -44.79  0.001083878    1.930    0.482
        50 -10.1522     66.2311    104.4014   1.0289368318e+02   4.7208403330e+01    0.1877566    0.1276188  47.91 0.0007820601    1.661    0.398
        51 -11.0289     62.5345     99.5669   1.0296141014e+02   4.8844122148e+01    0.4272537    0.1725333  43.48  0.001693224    2.862    0.651
        52 -11.8282     42.1438     91.1705   1.0770518297e+02   5.3175886204e+01    0.4146952    0.2099526 -49.52  0.001281928    1.694    0.410
        53 -11.2612     52.3221     90.8291   1.0425943207e+02   5.2150199386e+01     0.270188    0.1923112  27.06  0.001139223    1.643    0.391
        54 -12.2635    107.8251    203.4029   1.0909396856e+02   1.8178871381e+01    0.4678557    0.2854323  56.26  0.001649022    1.526    0.345
        55 -10.1737     94.5778    250.3189   1.1668932289e+02   1.1695875969e+01    0.2023819    0.1028984  51.13 0.0006016339    1.522    0.343
        56  -9.1643    156.3602     80.8178   7.1028919392e+01   3.4631232940e+01    0.2199896    0.1487095 -26.72 0.0004133825    1.630    0.387
        57  -8.9580    184.3517     77.3179   6.4122164765e+01   2.8311418424e+01    0.1619826    0.1210661  20.19 0.0007047302    1.740    0.425
        58 -10.0353     64.8202     70.0995   9.4432743123e+01   5.5211000944e+01    0.1941145    0.1768816 -56.31 0.0003058688    1.161    0.138
        59 -10.9719    155.9552     58.3485   6.4142682263e+01   3.8712440544e+01     0.351997    0.2747724 -84.85   0.00132663    1.581    0.367
        60 -10.6121     71.8984    230.6834   1.1906135779e+02   1.8270590508e+01    0.3010722    0.1771131  40.59  0.001269268    1.603    0.376
        61 -10.7143     97.8197    200.5555   1.1082577511e+02   2.0340286957e+01    0.3089863    0.2394801  -1.36 0.0007926951    2.270    0.559
        62 -10.0187    131.0199    214.0779   1.0575422465e+02   1.2312207806e+01    0.1928222    0.1639215  56.21 0.0003452798    1.041    0.039
        63 -11.1882    106.6821    210.8255   1.1026729189e+02   1.6910131823e+01    0.4078391    0.2447754  39.75   0.00179888    1.554    0.357
        64 -10.6366    158.4509     52.4611   6.1731293696e+01   3.9022567137e+01    0.2823882    0.2459892 -73.25  0.000409514    1.257    0.204
        65 -11.0952    113.5073    208.2819   1.0855064469e+02   1.6302673680e+01     0.270099    0.1865861  63.13 0.0006243269    1.403    0.287
        66  -9.8954    189.6623     15.0035   4.5151772131e+01   3.5865603101e+01    0.1909567     0.174159 -45.97 0.0006494733    1.145    0.127
        67 -10.4682     74.1610     12.6853   6.8544811806e+01   6.3488634291e+01    0.2446372    0.1178592  56.28  0.001082933    2.648    0.622
