#   1 NUMBER                 Running object number                                     
#   2 MAG_AUTO               Kron-like elliptical aperture magnitude                    [mag]
#   3 X_IMAGE                Object position along x                                    [pixel]
#   4 Y_IMAGE                Object position along y                                    [pixel]
#   5 X_WORLD                Barycenter position along world x axis                     [deg]
#   6 Y_WORLD                Barycenter position along world y axis                     [deg]
#   7 A_WORLD                Profile RMS along major axis (world units)                 [deg]
#   8 B_WORLD                Profile RMS along minor axis (world units)                 [deg]
#   9 THETA_WORLD            Position angle (CCW/world-x)                               [deg]
#  10 FWHM_WORLD             FWHM assuming a gaussian core                              [deg]
#  11 ELONGATION             A_IMAGE/B_IMAGE                                           
#  12 ELLIPTICITY            1 - B_IMAGE/A_IMAGE                                       
         1 -14.2559    204.1290     22.9356   5.6774040705e+01   3.0858511067e+01     2.683642     1.419897  25.71   0.01048402    2.908    0.656
         2 -10.7434      2.0147      3.4788   1.1538434764e+02   7.4784139488e+01    0.3564092    0.1194854 -52.36  0.001773229    2.133    0.531
         3 -10.6578    228.1857      1.5278   4.8700337689e+01   2.7084031916e+01    0.4971205    0.1321919  73.12  0.001785172    3.601    0.722
         4 -11.1945     64.3763    223.2805   1.3045285847e+02   2.2390262075e+01    0.2911374    0.1149872  54.44  0.001527636    2.271    0.560
         5 -11.7589    162.7144    249.8528   1.1470351659e+02   5.2389806019e+00    0.3837382    0.1839532  36.62  0.002266967    1.523    0.343
         6 -13.2845    139.4213    248.4361   1.1874103942e+02   8.7030982717e+00      1.01803    0.3303896  40.12  0.005002648    2.233    0.552
         7 -13.2735    126.5732    247.3430   1.2095886465e+02   1.0631938102e+01     0.939089    0.4332092  40.91  0.005504504    1.590    0.371
         8 -12.1085     89.3005    247.3921   1.2768009806e+02   1.5536074235e+01    0.4058025    0.3463691  16.41   0.00322424    1.546    0.353
         9 -12.5346     82.1578    246.9153   1.2891340925e+02   1.6490119192e+01    0.4776171    0.3069115 -68.68  0.003473185    1.915    0.478
        10 -13.8849    102.3446    245.0537   1.2514596691e+02   1.4210709004e+01     1.331771    0.5426342  37.72  0.007406734    1.872    0.466
        11 -11.7448     62.8173    249.6733   1.3246946683e+02   1.8353843312e+01    0.4516908    0.1354379  46.36  0.001876358    2.273    0.560
        12 -12.3482     23.0946    194.2493   1.3660143236e+02   3.1950541766e+01    0.4383226    0.3914883  87.02 0.0005537819    1.254    0.203
        13 -14.7776     34.8243    246.8282   1.3704674474e+02   2.1776899634e+01     10.11582      3.21848  25.51   0.03341764    8.845    0.887
        14 -12.8487     37.2505    223.0956   1.3547328610e+02   2.5385302987e+01    0.2889515    0.2765164  89.05 0.0007826709    1.420    0.296
        15 -14.8851     46.3026    212.1243   1.3313502513e+02   2.6358165734e+01     1.961613     1.270798  36.56   0.01157783    1.458    0.314
        16 -11.4177     53.6374    229.7950   1.3288182616e+02   2.2520999585e+01    0.3547021    0.1608372 -80.09  0.002105916    2.488    0.598
        17 -10.7555     46.9165    231.5049   1.3419534104e+02   2.2968940048e+01    0.2053514    0.1169158  62.61 0.0006841416    1.464    0.317
        18 -10.9991    224.5908    198.6734   9.5908617877e+01   2.1690282896e+00    0.2683363     0.207534 -39.68 0.0008909563    1.827    0.453
        19 -10.2330    193.1127    195.1080   1.0114998634e+02   7.7401560868e+00    0.5495028    0.2872262 -58.36  0.001744175    7.046    0.858
        20 -11.7195     63.5386    191.1784   1.2801403138e+02   2.8311431804e+01    0.3091543    0.2531121 -38.95  0.001341759    1.671    0.402
        21 -11.7564     69.0944    184.1646   1.2612830568e+02   2.9009486131e+01    0.2334709    0.2214812 -44.37 0.0005114977    1.329    0.248
        22 -11.0534     78.6558    172.7448   1.2268428491e+02   3.0085620367e+01    0.2134251    0.2078295  85.75 0.0004505763    1.158    0.136
        23 -13.3370     65.8959    169.8268   1.2534124479e+02   3.2319540501e+01    0.4511496    0.2608721 -45.35  0.001682011    2.224    0.550
        24 -12.2663     85.6935    164.6326   1.1996891072e+02   3.0805214135e+01     0.889429    0.4815755  51.80  0.001712892    1.844    0.458
        25 -13.1500     67.7848    144.7671   1.2175521210e+02   3.7504856139e+01     1.162255    0.6411583  81.49  0.003611549    2.640    0.621
        26 -12.3593     57.8264    131.8925   1.2262819279e+02   4.1628562947e+01     1.847124    0.6137837 -78.53  0.004346634    8.501    0.882
        27 -13.3710      5.5618    246.5597   1.4175326633e+02   2.4541620316e+01     1.345801    0.6808279  83.75   0.01014667    1.747    0.428
        28 -10.5940     42.1528    231.6660   1.3505247520e+02   2.3444832431e+01    0.1655788    0.1106621  72.01 0.0003873004    1.288    0.224
        29  -9.9198     98.9510    149.0182   1.1429189772e+02   3.2156357163e+01    0.2868587    0.2158612 -48.32 0.0007859383    1.416    0.294
        30  -9.1677    101.7945    145.0096   1.1286816520e+02   3.2569038107e+01    0.2753315    0.1629548 -30.65  0.001163746    2.546    0.607
        31 -12.0197     87.3497    147.9324   1.1710834666e+02   3.4144382212e+01    0.2581549    0.2328005 -39.38 0.0005440912    1.245    0.196
        32 -10.6210     38.8770    146.9533   1.2950841694e+02   4.0228179342e+01    0.2228464    0.1587784  56.18  0.001057546    1.330    0.248
        33  -9.6693    109.8956    135.2244   1.0890775695e+02   3.3339481290e+01    0.2671307     0.179896 -24.47 0.0009995486    2.064    0.515
        34 -10.6463     97.3568    131.9973   1.1165988613e+02   3.6133207536e+01    0.2733375     0.222402 -22.51 0.0004838542    1.480    0.324
        35  -8.7342    116.3117    128.3128   1.0576945987e+02   3.3699114753e+01    0.1463372    0.1142735  -7.44 0.0004970471    1.632    0.387
        36  -9.3140    107.0299    122.5018   1.0704856529e+02   3.6616554919e+01    0.1937075    0.1902163 -36.82 0.0003588472    1.030    0.029
        37 -13.6285     14.3334    240.6071   1.4017118545e+02   2.4697042204e+01     1.161079    0.6285414  60.66  0.005916815    1.333    0.250
        38 -10.8265    167.8181    112.9611   8.9186210570e+01   2.6278357027e+01    0.3496347    0.3076118 -80.78  0.001142082    1.494    0.331
        39 -11.5963     83.5290    230.5012   1.2739807743e+02   1.8866004220e+01    0.3255089    0.1503633  38.87  0.001881075    1.703    0.413
        40  -9.5537    204.8960    110.6586   8.0896899881e+01   1.8498222991e+01    0.3047765     0.119263  42.57  0.001102296    2.564    0.610
        41 -10.2512      1.6804     89.4896   1.3424718107e+02   5.6012130825e+01    0.2174487   0.08740746 -75.66  0.001073198    1.968    0.492
        42 -11.0071      1.9194     81.6235   1.3331035386e+02   5.7811361509e+01    0.3896344    0.1181574 -77.10  0.001640311    2.760    0.638
        43  -9.6289    157.8063     78.3852   8.1824056457e+01   3.4845092007e+01    0.2252138    0.1387368  40.15 0.0003835888    1.631    0.387
        44  -8.6027    184.6653     77.6617   7.5890098444e+01   2.8444755313e+01    0.1645589    0.1143517  17.85 0.0007051672    1.749    0.428
        45 -15.9044      9.2008    207.2707   1.3984582960e+02   3.0758406171e+01      8.09577     1.451582 -78.61   0.02022812    4.940    0.798
        46  -9.9804    189.7246     15.4226   5.6288903658e+01   3.5311934628e+01    0.2022661    0.1207893  57.40 0.0008292475    1.579    0.367
        47 -12.1660     55.3525    239.5246   1.3316356687e+02   2.0756596369e+01      0.35098    0.2305662  63.81 0.0006540436    1.262    0.208
