#   1 NUMBER                 Running object number                                     
#   2 MAG_AUTO               Kron-like elliptical aperture magnitude                    [mag]
#   3 X_IMAGE                Object position along x                                    [pixel]
#   4 Y_IMAGE                Object position along y                                    [pixel]
#   5 X_WORLD                Barycenter position along world x axis                     [deg]
#   6 Y_WORLD                Barycenter position along world y axis                     [deg]
#   7 A_WORLD                Profile RMS along major axis (world units)                 [deg]
#   8 B_WORLD                Profile RMS along minor axis (world units)                 [deg]
#   9 THETA_WORLD            Position angle (CCW/world-x)                               [deg]
#  10 FWHM_WORLD             FWHM assuming a gaussian core                              [deg]
#  11 ELONGATION             A_IMAGE/B_IMAGE                                           
#  12 ELLIPTICITY            1 - B_IMAGE/A_IMAGE                                       
         1 -18.9759    132.2605    132.0592   1.1220771614e+02   2.9797164662e+01     7.475674     4.292071  62.06   0.02981554    2.223    0.550
         2 -14.8080    235.4735     68.7018   7.5648719271e+01   1.7561408395e+01      2.15611     1.106645 -66.91  0.007782531    3.225    0.690
         3 -15.5956     79.3863     49.0066   1.0334860280e+02   5.7381224404e+01     1.676238    0.9703397 -18.86  0.007263579    2.370    0.578
         4 -15.7442    117.8577     60.8611   9.5928106627e+01   4.7678803765e+01     2.016203     1.364896  -7.93  0.008732107    2.075    0.518
         5 -15.6710    101.3385     61.1939   1.0074540791e+02   5.1077068677e+01     1.065773    0.8964012  -8.25  0.005146487    1.279    0.218
         6 -14.8084    143.6390     41.1262   8.2801341436e+01   4.4778090955e+01     1.056034    0.9775029  84.53  0.004900817    1.138    0.121
         7 -14.0994     97.2231     32.3818   9.1126663742e+01   5.6695897099e+01    0.6125253    0.3416854  15.16  0.002365655    3.045    0.672
         8 -13.7515    219.1975     30.0783   6.7613868839e+01   2.6850097486e+01    0.4489973     0.325846 -40.68  0.002393831    1.300    0.231
         9 -14.7874    164.3637     17.3484   7.0975742087e+01   4.2442767020e+01     0.931541    0.6366447 -35.14  0.004717529    1.507    0.337
        10 -13.9858    156.0226      6.1296   6.8491988195e+01   4.5713941931e+01    0.7474197     0.495252 -66.01  0.003694922    1.762    0.432
        11 -14.3293     64.2786     10.6038   9.2133872577e+01   6.5765584079e+01    0.4813594     0.285015   3.58  0.002459742    2.034    0.508
        12 -15.9847     38.6021    157.3101   1.3942613783e+02   3.8623593156e+01     1.593042    0.6961558 -50.07  0.007269926    2.891    0.654
        13 -16.4359    159.2214    241.7375   1.2513883986e+02   4.3834215450e+00     3.054016    0.9779429  42.61   0.01356052    2.464    0.594
        14 -17.6261    214.4887    195.4505   1.0792799400e+02   1.6514412598e+00     5.432709     2.910058 -21.57   0.02531859    2.425    0.588
        15 -16.1624     48.6352    136.8514   1.3446310095e+02   4.2200015165e+01     1.506579    0.8796628 -56.82  0.008073035    1.607    0.378
        16 -13.3693    250.3159    137.1336   8.9835530114e+01   3.7877489672e+00     1.408594     0.152655 -34.67  0.003102497    7.965    0.874
        17 -12.3174     25.1425    140.4712   1.4078459570e+02   4.3788445724e+01    0.2775585    0.1801019 -42.96  0.001616138    2.014    0.504
        18 -15.1950    141.8361     88.5559   9.8540441281e+01   3.6963383618e+01      1.62699    0.9140852  72.87  0.005393425    3.287    0.696
        19 -14.3238    151.5773     85.2862   9.5266444434e+01   3.5310783289e+01    0.7592657    0.7063956 -56.25  0.003130724    1.074    0.069
        20 -13.4486    154.3587     80.1765   9.3108158395e+01   3.5609667841e+01    0.5348748    0.4670855  73.68  0.001826847    1.221    0.181
        21 -14.7430     16.4030     90.9481   1.3662619514e+02   5.5862807655e+01    0.5982633    0.5302046  45.33  0.004339086    1.380    0.275
        22 -14.2136    168.8047     87.7382   9.2174560782e+01   3.0662946920e+01    0.5966907    0.4194784 -53.94  0.002418207    1.523    0.343
        23 -13.4865    164.9033     81.0794   9.1066219794e+01   3.2856314176e+01     0.534953    0.3017665 -43.59  0.002176033    1.755    0.430
        24 -13.4425    172.0898     80.2426   8.9323955874e+01   3.1223971029e+01    0.5496898    0.3517906 -59.39   0.00207758    1.901    0.474
        25 -13.6527    174.8804     75.6711   8.7424017341e+01   3.1335343218e+01    0.4742053    0.3625163 -38.59  0.001551183    1.286    0.222
        26 -13.9259    166.5753     70.2801   8.7482487995e+01   3.4363504589e+01     1.521168    0.8466432  43.89  0.006118116    1.935    0.483
        27 -13.3336    125.3096     74.1203   9.8314445277e+01   4.3558546896e+01    0.5234056    0.3923468  49.61  0.001978845    1.369    0.270
        28 -14.2878     38.0952    228.6865   1.4536313153e+02   2.4070937896e+01    0.3173263    0.2869808  50.63  0.002583671    1.560    0.359
        29 -15.3171     78.1715     61.5550   1.0821381072e+02   5.5220749572e+01     1.280581    0.6984901  21.87  0.005248465    2.813    0.645
        30 -14.7785     23.9063    180.0876   1.4465649288e+02   3.5180413711e+01    0.7558938    0.4843314  87.18  0.004975531    1.231    0.188
        31 -14.5294    111.4731     47.9821   9.3102111532e+01   5.1284862686e+01    0.6833397    0.4721125  85.52   0.00294349    2.467    0.595
        32 -13.0135    147.2363    181.5069   1.1858389818e+02   1.6555376184e+01    0.3881571    0.2501646 -58.78  0.001753891    1.759    0.432
        33 -13.3162     40.7307    178.7300   1.4109038525e+02   3.3676815114e+01    0.5481785    0.1532905 -57.61  0.002198745    3.705    0.730
        34 -12.9116    133.6410    229.6751   1.2827677315e+02   1.0371267546e+01     0.243089    0.1903396 -50.46  0.001605156    1.591    0.371
        35 -14.6917    153.2278     44.7342   8.2048392450e+01   4.1843343291e+01    0.9360502    0.4625191 -32.31  0.003775348    2.030    0.507
        36 -14.5993    150.7724     58.5161   8.7115816071e+01   4.0316739145e+01     1.506234    0.7519373  43.76  0.005807728    2.150    0.535
        37 -12.7752    211.0952     60.2241   7.6805520980e+01   2.4707845797e+01    0.3497418    0.2005383 -38.42   0.00154174    1.630    0.386
        38 -16.0274     75.2394     70.3125   1.1202700794e+02   5.3915381452e+01     2.157826     1.128125  42.12  0.009867465    2.124    0.529
        39 -14.2309    128.4243     78.6991   9.8938617253e+01   4.1972291433e+01    0.6928409    0.5006196 -49.13  0.002983036    1.394    0.283
        40 -14.1917     63.9575     46.5470   1.0788579785e+02   6.0298598264e+01    0.4965254    0.3602958 -85.92  0.002352542    2.813    0.644
        41 -14.1088    159.9805     52.1821   8.3143334266e+01   3.9005116184e+01    0.7282541     0.673708  42.26  0.003167109    1.100    0.091
        42 -14.7351    226.8301     42.1934   6.9921202340e+01   2.3403570154e+01    0.7816354    0.4395438 -69.50  0.003361343    2.190    0.543
        43 -14.8036    172.3990     49.7799   8.0031698812e+01   3.6176587728e+01     1.851812    0.6567056  43.22  0.005548615    3.765    0.734
        44 -16.3064    133.3039    163.9010   1.1847072534e+02   2.2731674856e+01     1.538383     1.004554  38.44  0.004899787    1.571    0.363
        45 -15.4640    204.5529    153.6785   1.0144719373e+02   1.0223645745e+01     1.558524     1.158834   2.88  0.007097226    1.645    0.392
        46 -14.2045    185.8499     31.3685   7.2201386131e+01   3.5203367024e+01    0.8671197    0.3736892  66.70  0.003374242    2.249    0.555
        47 -16.5125    185.6947    151.2764   1.0462788886e+02   1.4584750836e+01     2.631534      1.73754   3.01   0.01073959    2.555    0.609
        48 -16.1745    187.4207    218.4828   1.1676806371e+02   3.0292427942e+00     2.074128     1.607721   3.39   0.01278296    1.507    0.337
