#   1 NUMBER                 Running object number                                     
#   2 MAG_AUTO               Kron-like elliptical aperture magnitude                    [mag]
#   3 X_IMAGE                Object position along x                                    [pixel]
#   4 Y_IMAGE                Object position along y                                    [pixel]
#   5 X_WORLD                Barycenter position along world x axis                     [deg]
#   6 Y_WORLD                Barycenter position along world y axis                     [deg]
#   7 A_WORLD                Profile RMS along major axis (world units)                 [deg]
#   8 B_WORLD                Profile RMS along minor axis (world units)                 [deg]
#   9 THETA_WORLD            Position angle (CCW/world-x)                               [deg]
#  10 FWHM_WORLD             FWHM assuming a gaussian core                              [deg]
#  11 ELONGATION             A_IMAGE/B_IMAGE                                           
#  12 ELLIPTICITY            1 - B_IMAGE/A_IMAGE                                       
         1 -13.1098    199.6086     27.9072   5.4819226699e+01   3.1589130571e+01    0.6846208    0.6296565  -0.15  0.003806266    1.165    0.141
         2 -12.0053    206.9592     19.5412   5.1381813567e+01   3.0610707234e+01    0.4611839    0.3037772  23.50  0.001112484    1.965    0.491
         3 -13.0627      9.4348     12.5217   1.0735203751e+02   7.2210953490e+01    0.9226542    0.5877112 -62.53  0.005954698    1.518    0.341
         4 -12.4206      2.9212      4.6594   1.0799434422e+02   7.4078411332e+01    0.8950075     0.276651 -50.92  0.004547799    2.162    0.537
         5 -12.1539     45.7217     17.5705   9.1022556889e+01   6.7798357665e+01    0.6474971    0.3819708  16.82  0.003413526    2.128    0.530
         6 -12.3329     57.4750     13.7738   8.4019616555e+01   6.6760655778e+01    0.5219793    0.3167809 -20.90  0.002757497    1.674    0.403
         7 -13.0110    213.9165     10.6560   4.8027748958e+01   2.9738462356e+01    0.7227781    0.6381789 -76.72  0.003460321    1.090    0.083
         8 -12.4325    141.6052      7.0059   5.6621168253e+01   4.9386262673e+01    0.5940452    0.4369599  56.13  0.003039435    1.262    0.208
         9 -11.0728     95.1824      4.1716   6.5923680479e+01   6.0936250309e+01    0.1831212    0.1660008 -53.26  0.001092202    1.356    0.262
        10 -12.3039      2.1037     19.6913   1.1375560449e+02   7.1211551858e+01    0.6319475    0.4271075 -78.44  0.004046184    1.626    0.385
        11 -10.3747     40.2982      3.1065   8.6301239662e+01   7.0840888466e+01    0.2063956    0.1305763 -21.22  0.001207997    1.448    0.309
        12 -10.5058      7.9896    200.9542   1.3195542865e+02   3.3127827794e+01     0.252398     0.122966  67.99  0.001744143    1.532    0.347
        13 -12.1655    112.6031    235.2538   1.1610461576e+02   1.5045125073e+01    0.4323891    0.3513139 -32.30  0.002676081    2.016    0.504
        14 -12.7665    108.2344    245.3323   1.1771627132e+02   1.4235140886e+01    0.6621814    0.5016828  16.15  0.004669259    2.175    0.540
        15 -14.7176    123.5997    243.8441   1.1503640068e+02   1.2277074732e+01     1.563687     1.283639  82.55   0.01237566    1.397    0.284
        16 -14.8022    131.8983    233.5613   1.1262837369e+02   1.2467347473e+01     1.690676     1.199426  14.52  0.009787665    2.269    0.559
        17 -10.1969     86.1435    249.2302   1.2161266415e+02   1.6635283321e+01    0.3497564    0.1245033  49.57   0.00202394    1.972    0.493
        18  -9.8852     86.6677    244.0977   1.2116489321e+02   1.7301228332e+01    0.2134924    0.1552422  68.45  0.001179804    1.191    0.160
        19 -15.5081     56.3685    209.0521   1.2386286589e+02   2.6682248353e+01     3.044367     2.435081  49.64   0.02374444    1.300    0.231
        20 -12.5656     29.5166    212.1481   1.2876948822e+02   2.9122002176e+01    0.5051503    0.2878668  61.15  0.002385605    1.280    0.219
        21 -16.0172     65.8379    162.3633   1.1784307910e+02   3.4340844853e+01     3.342072     2.167783 -49.35   0.01942335    1.974    0.493
        22 -15.1764     35.4196    244.5628   1.2933694926e+02   2.3292940345e+01     1.496228    0.3145356  40.38  0.007674824    3.227    0.690
        23 -14.1704     11.3932    234.0902   1.3261391030e+02   2.7308706231e+01    0.8603724       0.3288  76.39  0.005559078    2.225    0.551
        24 -10.0398    128.0440    204.1536   1.1003286289e+02   1.7455460631e+01    0.1915392    0.1742165 -79.02  0.001385512    1.284    0.221
        25 -10.4145     28.6617    195.5063   1.2802923125e+02   3.2145887134e+01    0.4287355    0.1239994  42.10  0.002268932    2.589    0.614
        26 -11.0704     15.3526    195.1523   1.3041418679e+02   3.3495704654e+01    0.2678317    0.1672312  60.04  0.001217925    1.204    0.170
        27 -12.0210      1.9737    190.1746   1.3258010639e+02   3.5569772509e+01    0.3633691    0.1386713 -81.70  0.001908522    2.192    0.544
        28 -14.5625     78.3031    174.1796   1.1646678218e+02   3.0319222693e+01     1.608818    0.9199055  26.59  0.007503855    2.489    0.598
        29 -10.7237    126.9221    188.4060   1.0823192001e+02   2.0257515402e+01    0.2966496    0.2323022  36.15  0.001762449    1.290    0.225
        30  -9.7940     32.9649    186.7153   1.2669597165e+02   3.3331554770e+01    0.4038888    0.3012192 -89.31  0.003074708    1.209    0.173
        31 -11.8342     34.1605    183.1614   1.2623318030e+02   3.3879664669e+01     0.607591    0.3408875 -89.21  0.003879823    1.559    0.359
        32 -12.1827    143.9099    179.8718   1.0359424262e+02   1.8819841745e+01    0.6018282    0.4930707  14.07  0.002725953    1.529    0.346
        33 -12.2434    112.3929    180.0758   1.1006245759e+02   2.4105978437e+01      1.00837       0.4929  31.83  0.004564882    2.557    0.609
        34 -10.4758    157.5127    178.4748   1.0065222045e+02   1.6619921245e+01    0.2957754    0.1313507 -50.46  0.001316737    2.718    0.632
        35 -10.6790    155.1876    174.4000   1.0044890091e+02   1.7720224417e+01    0.3116694    0.1800586  42.08  0.001586217    1.515    0.340
        36 -10.4470     12.8416    177.6317   1.3001318308e+02   3.6972448058e+01    0.2311939    0.1277847 -82.18  0.001445964    1.529    0.346
        37 -12.0399      5.5560    180.5318   1.3152700996e+02   3.7048058485e+01    0.4401738    0.1700912  49.85  0.002048349    1.996    0.499
        38 -12.0203    131.6358    170.2180   1.0462370633e+02   2.2683092831e+01    0.9020851     0.613935   9.42  0.004183769    2.764    0.638
        39 -12.6046    146.1448    166.0610   1.0090443200e+02   2.0823521840e+01     1.080301    0.4310817  35.67  0.004107258    2.883    0.653
        40 -11.0847     18.1541    168.2059   1.2844018558e+02   3.8326659536e+01    0.3294829    0.1917523  82.27  0.001338256    1.383    0.277
        41 -10.5866    100.1626    163.3694   1.1038829816e+02   2.9239534779e+01     0.307269    0.2308928  41.21  0.001831756    1.325    0.245
        42 -12.4538    156.3682    157.4377   9.7236030331e+01   2.0428628092e+01    0.6897919    0.6066121 -75.79  0.004064789    1.321    0.243
        43 -12.0046     28.0023    157.5439   1.2565704960e+02   3.9556529908e+01    0.5136091    0.3685937 -83.40  0.002318618    1.198    0.165
        44 -11.3288     41.5448    126.9925   1.1951988217e+02   4.4735325270e+01    0.4069599    0.3627297  50.22  0.002835179    1.273    0.214
        45 -11.2557     42.7587    121.3998   1.1850886562e+02   4.5852153340e+01    0.3424504    0.2338087 -61.90  0.001877642    1.371    0.270
        46 -11.2634     39.5180    149.1944   1.2238735964e+02   4.0143882682e+01    0.3942814    0.3309018  59.24  0.001941864    1.202    0.168
        47 -13.2249     44.4640    140.4576   1.2034029644e+02   4.1484228695e+01    0.9816467    0.7030407  53.74  0.005109759    1.328    0.247
        48 -11.7101      6.1441    147.6478   1.2970275286e+02   4.3454981364e+01    0.5086852    0.2510445  56.85  0.002768354    1.758    0.431
        49 -12.3425    102.5404    143.0662   1.0672893432e+02   3.2999048462e+01    0.7350457    0.3594939 -49.62  0.002781551    2.216    0.549
        50 -14.0277      8.0691    122.8483   1.2754701601e+02   4.8528239997e+01     1.216478     1.023013  88.76  0.007693233    1.130    0.115
        51 -10.9601    168.3954    133.5325   8.9861224522e+01   2.2281901058e+01    0.3929172    0.1406314 -41.47  0.001391198    2.969    0.663
        52 -11.5939    160.6068    143.9868   9.3728149816e+01   2.2003051456e+01    0.4851578    0.2925946 -43.45  0.002305733    1.796    0.443
        53 -14.1062     63.6738    243.8898   1.2487133349e+02   2.0203394015e+01     1.368715    0.7129363  41.67  0.009497186    1.615    0.381
        54 -12.6717      3.6749    134.3725   1.2942371734e+02   4.6386034226e+01    0.5601072    0.3600548  74.58  0.003608533    1.265    0.210
        55 -10.2351     99.3709    129.2027   1.0506682844e+02   3.6468886609e+01    0.2427093    0.2130871 -11.44 0.0009072463    1.527    0.345
        56 -12.8548     91.0227    118.6552   1.0522322764e+02   4.0129108244e+01    0.5396878    0.4564137 -77.92  0.002702023    1.130    0.115
        57 -13.3201     42.6493     85.1336   1.1284367520e+02   5.4077017811e+01     1.429067    0.7914402 -82.43  0.006942426    2.071    0.517
        58 -13.0943     31.6125    107.6003   1.1974454265e+02   5.0027963274e+01       1.4216    0.5346658 -73.40  0.006098387    2.336    0.572
        59 -12.0474     38.2623     96.3813   1.1618053289e+02   5.1951389500e+01    0.6367279    0.4347576  24.17   0.00381346    1.826    0.452
        60 -11.9682     45.7013    113.2579   1.1660523764e+02   4.7370686544e+01    0.6352911    0.3933655  47.66  0.003644711    1.670    0.401
        61  -9.3925    167.6551    112.3543   8.5081186277e+01   2.6302559879e+01    0.1558617    0.1194987 -83.13 0.0007037859    1.823    0.452
        62 -15.4543      5.8189    246.2889   1.3381792226e+02   2.5964343997e+01    0.7420334    0.3792088  63.34   0.00567945    1.272    0.214
        63 -12.7657     84.3055    105.4881   1.0439877899e+02   4.4112886748e+01    0.5228835    0.3927101  43.96  0.002513278    1.390    0.280
        64 -12.4280     74.6468    101.0234   1.0622624028e+02   4.6553343192e+01     0.977083    0.4242925  52.52  0.003878566    2.912    0.657
        65 -12.5343      4.7693     90.0044   1.2541387287e+02   5.5928982653e+01     1.112669    0.6907286   5.94   0.00704578    2.329    0.571
        66 -12.5187     14.1723     99.4985   1.2370836012e+02   5.3228089072e+01    0.7287157    0.4678627  87.89  0.003678539    1.367    0.269
        67 -12.2543     14.8370     90.4403   1.2242863404e+02   5.5206317348e+01    0.7989647    0.3046312  40.69  0.004020678    2.811    0.644
        68 -11.8587     58.9612     78.6712   1.0613691566e+02   5.3697805417e+01    0.8890029    0.4244635 -51.43   0.00416088    1.840    0.457
        69 -10.9886     21.1558     78.9139   1.1877540738e+02   5.7352030323e+01    0.3332012     0.239479 -54.20  0.002178365    1.272    0.214
        70 -13.3330     41.4250     61.0801   1.0797127518e+02   5.9588322630e+01     1.127924    0.7430393  23.93  0.006085089    1.831    0.454
        71 -12.3344     45.7460     48.3369   1.0273250182e+02   6.1866304772e+01    0.6612703    0.5116709  -6.73  0.004030639    1.533    0.348
        72 -11.5814     22.1755     61.7624   1.1531143727e+02   6.1109611794e+01    0.4872954    0.3039694  28.23  0.002742227    1.934    0.483
        73 -12.0194    111.3067     44.6858   7.8622662534e+01   5.1645450697e+01    0.5742912    0.4500046  64.96  0.002915881    1.502    0.334
        74 -12.1408    191.3138     34.1284   5.7913708725e+01   3.3024257060e+01    0.4621394    0.2713572  43.71  0.001922054    1.819    0.450
        75 -11.0699     53.9127     32.6246   9.3883669203e+01   6.4008216099e+01    0.2787383    0.1789102 -43.69  0.001107174    1.359    0.264
        76 -13.9163    182.0707    245.5096   1.0552682753e+02   3.4045676840e+00    0.6406245    0.4223343  34.73  0.004580715    1.161    0.139
        77  -9.9295     98.2194    240.8083   1.1900793514e+02   1.6243625319e+01    0.1664304    0.1036714  57.00 0.0008566612    1.233    0.189
        78 -10.0653     86.4673    237.9339   1.2074554629e+02   1.8231835044e+01    0.1333894   0.09444534 -85.38 0.0007580926    1.546    0.353
        79 -12.4457    101.2488    231.6023   1.1772745550e+02   1.7180582459e+01    0.4726942    0.3975625  42.64  0.002217499    1.323    0.244
        80 -11.3437     94.7741    233.3345   1.1898323943e+02   1.7810819111e+01    0.3388572    0.2881594 -75.03  0.002464598    1.469    0.319
        81 -13.5425      2.4014    219.0165   1.3352156644e+02   3.0547436072e+01     0.599379    0.2054155 -79.37  0.003469288    2.598    0.615
        82  -8.9275      8.5216    218.6153   1.3253121484e+02   3.0065480610e+01    0.4239975    0.1896202 -74.37  0.002927313    2.195    0.544
        83 -11.2917    106.2978    220.2451   1.1579946598e+02   1.8203432464e+01    0.5340185     0.287329  34.05  0.003055517    1.988    0.497
        84 -12.4751    151.7471    207.6819   1.0604880553e+02   1.3057396475e+01    0.8157726    0.4191061  58.27  0.004041496    2.302    0.566
        85 -10.5267     10.7924    205.6749   1.3166650093e+02   3.2051390164e+01    0.3127736    0.2153824  45.40  0.002472834    1.443    0.307
