#   1 NUMBER                 Running object number                                     
#   2 MAG_AUTO               Kron-like elliptical aperture magnitude                    [mag]
#   3 X_IMAGE                Object position along x                                    [pixel]
#   4 Y_IMAGE                Object position along y                                    [pixel]
#   5 X_WORLD                Barycenter position along world x axis                     [deg]
#   6 Y_WORLD                Barycenter position along world y axis                     [deg]
#   7 A_WORLD                Profile RMS along major axis (world units)                 [deg]
#   8 B_WORLD                Profile RMS along minor axis (world units)                 [deg]
#   9 THETA_WORLD            Position angle (CCW/world-x)                               [deg]
#  10 FWHM_WORLD             FWHM assuming a gaussian core                              [deg]
#  11 ELONGATION             A_IMAGE/B_IMAGE                                           
#  12 ELLIPTICITY            1 - B_IMAGE/A_IMAGE                                       
         1 -15.0601      8.5194    150.1836   1.4338948799e+02   4.2613332286e+01     9.789448     3.970201  71.22   0.04371861    3.008    0.668
         2 -13.3888    195.0910     29.8460   6.7704875065e+01   3.2663696926e+01     1.310535     1.186442 -71.31  0.006123436    1.045    0.043
         3 -13.6582    210.3109     10.9849   6.0965138882e+01   3.1041919573e+01     1.449974     1.002184  35.96  0.007721441    1.897    0.473
         4 -11.3661      2.1451     21.6834   1.2219361277e+02   7.0791180567e+01     0.501121    0.1002893 -56.50  0.001810249    4.605    0.783
         5 -11.4128      2.0540      4.5477   1.1499573870e+02   7.3655690599e+01    0.6215875    0.1498197 -48.76  0.002665214    3.578    0.720
         6 -10.5099     46.2048    248.4825   1.4327802277e+02   1.8882048481e+01    0.3177876    0.1431835  69.41 0.0009764855    2.137    0.532
         7 -12.3521    236.9077    248.7013   1.0976559194e+02  -8.8753709164e+00     1.179192    0.3111399  31.82  0.004524468    4.069    0.754
         8  -9.3201     66.8628    250.1333   1.3990924047e+02   1.6041318603e+01    0.1675014    0.1110744  62.93 0.0002808429    1.173    0.148
         9 -11.0239     29.2559    248.9781   1.4607857253e+02   2.0733548696e+01    0.3377337    0.2493255  76.98  0.002725532    1.131    0.116
        10 -12.0197     35.1923    244.2040   1.4484542093e+02   2.0897931846e+01    0.5463819    0.4083566  81.28  0.004051559    1.165    0.142
        11 -11.3446     15.3410    249.1928   1.4829392437e+02   2.2173812553e+01    0.3487519    0.2200741  47.71  0.002684499    1.421    0.297
        12 -12.3875     11.5638    240.1523   1.4847952640e+02   2.4122149726e+01    0.5910454    0.2455377  73.31  0.003546487    2.069    0.517
        13 -11.5236      3.3487    246.9708   1.5005427812e+02   2.3743995873e+01     0.624469    0.2739303  82.37  0.004088465    1.887    0.470
        14 -11.1697    198.8174    246.8765   1.1600893249e+02  -3.1179404115e+00     0.220589    0.1534862  40.64  0.001445453    1.285    0.222
        15 -10.8034    172.0057    247.2874   1.2083945397e+02   9.6931935660e-01     0.179526      0.12974  38.07  0.001179922    1.103    0.094
        16  -9.2792     88.6636    249.2881   1.3606073044e+02   1.3257925460e+01    0.1193947   0.06699493  62.16 0.0002050482    1.633    0.388
        17 -11.0421     20.1702    243.5671   1.4726228547e+02   2.2643643371e+01    0.2804192    0.1362814  68.25  0.001643369    1.626    0.385
        18 -11.8265    124.9635    243.7358   1.2897239573e+02   8.8376393503e+00    0.4671918    0.1344142  45.16  0.001959153    2.764    0.638
        19 -11.1329    234.4066    238.9357   1.0865996623e+02  -7.4403417708e+00    0.2902712     0.189203 -49.36  0.001695497    2.673    0.626
        20 -10.7342    185.4724    239.5585   1.1733421517e+02  -9.3869099433e-02    0.3245562    0.1296572  50.78  0.001279967    3.166    0.684
        21 -11.3687    119.8771    238.0468   1.2927111487e+02   1.0540930217e+01     0.362515    0.1713598 -64.30  0.001828353    2.753    0.637
        22 -10.9035    138.8018    249.9403   1.2716304526e+02   5.7556655354e+00    0.2720259     0.135238  44.10  0.001319221    1.586    0.369
        23 -10.9463     50.2098    233.9190   1.4161340031e+02   2.0972314074e+01      0.27073     0.204564 -86.95  0.001703552    1.270    0.213
        24 -14.4248      9.3628    206.9688   1.4717680081e+02   3.0523354005e+01     6.410584          nan  38.85  0.004356075    6.995    0.857
        25 -10.9551    248.6057    249.1173   1.0791118199e+02  -1.0504866754e+01    0.4644643    0.2125934  30.77  0.002716874    1.787    0.440
        26  -9.9880    172.4652    222.5166   1.1722268652e+02   4.4993207392e+00    0.2369458    0.1046329  32.53  0.001036688    2.327    0.570
        27 -10.5454    228.4913    228.0047   1.0789830731e+02  -5.2740876462e+00    0.2563413    0.1993107 -36.86  0.001004853    1.614    0.380
        28 -10.5422    150.2752    229.4128   1.2245202066e+02   7.1033811199e+00    0.2540323    0.1042206  37.79  0.001148164    2.158    0.537
        29  -8.7097    152.6807    212.9902   1.1962572853e+02   9.4166681400e+00    0.1623134    0.1558531  45.74 0.0004226189    1.107    0.096
        30  -9.5106     34.7703    202.4021   1.4212125672e+02   2.8852799539e+01    0.1834677     0.140249  73.29 0.0006459816    1.029    0.029
        31 -11.5401     61.2509    197.9438   1.3643071534e+02   2.6597542726e+01    0.2702805     0.227682 -56.32 0.0005452887    1.470    0.320
        32  -9.8389     60.4606    227.5042   1.3927725809e+02   2.0875286005e+01    0.2659108    0.1199892  65.81  0.001218634    2.341    0.573
        33 -12.6776     34.6481    231.7659   1.4418664308e+02   2.3184943600e+01    0.2730864    0.2297488 -81.79 0.0007738011    1.388    0.280
        34  -9.3567    192.5051    194.0169   1.0857031623e+02   5.5394844610e+00    0.3119612    0.1195423 -52.06  0.001030575    4.530    0.779
        35 -11.8315     67.4307    189.7613   1.3425873573e+02   2.7502748424e+01    0.2627532    0.2331236 -68.13 0.0004893864    1.277    0.217
        36 -14.3026     40.2552    223.9424   1.4267938751e+02   2.4003013552e+01     1.483718     1.225817  -3.30  0.006891417    2.318    0.569
        37 -10.8745     77.5139    177.1563   1.3048885682e+02   2.8832678441e+01     0.229052    0.2098455  88.97  0.000411714    1.110    0.099
        38 -13.1641     64.3102    175.1151   1.3321738335e+02   3.1108209130e+01    0.4771626    0.2723168 -46.23  0.001572409    2.253    0.556
        39  -9.3677     97.8391    173.9547   1.2538163396e+02   2.6436557145e+01    0.2893697    0.1811488 -65.79  0.001198328    1.627    0.385
        40 -11.7752     85.0127    167.9655   1.2745716276e+02   2.9771131163e+01    0.6031509    0.5627891  74.24  0.003786169    1.096    0.088
        41  -9.9530     97.8792    151.8875   1.2168721824e+02   3.1379971259e+01    0.2921793    0.2822498 -15.76 0.0008276058    1.226    0.184
        42  -9.1977    100.5341    147.9853   1.2030355107e+02   3.1827966100e+01    0.2093098    0.1948134 -23.96 0.0003042654    1.270    0.212
        43 -12.0307     86.3142    151.2170   1.2445657770e+02   3.3393491962e+01    0.2947583    0.2421904 -48.25 0.0007137312    1.310    0.237
        44 -12.3136     67.4695    143.7745   1.2801337473e+02   3.7876735480e+01    0.7238057    0.4627042  67.26  0.002864753    1.805    0.446
        45  -8.4013    192.2256    144.0216   9.8356254081e+01   1.4391601951e+01    0.1819207    0.1192371 -37.46 0.0003150767    1.511    0.338
        46  -9.7163    109.6423    137.0140   1.1579726831e+02   3.2741916045e+01    0.3707473    0.2362168 -28.64  0.001548731    2.290    0.563
        47 -10.9622     57.6740    133.3297   1.2888833592e+02   4.1620209149e+01    0.4289828    0.2157431 -83.59  0.001713688    2.776    0.640
        48 -11.3489      3.8918    227.9299   1.4916816247e+02   2.7059240253e+01    0.3260784     0.200747  41.46  0.002403586    1.664    0.399
        49 -10.4352     96.6986    134.3796   1.1861796121e+02   3.5622831768e+01    0.2585878    0.2252468 -32.77 0.0005991228    1.304    0.233
        50  -9.3599     79.9054    131.8843   1.2261075223e+02   3.8898482017e+01     0.214004    0.1848825  83.18 0.0007286391    1.167    0.143
        51 -10.6921    230.6873    232.0123   1.0817792067e+02  -6.0888413923e+00    0.2451434    0.1650316 -42.68  0.001178031    2.016    0.504
        52  -8.8947    106.6702    123.8825   1.1368607375e+02   3.6290719204e+01    0.1955962    0.1736624 -59.89 0.0003562271    1.082    0.076
        53 -10.1852    167.7945    112.9021   9.5904108480e+01   2.5787288142e+01    0.3510998    0.2750875 -70.66 0.0008874721    1.573    0.364
        54  -9.1191    203.4135    111.7651   8.8446297650e+01   1.7858843004e+01     0.207646    0.1402389 -24.77 0.0004807037    1.584    0.369
        55 -10.8119    242.0297     92.9877   7.7581665893e+01   1.2539749939e+01    0.3933295    0.2294508   8.32  0.001343382    4.188    0.761
        56  -8.7595    184.5291     77.4963   8.2842619703e+01   2.8342325930e+01    0.1493091    0.1471524 -21.85 2.377498e-05    1.042    0.040
        57  -9.3553    157.6874     76.6831   8.7999373774e+01   3.5060091357e+01    0.1570866    0.1207695  15.19 0.0003426623    1.643    0.391
        58  -9.8157     43.7848     67.9388   1.1909647129e+02   5.8247661877e+01    0.2582864    0.1784055  41.39  0.000846488    1.754    0.430
        59  -8.6246     37.1794     64.3890   1.2055974830e+02   5.9695169605e+01    0.1530833    0.1178445  37.93 0.0005425718    1.572    0.364
        60  -8.9657     32.2321     62.2340   1.2184434463e+02   6.0629582961e+01    0.1550584    0.1421125 -85.03 0.0007171319    1.344    0.256
        61 -10.0836      2.0000     56.9781   1.3240732590e+02   6.3904988212e+01    0.1989946   0.05196148 -64.65 0.0008077852    2.980    0.664
        62 -10.7608     15.5708     55.5996   1.2662669387e+02   6.3376213063e+01    0.2283975    0.1903458  47.88 0.0008514851    1.592    0.372
        63 -10.8653      2.3148     39.9554   1.2801827723e+02   6.7352178431e+01    0.3725665   0.04938487 -57.17  0.001365497    3.874    0.742
        64 -11.4045    124.6711    249.8241   1.2969608874e+02   7.9285126282e+00    0.5179689    0.1352092  40.18  0.002087972    3.118    0.679
        65 -11.7709     98.5796    247.2565   1.3411762461e+02   1.2191088257e+01    0.4234862    0.3149452  62.07  0.002968241    1.127    0.113
        66 -10.0961     81.8959    249.0648   1.3722770204e+02   1.4226522197e+01    0.1876432    0.1197236  62.82  0.001241819    1.316    0.240
