#   1 NUMBER                 Running object number                                     
#   2 MAG_AUTO               Kron-like elliptical aperture magnitude                    [mag]
#   3 X_IMAGE                Object position along x                                    [pixel]
#   4 Y_IMAGE                Object position along y                                    [pixel]
#   5 X_WORLD                Barycenter position along world x axis                     [deg]
#   6 Y_WORLD                Barycenter position along world y axis                     [deg]
#   7 A_WORLD                Profile RMS along major axis (world units)                 [deg]
#   8 B_WORLD                Profile RMS along minor axis (world units)                 [deg]
#   9 THETA_WORLD            Position angle (CCW/world-x)                               [deg]
#  10 FWHM_WORLD             FWHM assuming a gaussian core                              [deg]
#  11 ELONGATION             A_IMAGE/B_IMAGE                                           
#  12 ELLIPTICITY            1 - B_IMAGE/A_IMAGE                                       
         1 -13.1663    199.2123     32.7839   6.2973105427e+01   3.1270716114e+01    0.8303118    0.8080167 -29.63  0.005783736    1.256    0.204
         2 -13.8271    216.2093     15.3273   5.7401243321e+01   2.9531715736e+01    0.9866565    0.7776142  41.59  0.006548386    1.686    0.407
         3 -12.8599      2.9128      4.3678   1.0429283849e+02   7.0689774194e+01    0.5864303    0.4425685 -10.81  0.004761564    1.215    0.177
         4 -11.5048    198.5205    245.6458   1.0912753316e+02  -5.3342371109e+00    0.3537931    0.3273781 -77.07  0.002304733    1.623    0.384
         5 -11.1808    183.8841    249.6094   1.1266131283e+02  -3.6842939722e+00    0.3245696     0.234869  25.15  0.001592749    1.216    0.178
         6 -10.1310    174.9730    250.4805   1.1457177167e+02  -2.4212489260e+00    0.2003704    0.1112708  36.08 0.0006155503    1.574    0.365
         7 -11.5741    169.3269    248.9778   1.1546840845e+02  -1.2780118812e+00    0.5203997     0.317519 -23.37 0.0004826187    2.167    0.538
         8 -10.7582    167.6829    242.6958   1.1481443571e+02   4.2095360294e-02     0.202905    0.1722883  15.34 0.0004856466    1.105    0.095
         9 -11.0190    164.7481    242.0166   1.1530550001e+02   6.3687130412e-01    0.2127482    0.1814271  29.53 0.0005816903    1.038    0.037
        10 -10.8689    162.4873    250.1712   1.1702720617e+02  -3.8242181105e-01    0.3474099    0.1947138  37.31  0.001020117    1.555    0.357
        11 -12.1145    150.4548    248.3026   1.1918062561e+02   1.8703457398e+00    0.5610846    0.3779574  53.80  0.003063342    1.628    0.386
        12 -10.7356    143.3753    249.1955   1.2074709578e+02   2.8541708070e+00    0.2799134    0.2313426  81.62 0.0009038422    1.549    0.355
        13 -12.3606    119.2721    236.1551   1.2386346049e+02   9.1480627265e+00     1.011806    0.6253986 -17.70  0.004132329    3.508    0.715
        14 -12.1699    128.6627    234.8954   1.2171395790e+02   7.8705462182e+00    0.9555964    0.5555739  85.53  0.003317081    4.686    0.787
        15 -11.4984     98.9948    232.6586   1.2763045992e+02   1.3024419827e+01    0.5649212    0.3440923 -73.55  0.002872059    1.954    0.488
        16 -11.1522     78.8679    224.6253   1.3083079261e+02   1.7669492508e+01    0.7479854    0.3582886 -78.44  0.003101888    2.955    0.662
        17 -12.2432    103.7292    238.7019   1.2743054747e+02   1.1094406844e+01      1.19697    0.6688158 -26.56  0.004336945    4.734    0.789
        18 -11.5923     97.1116    222.0171   1.2661081799e+02   1.5506970575e+01    0.7538535    0.4047916  61.19  0.003310979    2.366    0.577
        19 -11.6116    100.6507    248.1428   1.2922685554e+02   9.7416693230e+00     0.591783    0.3603228  44.89  0.003288925    1.436    0.303
        20 -10.4794     97.0499    238.9894   1.2883604548e+02   1.2055358956e+01    0.3006341     0.227728  49.25 0.0006748639    1.179    0.152
        21 -11.7934     91.2720    240.2222   1.3016066134e+02   1.2674569570e+01    0.6581025    0.4001915  84.76  0.002926525    2.244    0.554
        22 -11.2872     84.7148    230.9548   1.3038448829e+02   1.5506714017e+01    0.6091654    0.2624491 -66.32  0.002675646    2.589    0.614
        23 -11.4193    113.3397    231.0420   1.2439535550e+02   1.1104644398e+01    0.4354908     0.281083 -45.13  0.002280713    1.772    0.436
        24 -11.6030    105.4717    227.9682   1.2563784956e+02   1.2972273628e+01    0.4192764     0.385028  78.46  0.001916917    1.075    0.070
        25 -11.3689    115.6345    249.7445   1.2642779552e+02   7.1501867268e+00    0.6182781    0.4177354  33.31   0.00263786    1.428    0.300
        26 -11.3903    109.4772    247.0944   1.2732928487e+02   8.5959669172e+00    0.5137063    0.3688291 -87.59  0.002554379    1.719    0.418
        27 -11.0432    122.0125    245.3260   1.2455653884e+02   6.9683744337e+00    0.5684774    0.3007899 -67.72  0.002036104    2.655    0.623
        28 -13.1500    125.2542    242.0653   1.2344563333e+02   7.0611040398e+00     1.523253    0.8456774  65.66  0.006080968    2.957    0.662
        29 -11.5364     86.6291    248.0979   1.3199380693e+02   1.1817283631e+01    0.3857889    0.3148193  31.57 0.0008093436    1.356    0.262
        30 -10.1471     81.4377    247.2310   1.3291413861e+02   1.2727188426e+01    0.2828833    0.1655212 -81.73  0.001425692    2.052    0.513
        31 -10.0514     54.2727    241.0197   1.3752621104e+02   1.7611287735e+01    0.2721016     0.144331  48.96 0.0006350417    1.671    0.402
        32 -11.6113     59.9103    245.8222   1.3691171329e+02   1.5933601627e+01    0.5223476    0.3462284  67.12  0.002535532    1.399    0.285
        33  -9.9842     66.7116    243.8646   1.3541983943e+02   1.5420300250e+01     0.245844     0.173299  20.53 0.0009176405    1.994    0.499
        34 -12.2568     15.8897    218.3544   1.4284411559e+02   2.6646780552e+01    0.8514079    0.4752611  34.26  0.004866541    1.994    0.499
        35 -13.1131      9.7573    209.7296   1.4332481361e+02   2.9062839844e+01     1.334079    0.9547058 -28.58  0.008312305    2.305    0.566
        36 -12.9550      5.2507    226.1355   1.4538077700e+02   2.6060508830e+01     1.084888    0.7529773 -88.79  0.007678011    1.146    0.127
        37 -12.8961     41.9011    207.0496   1.3659052741e+02   2.6297901790e+01     1.763712    0.8148511  74.87  0.006990388    3.446    0.710
        38 -13.4989     39.9538    243.6746   1.4043617423e+02   1.8838147932e+01     1.188182    0.9116122  84.74  0.006380401    1.112    0.101
        39 -13.2186     28.1303    246.8668   1.4281068912e+02   1.9568873772e+01     1.051516     0.559686  34.18  0.006220757    2.080    0.519
        40 -12.2434     19.7265    237.3861   1.4359808949e+02   2.2349206577e+01    0.6184657    0.4020253  74.36  0.001612852    1.304    0.233
        41 -13.4983      5.7211    246.0944   1.4659631452e+02   2.2064129577e+01      1.02352    0.5417711  64.89  0.006572776    1.605    0.377
        42 -12.7208     13.7543    239.2187   1.4478128393e+02   2.2602072367e+01    0.6822844    0.3840919  79.73  0.004268023    1.580    0.367
        43 -12.6849     28.3963    226.3120   1.4112875747e+02   2.3680061574e+01    0.3152592    0.2690531 -71.28 0.0007735895    1.277    0.217
        44 -14.2178     35.1005    218.4015   1.3912020805e+02   2.4606079201e+01     1.198972    0.9142297 -58.00  0.007849177    1.439    0.305
        45 -11.2002     73.9581    243.6614   1.3399202959e+02   1.4472965645e+01    0.3962723    0.2675334 -55.81  0.002108247    1.656    0.396
        46 -11.4064    159.2892    244.1983   1.1676181554e+02   1.1498647407e+00    0.2664133    0.1981636  56.55 0.0009040723    1.571    0.363
        47 -10.3972    132.4854    224.0280   1.1925284679e+02   9.3614283195e+00    0.2395183    0.2108105  -9.44 0.0009315895    1.304    0.233
        48 -11.3355    136.0765    225.5537   1.1871836778e+02   8.4553524629e+00    0.4586098    0.2557138 -42.16    0.0011147    2.027    0.507
        49 -11.2765    135.8150    241.1603   1.2113551789e+02   5.5237227510e+00    0.2548375    0.2263448 -24.92 0.0007050097    1.286    0.223
        50 -11.3598    134.8438    237.1628   1.2075151141e+02   6.4274433691e+00    0.2797763    0.2460169 -58.33 0.0008205944    1.271    0.213
        51 -12.2406    135.3889    233.2442   1.2005132636e+02   7.0803722501e+00    0.6312457    0.4232461  75.29  0.002995243    2.330    0.571
        52 -10.9548     84.0983    240.4978   1.3163694440e+02   1.3667234341e+01      0.44956    0.2742771  61.03  0.002430617    1.669    0.401
        53 -11.6648    143.5053    241.8072   1.1964104215e+02   4.1510257126e+00    0.4152374    0.2537331 -57.57  0.002133961    1.976    0.494
        54  -9.5721     66.7613    239.5186   1.3496546558e+02   1.6279879583e+01    0.2557732    0.1491255  71.00 0.0008429016    1.908    0.476
        55 -10.1401     90.6074    250.2982   1.3146075785e+02   1.0820187695e+01    0.2302057    0.2129134  30.44  0.001436059    1.265    0.209
        56  -9.1939     61.2468    239.0321   1.3599141636e+02   1.7110389393e+01    0.1675202    0.1403501  66.56  0.001127232    1.035    0.034
        57  -9.9473    173.0949    235.9324   1.1260989302e+02   3.1970016926e-01     0.186857    0.1735192  48.04 0.0003304932    1.233    0.189
        58  -9.7634     55.0673    235.5394   1.3684585588e+02   1.8617900924e+01    0.2480509    0.1596834  69.00 0.0009475389    1.499    0.333
        59 -11.1524    168.3633    233.5247   1.1318599570e+02   1.5257923974e+00    0.4831759    0.2158427  25.86  0.001839042    2.949    0.661
        60 -11.9173    178.7055    244.0073   1.1279338002e+02  -1.9580513126e+00    0.3822832    0.2904453  37.77  0.001360847    1.234    0.190
        61 -10.5841    156.6638    232.1720   1.1540236847e+02   3.7273397780e+00    0.2521599    0.2169056 -20.77 0.0005616885    1.254    0.203
        62 -10.1305     93.4863    232.9984   1.2882030624e+02   1.3790880969e+01    0.3087397    0.1279287  50.72  0.001295118    2.474    0.596
        63  -9.5369    141.3035    231.3275   1.1850660861e+02   6.4616582342e+00    0.1335944    0.1032931  -3.30 0.0001942707    1.646    0.393
        64  -8.5316     57.3108    231.2967   1.3598031431e+02   1.9202766932e+01    0.1098727   0.09524535 -34.35 0.0007008691    1.596    0.374
        65  -9.9781    250.2226    230.2507   9.6735552592e+01  -1.0533389942e+01    0.1816923   0.08822012 -44.00 0.0008834956    2.422    0.587
        66  -8.9293    142.2968    227.3000   1.1766126991e+02   7.0659697930e+00    0.1326002    0.1041001  -1.31 0.0003541693    1.575    0.365
        67 -10.6981    117.0911    224.5634   1.2266115681e+02   1.1805592506e+01    0.2848519    0.2594318 -39.81 0.0009020241    1.226    0.184
        68 -10.3187     92.5853    225.9893   1.2810956360e+02   1.5366659518e+01    0.2514558    0.1757328  49.05   0.00068824    1.323    0.244
        69  -9.5815     64.8759    224.6000   1.3373508071e+02   1.9611867329e+01    0.2475311     0.176293 -42.98  0.001003009    1.811    0.448
        70  -9.1392     51.6967    225.2685   1.3648295468e+02   2.1175318080e+01    0.1532727    0.1344323 -52.06 0.0006570031    1.395    0.283
        71  -9.1638    164.4541    223.9977   1.1239826824e+02   3.9156188942e+00    0.1918274    0.1350185 -45.10 0.0003943858    1.531    0.347
        72  -9.4020     87.7708    223.5986   1.2882103608e+02   1.6588146165e+01    0.2109418    0.1548358 -75.02 0.0009928313    1.411    0.291
        73 -11.1723    142.1910    220.1008   1.1651729592e+02   8.4908737212e+00    0.4200317    0.3048346 -55.32  0.001688908    1.523    0.344
        74 -10.7461    110.2434    219.2294   1.2336158550e+02   1.4018002845e+01    0.4886683    0.2125741 -70.12  0.001628813    4.204    0.762
        75 -10.5137     70.8635    219.3808   1.3188035543e+02   1.9911556910e+01    0.4906342    0.3166024 -88.84  0.002607768    1.722    0.419
        76 -10.8311    245.9954    219.6990   9.5557414722e+01  -8.3928601308e+00    0.2996087    0.1153925 -37.55  0.001340538    2.397    0.583
        77  -8.8021     99.2777    218.3241   1.2562751831e+02   1.5951072413e+01    0.1271068    0.1049828 -22.31 0.0003192489    1.586    0.370
        78  -8.8144     80.6245    216.8171   1.2947510245e+02   1.9083666629e+01    0.1739094    0.1174542 -80.18  9.76395e-05    1.592    0.372
        79  -9.7059     88.1522    212.8063   1.2729675817e+02   1.8843337908e+01    0.2723059    0.1809056 -72.07 0.0009580149    1.591    0.372
        80  -9.0159     90.5208    208.9099   1.2622338330e+02   1.9337811517e+01     0.192659    0.1295372 -62.75 0.0003651318    1.494    0.331
        81 -11.4358     55.4366    208.3069   1.3385383320e+02   2.4376665191e+01    0.7291479    0.3853059 -87.37  0.002329705    2.353    0.575
        82 -10.5744     62.8806    209.4436   1.3238479304e+02   2.3160556713e+01    0.5430321     0.341734 -48.35  0.002799214    1.802    0.445
        83  -9.1120    130.9447    211.3311   1.1753919622e+02   1.2208507299e+01    0.1931036     0.166572  39.10 0.0003281035    1.100    0.091
        84  -9.8977    106.5287    209.9694   1.2279208955e+02   1.6589037194e+01    0.2069085    0.1333048 -55.60 0.0006570172    1.593    0.372
        85 -10.2652    156.1791    208.1314   1.1138933491e+02   8.4246276345e+00    0.2197989     0.203962  19.72 0.0003166909    1.020    0.019
        86  -8.4089     68.2962    211.3132   1.3144247031e+02   2.2019738483e+01    0.1224578    0.0996372 -33.99 0.0002922124    1.600    0.375
        87 -10.4539    111.4513    206.7945   1.2118572827e+02   1.6471336206e+01    0.3737201    0.2469952 -85.07   0.00108412    2.135    0.532
        88  -9.0997     74.4304    208.4776   1.2973873415e+02   2.1795205145e+01     0.132245    0.1169594  80.64 0.0001587091    1.035    0.034
        89  -9.2515     69.7909    207.9685   1.3069367951e+02   2.2554675936e+01    0.1768825    0.1521339 -87.76 0.0002702483    1.073    0.068
        90  -9.4961    125.7022    207.0393   1.1799932787e+02   1.4013669510e+01    0.1962212    0.1766834 -64.71 0.0007483246    1.168    0.144
        91 -10.0050     91.0315    204.8241   1.2551599550e+02   2.0163103846e+01    0.3610473     0.179069  35.05   0.00138926    2.065    0.516
        92 -10.8880      4.6111    178.8005   1.4168189683e+02   3.6288442543e+01    0.2800512    0.2377664  33.55  0.002014774    1.460    0.315
        93  -9.8860     10.9774    188.5011   1.4123968050e+02   3.3586984863e+01    0.2153398    0.1396793 -86.12   0.00132251    1.319    0.242
        94 -11.7574      4.7036    186.2919   1.4235213506e+02   3.4612061250e+01    0.4805518    0.3713408  84.62  0.001346187    1.117    0.104
        95 -10.4698      1.9575    201.8761   1.4421183502e+02   3.1438996497e+01    0.3468655    0.1666747 -74.27 0.0008655505    1.679    0.405
        96 -10.0473      2.5888    197.4289   1.4373314399e+02   3.2345616429e+01    0.2610902    0.1168453  61.79  0.001309951    2.429    0.588
        97 -10.8988      3.1108    193.8399   1.4333283896e+02   3.3083098908e+01    0.4822897    0.2354771  76.65  0.002497814    2.225    0.550
        98  -9.5706     43.0239    200.0688   1.3558409095e+02   2.7724075545e+01    0.3370537    0.1768353 -49.75  0.001097469    2.111    0.526
        99 -11.5609    102.8588    195.9765   1.2141933198e+02   2.0273957991e+01    0.3076328    0.2684367 -20.89 0.0004448163    1.364    0.267
       100 -10.7478     27.3765    195.1933   1.3842198133e+02   3.0529356741e+01    0.4929683    0.3159123 -84.38  0.001666215    1.407    0.289
       101 -10.6480     21.1015    194.6357   1.3969654348e+02   3.1281187484e+01    0.4262274    0.2156056 -72.23  0.001644003    1.676    0.403
       102 -10.6665     83.9525    201.6353   1.2665949539e+02   2.1944795688e+01    0.2545407    0.2119726 -58.50  0.000274315    1.210    0.174
       103 -12.0185     56.5756    194.3214   1.3188615532e+02   2.7384827199e+01    0.5153651    0.3085058 -45.47  0.001117736    1.925    0.481
       104 -10.7874    249.8221    193.8758   8.9979667181e+01  -4.8887619109e+00    0.3023022    0.2047986 -19.23  0.001703378    1.385    0.278
       105  -9.8401    112.5572    193.1798   1.1867515024e+02   1.9290083042e+01     0.370633    0.1292991 -50.40  0.001007513    2.842    0.648
       106  -8.8741     72.5012    192.9832   1.2804791038e+02   2.5567695695e+01    0.1729762    0.1045853 -39.47 0.0003932468    2.104    0.525
       107  -9.6875    191.4928    191.4782   1.0060668249e+02   5.2983264766e+00    0.2449245    0.2239497  -4.40 0.0006539897    1.008    0.008
       108  -9.3772     38.5859    192.1937   1.3565755887e+02   3.0010304954e+01     0.265639    0.1116093 -50.00  0.001163594    2.592    0.614
       109  -9.3632     40.7589    188.5978   1.3474943071e+02   3.0589258162e+01    0.2482901    0.1880466  71.38 0.0007959845    1.306    0.234
       110  -9.3431     15.3775    191.5947   1.4060670211e+02   3.2501686914e+01    0.2364825   0.09906182 -78.19   0.00111484    2.205    0.546
       111  -9.6028     31.4342    190.0572   1.3699407205e+02   3.1268366574e+01    0.3638853    0.1279785  38.04  0.001317378    2.803    0.643
       112 -10.4638    250.2032    187.9358   8.8754653955e+01  -3.9754981362e+00    0.3078202    0.1515384 -31.59  0.001459391    1.864    0.464
       113  -9.0777     77.0125    188.5097   1.2633079773e+02   2.5959249501e+01    0.1856962    0.1340711  37.03 -1.551206e-05    1.445    0.308
       114 -10.3962     83.6230    186.7412   1.2448341430e+02   2.5398262957e+01    0.2362218    0.2107498  80.71 0.0003275058    1.106    0.095
       115 -10.3567     71.9377    186.4599   1.2722663245e+02   2.7155075550e+01    0.4249462     0.308843 -10.69  0.001662346    2.137    0.532
       116 -11.8129     63.4758    186.1655   1.2918623577e+02   2.8374291806e+01    0.3684237    0.2499102 -43.43 0.0006618001    1.660    0.398
       117  -9.6770     29.5249    184.1676   1.3675840920e+02   3.2808952620e+01    0.2845838    0.1691443 -41.49  0.001118954    2.114    0.527
       118  -9.2990     24.2507    183.9137   1.3790644568e+02   3.3392454684e+01    0.1746218     0.140063 -73.56 0.0007127621    1.078    0.073
       119  -9.1980     36.4491    182.9825   1.3505174964e+02   3.2355724430e+01    0.2024797    0.1077984 -65.92  0.001032023    1.621    0.383
       120  -9.0153    127.2108    182.2504   1.1321023536e+02   1.9171817573e+01    0.1950997    0.1673606  75.30 0.0004045607    1.332    0.250
       121 -12.3570    248.2739    172.8788   8.6093058950e+01  -1.1538286916e+00    0.7958908    0.3932068 -36.50  0.003775596    1.774    0.436
       122 -12.3103    247.1124    158.3334   8.3338740778e+01   1.5340474300e+00     1.039189    0.6997337 -76.53   0.00453481    3.153    0.683
       123  -9.2344     86.0165    180.0390   1.2281512951e+02   2.6597855197e+01    0.2141532     0.160676  74.62 0.0003378225    1.550    0.355
       124  -9.1113     27.2182    180.0447   1.3680849690e+02   3.3986128418e+01    0.1765363    0.1370502 -75.69 0.0002942478    1.085    0.078
       125 -12.3625    245.2290    163.1104   8.4625761432e+01   1.0216934213e+00    0.6191869    0.2578189 -44.60  0.002604361    2.265    0.558
       126  -9.1802     47.4947    179.7156   1.3206796938e+02   3.1872613393e+01    0.2075565    0.1170803  31.81  0.000770257    1.979    0.495
       127 -11.6538     65.2133    175.3793   1.2717041408e+02   3.0671548834e+01    0.3123744    0.2658909  36.99  0.000204416    1.277    0.217
       128 -12.0857     60.2318    172.5629   1.2796488334e+02   3.1989624265e+01    0.4311717    0.2473324 -41.78 0.0008417434    2.003    0.501
       129 -11.1202     68.3564    166.1968   1.2491062527e+02   3.2422392476e+01    0.2635176     0.230058 -72.50 0.0004717673    1.073    0.068
       130 -10.1128     64.7030    166.7383   1.2592733485e+02   3.2785654029e+01    0.2665759    0.2234245 -37.51 0.0001877297    1.300    0.231
       131  -9.5564    102.9908    175.9711   1.1792263884e+02   2.4834625461e+01    0.2126354    0.2044753 -74.19            0    1.014    0.014
       132 -11.2082     19.5042    174.4586   1.3793086176e+02   3.6001013344e+01    0.3769597    0.2253457  89.03 -0.0003891721    1.696    0.411
       133 -11.2413     14.2010    167.4706   1.3836732141e+02   3.8068514282e+01    0.3969146    0.2698032  21.18  0.002423106    1.883    0.469
       134 -11.5336      8.8434    165.6708   1.3940790630e+02   3.8918859371e+01    0.3929353    0.2904951  -1.80  0.002486527    1.935    0.483
       135 -10.9628     74.3557    174.3998   1.2475759214e+02   2.9642443437e+01    0.2883497    0.2474694  65.71 0.0001990816    1.205    0.170
       136 -10.6682     12.3059    172.9107   1.3939513490e+02   3.6985815239e+01    0.3144885    0.1721928 -62.53   0.00157974    1.514    0.339
       137 -10.3119     46.2780    172.2007   1.3133085997e+02   3.3774806559e+01    0.3493554    0.1688598 -53.57  0.001226604    1.891    0.471
       138 -11.8662      1.8713    169.9366   1.4142661259e+02   3.8490649747e+01    0.7249058     0.211629 -75.36 0.0007331982    3.114    0.679
       139 -10.1598     27.6184    171.4225   1.3569455123e+02   3.5937285589e+01    0.3397103    0.1830341 -50.04  0.001191179    1.837    0.456
       140  -9.4978     51.7982    170.9739   1.2980593382e+02   3.3414439465e+01    0.2223763    0.1840217  62.25 0.0005827389    1.263    0.209
       141  -8.6997    166.7747    170.3544   1.0156961167e+02   1.4241477294e+01    0.1442253    0.1170786 -71.92 0.0005422725    1.561    0.359
       142 -11.8585     82.5963    166.0011   1.2124265474e+02   3.0424476868e+01     0.639836    0.4879067  28.67  0.003364415    1.447    0.309
       143 -10.4725     45.3383    164.6031   1.3047386358e+02   3.5672976435e+01    0.4859077    0.1797507 -47.09  0.001890471    2.866    0.651
       144  -9.7457     43.1109    161.0302   1.3050680282e+02   3.6765920610e+01    0.2398061    0.1826798  70.68 0.0003763846    1.449    0.310
       145  -8.9970     61.0491    164.5883   1.2650566843e+02   3.3774752996e+01    0.1835344    0.1335964  34.82 0.0002840635    1.499    0.333
       146  -8.6751     53.7456    164.6718   1.2837113619e+02   3.4670151799e+01    0.1343725   0.09327768 -41.46 0.0002851508    1.553    0.356
       147 -10.3301     31.3549    163.2380   1.3374819677e+02   3.7477403396e+01    0.2520614    0.2071149  84.46 0.0002194835    1.204    0.170
       148  -9.4007     37.1511    162.6576   1.3223619179e+02   3.7023023504e+01    0.2340474    0.1030394  39.22 0.0007948644    2.427    0.588
       149  -8.8469     24.0096    162.0119   1.3538275714e+02   3.8464887497e+01    0.1484667     0.126518 -74.13 0.0003611854    1.025    0.024
       150 -12.1476     10.6736    158.2028   1.3813696711e+02   4.0481998134e+01    0.5974998    0.2894593  83.83  0.001566089    2.822    0.646
       151 -10.9014     12.4622    154.4791   1.3725915685e+02   4.1196021888e+01    0.2205062    0.1584409 -75.00 0.0006509057    1.162    0.139
       152 -10.1582     81.8299    157.6334   1.1990342514e+02   3.2524939784e+01     0.398254    0.2458238 -60.42  0.001163887    1.571    0.364
       153  -8.9821     84.5295    155.4541   1.1877709486e+02   3.2631172196e+01    0.2214963    0.1264325 -45.96 0.0006161082    1.712    0.416
       154  -8.6000    119.4331    158.5528   1.1035832519e+02   2.5984938048e+01    0.1479669    0.1449549 -60.26 0.0002084423    1.029    0.028
       155 -10.2780      2.1789    158.1730   1.4014571991e+02   4.1126516146e+01    0.1697418     0.120495  84.61 0.0006708986    1.358    0.264
       156  -9.0441    228.3747    155.2929   8.5895580169e+01   5.3494679789e+00    0.1937493    0.1200013 -46.31  0.000538051    1.568    0.362
       157 -11.3944     26.4719    155.3588   1.3389589040e+02   3.9788141012e+01    0.5943431     0.145826  31.77  0.002250003    4.035    0.752
       158  -9.8924     32.8135    153.8556   1.3207436549e+02   3.9533126847e+01    0.2219449    0.1654462 -34.48 0.0004943698    1.525    0.344
       159 -13.4050    247.7759    100.2829   7.1246827336e+01   1.1321234379e+01     1.874621    0.8195292 -30.39  0.007520723    2.877    0.652
       160 -12.1555    247.7268    112.9258   7.3863768336e+01   9.2385705830e+00    0.8373225    0.5927306   8.59  0.004151374    2.393    0.582
       161 -12.0192    247.8973    142.3483   7.9929204772e+01   4.1712565955e+00    0.5887448    0.4056992 -32.54  0.003100213    1.315    0.239
       162 -13.2623    248.2378    134.2058   7.8194808090e+01   5.5191163178e+00     1.498392    0.7847174 -34.16  0.007083301    1.792    0.442
       163 -10.6622     95.7428    150.4005   1.1479292207e+02   3.2033755881e+01    0.3138728    0.2737952 -62.82 0.0009265613    1.143    0.125
       164 -10.9201     21.5215    149.1663   1.3430219392e+02   4.1674380700e+01    0.3250557     0.206618  43.18  0.001318293    1.801    0.445
       165 -12.2178     68.4954    144.1675   1.2091089413e+02   3.7637183818e+01    0.6574132    0.5161726 -89.49  0.002379092    1.515    0.340
       166  -9.8681     41.1468    147.4922   1.2892135071e+02   4.0176068936e+01    0.2065104    0.1629346 -44.25 0.0006619385    1.243    0.196
       167 -12.9348      9.2157    144.1332   1.3677200429e+02   4.3819488693e+01     0.577266    0.4778534 -47.94  0.003954098    1.219    0.179
       168 -12.2584      3.6346    144.1433   1.3818304544e+02   4.4213037206e+01    0.4453256    0.2601942 -63.10  0.002632957    1.335    0.251
       169 -10.3893    236.1333    145.9999   8.2595429287e+01   5.6175095644e+00    0.2241262    0.2005043  34.11 0.0007144488    1.239    0.193
       170  -9.7082     83.2804    149.6444   1.1797029546e+02   3.4197393125e+01    0.2316124     0.209282 -24.65 0.0003258155    1.172    0.147
       171  -9.2949     52.6760    146.2922   1.2562087379e+02   3.9159498845e+01    0.1340944    0.1009201  74.16 0.0002541838    1.615    0.381
       172 -10.0502    133.2755    141.2194   1.0300025648e+02   2.7258452844e+01    0.5703065    0.2201167 -52.73  0.001846388    2.958    0.662
       173 -11.0899     38.8879    141.6707   1.2857569920e+02   4.1782074893e+01    0.2780039    0.2269896  78.70 -0.000430966    1.383    0.277
       174 -11.1051     13.1360    137.1633   1.3481436722e+02   4.5124807168e+01    0.1922058    0.1583081 -72.74 0.0004600445    1.084    0.078
       175 -11.7237     17.5219    140.2870   1.3409692544e+02   4.4064494739e+01    0.3971681    0.2267498  57.92  0.002039669    2.300    0.565
       176  -9.7298    108.2300    135.9041   1.0826515483e+02   3.3224194648e+01     0.359865    0.2210953 -21.77  0.001397737    2.442    0.591
       177 -11.0037     59.8919    136.3117   1.2177443803e+02   4.0623356092e+01    0.2841993     0.216726 -62.08 0.0002867225    1.233    0.189
       178  -9.8557     55.6954    135.7200   1.2284332090e+02   4.1285332320e+01    0.2342463    0.1931245 -58.86 0.0002534322    1.100    0.091
       179 -10.7079     44.9778    130.4346   1.2488589464e+02   4.3758685620e+01    0.3309878     0.208382  88.55   0.00133846    2.428    0.588
       180 -11.4560      2.7730    133.0590   1.3699416213e+02   4.6783785784e+01    0.3376552    0.1446932 -74.79  0.001606795    2.164    0.538
       181 -11.6705      2.1855    121.3504   1.3552664425e+02   4.9450367333e+01    0.3970438    0.1264971 -65.64  0.001745581    2.404    0.584
       182  -8.7785    114.3649    129.2928   1.0505695008e+02   3.3577384798e+01    0.1568477    0.1181506  -4.10 0.0007028394    1.710    0.415
       183 -12.4285     13.2183    127.4300   1.3336349539e+02   4.7340102451e+01    0.3314632    0.3202588 -44.27  0.002410347    1.197    0.165
       184 -10.0326     33.7635    128.2632   1.2770059817e+02   4.5412350541e+01     0.245336    0.1402869  70.19  0.001030116    3.162    0.684
       185 -10.5694     47.7675    135.6979   1.2507299139e+02   4.2222488773e+01    0.3359049    0.2101902 -53.60  0.001182574    1.378    0.274
       186  -8.8561     59.2795    128.2966   1.2033761881e+02   4.2567033306e+01    0.1387333   0.09693526 -30.87 0.0001897071    1.536    0.349
       187  -9.2228    209.7193    125.9309   8.2791627064e+01   1.4395041152e+01    0.2091827    0.1755405 -39.94 0.0007047846    1.114    0.103
       188  -8.6791     48.2880    126.3210   1.2313544534e+02   4.4341563625e+01    0.1395484   0.09120878 -34.09 0.0002722844    1.600    0.375
       189 -12.0649     15.0000    117.9710   1.3134125598e+02   4.9344776698e+01    0.4800637     0.166115 -42.73  0.002024679    2.770    0.639
       190 -10.8030     31.0884    117.9287   1.2658449963e+02   4.8022872431e+01    0.2576271    0.1508039 -52.82  0.001374911    1.401    0.286
       191 -10.4570    231.8878    116.2258   7.6916310184e+01   1.1691982266e+01    0.2150195    0.1769893 -62.13 0.0007078379    1.249    0.200
       192  -9.9764    167.7976    112.9522   8.7959972859e+01   2.5867615425e+01    0.3220888    0.2546663 -89.84  0.001532945    1.661    0.398
       193 -11.9978      9.3782    112.5112   1.3207632486e+02   5.0955851544e+01    0.2726355    0.1817412 -35.07  0.001079569    1.465    0.317
       194 -11.1303    249.6990    150.9067   8.1402782703e+01   2.3819019255e+00    0.4505714     0.295404 -33.25  0.002426721    1.353    0.261
       195 -11.3553      2.3251    103.0566   1.3259586175e+02   5.3462498518e+01    0.3745346   0.08784426 -59.46  0.001533316    2.772    0.639
       196  -9.8768     35.0754    107.0655   1.2318493087e+02   5.0069754835e+01    0.1914941    0.1632727 -42.11 0.0003553638    1.020    0.020
       197  -9.3580    203.4953    111.5207   8.0599699759e+01   1.8347045923e+01    0.1424578    0.1361866 -36.99 6.595194e-05    1.042    0.041
       198 -11.6514     13.9789    103.1604   1.2901017327e+02   5.2689593909e+01    0.2874466    0.1576633  32.81  0.001583967    2.198    0.545
       199  -8.7648     71.7339    100.0340   1.0997416692e+02   4.7134782620e+01    0.1661907    0.1133436 -46.54 0.0002293429    1.372    0.271
       200 -10.8078     20.8389     93.5530   1.2486223546e+02   5.4233358079e+01    0.2646307    0.1630313 -50.53 0.0003300045    1.302    0.232
       201 -10.5509     14.2471     93.7433   1.2706630525e+02   5.4687966784e+01    0.1882821    0.1496868  10.78 0.0009289754    1.453    0.312
       202 -10.5389    249.7162    117.9491   7.4618401142e+01   8.0281197330e+00    0.4090378    0.2887158 -16.37   0.00176978    1.840    0.457
       203 -11.2749    193.0752    248.9873   1.1074698335e+02  -5.0146735886e+00    0.3596638    0.2021488  37.45  0.001900793    1.609    0.378
       204 -11.0286     16.8338     25.5911   1.0662345400e+02   6.6696859083e+01    0.2029341    0.1452113  31.59  0.001405157    1.792    0.442
       205 -11.5777    204.9978    245.5034   1.0784126098e+02  -6.2999871423e+00    0.5085362    0.2642498   8.60  0.002024902    3.378    0.704
