#   1 NUMBER                 Running object number                                     
#   2 MAG_AUTO               Kron-like elliptical aperture magnitude                    [mag]
#   3 X_IMAGE                Object position along x                                    [pixel]
#   4 Y_IMAGE                Object position along y                                    [pixel]
#   5 X_WORLD                Barycenter position along world x axis                     [deg]
#   6 Y_WORLD                Barycenter position along world y axis                     [deg]
#   7 A_WORLD                Profile RMS along major axis (world units)                 [deg]
#   8 B_WORLD                Profile RMS along minor axis (world units)                 [deg]
#   9 THETA_WORLD            Position angle (CCW/world-x)                               [deg]
#  10 FWHM_WORLD             FWHM assuming a gaussian core                              [deg]
#  11 ELONGATION             A_IMAGE/B_IMAGE                                           
#  12 ELLIPTICITY            1 - B_IMAGE/A_IMAGE                                       
         1 -11.3813     14.7787     17.9878   5.4747598426e+01   7.4453851593e+01    0.2789493    0.2277368 -53.57  0.001270222    1.377    0.274
         2 -12.3979      3.2828     13.2000   6.1314899707e+01   7.6334640940e+01    0.6237536    0.3088493 -55.51  0.003241502    1.860    0.462
         3 -11.5582     10.0156     10.7648   5.4418555986e+01   7.6226371816e+01    0.4352666    0.3704496  43.21  0.002965875    1.591    0.372
         4 -12.6724     75.9864     10.7403   1.8988446927e+01   6.4873751956e+01    0.5364931     0.329894  28.47 0.0009929977    1.848    0.459
         5 -11.8671     59.5984     11.7483   2.5374677457e+01   6.8318219194e+01    0.3230038    0.2398358 -36.89  0.001279301    1.474    0.321
         6 -13.0696     65.4642     11.6658   2.3059697749e+01   6.7096577923e+01    0.3182677    0.2599329  39.38 0.0004953517    1.115    0.103
         7 -10.6057    139.9643     10.9732   5.8190136800e+00   4.8936737475e+01    0.2045601    0.1803487  89.27  0.001215093    1.009    0.009
         8 -11.6449    249.0385      9.0080   3.5632434506e+02   2.3861819521e+01    0.2211647    0.1510795 -35.62 0.0007640338    1.405    0.288
         9 -11.2348    234.5775      9.1632   3.5710967746e+02   2.6721627084e+01    0.2342753   0.08595021 -37.32  0.001133223    2.094    0.522
        10 -10.0231    178.0480     12.1188   1.9018007003e+00   3.9186381811e+01     0.185103    0.1671092  70.25            0    1.246    0.197
        11 -10.9541    241.6092      9.2172   3.5674496021e+02   2.5295533766e+01    0.1526462    0.1021843 -29.57 0.0004884365    1.592    0.372
        12  -9.2809    100.2955      9.6975   1.2137361935e+01   5.9175202738e+01    0.1355871   0.09930819 -67.01 0.0002089204    1.577    0.366
        13 -10.2464    155.0625      8.3395   3.0940243592e+00   4.5331826851e+01    0.2908666   0.09682911  66.08  0.001124183    2.577    0.612
        14 -10.6771    146.2111      7.7475   3.9213956700e+00   4.7650544842e+01    0.2962899    0.1594305  63.66  0.001413256    1.700    0.412
        15 -10.9485     82.1602      6.9626   1.5257641449e+01   6.3828579233e+01    0.2089828    0.1729375  56.15 0.0003042481    1.098    0.089
        16 -10.3640     68.3340      5.4857   1.8629892182e+01   6.7133064932e+01     0.216098     0.189361  22.86 0.0004722699    1.095    0.087
        17  -9.7063    222.9968      5.3498   3.5689747588e+02   2.9561170363e+01    0.1667368    0.1284546 -67.49  0.001097379    1.053    0.051
        18 -10.8951    179.7445      3.8174   3.5941846515e+02   3.9630487890e+01    0.3350839    0.1923235  64.49  0.001034313    1.742    0.426
        19 -10.2328    164.2488      4.7998   1.0545747587e+00   4.3359644844e+01    0.1975998    0.1513087 -67.27 0.0003549122    1.155    0.134
        20  -9.8231    159.9541      3.6849   1.1265277124e+00   4.4544852690e+01    0.1907482    0.1517762  86.39 0.0004550835    1.114    0.102
        21 -11.6464    242.2456      3.5514   3.5550640526e+02   2.5787446889e+01    0.2657369   0.09897655  76.22  0.001315481    2.722    0.633
        22 -10.0167    126.0780      2.6541   4.7291812579e+00   5.3285634031e+01    0.1897527    0.1549039  74.30 0.0004798286    1.091    0.084
        23 -11.2150     98.2630      2.6491   9.4105233002e+00   6.0320766175e+01     0.237606    0.2219115  89.56  0.000435858    1.094    0.086
        24 -12.5486     31.7829      2.1205   3.2983896275e+01   7.4669594278e+01      0.27165    0.1841258  36.59 0.0004313653    1.375    0.273
        25 -10.6711     21.8961      2.2546   3.9599362381e+01   7.6171600778e+01    0.2889019    0.1621385   2.09  0.001149957    2.584    0.613
        26 -10.1227     90.9634      2.3111   1.0805113282e+01   6.2140423778e+01    0.1894197    0.1502643  57.30 0.0004180059    1.120    0.107
        27 -10.4092    230.2405      1.3837   3.5561896565e+02   2.8455222038e+01    0.1618318   0.09186315 -78.30 0.0003832248    1.566    0.362
        28 -10.3224     73.5702      1.4585   1.4795115719e+01   6.6326810146e+01    0.2454503    0.1155591  61.54 0.0005449552    1.914    0.477
        29 -10.3810    234.0000    214.9893   4.0146600908e+01  -3.4273536639e+00    0.1770012   0.05606914 -37.10  0.000799774    2.924    0.658
        30 -11.2216     22.2965    248.9214   8.6320617817e+01   1.8557108739e+01    0.4348226    0.1323336  45.59  0.002204356    2.118    0.528
        31  -9.3671    169.3246    214.6699   5.1909213046e+01   5.3106047081e+00     0.119989   0.09826385  61.82 0.0007050295    1.702    0.412
        32 -10.2671     29.7963    214.3912   8.3088042604e+01   2.4730787918e+01    0.1591403    0.1127757  23.22 0.0005994337    1.655    0.396
        33 -11.2499    217.5866    210.6083   4.2187044455e+01  -7.8161281320e-01     0.313301     0.157123 -40.04  0.001412448    2.027    0.507
        34 -11.4436      5.3466    210.5320   8.8331478531e+01   2.7987221492e+01     0.225348    0.1275909 -85.11 0.0007685712    1.621    0.383
        35 -12.0184     11.2545    209.1199   8.6971435572e+01   2.7751754928e+01    0.3033799    0.1979157  57.74  0.001497512    1.186    0.157
        36  -9.6292     71.4855    208.5695   7.2966088886e+01   2.0953628301e+01    0.1325053     0.113136  53.90 8.397902e-05    1.032    0.031
        37 -11.1253      4.9589    204.7617   8.8198312173e+01   2.9290470203e+01    0.2119831    0.1745239 -42.74  0.001406266    1.759    0.431
        38  -9.8756    174.7757    202.1814   4.8807260734e+01   6.6016673663e+00    0.1779158    0.1377313  -1.85 0.0004466226    1.318    0.241
        39 -10.3453    237.0000    196.9988   3.6628326800e+01  -1.3649293294e+00    0.2122116     0.123658 -37.30 0.0009307997    1.631    0.387
        40  -9.3759    120.2935    200.3180   6.0403624864e+01   1.5523480674e+01    0.1328496    0.1052299  -9.73 0.0004334668    1.605    0.377
        41 -11.3844     21.6918    198.5752   8.4047292732e+01   2.9109198919e+01    0.3141707    0.2182085  -1.23   0.00118257    2.316    0.568
        42  -9.4091     50.3158    197.6647   7.7059036346e+01   2.6133607467e+01    0.1466673    0.0816099  61.49 0.0007047472    1.693    0.409
        43 -10.1460    134.7957    196.2020   5.6440108399e+01   1.4043513007e+01    0.1952254    0.1788021  62.73 0.0005343487    1.182    0.154
        44 -12.1885     15.4036    192.1174   8.5191654351e+01   3.1219300284e+01    0.3546891    0.3381398 -35.78  0.001819799    1.447    0.309
        45 -10.3317    186.0001    192.2480   4.4868254634e+01   6.5774716796e+00    0.3352463    0.1191036 -34.88   0.00124186    3.309    0.698
        46 -10.6690    155.9780    185.7696   4.9955896322e+01   1.2615731609e+01    0.2893519    0.1707274 -47.13   0.00138546    1.772    0.436
        47  -9.5848     61.7313    184.6503   7.2900350689e+01   2.7756096477e+01    0.1318702    0.1040906 -40.89 0.0004500408    1.622    0.384
        48 -12.4650     15.4864    182.2678   8.4619007728e+01   3.3553453221e+01    0.5181857    0.2154192  57.87  0.002361695    2.113    0.527
        49 -11.1185     23.5491    180.6694   8.2464605380e+01   3.3169258935e+01    0.3051991    0.1606099  54.66 0.0001611681    1.647    0.393
        50  -9.9243      1.4900    180.4791   8.8019801328e+01   3.5188286983e+01    0.1265575    0.1008819  74.90 0.0008098539    1.043    0.042
        51  -9.9538    244.0000    179.9459   3.2492196595e+01   1.3957536111e-01     0.198027   0.05695517 -37.14 0.0008048203    2.959    0.662
        52 -10.2898    176.7811    168.6136   4.2321806085e+01   1.2364115595e+01     0.303967    0.1559032 -18.98  0.000960772    4.321    0.769
        53 -10.9589      5.5305    167.5010   8.6358558152e+01   3.8030696706e+01    0.1318968    0.1043666  75.62  7.30376e-05    1.003    0.003
        54 -10.2019      1.5300    157.4888   8.6900885653e+01   4.0842387169e+01    0.1311652    0.1058294  81.60 8.786501e-05    1.029    0.029
        55 -10.7309    216.3304    154.8633   3.2126377110e+01   8.1173113155e+00    0.1915395    0.1840154  34.51 0.0003602773    1.258    0.205
        56 -10.0651    158.1791    153.7943   4.3317395791e+01   1.8721277179e+01    0.2074545    0.1739931  -7.59 0.0005312269    1.346    0.257
        57 -12.3824     13.7891    147.9214   8.2763178920e+01   4.2360698316e+01    0.3118092    0.2210287  84.68  0.000353856    1.200    0.166
        58 -12.9665     15.1040    141.3697   8.1829046021e+01   4.3973478287e+01    0.5730393    0.3371383  66.29  0.002275037    1.610    0.379
        59  -9.4555     35.3954    150.5504   7.6532945296e+01   3.9628648001e+01    0.1404702    0.1216313 -89.72 7.141356e-05    1.048    0.045
        60 -11.1749    234.2937    146.9585   2.7638756333e+01   6.5418699744e+00    0.1907723    0.1402705 -31.57 0.0006812967    1.131    0.116
        61 -11.4482      6.3991    145.3353   8.4770245625e+01   4.3604230646e+01    0.2784048    0.1497451  28.41  0.001085352    1.973    0.493
        62  -9.2829    218.3222    144.3164   2.9620114330e+01   9.5718571304e+00    0.1355195   0.09708661  -5.64 0.0007042214    1.663    0.399
        63 -11.6010    239.8190    140.3094   2.5470555927e+01   6.7335562414e+00    0.2224148    0.1452411 -40.21 0.0006301235    1.322    0.244
        64  -9.5052    188.7387    139.6593   3.3877894613e+01   1.5724835616e+01    0.1434156    0.1070865 -12.32 0.0003463956    1.590    0.371
        65 -10.1516    235.4876    138.0383   2.5638636495e+01   7.7805524773e+00    0.1974161    0.1077668 -36.74 0.0003962522    1.521    0.342
        66 -12.9639     37.5710    135.3954   7.4041115200e+01   4.3444313435e+01    0.3113161    0.2616234  85.55 0.0007259112    1.063    0.059
        67 -10.9741    249.0000    135.4890   2.3206709442e+01   6.0677176478e+00    0.2849505    0.0583857 -37.24 0.0009322745    3.915    0.745
        68 -10.9524    241.5183    134.9659   2.4136326647e+01   7.3086688078e+00    0.1982557    0.1045363 -37.39  0.000449845    1.547    0.354
        69 -11.0951     57.9216    132.3119   6.6919204148e+01   4.1783691000e+01    0.3955922    0.2731422 -26.54 0.0008890635    2.045    0.511
        70 -10.3785     53.1576    133.0695   6.8603771735e+01   4.2213631992e+01     0.216118    0.1879664 -53.08 0.0002409461    1.218    0.179
        71 -11.4902     17.1991    131.1460   8.0218308078e+01   4.6520154418e+01    0.2965198    0.2130799  17.91  0.001114452    1.666    0.400
        72 -11.5324      4.7273    130.1373   8.4184930127e+01   4.7698285642e+01    0.2274207    0.1960282  89.19 0.0002246637    1.057    0.054
        73 -11.7996     81.8270    125.3755   5.7828195101e+01   3.9974856854e+01    0.6686229    0.4085114 -63.23  0.002314199    1.608    0.378
        74 -11.0427     73.6121    128.8401   6.1176794782e+01   4.0404028038e+01    0.3075737    0.3045155 -85.99 0.0008491855    1.111    0.100
        75 -10.1538    217.3509    129.2423   2.6555704336e+01   1.2322950696e+01    0.1920536    0.1101088 -44.13 0.0003220438    1.574    0.365
        76 -11.4255     24.4960    127.6578   7.7413820562e+01   4.6833140820e+01    0.3738784    0.1781817 -74.72  0.001622751    1.837    0.456
        77 -11.2732     46.9530    124.3099   6.9269317478e+01   4.5365933163e+01    0.2593984    0.2379678 -66.72 0.0003463062    1.099    0.090
        78 -12.1334      9.4411    121.2494   8.1855235318e+01   4.9741124430e+01    0.5071208    0.2380516  64.44  0.001307188    2.281    0.562
        79  -9.5383     61.4381    121.4769   6.3789485650e+01   4.4209731838e+01    0.1521262    0.1394691 -78.58 0.0001745443    1.017    0.017
        80 -10.7888     24.1575    114.8393   7.5918169331e+01   5.0324135284e+01    0.2223803    0.1818797  72.01  0.001247332    1.192    0.161
        81 -11.5947    249.4134    117.3626   1.9440896949e+01   8.7931829839e+00    0.2408044    0.1350731 -36.22 0.0008504121    1.418    0.295
        82 -11.2633      2.2055    117.3517   8.3998639808e+01   5.1227727465e+01    0.3348743     0.172552 -61.27  0.001634027    1.719    0.418
        83 -10.9584     16.0385    115.4158   7.8923885005e+01   5.0829465039e+01    0.2879275    0.1787068 -80.20 0.0004432985    1.399    0.285
        84 -11.9505     12.8027    110.0999   7.9483402235e+01   5.2488417297e+01    0.4385488    0.3016773  54.61  0.001314596    1.504    0.335
        85  -9.6671    182.0654    114.5599   2.9322520684e+01   2.1914651642e+01    0.1908797     0.130913  84.32 0.0007559588    2.265    0.559
        86 -11.0906     55.2109    109.8582   6.3669837435e+01   4.8202423518e+01    0.2928624    0.2342657 -55.23  0.000570947    1.197    0.165
        87 -11.7689     30.9972    107.6415   7.2306453611e+01   5.1636462835e+01    0.4893931    0.2934856  81.75   0.00219643    1.891    0.471
        88 -11.2226    249.5251    106.0411   1.7057203335e+01   1.0517018917e+01    0.2049243    0.1015436 -37.38 0.0007180533    1.591    0.371
        89  -9.2297     96.7600    106.7713   4.8638357674e+01   4.2017197954e+01    0.1396919    0.1223297 -15.78            0    1.372    0.271
        90 -11.4153     74.9534    104.1710   5.5268859347e+01   4.6678593116e+01    0.2593014    0.2257633 -76.87  0.000275132    1.136    0.120
        91 -10.6925      4.0627    105.0808   8.2192286199e+01   5.4368187161e+01    0.3010804    0.1566207  27.83  0.001473847    2.111    0.526
        92 -10.1948     62.1301     98.6019   5.8563117813e+01   5.0183232456e+01    0.3193231     0.174215 -45.35  0.001300402    1.884    0.469
        93 -10.5362     20.4487    108.2231   7.6389373989e+01   5.2418347291e+01    0.2367314     0.191222  20.00 0.0008765747    1.441    0.306
        94  -9.9675     51.9274     97.4274   6.2197834643e+01   5.1949372505e+01    0.2811721    0.1397584 -43.71 0.0007977662    2.175    0.540
        95 -10.6933     15.4161     96.6993   7.6726778893e+01   5.5878015998e+01    0.3146959    0.1497363 -38.01  0.001325123    2.462    0.594
        96  -9.6028    226.4414     93.4579   1.7191426571e+01   1.6651898343e+01    0.1378058    0.1116648 -48.20 0.0001846677    1.063    0.060
        97 -11.5039     57.3720     90.9070   5.8466244976e+01   5.2881237564e+01    0.3712068    0.3191566 -14.97 0.0006277108    1.346    0.257
        98  -9.9730     31.8506     92.5118   6.9246425053e+01   5.5595341448e+01    0.1877803    0.1440529  20.83 0.0005937532    1.478    0.323
        99  -9.9179     35.4147     90.2908   6.7300464315e+01   5.5814021759e+01    0.1917909    0.1295179 -77.99 0.0004033197    1.481    0.325
       100 -10.2340     95.4857     88.6114   4.3945367697e+01   4.6673988293e+01    0.3909183    0.1451363  47.58  0.001253142    2.861    0.650
       101 -10.7574    184.8776     85.2025   2.1348059240e+01   2.6810793713e+01    0.2332881    0.1892736 -47.89 0.0003238163    1.113    0.102
       102 -11.4423    239.6843     84.8322   1.3624972449e+01   1.5512932692e+01    0.2090796    0.1507456 -25.87  0.001197975    1.435    0.303
       103  -9.5742     47.0045     85.0102   6.1182657776e+01   5.5821055605e+01    0.1771981    0.1629739 -59.58 0.0005058747    1.000    0.000
       104  -9.6180      8.6441     85.3006   7.7894677530e+01   5.9308027931e+01    0.1383742   0.09068626  61.41 0.0006566506    1.706    0.414
       105  -9.4978     34.4184     84.4957   6.6451908360e+01   5.7429346279e+01    0.1438824    0.1258499 -57.49 0.0001508664    1.037    0.035
       106  -9.7640     68.5537     82.0236   5.1589084502e+01   5.3338307222e+01    0.2187248    0.1435243 -55.35 1.418292e-05    1.462    0.316
       107 -10.3594    120.2280     80.2356   3.3896161051e+01   4.3078367386e+01    0.2766407    0.2284711 -47.09  0.001341953    1.189    0.159
       108 -10.3661     64.3426     80.1246   5.2679006263e+01   5.4502378983e+01    0.2914386    0.2037856 -36.18  0.001235653    1.543    0.352
       109 -12.4764     88.3373     77.3095   4.2809284879e+01   5.0742237261e+01    0.3201685    0.3093314 -27.47 0.0003115837    1.072    0.067
       110 -10.0470     50.1126     78.0580   5.7984956229e+01   5.7158103232e+01     0.219622     0.182224 -38.48 0.0003549173    1.197    0.164
       111 -11.6318     23.2342     76.1729   6.9629614608e+01   6.0630376643e+01    0.3888974    0.3178186   8.41  0.002090369    1.391    0.281
       112 -10.8748     73.2473     76.0065   4.7898848272e+01   5.3948804198e+01     0.244143    0.2167514  20.10 0.0001921218    1.225    0.184
       113  -9.4279     44.4847     74.4512   5.9430212348e+01   5.8799909525e+01    0.1421456    0.1333767 -67.93 0.0001302838    1.071    0.066
       114  -9.6314      1.4168     80.8819   8.0452003358e+01   6.0819396924e+01    0.1865326   0.09397479 -61.13 0.0003876561    1.605    0.377
       115 -11.0668    102.9908     69.5936   3.5403588447e+01   4.9262106693e+01     0.339821    0.2199276 -49.11 0.0008773622    1.552    0.356
       116  -9.8092     44.9847     70.7204   5.8115033404e+01   5.9647800726e+01    0.1839358    0.1801112 -26.06 0.0002439124    1.069    0.064
       117 -13.7413     16.5053     67.3643   7.0917675463e+01   6.3378226258e+01    0.4445152    0.3258253 -63.80 0.0007942556    1.189    0.159
       118  -9.2350     78.2768     69.3258   4.3750619720e+01   5.4525858124e+01    0.1506459    0.1179914 -14.72 0.0003686279    1.588    0.370
       119 -11.5427     50.3709     68.1294   5.4874163384e+01   5.9529569580e+01    0.3131039    0.2349279 -41.48 0.0004977235    1.279    0.218
       120 -11.4056      6.3821     67.8632   7.6071406067e+01   6.3884365648e+01    0.2443838    0.2017997 -66.71 0.0003332851    1.045    0.043
       121 -11.7182      4.1230     61.5743   7.6037866393e+01   6.5556546277e+01    0.5334783    0.2878439 -35.46  0.002694771    1.845    0.458
       122 -10.9477     92.7258     67.7892   3.8079964986e+01   5.1900461995e+01    0.2630745    0.2531951  28.92 0.0006126291    1.079    0.073
       123 -10.3798    110.4028     65.4059   3.1746418135e+01   4.8397904544e+01    0.4476624    0.2575918 -71.38  0.001463866    3.379    0.704
       124  -9.9076    129.9888     65.5527   2.6628709121e+01   4.3647871369e+01     0.318485    0.2044742   7.50  0.001058753    3.564    0.719
       125 -12.6387     30.1235     63.3296   6.3040607720e+01   6.3175756544e+01    0.4317544    0.3661235  59.38   0.00109461    1.389    0.280
       126 -11.2622    159.9543     64.0686   1.9817000857e+01   3.6475555577e+01    0.4373328    0.3171675  12.65  0.001893784    2.251    0.556
       127 -11.4931    209.8449     62.9749   1.2009712879e+01   2.4920023063e+01    0.2298289    0.1865323 -54.95 0.0002925969    1.046    0.044
       128 -10.2520     81.9273     64.9918   4.0866577483e+01   5.4743958536e+01    0.1792837    0.1763201  36.09 0.0005481519    1.034    0.033
       129 -10.4958    123.0328     62.9079   2.7467764803e+01   4.5845278688e+01    0.3241831    0.2103635 -36.41 0.0008761446    1.586    0.369
       130 -13.8689    233.3550     57.7607   8.1880968583e+00   2.0767706897e+01     1.091728    0.3997374 -52.10  0.004457616    2.609    0.617
       131 -10.1164    189.2694     60.0650   1.3946593224e+01   3.0040277473e+01    0.2644247     0.179119 -38.85 0.0002883204    1.369    0.269
       132 -10.3878     11.2763     61.7253   7.2324262930e+01   6.5124568190e+01    0.2900793    0.1507087 -68.88  0.001402931    1.702    0.413
       133  -9.8882    189.4944     63.4264   1.4820216751e+01   2.9452770909e+01    0.1439466    0.1281303 -61.62 9.470194e-05    1.021    0.021
       134 -10.2658     90.6854     61.1696   3.6384586943e+01   5.3700101444e+01    0.2701708    0.1999499  60.14 0.0009801871    1.476    0.323
       135 -11.3291     46.6333     60.1031   5.3926808910e+01   6.1924850325e+01     0.383022    0.3029002 -25.80 0.0007431345    1.316    0.240
       136 -10.4930    154.0246     58.7071   1.9288611847e+01   3.8861196856e+01    0.2410457    0.2007606 -49.28 0.0005406431    1.147    0.128
       137  -9.8876    135.1356     58.4622   2.3082646690e+01   4.3646349441e+01    0.2149078    0.1477479  60.97 0.0002755286    1.447    0.309
       138 -10.1895     68.6211     57.1280   4.3089708612e+01   5.8979141426e+01    0.2549427    0.1773225 -39.18 0.0006962973    1.424    0.298
       139  -9.8924     15.2792     58.5384   6.9441764575e+01   6.5630600147e+01    0.1634043    0.1203241 -15.43 0.0005706524    1.473    0.321
       140  -9.6578    177.2961     56.4606   1.4692453929e+01   3.3468650973e+01    0.1963333    0.1349876  86.42 0.0009348925    1.587    0.370
       141 -10.9696    115.8249     55.2802   2.6667428007e+01   4.8990281462e+01    0.2890896     0.242495  78.27 0.0006558872    1.252    0.201
       142 -11.0827     89.0630     54.4111   3.4380317188e+01   5.5374388517e+01     0.401101    0.2306113 -36.28  0.001712626    1.812    0.448
       143 -11.7931      5.2849     43.3321   7.1158348691e+01   6.9840001915e+01    0.8020498    0.2581004 -46.32  0.003400562    2.467    0.595
       144 -11.4363     16.9011     41.9554   6.3590489184e+01   6.9354830390e+01    0.4617154    0.2448927 -65.04  0.002256703    1.907    0.476
       145 -11.1111     13.0406     53.1772   6.9272108556e+01   6.7069467650e+01    0.4142435    0.1954217 -35.26  0.001158814    2.182    0.542
       146 -12.1127      6.6297     52.2249   7.2651419929e+01   6.7689939501e+01    0.6354977    0.3244381 -11.02  0.003037923    2.384    0.581
       147 -13.2161     12.5294     47.8931   6.8092373272e+01   6.8341532196e+01    0.3465851    0.3108905 -27.75 0.0006355907    1.101    0.092
       148 -12.1202    150.2004     51.6729   1.7791960324e+01   4.0974913941e+01    0.4848903    0.3376736  86.84  0.000845216    1.597    0.374
       149 -11.4667    105.2476     52.4719   2.8553892090e+01   5.2034199683e+01    0.2818586    0.2622299  45.34 0.0002223958    1.086    0.079
       150  -9.8271    127.1614     51.2230   2.2423083696e+01   4.6878609972e+01    0.2170778     0.168638 -63.93  0.001018212    1.367    0.268
       151 -10.1115     62.6113     50.7390   4.3099874923e+01   6.1385251515e+01    0.1990101    0.1333237 -53.34  0.000890878    1.592    0.372
       152 -11.3677     53.6207     48.5072   4.6240493987e+01   6.3378573894e+01    0.4489991    0.3147842  30.68  0.002306198    1.480    0.324
       153 -11.7515     55.2166     41.9901   4.2724843858e+01   6.4401841989e+01    0.7301087    0.3326412 -50.49  0.002969775    2.405    0.584
       154 -11.0751     57.1795     35.0647   3.8650741325e+01   6.5326111258e+01      0.50298    0.3117092  11.60  0.001802826    2.476    0.596
       155 -11.9173     44.9804     44.2808   4.8705913936e+01   6.5588519519e+01    0.5697047    0.3555437 -58.46 0.0004947597    1.839    0.456
       156 -11.2881    247.2967     47.0213   4.5489293997e+00   1.9530483537e+01    0.1843894    0.1325955 -48.36  0.000736234    1.068    0.064
       157 -10.1905    180.2853     47.0313   1.1588299621e+01   3.4178479897e+01    0.1966562    0.1636742 -55.09 0.0002023581    1.079    0.073
       158 -10.1004    121.4942     46.5811   2.2095251070e+01   4.9058543859e+01    0.3012309    0.2055897  68.07  0.001396512    1.501    0.334
       159 -10.8189    122.1436     43.1585   2.0692994307e+01   4.9435247155e+01    0.3670645    0.2562798 -68.99  0.001687885    1.707    0.414
       160 -10.3406     78.8804     47.0979   3.5060938908e+01   5.8918803002e+01    0.2347681    0.1751941  11.26 0.0007549178    1.724    0.420
       161 -10.0345    221.8848     45.8482   6.5134364547e+00   2.4818965593e+01    0.1859967    0.1263231 -61.27 0.0003618052    1.299    0.230
       162 -11.1677    236.9341     44.3527   4.8116865398e+00   2.1914272069e+01    0.2371899    0.1352248 -47.74 0.0008631004    1.373    0.272
       163 -10.3751     89.4371     41.4829   2.9035870578e+01   5.7594721425e+01    0.2695163    0.2273626  78.68 0.0007711804    1.353    0.261
       164 -11.5135     75.2755     43.8277   3.5037172371e+01   6.0259817915e+01    0.3776925     0.199285  53.73 0.0009489441    2.080    0.519
       165 -10.2182     50.0544     43.1344   4.5689195634e+01   6.5036161337e+01    0.3143399    0.1739168 -35.68  0.001428017    1.864    0.464
       166  -9.9704    126.8021     43.1992   1.9656323012e+01   4.8251665374e+01    0.2158677    0.1871998 -76.61 0.0003864394    1.164    0.141
       167  -9.3897    143.9521     42.0182   1.5796012210e+01   4.4050011189e+01    0.1729431    0.1583962 -84.86 0.0003055817    1.011    0.011
       168 -11.3293    149.5395     40.7920   1.4399529725e+01   4.2798395273e+01    0.2537465    0.2272506 -83.06 0.0002624921    1.031    0.030
       169 -10.8937     98.6472     41.1395   2.6043311218e+01   5.5515477183e+01    0.6722373    0.2106014  56.07  0.002168333    3.187    0.686
       170  -9.4678    112.2582     45.3649   2.3941029237e+01   5.1547458595e+01    0.1473275      0.11666  12.24 0.0003383092    1.634    0.388
       171 -11.6373     83.3842     37.1126   2.9180239276e+01   5.9665297068e+01    0.4766142    0.3631813  55.79  0.001425622    1.320    0.242
       172 -12.0094     27.7232     37.6669   5.5418932813e+01   6.9213185404e+01    0.2380082    0.2327362 -25.73 0.0002410525    1.176    0.150
       173 -11.0636     24.3952     34.7804   5.6215663201e+01   7.0176797385e+01    0.3393709    0.1760498 -39.61  0.001291132    1.784    0.439
       174 -11.8326    248.0451     36.0429   2.1165697956e+00   2.0823997915e+01    0.2366891    0.1393779 -39.02 0.0004509801    1.382    0.276
       175 -11.2701     64.9958     36.5570   3.5919418527e+01   6.3596724282e+01    0.2366735    0.1867818 -52.61 0.0006536128    1.439    0.305
       176 -10.9246    242.7311     35.5514   2.3947054333e+00   2.1919582751e+01    0.1671767    0.1027647 -79.77 0.0009563849    1.667    0.400
       177 -10.4632    110.6199     33.9614   1.9929355766e+01   5.3688067438e+01    0.2758287    0.2399571  60.43  0.001341917    1.095    0.087
       178 -10.0752     88.1121     32.7322   2.5692457833e+01   5.9274764420e+01    0.2636513    0.1809081   4.73 0.0009990776    2.064    0.516
       179 -11.0640     75.5055     33.1201   3.0178875796e+01   6.2015282341e+01    0.2902494    0.1848823  65.81  0.001322793    1.999    0.500
       180  -9.7732     34.5053     33.1274   4.9433825249e+01   6.9282591751e+01     0.193077    0.1199466 -44.59  0.001005047    1.511    0.338
       181 -10.6117      8.0000     31.9909   6.5796177363e+01   7.2197679325e+01    0.3146726    0.1861714 -41.91   0.00176689    1.428    0.300
       182 -10.7797      6.8278     28.1904   6.5191906023e+01   7.3083215100e+01    0.1983773    0.1552044 -65.64 0.0007400615    1.355    0.262
       183 -10.2117     15.8085     32.1528   6.0606697968e+01   7.1559787598e+01    0.2529532    0.1595385 -17.80 0.0008294531    1.692    0.409
       184 -10.2684     19.3773     30.8078   5.7693596970e+01   7.1505453471e+01    0.2119104    0.1541231 -39.59  0.001262912    1.199    0.166
       185 -10.1311     49.0310     28.8774   3.9514954222e+01   6.7830848029e+01    0.2088863    0.1498814  -4.50 0.0006750191    1.635    0.389
       186 -10.0751     12.1247     29.1308   6.1857132407e+01   7.2497637440e+01    0.1978415    0.1420498 -30.71 0.0005491715    1.236    0.191
       187 -10.1570    198.5004     28.3579   4.3892899069e+00   3.2372532721e+01    0.2668673    0.1081656 -88.72 0.0009507513    3.494    0.714
       188 -11.0914    119.6095     27.2446   1.5262726755e+01   5.2327756615e+01     0.253523    0.2237276  73.24 0.0002583299    1.061    0.058
       189 -11.5367    112.1311     27.0932   1.6831335611e+01   5.4240632998e+01    0.3436727    0.2846232  -4.51  0.001853543    1.428    0.300
       190 -10.3467     80.1715     27.3860   2.5853231244e+01   6.1852892877e+01    0.2702016    0.1887795   3.84  0.001300294    1.880    0.468
       191 -11.4691    231.6756     26.5551   1.1891997617e+00   2.5284117989e+01    0.2625324    0.1793973 -72.57 0.0009801921    1.313    0.239
       192 -10.8909    176.8090     26.7317   6.2171003864e+00   3.7793601960e+01    0.2342826    0.1915188 -58.06  0.000259014    1.093    0.085
       193 -10.7489    212.7912     26.4154   2.6176073940e+00   2.9357970817e+01     0.168533    0.1131972  65.55 0.0007248843    1.638    0.390
       194  -9.2833     98.5083     26.4541   1.9919046097e+01   5.7693808603e+01    0.1419576      0.13083  46.30 9.346542e-05    1.054    0.051
       195 -10.7113    237.1413     25.1291   4.8707111184e-01   2.4339936180e+01    0.1812328    0.1087636 -55.22 0.0002937367    1.311    0.237
       196 -10.3932    219.0076     25.4978   1.8930566007e+00   2.8103749830e+01    0.1753532     0.116437  84.33  0.001003158    1.503    0.335
       197 -10.2601     91.3152     24.8852   2.1220065367e+01   5.9625267166e+01    0.3305766    0.1777042  52.02   0.00149272    1.715    0.417
       198 -10.1298     11.0309     24.9064   6.0831263439e+01   7.3449835151e+01    0.2096266    0.1181804 -30.02 0.0006706386    1.706    0.414
       199 -11.0136    157.6137     22.0550   7.1464160080e+00   4.3189096295e+01    0.4332494    0.2048096 -76.20  0.001609443    2.906    0.656
       200 -10.6988     82.4352     22.1952   2.2653955162e+01   6.2045242017e+01    0.2514515    0.1382591 -22.71  0.001126152    2.072    0.517
       201 -11.4794     34.1983     22.7165   4.4370517254e+01   7.1227739301e+01    0.2206493    0.1801128  -3.29 0.0002376718    1.155    0.134
       202 -11.7283    249.2731     21.0242   3.5883191401e+02   2.2437196505e+01    0.2289154    0.1649604 -47.08 0.0002398679    1.125    0.111
       203 -10.3972    193.0711     20.9322   2.9381726047e+00   3.4559573038e+01    0.1994465    0.1647411 -68.82 0.0003318552    1.012    0.012
       204 -10.5965    122.3950     19.8948   1.1886968265e+01   5.2505923399e+01    0.3570964     0.175968  43.56  0.001106402    2.325    0.570
       205  -9.7487    100.6702     21.3662   1.7164428508e+01   5.7807504280e+01    0.1494182    0.1028887 -66.51 0.0005929089    1.813    0.449
       206  -9.6631     74.2193     21.1345   2.4873677969e+01   6.4027427796e+01    0.1703723    0.1578176 -78.03 0.0003386347    1.266    0.210
       207 -10.2906     68.6957     21.2037   2.6921656641e+01   6.5210579979e+01    0.2036678     0.166749 -46.52 0.0007846017    1.387    0.279
       208 -12.2653     28.6222     19.9013   4.6258837279e+01   7.2490061735e+01    0.2980958     0.211744  17.42 0.0002679119    1.405    0.288
       209 -11.5923    219.3771    247.5363   4.7570163060e+01  -5.8127049108e+00    0.2554518    0.2086693 -47.68  0.001871918    2.050    0.512
       210 -10.1396      8.8647     15.6114   5.8016108808e+01   7.5442887007e+01    0.2195475    0.1787093  66.81 0.0008470518    1.949    0.487
       211  -9.8270    109.8004    249.6434   6.8635159763e+01   7.8492460789e+00    0.1803942   0.08466737  40.57 0.0009426474    1.678    0.404
       212  -9.7984      7.0037    249.2831   8.9273042730e+01   2.0010137529e+01     0.156394    0.1063303  54.63 0.0004823296    1.042    0.040
       213  -9.7681     87.9943     19.2697   1.9596716176e+01   6.1117827576e+01    0.1886497    0.1714198  60.09            0    1.064    0.060
       214 -11.4595     64.4845     17.6900   2.6705098136e+01   6.6563052792e+01    0.3108681    0.2012611  46.58 0.0009729589    1.441    0.306
       215 -10.7755    131.9845     16.2729   8.8779449832e+00   5.0440959007e+01    0.2391638    0.1864275 -48.78   0.00024164    1.294    0.227
       216 -10.2169    109.1962     16.6798   1.3223939225e+01   5.6224205771e+01    0.2401288    0.1562419  56.93 0.0007629265    1.405    0.288
       217  -9.9427    100.8627     17.6275   1.5494187839e+01   5.8197686664e+01    0.2030427    0.1265785  76.95 0.0009474278    1.750    0.429
       218  -9.9285     35.7202     17.3914   4.0475661444e+01   7.1879567395e+01    0.1624794    0.1113259  23.99 0.0001713121    1.446    0.308
       219 -11.8562    240.2997     15.0070   3.5806526570e+02   2.4902765594e+01    0.2334932    0.1680069 -74.33 0.0003717649    1.222    0.181
       220 -10.8772    217.0762     16.0525   3.5977824485e+02   2.9652239031e+01    0.3689434     0.138333  62.96  0.001643246    2.831    0.647
       221 -10.0274    193.7913     16.3001   1.6435737872e+00   3.4928726249e+01    0.2186923    0.1359775 -74.16 0.0009717012    1.491    0.329
       222 -10.6520    137.3397     15.1397   7.6491496756e+00   4.9180755627e+01    0.2567961    0.1718695 -60.86 0.0004184945    1.532    0.347
       223  -9.8149     10.4911    248.0471   8.8570935175e+01   1.9904417901e+01    0.1587875    0.1126846  61.38 0.0006005508    1.052    0.049
       224 -11.3278     73.1839    244.8195   7.5773398255e+01   1.3462409846e+01     0.234423    0.2223026  33.34 0.0009590676    1.282    0.220
       225 -12.6434     74.8271    239.7329   7.5022378611e+01   1.4197084508e+01    0.4711295     0.340031  47.00  0.002835829    1.095    0.087
       226 -10.0702    151.4533     15.0609   5.6898274623e+00   4.5556226641e+01     0.191349    0.1346498 -29.58 0.0003806409    1.522    0.343
       227  -9.6130    165.5242     12.5182   3.2609504366e+00   4.2254928281e+01    0.1374094    0.1173237 -76.70  0.000809913    1.002    0.002
       228 -10.2235     45.7168    244.3791   8.1418297079e+01   1.6857996810e+01    0.1577317   0.09818394  29.56 0.0006811853    1.582    0.368
       229 -10.4457     88.5947    241.2476   7.2240472430e+01   1.2127490939e+01     0.151442    0.1123783 -51.88 0.0009515785    1.693    0.409
       230 -10.3455      3.7793    238.4876   8.9578341936e+01   2.2369193808e+01     0.197464    0.1273555  83.87 0.0007684004    1.397    0.284
       231  -9.6450    195.3116    238.3161   5.0462112018e+01  -1.7781099984e+00    0.1187485   0.07518741   0.33 0.0005803277    1.639    0.390
       232  -9.6276    135.0000    238.0579   6.2177728501e+01   6.3437095288e+00    0.1721926   0.07131685 -53.49 0.0007991294    2.920    0.657
       233 -10.1871     40.5445    237.5077   8.2090373019e+01   1.8769245220e+01    0.1220258   0.09093364  55.98 1.772003e-05    1.019    0.019
       234 -10.4241    160.3943    235.7934   5.6750335897e+01   3.1912976475e+00    0.1617967    0.1057974 -29.32 0.0009497679    1.753    0.430
       235 -10.2682     91.8273    235.6794   7.1031253508e+01   1.2721514343e+01    0.1603882    0.1495731  39.83 0.0005937978    1.168    0.144
       236 -10.6902     30.7854    234.0642   8.3939344792e+01   2.0528250897e+01     0.286792    0.1305363  83.34  0.001320487    2.289    0.563
       237  -9.9924    183.1964    234.4242   5.2146081547e+01   3.2514230539e-01    0.1638749   0.09615199  38.43 0.0009439611    1.656    0.396
       238 -10.7723    248.5299    229.0542   4.0075767737e+01  -6.8180857248e+00    0.1547378   0.08707357 -29.44 0.0008780722    1.576    0.365
       239 -10.3304    191.9974    226.7215   4.9359894395e+01   2.7395775058e-01    0.2077117    0.1599921 -72.47  0.001186116    2.664    0.625
       240 -10.0314      3.9465    225.9826   8.9162261381e+01   2.4851172015e+01     0.155279    0.1337409 -53.33 0.0008394649    1.675    0.403
       241 -10.0669     78.8395    223.4350   7.2711471911e+01   1.6844926761e+01    0.1747915    0.1143303  23.10  0.000835695    1.687    0.407
       242  -9.9963    230.2240    221.9727   4.1893089012e+01  -3.8868603787e+00    0.1436313   0.08029718 -32.21 0.0008744933    1.662    0.398
       243 -10.0664     16.0027    222.2406   8.6501129776e+01   2.4477885265e+01    0.1495521   0.08517927  35.63  0.000457004    1.570    0.363
       244 -11.1656     49.6763    218.6197   7.8883312946e+01   2.1560953683e+01    0.2557716    0.2300531  36.39  0.001343063    1.273    0.215
       245  -9.8492    211.6175    217.8572   4.4414381697e+01  -1.0311047006e+00    0.1552136    0.1046422 -43.52 0.0009487089    1.785    0.440
       246 -10.6783     38.6227    217.1308   8.1271832510e+01   2.3166655287e+01    0.2222047    0.1310834  47.09 0.0006491474    1.357    0.263
       247 -10.0587     23.8494    216.0643   8.4505602867e+01   2.4995814035e+01    0.1892417    0.1238993  61.47  0.001156294    1.207    0.172
       248 -10.1485     13.3367    216.3307   8.6822152834e+01   2.5989333282e+01    0.1076582    0.0892249 -46.81 0.0007052082    1.734    0.423
