#   1 NUMBER                 Running object number                                     
#   2 MAG_AUTO               Kron-like elliptical aperture magnitude                    [mag]
#   3 X_IMAGE                Object position along x                                    [pixel]
#   4 Y_IMAGE                Object position along y                                    [pixel]
#   5 X_WORLD                Barycenter position along world x axis                     [deg]
#   6 Y_WORLD                Barycenter position along world y axis                     [deg]
#   7 A_WORLD                Profile RMS along major axis (world units)                 [deg]
#   8 B_WORLD                Profile RMS along minor axis (world units)                 [deg]
#   9 THETA_WORLD            Position angle (CCW/world-x)                               [deg]
#  10 FWHM_WORLD             FWHM assuming a gaussian core                              [deg]
#  11 ELONGATION             A_IMAGE/B_IMAGE                                           
#  12 ELLIPTICITY            1 - B_IMAGE/A_IMAGE                                       
         1 -12.4812    225.2396     40.2035   5.9055944183e+01   2.3769133213e+01     1.098648    0.5833975 -43.29  0.003656828    1.827    0.453
         2 -13.5494    209.2922     33.8706   5.9255589464e+01   2.8356080943e+01     1.950936     1.343675 -37.80  0.008123789    1.401    0.286
         3 -13.1401    187.0079     33.1006   6.2068454652e+01   3.4093809047e+01     1.008539    0.9959351  27.18  0.003055569    1.018    0.018
         4 -13.3615    194.4164     22.7621   5.7911386269e+01   3.3345809133e+01     1.103502    0.9020613   2.93  0.001310544    1.369    0.270
         5 -15.0065    231.5095      9.4910   5.0449406836e+01   2.5575299429e+01     2.603808     1.236529 -53.29   0.01194209    2.156    0.536
         6 -14.2826    212.4237      7.2037   5.1505606510e+01   3.0352978334e+01     1.807149    0.9582755  81.33  0.006812092    1.958    0.489
         7 -13.4874    245.5718      5.6146   4.8435349171e+01   2.2762999462e+01     0.913803    0.5512972 -54.62  0.003988546    1.555    0.357
         8 -11.3158     82.1637     26.4896   8.4569944530e+01   6.0613943248e+01    0.7412777    0.4049506  -4.88  0.002805335    2.970    0.663
         9 -12.8472     95.2149     20.4645   7.7342101256e+01   5.8753568073e+01     1.339026      0.91304   5.64  0.005629658    1.606    0.377
        10 -11.4554     40.2399     16.8697   9.8501761294e+01   6.8966753312e+01     0.371472    0.1185797 -36.14  0.001419803    3.019    0.669
        11  -8.8808    138.6826    215.3388   1.1503453680e+02   1.3543246942e+01    0.1218732   0.08457134  60.32 0.0004569728    1.705    0.414
        12 -19.5067     18.3189    141.9433   1.3423778949e+02   4.3108711904e+01     17.44086      3.53998 -78.26   0.05769861    4.942    0.798
        13 -11.0154     58.8569    188.2026   1.2875295443e+02   2.9440921566e+01    0.3196169    0.2602224  29.39  0.001789807    1.385    0.278
        14 -11.1878    209.2824    182.2545   9.5741130472e+01   6.7950672784e+00    0.5806305    0.3348089   1.03  0.002715677    2.305    0.566
        15  -9.8652     74.4971    181.5910   1.2465086508e+02   2.8839565553e+01    0.1835594     0.177679 -37.71  0.001107682    1.290    0.225
        16  -9.3545     99.2436    180.7876   1.1894499964e+02   2.5587201723e+01    0.1889414    0.1567059  59.23 0.0008188658    1.127    0.113
        17 -11.3277     80.6068    179.3336   1.2301295154e+02   2.8490656186e+01    0.3925628    0.2447535 -38.96  0.002055746    2.291    0.563
        18 -11.4332     84.0775    174.1192   1.2158590398e+02   2.9072676871e+01    0.3188849    0.2495772 -60.73  0.001037655    1.374    0.272
        19 -11.0881    197.5082    174.2332   9.6492913983e+01   9.9969280022e+00    0.5691631     0.304992 -41.99  0.002721527    2.207    0.547
        20 -11.0619    104.3910    171.7718   1.1650955646e+02   2.6592311865e+01     0.416501    0.2637152  55.19  0.002168256    1.619    0.382
        21 -10.5512    137.6474    171.2840   1.0872177930e+02   2.1223786616e+01    0.2896216    0.2198147  70.55  0.001533561    1.729    0.422
        22 -10.7982    119.2981    173.1196   1.1323568213e+02   2.3967364825e+01    0.2437323    0.1761552  28.98  0.001334885    1.377    0.274
        23 -11.3007     96.5905    157.2616   1.1621917005e+02   3.0764155636e+01    0.5485445    0.3828793 -30.81  0.002812193    1.936    0.483
        24  -9.8690    141.0679    157.9431   1.0553578155e+02   2.3129223033e+01    0.2066144    0.1897433  41.54 0.0003532955    1.070    0.065
        25 -10.6699    116.0568    211.7445   1.1916014392e+02   1.7515806386e+01     0.275114    0.1774922  59.35 0.0009296907    1.657    0.396
        26  -9.6326    174.6254    148.7898   9.6074992447e+01   1.8405683285e+01     0.191474    0.1358512 -46.47 0.0005567131    1.636    0.389
        27 -10.5302    133.7066    144.2602   1.0462876013e+02   2.7172178904e+01    0.9900898    0.2406938 -53.95  0.002266348    7.528    0.867
        28 -10.4481    108.0229    141.1081   1.1053618373e+02   3.2388056107e+01    0.4756231    0.2666757 -34.55  0.001997713    2.417    0.586
        29 -11.5583     96.0390    141.9122   1.1383093077e+02   3.4152870404e+01     0.265871    0.2523236  -8.24 0.0003889578    1.175    0.149
        30 -11.8102    194.1460    193.4060   1.0065567196e+02   7.8059160938e+00    0.6945631    0.5849335  68.64  0.004165797    1.908    0.476
        31 -10.4414    115.1024    131.4525   1.0675651650e+02   3.3241222565e+01    0.2747155    0.2213825 -17.72 0.0007638572    1.487    0.327
        32  -9.9710    105.8117    130.8520   1.0912951639e+02   3.4989633642e+01    0.3181165    0.2684573 -88.94  0.001196198    1.362    0.266
        33 -10.3228    102.9299    127.6441   1.0926673578e+02   3.6183142160e+01    0.2800077    0.2406051   2.19 0.0006977271    1.349    0.259
        34  -9.6228    160.4778    127.4801   9.4467326708e+01   2.5151241963e+01    0.1497646    0.1407285  21.29 1.665143e-05    1.040    0.038
        35  -9.2405    125.6477    127.3092   1.0307591637e+02   3.2181343501e+01    0.1506508    0.1164374  74.51 0.0007043837    1.719    0.418
        36 -10.0955    119.8398    125.1626   1.0413644863e+02   3.3727464174e+01    0.2052933    0.1740629  -9.06 0.0007290675    1.347    0.258
        37  -9.7485    136.5045    123.1606   9.9310397111e+01   3.0924406081e+01     0.292093    0.1910313  56.54 0.0006937965    1.805    0.446
        38  -9.3399    110.3084    120.0120   1.0558769584e+02   3.6583762292e+01    0.1963815    0.1840435 -49.06 0.0003040616    1.081    0.075
        39 -10.6349     65.1681    114.2317   1.1762311240e+02   4.4842991978e+01    0.2004507    0.1795884 -37.56 0.0006783683    1.188    0.159
        40  -9.3599    168.0274    113.0121   8.9151710633e+01   2.6222876910e+01    0.2405757    0.1963364 -80.72  0.001134658    1.776    0.437
        41  -9.3124    205.8387    110.1492   8.0591920841e+01   1.8374437724e+01    0.2092499    0.2037697 -30.47 0.0005575701    1.193    0.162
        42  -9.9759     81.8510    195.3286   1.2449355207e+02   2.5220283392e+01     0.331309    0.1971692  22.38  0.001762238    2.137    0.532
        43 -11.4138    244.5952     88.2211   6.8801048611e+01   1.3354246909e+01    0.4380838    0.2242517 -28.03    0.0016686    1.749    0.428
        44 -11.1593    240.4434     86.0083   6.8843269935e+01   1.4505596730e+01    0.5268323    0.3704511  27.18  0.002760772    1.575    0.365
        45  -8.6108    183.3445     78.3181   7.6338286233e+01   2.8660635875e+01    0.1640217    0.1142574  19.39  0.000704902    1.721    0.419
        46 -10.7424    169.0635     68.8557   7.6420415680e+01   3.3687052702e+01    0.4440564     0.313339 -86.12  0.001159702    2.244    0.554
        47  -9.3690    114.3334    195.3172   1.1750087054e+02   2.0611455757e+01    0.1215098   0.09573957   2.46 0.0003279996    1.692    0.409
        48 -10.8750    125.6705     52.7735   8.1446168699e+01   4.6946166128e+01    0.4207512    0.2945099  30.89  0.001930513    1.487    0.328
        49 -11.4146    120.6317     48.6197   8.1322824567e+01   4.8810659996e+01    0.4727562    0.2839711 -22.88  0.002010582    1.809    0.447
        50 -12.4093    176.5135     42.4679   6.6692319035e+01   3.5647079430e+01    0.6733065    0.5880588   2.66 0.0009833105    1.199    0.166
        51  -9.3943    168.2730    247.9458   1.1348354346e+02   4.6788437194e+00    0.1497331     0.118044  27.14 0.0003805315    1.098    0.090
        52  -9.6874    170.1313    239.8572   1.1215234473e+02   5.3993790484e+00    0.1577465    0.1093435  20.69 0.0002641814    1.311    0.237
        53 -10.5956    103.3144    238.3344   1.2437693890e+02   1.5078934781e+01    0.2644981     0.211299 -12.30  0.001854915    1.949    0.487
        54  -9.6039    101.3186    235.6720   1.2450797739e+02   1.5748195486e+01    0.1915172    0.1056769  50.64 0.0007931562    1.513    0.339
        55 -11.7404     94.3537    237.9675   1.2600340982e+02   1.6309809294e+01    0.4481926    0.1873036  46.78  0.001618122    1.855    0.461
        56 -10.1278    183.4608    234.0022   1.0894742159e+02   4.1574021916e+00    0.3269928    0.1213756  48.80  0.001299624    3.817    0.738
        57 -10.0983     78.3573    232.2247   1.2850201777e+02   1.9233155679e+01    0.2187555    0.1597702  26.26 0.0007517079    1.564    0.361
        58 -11.4005    173.1998    222.3920   1.0925051537e+02   7.1940718964e+00    0.2717704    0.1666561  22.64  0.001577399    1.544    0.352
        59 -10.6110    184.0083    215.9877   1.0626337490e+02   6.3656662582e+00    0.1798895     0.140446  54.18 0.0008328269    1.675    0.403
