#   1 NUMBER                 Running object number                                     
#   2 MAG_AUTO               Kron-like elliptical aperture magnitude                    [mag]
#   3 X_IMAGE                Object position along x                                    [pixel]
#   4 Y_IMAGE                Object position along y                                    [pixel]
#   5 X_WORLD                Barycenter position along world x axis                     [deg]
#   6 Y_WORLD                Barycenter position along world y axis                     [deg]
#   7 A_WORLD                Profile RMS along major axis (world units)                 [deg]
#   8 B_WORLD                Profile RMS along minor axis (world units)                 [deg]
#   9 THETA_WORLD            Position angle (CCW/world-x)                               [deg]
#  10 FWHM_WORLD             FWHM assuming a gaussian core                              [deg]
#  11 ELONGATION             A_IMAGE/B_IMAGE                                           
#  12 ELLIPTICITY            1 - B_IMAGE/A_IMAGE                                       
         1 -16.3505     71.9949    193.7599   1.3448563352e+02   2.5798034311e+01     2.876304     1.975775  69.49   0.01493649    1.376    0.273
         2 -14.8246    134.8239     74.6694   9.2704239335e+01   4.0982946912e+01      2.70618     1.756731  25.90   0.01159718    2.012    0.503
         3 -15.9871    142.4691    103.0167   9.8880191396e+01   3.3723199323e+01     4.265495     2.661494  72.39   0.01611336    2.482    0.597
         4 -13.4629    249.4677     53.4933   6.7191796026e+01   1.6918898506e+01     1.699167    0.2798399 -36.28  0.004735503    5.504    0.818
         5 -13.1211     65.7632     41.0448   1.0192602830e+02   5.9707551496e+01    0.9793071    0.6175749   6.18  0.005192836    1.890    0.471
         6 -14.2859     11.0604      7.1803   1.1063919966e+02   7.0778041927e+01      1.18041    0.6879442   6.32  0.008212541    1.618    0.382
         7 -13.6315    165.1017      6.4396   6.6325946264e+01   4.2912981643e+01     1.558674    0.8025958  81.16  0.007191655    2.083    0.520
         8 -13.6003    189.7874      8.8452   6.3750508743e+01   3.6685851169e+01     1.791836    0.7214606  57.84   0.00797068    2.157    0.536
         9 -11.7117     73.7776    233.1231   1.3851192892e+02   1.7229132507e+01    0.3123483    0.1756241 -63.33  0.001760616    1.862    0.463
        10 -11.4976     94.1836    247.9602   1.3624739493e+02   1.1343115872e+01    0.3943428    0.2702777  80.84  0.002441045    1.425    0.298
        11 -10.4432    144.5025    233.7104   1.2490109239e+02   5.5429106521e+00    0.2838086    0.1777341  62.72  0.001443196    1.769    0.435
        12 -12.8643     13.4362    228.3234   1.4878364419e+02   2.5710957578e+01    0.6706315    0.3867499  60.31  0.004563054    1.401    0.286
        13 -12.0001    205.4529    228.5750   1.1213781712e+02  -4.4379873897e+00    0.6082712     0.343868  37.25  0.003136616    1.561    0.359
        14 -12.4813     79.3503    222.5753   1.3635757407e+02   1.8527742246e+01    0.3353345    0.2542096 -77.09  0.002102289    1.282    0.220
        15 -11.2372    130.3763    231.5307   1.2739445764e+02   8.4229657867e+00    0.2725358    0.1985364  60.75  0.001565414    1.263    0.208
        16 -12.5026     55.4747    226.4998   1.4127509794e+02   2.1097806995e+01    0.4688789    0.2695972  60.09  0.002571502    1.475    0.322
        17 -10.5545    129.9961    219.7424   1.2582077406e+02   1.0742070903e+01    0.1946744    0.1664265  59.35  0.001164299    1.013    0.013
        18 -12.7130    109.3934    215.4708   1.2945999791e+02   1.5189535026e+01     0.533634    0.3099675  53.17  0.002688449    1.554    0.357
        19 -11.6018     73.7278    244.0417   1.3956084708e+02   1.5129687119e+01    0.3741694    0.2116268  80.31  0.002091005    1.826    0.452
        20 -11.2399    180.9269    203.8722   1.1264832368e+02   4.2407840187e+00    0.2776558    0.2287075  21.89  0.001530651    1.261    0.207
        21 -11.6850    130.7220    202.8305   1.2309743076e+02   1.4030093498e+01    0.4548727    0.2084702 -61.66  0.001815195    2.618    0.618
        22 -11.4548    175.3215    202.8204   1.1361723057e+02   5.5186188102e+00    0.3078099    0.1881396  34.08  0.001435705    1.650    0.394
        23 -10.2221     22.5178    200.9797   1.4523327136e+02   3.0351690314e+01    0.1612125   0.07224896 -55.73 0.0008103337    2.570    0.611
        24 -12.1600    189.4113    198.5460   1.0991657829e+02   3.5850373478e+00    0.3676932    0.3533449 -23.71   0.00171174    1.104    0.094
        25 -11.6425    153.0435    199.3179   1.1770377605e+02   1.0524778111e+01     0.321382    0.2262097  37.07  0.001334858    1.401    0.286
        26 -10.9385    157.9008    212.5398   1.1893001078e+02   7.0064771324e+00    0.3914751    0.2534505 -87.73  0.001661039    2.754    0.637
        27 -10.7270     38.5197    198.0577   1.4187795880e+02   2.9211627332e+01    0.1856097    0.1004042 -74.11   0.00102838    1.580    0.367
        28 -11.1168    204.4063    195.4407   1.0629194015e+02   1.2618194116e+00    0.3579414    0.2480636 -28.06  0.001798795    1.568    0.362
        29 -10.5286    164.1393    195.7148   1.1468027521e+02   9.0799211166e+00    0.2493031    0.2039137 -66.24  0.001323679    1.388    0.279
        30 -11.9666    192.4072    191.7089   1.0798918880e+02   4.2675414534e+00    0.4696625    0.3792205 -34.44   0.00253892    1.300    0.231
        31 -12.9382    145.3745    188.8647   1.1751528799e+02   1.4181012235e+01    0.7359831     0.317136 -58.39  0.002677265    2.856    0.650
        32 -12.9400    140.0582    189.1296   1.1874170166e+02   1.5159806203e+01    0.6312009    0.3730312 -47.75  0.002691598    1.817    0.450
        33 -13.1527    149.7985    209.9247   1.2019019650e+02   9.0355683642e+00    0.6171895    0.5088505  54.42    0.0028185    1.111    0.100
        34 -10.9982    247.8863    192.1014   9.7439194768e+01  -6.0296099676e+00    0.1927411    0.1841574 -32.77  0.001248533    1.274    0.215
        35 -12.7125    143.9407    208.4008   1.2117519067e+02   1.0435714389e+01    0.6646821    0.2892654 -44.84  0.002669883    2.708    0.631
        36 -11.5766     19.5163    190.1460   1.4490996829e+02   3.2987131837e+01    0.2902891    0.1388123  74.87  0.001496675    2.136    0.532
        37 -12.6250    204.6023    185.9663   1.0437738329e+02   2.9350737726e+00    0.6407374    0.4863718 -28.10  0.003353772    1.379    0.275
        38 -11.2193    121.5512    187.7420   1.2264202880e+02   1.8963075622e+01     0.362643    0.1918527  67.90  0.001307684    3.026    0.670
        39 -12.4076     38.5006    186.3353   1.4071706658e+02   3.1800450366e+01    0.3240606    0.2466304  32.19  0.002062973    1.688    0.408
        40 -12.3468     10.3214    186.8747   1.4643085000e+02   3.4572544945e+01    0.4355754    0.3212652  85.56  0.002827605    1.034    0.033
        41 -11.2099    160.9684    186.5353   1.1365217131e+02   1.1570682501e+01     0.386459    0.2503882  28.23  0.001717645    1.846    0.458
        42 -12.4436    129.8300    184.5723   1.2022688083e+02   1.8112598396e+01     0.540126    0.2820603  55.12  0.002217054    2.055    0.513
        43 -12.9427    121.9474    209.7931   1.2603856931e+02   1.4176339715e+01    0.6094257    0.3484572 -53.30  0.002949088    1.899    0.473
        44 -11.0574    196.8179    183.1516   1.0538384936e+02   5.0009430332e+00    0.3007774    0.2016097 -54.32  0.001412902    1.746    0.427
        45 -10.4910     26.1314    180.8472   1.4273368227e+02   3.4364191539e+01    0.1953279    0.1340579  81.42  0.001232709    1.239    0.193
        46 -12.6500    147.4258    178.1910   1.1506411157e+02   1.6061976156e+01     0.449538    0.4283767  56.94  0.002515496    1.035    0.034
        47 -13.2610    143.8670    171.6684   1.1460456299e+02   1.8207331899e+01    0.6475797    0.5080211   8.91  0.003060964    1.782    0.439
        48 -13.3606    151.4644    167.5423   1.1202968726e+02   1.7560518024e+01    0.6940696    0.4370911  47.81  0.003083703    1.546    0.353
        49 -12.0852    131.4340    178.6363   1.1879214714e+02   1.9119312168e+01    0.4219546    0.3419966 -16.87  0.001547307    1.722    0.419
        50 -12.0720    165.2868    176.8949   1.1082055443e+02   1.2693518650e+01    0.3724758    0.2931206 -36.17  0.001742294    1.389    0.280
        51 -11.9176    139.2614    178.8592   1.1704375376e+02   1.7542322322e+01    0.5420499    0.1885839 -46.48  0.001816876    3.101    0.678
        52 -11.2191    102.7328    177.5289   1.2523918353e+02   2.4631446872e+01    0.3097879    0.2383547 -14.62  0.001488054    2.141    0.533
        53 -12.2335     96.5247    173.5296   1.2602865385e+02   2.6611086372e+01    0.5129633    0.2384052 -53.96  0.002034914    2.108    0.526
        54 -11.2185    181.9045    173.7683   1.0657493044e+02   9.8860009648e+00    0.3745701     0.249083 -61.73  0.001653824    1.892    0.471
        55 -14.9161     96.1017    192.6546   1.2909175631e+02   2.2315802772e+01     1.701243    0.9369158 -72.65  0.007773673    1.995    0.499
        56 -11.6602    109.0143    173.3372   1.2305649683e+02   2.4496813785e+01     0.338719    0.2915606  70.09  0.001018918    1.102    0.093
        57 -12.0552    106.4803    170.5050   1.2315891073e+02   2.5602421062e+01    0.4476132     0.296145  28.37  0.002064455    1.919    0.479
        58 -12.0948    171.2946    170.8507   1.0826458232e+02   1.2705559055e+01    0.4547193    0.3147821 -19.55  0.001964425    2.038    0.509
        59 -11.1186    192.5746    170.8865   1.0372099044e+02   8.2389054965e+00    0.3149979    0.2829058  67.03  0.001694501    1.226    0.184
        60 -11.4638    215.2986    168.4546   9.8626629564e+01   4.0485527001e+00    0.4376933    0.3505293 -81.34  0.002186351    1.774    0.436
        61 -11.2989     30.1253    214.0028   1.4486695889e+02   2.6785125966e+01    0.2010579    0.1469159  62.37  0.001388345    1.215    0.177
        62 -12.6674    164.2354    165.5201   1.0871328404e+02   1.5321763748e+01    0.7074366    0.4682929  83.94  0.002727167    2.594    0.615
        63 -10.6180    134.5477    168.9883   1.1624118873e+02   2.0672580373e+01    0.2340526    0.1466689 -52.81  0.001038349    1.621    0.383
        64 -11.7884    124.4551    168.8362   1.1858776748e+02   2.2674847158e+01    0.3069482    0.2121573 -81.97  0.001257266    1.805    0.446
        65 -11.7483     49.8252    168.8017   1.3621704188e+02   3.4466989203e+01    0.2830552    0.2482001  -3.32  0.001130656    1.675    0.403
        66 -11.4095    109.6543    209.0857   1.2852570614e+02   1.6470732038e+01    0.2421185    0.1683423  56.95 0.0008403275    1.303    0.232
        67 -10.4163    201.7452    166.7130   1.0094587743e+02   7.1487482853e+00    0.2335753    0.1185948 -52.56 0.0008897762    2.368    0.578
        68 -12.2214    122.4924    163.1622   1.1796346432e+02   2.4355281397e+01    0.3513256    0.2628703 -19.82   0.00159388    1.998    0.499
        69 -10.9307     91.0594    163.9984   1.2573061945e+02   2.9748346599e+01    0.2382048    0.1612736  76.53  0.000704477    1.732    0.423
        70 -11.4546    131.3207    162.8582   1.1578965546e+02   2.2703730385e+01    0.2259561    0.1916564  63.62  0.001159037    1.170    0.145
        71 -12.0068    151.7056    161.5780   1.1073438259e+02   1.8823487922e+01    0.4389545    0.2407999  61.62  0.001618005    2.454    0.593
        72 -11.2961    204.4929    160.9579   9.9142842836e+01   7.6927660842e+00    0.2319522    0.1443657 -40.14  0.001034424    1.596    0.373
        73 -12.1921    180.6207    159.6646   1.0384048867e+02   1.3048700077e+01     0.491228    0.3672599  24.92   0.00228844    1.569    0.363
        74 -11.2736     59.6649    159.5619   1.3263052723e+02   3.5396967942e+01    0.3559352    0.2262329 -82.55   0.00183458    1.567    0.362
        75 -12.3089    157.3646    158.4350   1.0875945027e+02   1.8317986089e+01    0.4065486    0.3300211 -76.48   0.00197223    1.414    0.293
        76 -11.5660    157.4505    153.3063   1.0761925228e+02   1.9425994676e+01    0.2887721    0.2523746 -39.90 0.0008789873    1.193    0.162
        77 -11.0603    101.0593    157.5311   1.2211995775e+02   2.9595785344e+01    0.2201203    0.1417866  42.88  0.001029926    1.588    0.370
        78 -12.2564     19.9034    154.2564   1.4132102632e+02   4.0960419389e+01    0.5460959    0.4175679  72.43  0.003658388    1.273    0.214
        79 -13.2789    127.2947    151.6556   1.1445855516e+02   2.6080575717e+01    0.8019884    0.5007208 -25.61  0.003047667    2.680    0.627
        80 -12.9303    118.7121    154.0150   1.1706210554e+02   2.7204054798e+01     0.536931    0.3683855 -73.25  0.002429025    1.682    0.405
        81 -10.0634     51.0269    156.0867   1.3421115677e+02   3.7295042249e+01    0.2171722    0.1396777  74.19  0.001130274    1.718    0.418
        82 -11.7033    173.2339    154.4358   1.0430044745e+02   1.5751329874e+01    0.4057728    0.2145933  56.92  0.001523327    2.234    0.552
        83 -12.6979    109.4440    154.5102   1.1945879715e+02   2.8817336328e+01    0.8626307    0.2325167  46.92  0.002513504    3.995    0.750
        84 -13.3072    105.1911    148.5624   1.1934385363e+02   3.0989783678e+01    0.7737111    0.4541425  34.39  0.003243704    1.935    0.483
        85 -14.2436    105.5337    142.1105   1.1793096907e+02   3.2453561565e+01     1.156735    0.7740362  47.42  0.005459698    1.536    0.349
        86 -12.5789    167.2565    146.8863   1.0393214995e+02   1.8683537380e+01     0.880258     0.380878 -58.22  0.002646894    3.576    0.720
        87 -11.6937    174.2672    147.3528   1.0247076829e+02   1.7029615818e+01    0.3951364    0.2760137 -82.06  0.001603755    2.181    0.542
        88 -12.8941    153.9368    144.6592   1.0649285627e+02   2.2099387692e+01    0.6159037    0.3421381  54.10  0.002425784    1.937    0.484
        89 -10.7327     81.6136    146.0967   1.2490607501e+02   3.5499201410e+01    0.2364663    0.1890536  62.17 0.0007252517    1.303    0.233
        90 -11.1909    118.5947    142.7666   1.1472648766e+02   2.9855976605e+01    0.2769169    0.1900452 -62.21  0.001068439    1.501    0.334
        91 -11.8807    116.2926    137.9792   1.1426365400e+02   3.1418184480e+01    0.3846647    0.2876877 -29.13  0.001792379    1.657    0.396
        92 -11.8060    177.1900    138.9134   9.9862810275e+01   1.8163761018e+01    0.3897486    0.3224196 -79.92  0.001510881    1.419    0.295
        93 -10.8856     61.0561    248.7498   1.4219323178e+02   1.6023659077e+01    0.3888017    0.1272086  50.94  0.001846683    2.426    0.588
        94 -15.1308    149.7328    131.2862   1.0434566296e+02   2.5991105526e+01      1.67345     1.425373  34.01  0.007915817    1.257    0.204
        95 -13.1307    122.1188    238.4068   1.2990814227e+02   8.5693379142e+00    0.6667381    0.5724589 -28.17  0.004179441    1.686    0.407
        96 -12.3441    131.8286    138.3128   1.1039763284e+02   2.8239658516e+01    0.4509538    0.3054066 -79.97  0.001843856    2.096    0.523
        97  -9.7291     68.1633    122.8669   1.2400377484e+02   4.2952749448e+01    0.1943654     0.150386 -39.28 0.0006956231    1.349    0.259
        98 -14.0048    185.8891    112.5197   9.1531956618e+01   2.1588418678e+01     1.463417     1.179168  27.25  0.006983693    1.472    0.321
        99 -10.5712     83.5869    140.2368   1.2328043610e+02   3.6591068910e+01     0.210675    0.1215868 -49.15 0.0009521195    1.680    0.405
       100 -10.7356    218.5099    117.3098   8.6431255812e+01   1.3071698916e+01    0.3729102    0.2539398  -8.89   0.00154716    2.311    0.567
       101 -10.6267    104.9083    116.6179   1.1231474457e+02   3.8501596918e+01    0.2646843     0.199284 -40.70 0.0008664579    1.332    0.249
       102 -10.5155    230.3966    116.2080   8.4112106793e+01   1.0642933444e+01    0.2219191    0.1255795 -48.40 0.0009565791    1.720    0.419
       103 -13.1828     42.6794    110.7206   1.2888000647e+02   4.8810804208e+01    0.7811408    0.5232019 -39.05  0.004400716    1.524    0.344
       104 -12.3992    242.0445    108.1972   8.0396408864e+01   9.5734027019e+00     0.533681    0.3511211 -58.75  0.002564038    1.635    0.388
       105 -11.4322    218.0243    205.1375   1.0549367545e+02  -2.9186559618e+00    0.3867618    0.3129945  34.64    0.0022623    1.169    0.145
       106  -9.9534    249.5299    150.5020   8.8550956068e+01   5.9454659500e-01    0.1384665    0.1245611 -27.80 0.0008099171    1.008    0.008
       107 -12.4883     21.1400     93.1238   1.3195952729e+02   5.4628356072e+01     0.842031     0.431962 -50.52  0.004682723    1.541    0.351
       108 -11.5443    210.1323     94.2492   8.2322482518e+01   1.9290444999e+01    0.5039246    0.2981093 -59.23  0.002089395    1.981    0.495
       109 -12.4655     51.1778     94.8381   1.2291632255e+02   5.1430012100e+01    0.5393736    0.1880426 -50.95  0.002221161    2.340    0.573
       110 -11.0848    197.0231     94.3647   8.4716659824e+01   2.2413511345e+01    0.3880344    0.2844408 -79.67  0.001761879    1.680    0.405
       111 -10.8913     56.6562     95.1556   1.2127626040e+02   5.0715958295e+01    0.2082474    0.1832741  46.24 0.0006740405    1.329    0.248
       112 -11.6506    125.8879    130.0804   1.0998436908e+02   3.1344982045e+01    0.4832917    0.2172609 -40.98  0.001711528    2.456    0.593
       113 -12.9757    104.0324     86.0520   1.0439704296e+02   4.5252933308e+01    0.6371429    0.5504962  13.20  0.003417544    1.238    0.192
       114 -12.4708     49.7371     83.8233   1.2069647990e+02   5.3945282216e+01    0.5560908     0.405297 -57.55  0.002620634    1.309    0.236
       115 -10.5801    233.1415     79.1232   7.5036555295e+01   1.6552484920e+01    0.2107713    0.2039446  11.10  0.001046626    1.267    0.211
       116 -12.5812     22.1989     68.3080   1.2617807460e+02   5.9698610028e+01     1.323106    0.6718533 -19.61  0.006668719    2.605    0.616
       117 -12.6746    104.8669     75.4172   1.0098997900e+02   4.7163392363e+01    0.6388234    0.4761297  30.93  0.003284167    1.394    0.283
       118 -13.0918    100.9748     69.9288   1.0042442939e+02   4.8923778894e+01      1.21817    0.7849565  24.14  0.005619023    1.851    0.460
       119 -11.0595    246.8025     77.9970   7.2902246799e+01   1.3689975584e+01    0.2425908    0.2002343  73.91  0.001395695    1.256    0.204
       120  -9.9043    216.3265     73.3173   7.6149407859e+01   2.1448113360e+01    0.1419384    0.1153968  23.48 0.0007045297    1.675    0.403
       121 -15.1544    135.7266    120.6174   1.0516738745e+02   3.1419087786e+01     2.283745     1.229717 -58.57  0.008575003    2.233    0.552
       122 -11.3562    176.7888     64.8062   8.0677174115e+01   3.2572565993e+01    0.5193808    0.3593609  58.12  0.002486818    1.382    0.276
       123 -12.5733    123.2391    228.4151   1.2839373671e+02   1.0248771277e+01     0.405763     0.333506 -54.54  0.002481436    1.427    0.299
       124 -12.8610     82.6679     47.3465   9.8544523890e+01   5.6035589307e+01    0.7087236    0.5530004 -70.32  0.003803409    2.148    0.534
       125 -13.5622     73.7635     44.9392   1.0059980625e+02   5.7878768278e+01    0.7794368    0.5696713 -36.87  0.004605216    1.375    0.273
       126 -11.9604     49.4955     48.2752   1.1031078240e+02   6.0740013946e+01    0.3761419    0.2924024  13.12  0.002451297    1.283    0.221
       127 -12.1885     54.1005     44.0873   1.0717632117e+02   6.0854867252e+01    0.3777034    0.2637829 -20.04  0.001949165    1.308    0.235
       128 -11.2037    100.8910    238.8956   1.3402957309e+02   1.1972485235e+01    0.2201598    0.1628907 -85.76  0.001252084    1.371    0.271
       129 -10.4065    112.9965     42.4804   8.8034077170e+01   5.0929221069e+01    0.2655199    0.1910317  -4.40  0.001236337    1.615    0.381
       130 -11.2303    124.4117     41.3209   8.4770981567e+01   4.8612169671e+01    0.4219936    0.2333118  49.26  0.001973069    1.653    0.395
       131 -12.1576     72.5258     60.9920   1.0646591763e+02   5.5395200870e+01    0.4322944    0.2108907  21.64  0.001741691    3.032    0.670
       132 -10.8302    240.7011     60.0172   6.9659917411e+01   1.7889294471e+01     0.244894    0.1888714  44.13  0.001340894    1.646    0.393
       133 -12.0207     84.9706    237.1623   1.3683507954e+02   1.4781755706e+01    0.3212841    0.2114797 -66.38  0.001489935    1.610    0.379
       134 -12.3760     88.0704    232.8548   1.3579626957e+02   1.5145765380e+01    0.3797963    0.2479149  54.89  0.002241811    1.283    0.221
