#   1 NUMBER                 Running object number                                     
#   2 MAG_AUTO               Kron-like elliptical aperture magnitude                    [mag]
#   3 X_IMAGE                Object position along x                                    [pixel]
#   4 Y_IMAGE                Object position along y                                    [pixel]
#   5 X_WORLD                Barycenter position along world x axis                     [deg]
#   6 Y_WORLD                Barycenter position along world y axis                     [deg]
#   7 A_WORLD                Profile RMS along major axis (world units)                 [deg]
#   8 B_WORLD                Profile RMS along minor axis (world units)                 [deg]
#   9 THETA_WORLD            Position angle (CCW/world-x)                               [deg]
#  10 FWHM_WORLD             FWHM assuming a gaussian core                              [deg]
#  11 ELONGATION             A_IMAGE/B_IMAGE                                           
#  12 ELLIPTICITY            1 - B_IMAGE/A_IMAGE                                       
         1 -14.8523     24.7891     93.4829   8.1796246165e+01   5.4628142646e+01     1.271207     1.049853 -29.77  0.007907636    1.289    0.224
         2 -14.9246      6.4881     70.9337   8.3945342325e+01   6.0847547500e+01     1.237342     0.589801 -56.22  0.006582844    1.541    0.351
         3 -14.0526     59.9037     61.7107   6.0859402005e+01   5.7856911045e+01      1.94599     1.016044 -18.63  0.007445248    3.271    0.694
         4 -12.9884    187.9978     11.0803   1.2247452290e+01   3.6623259547e+01    0.6388882    0.4801618 -22.22  0.003408834    1.585    0.369
         5 -14.1634    122.1215     36.8043   3.1907578955e+01   5.0130148855e+01     1.112763    0.5515682  34.16  0.003410712    2.437    0.590
         6 -13.8444    189.6558     23.4383   1.5367298169e+01   3.4855754944e+01     1.402351    0.9063335 -54.89  0.006958762    1.591    0.371
         7 -13.4071    242.5276     34.9738   1.2264454993e+01   2.0743208243e+01    0.7346799    0.5501981  79.37  0.003116139    1.302    0.232
         8 -12.9553      7.7962      2.6581   6.1413158684e+01   7.3441525039e+01    0.5184798     0.409129  28.12  0.003933849    1.758    0.431
         9 -15.8054     11.4908     23.1247   6.8367495817e+01   6.9950906143e+01     1.728252    0.8083252 -31.35  0.007857808    1.820    0.450
        10 -14.5354     27.3219     11.6190   5.5261986666e+01   7.0321992682e+01    0.8833307    0.5130194  -7.75    0.0052074    1.754    0.430
        11 -14.3371    166.5449     28.8791   2.0283901390e+01   4.0100677758e+01     1.112945    0.7841961  60.74  0.004172618    1.286    0.222
        12 -14.4757    147.7420     29.7586   2.3886732219e+01   4.4772245511e+01     1.315644    0.7947456  63.03  0.004546834    1.532    0.347
        13 -11.6952    232.4945      1.8495   5.8256385913e+00   2.6903320300e+01    0.3622386     0.164943  66.75  0.001655021    2.033    0.508
        14 -14.8674    218.4171     13.9377   9.7607078326e+00   2.8868857338e+01     1.340239     1.210602 -34.52  0.008707255    1.307    0.235
        15 -12.9807    120.6678     25.7946   2.8286574824e+01   5.1851121235e+01    0.6830068    0.4604836  36.44  0.003163238    1.442    0.306
        16 -13.6738     57.8150     26.6702   4.8417993058e+01   6.4191846196e+01    0.9936445    0.3814847  34.65  0.003423046    2.637    0.621
        17 -15.3941     98.8250     11.4518   2.8206500709e+01   5.8323820020e+01     1.548111    0.8699111  48.15  0.005018262    1.522    0.343
        18 -12.5052     60.1490     15.2037   4.2359541804e+01   6.5350750706e+01     0.532211    0.2852701  21.86  0.002409377    2.045    0.511
        19 -12.6598     85.6590     13.8379   3.2936045592e+01   6.0836501043e+01    0.4458758    0.3663084 -32.48  0.002326445    1.419    0.295
        20 -12.0381     46.7760     12.7253   4.6685808701e+01   6.7712490360e+01    0.2681963    0.2030931  26.07  0.001437254    1.273    0.215
        21 -11.9872    123.1776     11.0106   2.2345275103e+01   5.2805653008e+01    0.2739364    0.2262619 -59.24  0.001030587    1.471    0.320
        22 -13.9025     41.9264      4.3745   4.4685464830e+01   6.9412030588e+01    0.6533257    0.4513847   4.52  0.003613462    1.235    0.190
        23 -12.4491     75.1978      8.7586   3.4000286108e+01   6.3403965185e+01    0.3680912    0.2409501  -4.31  0.001906557    1.560    0.359
        24 -11.7053    152.8914      8.5681   1.6218460296e+01   4.5723342673e+01    0.2880638      0.18944  32.20   0.00147206    1.763    0.433
        25 -11.3525     80.3680      7.4519   3.1766806902e+01   6.2533604296e+01    0.2224782    0.1482329 -20.85 0.0008307353    1.556    0.357
        26 -12.4304    118.6010      2.4498   2.0142381684e+01   5.4630728295e+01     0.446571    0.2495081  81.97  0.002029693    2.360    0.576
        27 -12.2569     78.5576      2.0326   2.9884412725e+01   6.3387140462e+01    0.7847949    0.1021535  50.11  0.002515714    4.476    0.777
        28 -11.3725     67.4775      2.8684   3.3854996861e+01   6.5413089554e+01    0.2557347    0.1556634  24.35  0.001456472    1.509    0.337
        29 -11.5733     61.4350      1.5010   3.5330301147e+01   6.6619650736e+01    0.3364647    0.1088295  50.24  0.001423461    3.000    0.667
        30 -10.9389     54.8667     11.6204   4.2767901159e+01   6.6630274825e+01    0.2427751   0.09224943  35.22  0.001086618    2.541    0.606
        31 -12.3199    109.1156    249.2732   8.2287995762e+01   9.1074260602e+00    0.3910046    0.2135971  45.42  0.002209041    1.443    0.307
        32 -12.0852     51.1748    248.4432   9.2842839508e+01   1.7386776608e+01    0.3408378    0.2331804  87.73  0.002391056    1.334    0.250
        33 -12.2266      2.8958    249.5604   1.0092816888e+02   2.2574707574e+01    0.3377676    0.1925501  65.58  0.001707667    1.220    0.180
        34 -13.7958      9.9109    245.7400   9.9651700716e+01   2.2557863445e+01    0.7642401    0.3183399  57.40  0.003697137    1.756    0.431
        35 -12.6972     84.7425    172.6469   7.7960975713e+01   2.8546184532e+01    0.3404712    0.1727802 -54.21  0.001513301    1.991    0.498
        36 -13.0318    124.1593    166.3341   6.7190533667e+01   2.3210227283e+01    0.6563994    0.4210963 -73.00  0.002838801    1.999    0.500
        37 -11.4514      2.0877    159.1743   9.6110443120e+01   4.1029089414e+01    0.2618589    0.1530892 -73.71   0.00155682    1.365    0.267
        38 -12.2347    163.9896    194.7402   6.3250508065e+01   9.6263155111e+00    0.3632127     0.186531 -63.54  0.001307318    3.520    0.716
        39 -12.1425    112.0319    156.4467   6.8339320101e+01   2.7745656514e+01    0.4213071    0.2689314  76.12  0.001708928    2.308    0.567
        40 -11.5337     74.0077    145.0199   7.6275753028e+01   3.6754465191e+01    0.6325422    0.3204854 -84.70  0.002212737    3.373    0.704
        41 -12.3276     77.2306    156.7763   7.7384138888e+01   3.3441272414e+01    0.4458227    0.3247491  26.90  0.001394605    1.636    0.389
        42 -13.5503     73.6322    153.1225   7.7731746860e+01   3.4845847183e+01     0.724723    0.4601096  32.13  0.002963006    1.760    0.432
        43 -12.6167    209.2298    154.4618   4.5537738490e+01   8.2631806717e+00    0.6516634    0.3615591  36.37  0.002807279    1.902    0.474
        44 -11.8793     86.0871    152.4174   7.4337822945e+01   3.3136860238e+01     0.500352    0.2219185 -47.78  0.001948869    2.426    0.588
        45 -11.7383    103.3674    149.8126   6.9301446770e+01   3.0870554761e+01    0.3659547    0.2595245 -36.88  0.001558578    1.680    0.405
        46 -12.8762      8.2249    150.1598   9.3948035428e+01   4.2624416517e+01    0.4851726    0.2991473  75.04   0.00292491    1.512    0.339
        47 -12.9550     60.7281    147.0830   8.0189231920e+01   3.8069443562e+01    0.3691087      0.29798 -23.35   0.00205263    1.658    0.397
        48 -12.7651     41.4986    137.5152   8.3952996974e+01   4.2641226653e+01    0.3887298    0.2302755  51.09  0.002012951    1.830    0.454
        49 -14.5757    233.4124    127.7283   3.5037948304e+01   8.1230585730e+00     1.331421    0.7385896 -44.56  0.005985387    1.750    0.429
        50 -13.0332    246.8255    133.6577   3.4164176589e+01   4.4804148482e+00    0.4811677    0.3818154 -45.54  0.002712711    1.262    0.207
        51 -12.3549    136.3366    132.3276   5.6858348064e+01   2.8527478490e+01     0.528419     0.282407  41.35   0.00207078    1.887    0.470
        52 -14.5613    105.4589    121.0212   6.2502109262e+01   3.7342667773e+01     1.525579     1.248387  34.25  0.007706671    1.291    0.226
        53 -14.7448    106.3607    104.9400   5.8177262632e+01   4.0890092366e+01     1.221289     1.154824  74.10  0.005364381    1.131    0.116
        54 -11.2459      1.5446    119.4935   9.2654468245e+01   5.0143217147e+01    0.2336218   0.09199028 -73.12 0.0007274565    1.945    0.486
        55 -12.9054     28.5903    121.9339   8.5320702972e+01   4.7626448534e+01    0.3438457    0.2249183 -55.90  0.001971449    1.343    0.256
        56 -11.5956     87.9705    109.2649   6.4799627777e+01   4.3206922076e+01    0.4081257    0.2489969 -67.40  0.001735115    1.975    0.494
        57 -12.4938     78.8804    110.3396   6.7845423056e+01   4.4414033994e+01    0.3981493    0.2837542 -73.63   0.00192506    1.607    0.378
        58 -12.6106     42.2883     90.3750   7.5186109144e+01   5.3775038489e+01    0.3014805    0.2207882 -56.20 0.0003626225    1.172    0.147
        59 -13.1656     28.7460    245.9960   9.6553597253e+01   2.0498256216e+01    0.4230211     0.239252  77.75   0.00282761    1.456    0.313
        60 -12.3877    121.9703    112.1932   5.5652230500e+01   3.6115700449e+01    0.2756552    0.2282429 -43.61 0.0007060764    1.197    0.165
        61 -11.7898     63.1860    110.9281   7.2854722500e+01   4.6516221723e+01    0.3581416    0.2394454  56.32  0.001761988    1.819    0.450
        62 -14.1164     11.6169    102.2575   8.7523612221e+01   5.3523321906e+01    0.8457186    0.4752859 -73.95  0.004217167    1.504    0.335
        63 -11.6180    177.9294    110.0012   4.1286268258e+01   2.3837082364e+01    0.3566847    0.2245489  39.76  0.001490156    1.706    0.414
        64 -12.4653     36.9125     92.9001   7.7579794809e+01   5.3722551626e+01    0.3684135    0.2510072   4.65  0.001330339    1.858    0.462
        65 -11.1573     42.7441    106.5650   7.8418229820e+01   4.9951179386e+01    0.2141991    0.1353941  16.84 0.0009738606    1.988    0.497
        66 -12.6044    136.2119    102.8757   4.9301524609e+01   3.5073734416e+01    0.6311023    0.2936328  49.65  0.001974882    2.212    0.548
        67 -11.9997    181.0252    120.5103   4.3317763894e+01   2.1010805376e+01    0.2417992    0.1548582  49.93  0.001004872    1.582    0.368
        68 -11.9221      8.7368    114.4193   9.0038701794e+01   5.0884689998e+01    0.2376025    0.1698483 -26.89  0.000932314    1.741    0.426
        69 -12.1824     61.5174     97.9800   7.0459197559e+01   4.9786417840e+01    0.4943315    0.3390698  79.42  0.001975328    2.229    0.551
        70 -11.1175     48.6693    100.6827   7.5304436797e+01   5.0705398071e+01    0.2708954    0.1923999 -33.61   0.00146894    1.495    0.331
        71 -11.9628     52.8507     97.5190   7.3224669727e+01   5.0966977033e+01    0.4058037    0.2630299 -15.33   0.00188433    2.147    0.534
        72 -11.7817     46.4905     98.5060   7.5556083888e+01   5.1453532299e+01    0.3014444    0.2134006 -48.09  0.001327659    1.249    0.199
        73 -12.8702    249.3568     98.4113   2.5858086969e+01   9.8133059859e+00    0.4161945    0.1941663 -42.45  0.001817299    1.886    0.470
        74 -11.7250    163.3657     97.2244   4.1073202589e+01   2.9865163139e+01    0.3398248    0.2856382 -70.11 0.0009620333    1.342    0.255
        75 -13.2842    136.9527     94.7085   4.6802987972e+01   3.6619614471e+01    0.5441241    0.4705594  77.02   0.00199842    1.318    0.241
        76 -12.9526     84.5834    114.8734   6.7165810608e+01   4.2438535713e+01    0.7330379    0.3470213  31.71  0.002758926    2.430    0.588
        77 -12.2370     49.0225     93.3378   7.3555722874e+01   5.2373986315e+01    0.3577419    0.2811902 -89.14  0.002012616    1.541    0.351
        78 -12.1288      6.2757    119.0772   9.1297746050e+01   4.9956745872e+01     0.331735     0.246509 -18.64  0.002160779    1.783    0.439
        79 -13.6215      2.3351     97.0236   8.9678204522e+01   5.5250815981e+01    0.8378277    0.3534136 -77.49  0.003361688    2.134    0.531
        80 -13.2987    188.6212     83.8730   3.2130814034e+01   2.6167023473e+01     0.733861    0.4082433  43.49  0.002429357    1.976    0.494
        81 -13.5555    187.5933     79.2109   3.1055500043e+01   2.7239796422e+01    0.4200545    0.3224055  20.32   0.00188185    1.706    0.414
        82 -13.6733    239.5847     81.7691   2.3372640353e+01   1.4560939363e+01    0.7868883    0.4554527 -86.48  0.003160893    2.918    0.657
        83 -13.9656    164.1912     71.3660   3.3478760103e+01   3.4463932039e+01     1.401518    0.9894147  64.21  0.006439846    1.464    0.317
        84 -13.4252    161.0272     80.5574   3.6859815899e+01   3.3616223244e+01    0.9503086    0.5929456  18.16  0.003246252    2.851    0.649
        85 -14.5197    169.1712     77.0390   3.4086210133e+01   3.2223383215e+01     1.471334    0.6455339  49.92  0.004401672    2.225    0.551
        86 -10.9248     97.8621     84.1814   5.4876981730e+01   4.7059183026e+01    0.2121796    0.1750338  -0.58   0.00107528    1.369    0.269
        87 -13.4153     66.0352     49.2504   5.4209244297e+01   5.9303365222e+01    0.8079191     0.598875 -40.85  0.004597445    1.338    0.252
        88 -13.7508     92.2067     57.3108   4.7926420422e+01   5.3362810150e+01    0.5223372    0.4734403 -25.04  0.001585087    1.096    0.087
        89 -12.9746     54.5112     80.8966   6.8545575397e+01   5.4537667459e+01     0.623959     0.454404 -50.35  0.003485181    1.219    0.180
        90 -13.9996     61.3111     75.5479   6.4610997679e+01   5.4823451764e+01    0.7803759    0.5141139 -36.02  0.002565793    1.433    0.302
        91 -13.7763     87.4285     65.3414   5.2266250472e+01   5.2772498457e+01    0.9935317    0.6074633  10.12  0.004022056    2.574    0.611
        92 -13.2021     71.0790     75.1369   6.1018342052e+01   5.3516791551e+01    0.5703433     0.390684  -9.43  0.001727689    1.874    0.467
        93 -12.2628     77.1729     73.0979   5.8270673950e+01   5.2988882182e+01    0.5492163     0.321189 -26.11  0.001899451    2.086    0.521
        94 -12.9128    216.6046     72.7812   2.4485456203e+01   2.1240702658e+01    0.9018244    0.4728397 -59.54   0.00354227    2.429    0.588
        95 -11.9558    216.2710     80.4577   2.6467473911e+01   2.0063795066e+01    0.5160757    0.3030305 -40.09  0.002241444    1.598    0.374
        96 -12.8495    210.4114     76.8391   2.6476949538e+01   2.2056056155e+01    0.7152355    0.4544801 -71.13  0.003059187    2.084    0.520
        97 -12.0427    114.0212     80.0155   4.8722902830e+01   4.4675550796e+01    0.4527996    0.3403095 -44.35  0.001797083    1.338    0.253
        98 -12.6699    135.2418     79.2384   4.2654338781e+01   4.0091675754e+01    0.7628956    0.3611265  53.68  0.002819854    2.213    0.548
        99 -11.4377     41.5297     75.9285   7.1958111482e+01   5.7084359352e+01    0.1926404    0.1514224 -49.28 0.0006680512    1.096    0.088
       100 -14.1759    170.9732    242.5186   6.9487339457e+01   2.3124688686e-01    0.9145735    0.6268121  25.93  0.005404334    1.378    0.274
       101 -13.9691      3.6708     63.2767   8.3471639754e+01   6.2626669688e+01    0.5386708    0.4528022 -49.21  0.001945615    1.100    0.091
       102 -10.8901     41.6523    250.3041   9.4613626155e+01   1.8219698548e+01    0.1210339   0.05831038  63.02 0.0007040938    1.695    0.410
       103 -14.3784     18.3726    111.0325   8.6741691379e+01   5.1022771953e+01     0.810158    0.5704378 -53.61  0.004026229    1.260    0.206
       104 -13.7449    199.2151     69.7183   2.6441097421e+01   2.5952744413e+01    0.9012973    0.5359249  51.76  0.002911227    1.711    0.416
       105 -12.0702    199.8417     61.7558   2.4218897720e+01   2.7063592079e+01    0.3493018    0.3194345 -61.40  0.001277501    1.051    0.048
       106 -11.0722    117.9581     72.0542   4.5075431448e+01   4.5371589632e+01    0.2323423    0.2218584   1.70 0.0006185877    1.020    0.020
       107 -12.0930    241.4478     70.5537   2.0511879422e+01   1.5912077866e+01    0.2888366    0.1943883 -82.62  0.001437088    1.789    0.441
       108 -12.9922    134.5251     65.6013   3.8557423418e+01   4.2749439397e+01    0.7039455    0.5856175  28.32  0.002677065    1.257    0.204
       109 -11.9759     39.2949     67.9922   7.0671887245e+01   5.9014628042e+01    0.3878549    0.1609697  33.49  0.001760266    2.694    0.629
       110 -11.7341     99.9950     65.0987   4.8126115239e+01   5.0432051710e+01    0.2278767    0.2157303   2.10 0.0008724155    1.024    0.023
       111 -13.1626     79.0412     60.3775   5.3442531405e+01   5.5178607317e+01    0.6263859    0.4478968 -32.32  0.003307844    1.327    0.246
       112 -13.6962    177.8873     56.8774   2.6572446338e+01   3.3354997005e+01    0.9538442    0.5920372 -46.04  0.003310614    1.652    0.395
       113 -11.9867     38.8151     59.9608   6.8537580678e+01   6.0726580122e+01    0.3061516    0.2128793  71.26   0.00150793    2.821    0.645
       114 -11.5539     34.7407     59.7841   7.0125287930e+01   6.1164111601e+01    0.4332757    0.1363217 -44.62  0.001774837    2.595    0.615
       115 -12.2050     36.4666     53.4852   6.7491727817e+01   6.2256783644e+01     0.497083    0.3001901  -7.79  0.002617715    2.014    0.503
       116 -11.9006     24.9507     59.2983   7.3965825579e+01   6.2118138925e+01    0.3638664    0.1916823 -50.51  0.001937421    1.511    0.338
       117 -11.3604    111.2470     58.6074   4.2526040978e+01   4.9252720714e+01    0.2602687    0.2194294  20.17 0.0005749197    1.198    0.166
       118 -14.5912    120.2276     54.7614   3.8693038179e+01   4.7901848464e+01     1.038719    0.6771145  43.92  0.004887905    1.471    0.320
       119 -12.5835    247.8195     53.9604   1.5969161979e+01   1.6980698177e+01    0.5532202    0.2643249 -45.06  0.002592341    1.813    0.448
       120 -12.2019    249.2302     48.5793   1.4617678707e+01   1.7433664959e+01    0.3029555    0.2626181 -57.62  0.001641706    1.060    0.056
       121 -11.6320     17.4918     55.9063   7.6125225290e+01   6.3365628125e+01    0.3001159    0.1509272 -52.25  0.001653983    1.543    0.352
       122 -11.7129    231.0440     55.0451   1.8163282697e+01   2.0578001234e+01    0.3375187    0.2012692  78.75  0.001606185    1.860    0.462
       123 -13.6770    103.3635     50.4725   4.1989904483e+01   5.2286225310e+01    0.9417251    0.5143638 -49.77  0.001484647    2.352    0.575
       124 -13.7225     97.9900     50.0107   4.3466594398e+01   5.3467413270e+01    0.6686949    0.4497254 -43.79  0.002292468    1.620    0.383
       125 -12.2886    135.6373     49.9519   3.3160140141e+01   4.5029333698e+01    0.5101518    0.2631873  37.38  0.001875855    2.227    0.551
       126 -11.7947    152.0245     47.0000   2.8571060457e+01   4.1407504051e+01     0.380204    0.1917843  58.28  0.001370177    1.861    0.463
       127 -12.9084    158.3934     43.3320   2.6151260823e+01   4.0313976781e+01    0.6372973    0.5062187  33.34  0.002604083    1.377    0.274
       128 -10.8700     38.8846     46.0953   6.4012566460e+01   6.3419304358e+01     0.175746    0.1580147 -34.93 0.0004650584    1.213    0.176
       129 -14.4658    212.4204     40.9432   1.7026758167e+01   2.6985433270e+01     2.293296    0.7360753  72.29  0.007286052    3.930    0.746
       130 -13.5808     97.8324    239.0674   8.3390183020e+01   1.2624394120e+01    0.7402406    0.4186378  41.63  0.004143365    1.509    0.337
       131 -12.0331     11.7023     43.4734   7.5145855258e+01   6.6221097404e+01    0.3743258    0.1939109 -11.52     0.002042    2.269    0.559
       132 -12.6969      3.5964     42.8172   7.8617251281e+01   6.6803562563e+01    0.4509266    0.3283615  -4.43  0.003192901    1.478    0.323
       133 -11.9932    135.0588     39.0775   2.9635350277e+01   4.6728834608e+01    0.5502754    0.3276171  72.06  0.001741746    2.059    0.514
       134 -12.6753    109.8474     41.9440   3.7006866210e+01   5.2204183486e+01    0.4524668    0.1973774  50.26 0.0008664327    2.160    0.537
       135 -13.9309     91.3289    231.2800   8.3854575513e+01   1.5051673215e+01    0.5795506    0.5543641  73.48  0.004119803    1.278    0.218
       136 -13.2200    113.6403     37.8942   3.4486356548e+01   5.1932632279e+01    0.3814369    0.3508956  31.39  0.001279228    1.023    0.022
       137 -12.9372    131.6302     33.1632   2.8379732857e+01   4.8337225897e+01    0.5671634    0.3922619  12.03  0.001944094    1.829    0.453
       138 -12.0298     40.6000     40.2539   6.1170055024e+01   6.4290450945e+01    0.4432499    0.2511933  23.27  0.002425816    1.867    0.464
       139 -12.7605     32.9754     40.1623   6.4480760938e+01   6.5121545429e+01    0.3051926    0.2279543 -11.52 0.0007154591    1.234    0.190
       140 -12.7825    147.4470    238.8661   7.3594028385e+01   4.7046341404e+00    0.2486112    0.2026986 -79.60  0.001063256    1.582    0.368
       141 -12.7968     75.8820     36.9499   4.5849650984e+01   5.9707330045e+01    0.5122455    0.3216593  36.25  0.001494533    1.539    0.350
       142 -11.8084     70.9395     36.0000   4.7259487146e+01   6.0702391346e+01     0.299491    0.1730672  37.44 0.0009833738    1.696    0.410
       143 -12.7231     23.7573    216.4095   9.5670174299e+01   2.6730705771e+01    0.6640417    0.2561097  55.02  0.003482425    2.161    0.537
       144 -11.6184    104.4194     36.6923   3.6591119268e+01   5.4134103390e+01    0.2598819     0.128717 -35.69  0.001131009    2.100    0.524
       145 -13.2579     44.4801     32.7665   5.6572164795e+01   6.5103017143e+01    0.6174936    0.4832132  23.65  0.004007214    1.338    0.253
       146 -13.9887     26.2192    226.5146   9.5854058859e+01   2.4457486320e+01    0.6808362    0.3618938 -60.27   0.00407528    2.229    0.551
       147 -13.9941     20.6389    224.0014   9.6706832819e+01   2.5546829950e+01    0.6191348    0.4332308  56.34  0.004430807    1.226    0.184
       148 -12.8790     57.5755    203.2539   8.7898595165e+01   2.5507827022e+01     0.851257    0.3340817 -81.27  0.003431696    3.205    0.688
       149 -13.8200     65.8510    223.0491   8.8090033405e+01   2.0303880320e+01    0.9988589      0.68551  53.23  0.006271882    1.219    0.180
       150 -13.2839     59.8175    212.3008   8.8303174627e+01   2.3302543027e+01    0.4577695    0.3504587 -24.15    0.0018067    2.413    0.586
       151 -12.8864    140.1242     21.3699   2.2579394264e+01   4.7636536154e+01    0.8779773    0.2706648  60.48  0.002207463    2.760    0.638
       152 -13.9557     64.4362    213.8725   8.7511239384e+01   2.2361052106e+01    0.5147856    0.3240326  64.30  0.002988358    1.410    0.291
       153 -13.6754    217.4341     28.5196   1.3357962350e+01   2.7384470890e+01    0.7130968    0.4232785 -78.89  0.003232617    1.838    0.456
       154 -12.7301     94.1683    218.1851   8.1836623863e+01   1.7171433077e+01    0.2871999    0.1863681  49.00  0.001430815    1.315    0.239
       155 -12.4178      4.4345    212.0616   9.8960406993e+01   2.9514978480e+01    0.3649043     0.147306 -66.16  0.002028221    2.377    0.579
       156 -10.5594     87.9436     27.9599   3.8136058219e+01   5.8716354112e+01    0.1600307    0.1390829   9.76  0.000529118    1.037    0.036
       157 -10.8757    136.5162    210.9739   7.1884988952e+01   1.1550193973e+01    0.1903659    0.1369758 -56.45 0.0009612245    1.577    0.366
       158 -12.2242     31.0008     25.4694   5.9675505851e+01   6.7838096129e+01    0.3361897    0.1790313  14.47    0.0017074    2.069    0.517
       159 -11.9883     36.1542     23.4079   5.6380151213e+01   6.7590884244e+01    0.2984925    0.2006768 -23.50  0.001876392    1.255    0.203
       160 -12.7754     72.1065    206.4095   8.5153613578e+01   2.2867396339e+01    0.3042121    0.2052997  50.50  0.001764698    1.307    0.235
       161 -12.4296     49.0393     20.1749   4.9184827072e+01   6.6400656374e+01    0.6036081    0.1474867  40.56  0.002199273    4.251    0.765
       162 -11.8348     70.8581     16.4642   3.8958457668e+01   6.3362392726e+01    0.2409168    0.2104984 -13.85 0.0008004979    1.220    0.180
       163 -12.4632     41.7441    206.0798   9.1419437405e+01   2.6861306083e+01    0.2616779    0.1395325  70.82  0.001411201    1.786    0.440
       164 -13.4491     16.0594    198.0540   9.5941132790e+01   3.1310925349e+01    0.8725466    0.1944381 -60.41  0.003380401    4.350    0.770
       165 -10.7236    175.8533     13.8087   1.4508417460e+01   3.9404582700e+01    0.1819453    0.1419723 -74.52 0.0002364187    1.289    0.225
       166 -13.9144     38.8000    194.8472   9.1064602089e+01   2.9616348224e+01    0.8370987     0.302785  51.77  0.003803367    2.543    0.607
       167 -12.9959     21.9647    166.0046   9.2166321185e+01   3.7833992429e+01    0.3574492    0.2425656   5.32  0.001997393    2.406    0.584
       168 -13.7436     30.0347    169.2923   9.0622551912e+01   3.6299508768e+01     0.846872     0.532362 -38.42  0.004160422    2.367    0.578
       169 -13.8788     22.2203    180.7278   9.3388895230e+01   3.4481293703e+01    0.8220447     0.306512 -63.72   0.00396479    2.348    0.574
       170 -15.3722      8.8535    183.1161   9.6379589786e+01   3.5181152042e+01      1.19464    0.9550794 -85.16  0.008718533    1.156    0.135
       171 -15.4547     15.4300    174.7891   9.4376489996e+01   3.6439144305e+01     1.791711     0.759258  55.05  0.009110636    2.272    0.560
       172 -12.6568     98.5206    186.5686   7.6742997953e+01   2.3174006155e+01    0.4825364    0.3348565 -18.92  0.002140093    2.719    0.632
       173 -11.3040    200.9239    191.3424   5.4872312292e+01   3.2888742623e+00    0.2526871    0.2072904  20.94  0.001263724    1.129    0.114
       174 -12.1855     48.9139    181.4700   8.7556569380e+01   3.1418037638e+01     0.365422    0.2285424 -53.59  0.001997981    1.790    0.441
       175 -12.7936    198.3502    181.0389   5.3359944320e+01   5.5790784839e+00    0.3770832    0.3171118 -83.64  0.001988674    1.737    0.424
