#   1 NUMBER                 Running object number                                     
#   2 MAG_AUTO               Kron-like elliptical aperture magnitude                    [mag]
#   3 X_IMAGE                Object position along x                                    [pixel]
#   4 Y_IMAGE                Object position along y                                    [pixel]
#   5 X_WORLD                Barycenter position along world x axis                     [deg]
#   6 Y_WORLD                Barycenter position along world y axis                     [deg]
#   7 A_WORLD                Profile RMS along major axis (world units)                 [deg]
#   8 B_WORLD                Profile RMS along minor axis (world units)                 [deg]
#   9 THETA_WORLD            Position angle (CCW/world-x)                               [deg]
#  10 FWHM_WORLD             FWHM assuming a gaussian core                              [deg]
#  11 ELONGATION             A_IMAGE/B_IMAGE                                           
#  12 ELLIPTICITY            1 - B_IMAGE/A_IMAGE                                       
         1 -10.5214     16.2954     66.1844   1.1266294770e+02   6.0466130584e+01     1.673643    0.2022319 -59.56  0.004724256    4.170    0.760
         2 -10.8258     37.2976      9.5657   8.3509999411e+01   6.9115400549e+01     1.174237    0.3227967 -42.84  0.004216454    4.498    0.778
         3 -11.1512     21.6638      7.7715   9.0073784666e+01   7.1130525818e+01     1.429133    0.8059577  46.13  0.007432784    3.524    0.716
         4 -11.0137     32.0080     64.5475   1.0655022987e+02   5.9609240260e+01     2.528802     0.647681 -39.03  0.007257842    5.947    0.832
         5 -11.0980     24.1238     31.7794   9.9393032869e+01   6.6873432369e+01     1.465501    0.4249677 -39.52  0.004500404    2.895    0.655
         6 -10.5690      6.8766     29.9820   1.0659141328e+02   6.8469442401e+01     0.643387     0.281125 -51.43  0.001932928    1.653    0.395
         7  -9.8956      6.3183      5.1910   9.6859516527e+01   7.2854614049e+01    0.2942191    0.1917323 -11.90  0.001012435    1.374    0.272
         8  -9.7024      2.5177      3.1368   9.7969077439e+01   7.3450215155e+01     0.250821    0.1310353 -37.56  0.001135184    1.374    0.272
         9 -10.1529     10.1770     18.9500   1.0094448329e+02   7.0276468425e+01    0.9431865    0.3339738 -22.47  0.003134943    6.161    0.838
        10  -8.5583     72.0713      8.6286   6.9309494520e+01   6.3864924441e+01    0.2162041    0.1872077 -38.36 0.0003748089    1.506    0.336
        11  -9.5063     77.9728      4.3236   6.5299426635e+01   6.3212069353e+01    0.5980822    0.3316899  -6.37  0.002278249    1.865    0.464
        12 -10.1134     73.4151     18.6988   7.3639690248e+01   6.2411232574e+01     1.020922     0.305203 -26.60  0.003413141    3.592    0.722
        13 -10.1716     76.1262     31.9589   7.8587668053e+01   6.0058173870e+01     0.673884     0.498775  47.80   0.00136306    1.617    0.382
        14  -9.9364     79.4601     24.0362   7.4006938870e+01   6.0611622977e+01    0.7907872    0.3345383  28.08  0.002869829    3.481    0.713
        15  -9.8100      2.1949     14.3185   1.0311935019e+02   7.1606656192e+01     0.702611     0.205094 -56.33  0.002981886    3.479    0.713
        16 -10.1354     62.9160      3.1298   6.9732783330e+01   6.6077370910e+01    0.4557583    0.3937629 -10.68  0.003084721    1.242    0.195
        17  -9.9259     60.8542     31.4253   8.3918978367e+01   6.2604765786e+01    0.9741797    0.3728921 -30.58  0.003032306    2.685    0.628
        18  -8.5635     58.1113      7.5556   7.3782313202e+01   6.6383366892e+01    0.3339131    0.2899948  41.15  0.001524384    1.491    0.329
        19 -10.2217     51.7402     13.7895   7.9425622318e+01   6.6572890756e+01     1.028068    0.5202488   3.23  0.004160305    3.456    0.711
        20  -9.6477     63.2658     21.5998   7.8640503002e+01   6.3726213365e+01    0.4506343     0.276083 -45.97  0.001753893    2.096    0.523
        21 -10.0798     64.6012     13.4100   7.4268083009e+01   6.4604175741e+01    0.3972781    0.2924611  -3.73 0.0001715412    1.181    0.153
        22  -9.3777    110.1764     31.8909   6.8104857055e+01   5.3334592958e+01    0.7402164    0.2163419 -34.84  0.002498623    3.247    0.692
        23  -9.4534     96.2398     14.6609   6.4705741272e+01   5.8456327538e+01     0.660508    0.2967355  -9.18  0.002534338    3.007    0.667
        24  -9.4795    102.7386     21.7289   6.5956139775e+01   5.6257713596e+01    0.4640528    0.2681419 -21.38 0.0008809581    1.718    0.418
        25  -9.7027    119.4634     20.0843   6.1049299414e+01   5.2689119434e+01    0.6868522    0.3400923 -16.58  0.002115204    2.225    0.551
        26  -8.7772    115.0986      4.1396   5.5573157744e+01   5.5283638665e+01    0.3355204    0.2501912 -58.32  0.001245015    1.807    0.447
        27  -9.4481    112.1642     15.2851   6.0840777547e+01   5.4896012878e+01    0.4738989    0.2375972 -40.42  0.001248938    2.347    0.574
        28  -8.9450    114.2363      9.9447   5.8152996778e+01   5.4958216806e+01    0.4623532    0.2040496  51.64 0.0003218313    1.972    0.493
        29  -9.0529    110.2879      7.6634   5.8112716716e+01   5.6079009299e+01    0.2455145    0.1955539  -3.59  0.000736614    1.239    0.193
        30  -8.7656    111.0297      4.4737   5.6605296556e+01   5.6195272993e+01    0.4432414    0.2571091 -49.49  0.002029076    2.448    0.592
        31  -8.8088    154.6888     17.2693   5.2967904644e+01   4.4299050452e+01    0.3942622    0.1714081 -48.27  0.001434334    3.001    0.667
        32  -8.3469    104.8637     14.5307   6.2343749806e+01   5.6612271112e+01    0.2820642    0.1664103   4.02  0.001198446    1.985    0.496
        33  -9.0452     88.8167      3.8828   6.1899261671e+01   6.1093677804e+01    0.4149453    0.2844019   3.30   0.00138205    1.402    0.287
        34  -9.5719     85.2249     13.1495   6.7234714778e+01   6.0869726228e+01    0.4036629    0.2611476 -50.64  0.001688269    2.379    0.580
        35  -7.9571     80.5009     12.5351   6.8419572893e+01   6.1856120691e+01    0.2575179    0.1424772 -36.86 0.0009603174    2.001    0.500
        36  -8.2014    141.4250     12.7417   5.3693895915e+01   4.8118737637e+01    0.2821497    0.1732736 -41.01 0.0009720221    1.813    0.448
        37  -9.7777    137.8384      6.1965   5.1937928166e+01   4.9617604878e+01    0.4979168    0.2211119 -23.61  0.001734498    2.323    0.570
        38  -9.5720    132.4483      5.7807   5.2758356523e+01   5.0986122473e+01    0.4704454    0.3149451  30.61  0.002352416    1.493    0.330
        39  -9.4379    133.7539     12.5750   5.5077303340e+01   5.0040502487e+01    0.3660973    0.1999828 -40.69  0.001641395    2.077    0.518
        40  -8.1762    125.1147     13.0760   5.7022912185e+01   5.2091000245e+01    0.2363598     0.193549 -18.18 0.0006211156    1.263    0.208
        41  -8.7351    126.8188      9.1450   5.5137239593e+01   5.2057069281e+01    0.2737833    0.1775802  50.94 0.0005409166    1.375    0.273
        42  -9.0834    102.1232      8.2447   6.0337006445e+01   5.7851205418e+01    0.3063455    0.2330334 -57.21 0.0007682627    1.862    0.463
        43  -8.5178    104.2083      2.5156   5.7338983423e+01   5.7906617022e+01    0.3639021    0.1896289  22.45  0.001642074    2.146    0.534
        44 -10.2304     46.2726     29.6837   8.8981241121e+01   6.4894637647e+01    0.6121213    0.3176736 -53.20  0.002264202    2.696    0.629
        45  -8.1170    170.9397      6.5367   4.6968625784e+01   4.1149475366e+01    0.1880261    0.1830422 -15.94 0.0001154991    1.112    0.101
        46  -8.6906     97.6758      5.7033   6.0353282775e+01   5.9057799865e+01    0.2776812    0.1822411  17.39 0.0008654771    1.507    0.336
        47  -8.5773     96.0000      3.0035   5.9575720721e+01   5.9661915981e+01    0.2425414    0.1977741  -3.83 0.0007316845    1.183    0.155
        48  -7.3077    178.5757      6.5032   4.5973712167e+01   3.9179982319e+01    0.1363867     0.127395  71.54 4.210744e-05    1.016    0.016
        49  -8.5267    125.7903      4.9064   5.3688888169e+01   5.2682193821e+01    0.2647369    0.1774036  29.68 0.0008411875    1.468    0.319
        50  -8.2568    120.7893      5.6564   5.4989942984e+01   5.3814407165e+01    0.2886992    0.1582419  65.90  0.001111437    1.871    0.466
        51  -8.1128    143.0247      4.9736   5.0600920451e+01   4.8426319142e+01    0.2115315    0.1581161 -61.64 0.0004811235    1.620    0.383
        52 -10.2364     50.1026     54.3025   9.6741256128e+01   5.9874539836e+01    0.6551815    0.4091512 -64.40  0.002031096    2.134    0.531
        53 -10.6185    205.5536    248.9696   9.9657059236e+01  -4.0970356523e+00    0.5096547    0.2711388  49.29  0.002864948    2.008    0.502
        54 -11.2263    188.6674    248.6990   1.0251752254e+02  -1.4472607078e+00    0.6767264    0.2647445  43.59  0.003403712    2.057    0.514
        55  -9.9121    140.7565    118.4226   8.8074197449e+01   3.0489993045e+01    0.4955457     0.366759 -71.44  0.001173291    1.747    0.428
        56  -8.5177    141.2917    112.3637   8.6369623769e+01   3.1664361601e+01     0.247922     0.222993 -13.75  0.001262991    1.183    0.155
        57  -8.4000      1.4182    116.6634   1.2507569708e+02   5.0064832677e+01     0.326513   0.09077155 -76.02  0.001118845    2.891    0.654
        58 -10.7582    121.4602    106.3082   8.9830438030e+01   3.7130097259e+01    0.7130849    0.6464191  54.41  0.002590872    1.169    0.144
        59  -8.6213    152.9855    115.3224   8.4326786525e+01   2.8469935964e+01    0.2177668    0.2071571  38.84 0.0005530841    1.065    0.061
        60 -10.2805     92.2885    111.2834   9.9062013103e+01   4.1376493703e+01     1.164563    0.5269163 -49.86  0.002025896    2.018    0.504
        61 -10.2026     78.1929    112.9601   1.0340564574e+02   4.3189221830e+01    0.5514086    0.3257314 -78.52  0.001755757    2.385    0.581
        62  -8.1994     78.4727    105.0256   1.0152571912e+02   4.4991882062e+01    0.3411768    0.2263243  -7.95  0.001475645    2.590    0.614
        63  -9.5817     81.5257     99.6383   9.9324459694e+01   4.5769405239e+01    0.6370518    0.2769379 -55.68  0.002110878    2.174    0.540
        64  -7.8240    167.3773    114.1897   8.0718613014e+01   2.5436529244e+01    0.2250007    0.1427937 -49.01 0.0005255794    1.670    0.401
        65 -10.5379     62.9039     95.5922   1.0396172708e+02   4.9328326225e+01     0.969716    0.5061607 -74.14  0.001568701    2.867    0.651
        66  -9.0276     64.2643     86.3055   1.0123809083e+02   5.1264239902e+01    0.6768015    0.4069091 -37.63  0.003310703    1.674    0.403
        67 -10.2761     65.5578    111.0563   1.0659168887e+02   4.5389638078e+01    0.6668169    0.5357234 -70.82  0.001140986    1.160    0.138
        68  -9.2244     59.3657    109.2417   1.0800028938e+02   4.6600310801e+01    0.4584686    0.1917215 -62.10  0.001376507    2.153    0.535
        69  -8.6153     54.8677    111.1776   1.0967490404e+02   4.6686355557e+01    0.4581488    0.1801228 -66.78  0.001801416    2.567    0.610
        70  -9.1692    158.7103    110.9493   8.1826711882e+01   2.8072614734e+01    0.4155915    0.1924672 -41.63  0.001159161    2.118    0.528
        71  -9.5724     35.3868    110.7991   1.1514645664e+02   4.8824156949e+01    0.2727171    0.1795454 -59.09  0.001019869    1.256    0.204
        72  -8.3905    149.7964    109.7861   8.3613327432e+01   3.0327893779e+01     0.211832    0.1856366 -73.42 0.0003748932    1.309    0.236
        73  -8.7406    244.5753    106.3144   6.4168826470e+01   9.3086206292e+00    0.2829527    0.1204034 -36.69 0.0009583835    2.081    0.519
        74  -9.6177    214.9294    105.1403   6.8770041918e+01   1.6035723377e+01     0.262747    0.2522071 -22.69 0.0003891874    1.048    0.046
        75 -10.7894     44.8330    102.3364   1.1089081393e+02   4.9863933751e+01    0.7941291    0.4258853  76.61  0.003022559    3.723    0.731
        76  -8.9583     40.0720    106.8559   1.1313141089e+02   4.9293339353e+01    0.1935811    0.1520868 -88.29 0.0004750542    1.285    0.222
        77 -10.3629      4.8043     86.5726   1.2030486629e+02   5.6639829562e+01     1.251014    0.3058426 -66.84  0.004229611    2.765    0.638
        78 -11.1043    169.5268    248.6611   1.0583122034e+02   1.5663314119e+00    0.6512538    0.1838722  40.39  0.002754879    2.819    0.645
        79 -10.3112    159.0503    246.7150   1.0741412285e+02   3.4796285244e+00    0.3595462    0.2485569 -77.58  0.002157734    2.417    0.586
        80  -9.1199    157.7635    121.6442   8.4843866990e+01   2.6103739653e+01    0.3826367    0.2585422  84.37  0.001437097    2.673    0.626
        81  -7.4865     92.6021    244.1707   1.1868432159e+02   1.3904888221e+01    0.1305492    0.1000974 -57.98 0.0006624965    1.684    0.406
        82 -10.8885     20.6756    100.5410   1.1771520318e+02   5.2438204784e+01     1.293305     0.553338 -84.48  0.004174918    3.158    0.683
        83 -10.5948     25.5671     77.9810   1.1202118012e+02   5.7193018984e+01    0.7420126    0.4402271 -80.74  0.003907217    1.979    0.495
        84  -9.6217     41.5629    122.2506   1.1528112259e+02   4.5547131062e+01     0.505928     0.234635 -82.11  0.002061177    2.683    0.627
        85  -9.6361     56.5315     43.2850   9.0366847092e+01   6.1172607437e+01    0.7696199    0.3953087  -9.60  0.002615525    4.590    0.782
        86 -10.7439     21.8815     53.4852   1.0737778490e+02   6.2777453548e+01    0.8254661    0.4610589 -85.36   0.00287131    4.126    0.758
        87 -10.1308     12.4448     45.5682   1.0894990457e+02   6.5059571416e+01    0.7527717    0.3412426 -17.17  0.003436201    3.233    0.691
        88 -10.1842      4.7818     42.0846   1.1117684466e+02   6.6210797243e+01    0.5816626    0.2486091 -59.04  0.001805839    1.764    0.433
        89 -10.1965    128.2160    238.5706   1.1189832113e+02   9.5168903811e+00    0.2017334    0.1856283  65.76 0.0003859795    1.178    0.151
        90  -9.6630    188.4197    233.1032   1.0034323258e+02   5.7571373578e-01    0.2418845    0.2022825   6.59  0.001522059    1.249    0.199
        91  -7.7223    243.4966    228.4310   9.0005641364e+01  -7.5689456514e+00    0.1181373   0.09018674  17.35 0.0001435709    1.037    0.036
        92  -9.5673    149.5270    103.1529   8.1859483533e+01   3.1751870591e+01     0.413019      0.29373 -52.22 0.0009050647    1.498    0.332
        93  -8.1081     14.3221    105.0088   1.2020156554e+02   5.1872886543e+01    0.1735137    0.1200275 -69.60 0.0003967632    1.105    0.095
        94  -9.4768      5.9631    103.4924   1.2233594471e+02   5.2760012175e+01    0.3779424    0.2266844  66.96  0.001615214    1.937    0.484
        95  -8.5705    165.9977    103.7207   7.8192327538e+01   2.7823870324e+01    0.3386318    0.2149317 -39.52  0.001050556    1.541    0.351
        96  -8.3145     73.7689    102.7354   1.0236749399e+02   4.6206538904e+01    0.2571908     0.151345 -53.18 0.0008813561    1.491    0.329
        97  -8.6505    158.9881    101.4338   7.9148831173e+01   2.9917180681e+01    0.2797376    0.2113353 -54.67 0.0003403091    1.454    0.312
        98  -8.0444    219.8435    101.1725   6.6881130647e+01   1.5579089301e+01    0.2140142    0.2044299 -61.34 0.0004127299    1.151    0.131
        99  -9.4687     94.3467     97.1726   9.4920912290e+01   4.4239053807e+01    0.3901046    0.2428237 -56.48 0.0007254131    1.603    0.376
       100  -8.7359     95.2909     91.3920   9.3062071705e+01   4.5358668806e+01     0.499972    0.3120917  -4.73  0.001826209    3.260    0.693
       101  -8.5174    239.4471     96.5530   6.2532160746e+01   1.1936990473e+01    0.1453845    0.1306019 -17.17            0    1.052    0.050
       102  -9.2822    149.9013     95.0500   7.9465493695e+01   3.3301205655e+01    0.5753975    0.2451741 -43.30  0.002007623    2.316    0.568
       103  -8.9991    150.5291     89.4926   7.7684021513e+01   3.4250800738e+01    0.3059707    0.2477019 -54.79 0.0006837071    1.339    0.253
       104  -7.2917    171.2211     95.9411   7.4854721979e+01   2.8079915092e+01    0.2121959    0.1268459 -37.70 0.0003936779    1.629    0.386
       105  -9.0905    164.2933     93.8948   7.5794946067e+01   3.0132726636e+01    0.3972979    0.2447565 -37.51  0.001457396    1.585    0.369
       106  -9.2909    138.8500     92.7757   8.1516742359e+01   3.6280341575e+01     0.395686    0.2987267 -70.65 0.0007073892    1.752    0.429
       107  -9.7981    140.4924     82.0945   7.7884649284e+01   3.8025375600e+01    0.8578666     0.327233 -36.16  0.002835466    2.640    0.621
       108  -8.8375    139.9341     75.8697   7.6070569997e+01   3.9340238829e+01    0.3757186     0.207922 -41.44  0.001112041    1.777    0.437
       109 -10.1059     34.5625     90.6531   1.1172205247e+02   5.3563436599e+01    0.5924776    0.2768078 -79.68  0.001795645    3.157    0.683
       110 -10.0044     36.9496     80.9853   1.0887145928e+02   5.5540003300e+01     0.670252     0.341206 -23.54  0.002702659    3.228    0.690
       111  -8.3468    157.3494     91.0971   7.6558681093e+01   3.2328029629e+01    0.2340426    0.1953174 -42.66  0.001129849    1.190    0.160
       112  -9.4318    110.8246     89.9768   8.8172810025e+01   4.2780876240e+01    0.8379481    0.3808501  29.25  0.002684407    3.601    0.722
       113  -7.7629     53.5056     76.4476   1.0216906235e+02   5.4803012933e+01    0.2259163    0.1338112  22.93  0.001134431    2.082    0.520
       114 -10.2849     47.8867     84.3076   1.0603906115e+02   5.3684612870e+01    0.6477324    0.3584963 -65.37  0.001666789    1.767    0.434
       115  -8.5380     48.9818     77.0269   1.0385480434e+02   5.5193396606e+01    0.3729703    0.2161647 -22.40   0.00166275    2.418    0.586
       116  -9.1310    242.1471     88.3223   6.0063642099e+01   1.2625001567e+01    0.3174863    0.1475999 -31.47  0.000551968    1.949    0.487
       117 -10.1870     85.3465     86.5926   9.4701536444e+01   4.8093993002e+01    0.4763397    0.3518014 -87.83 0.0008667726    2.041    0.510
       118 -10.0383     15.0002    112.0668   1.2097055325e+02   5.0210937870e+01    0.5377647    0.2610289  67.85  0.002375777    2.817    0.645
       119  -7.8186    174.5397     88.0356   7.1870368423e+01   2.8744631673e+01    0.2511956    0.1523315 -35.67  0.001034847    1.607    0.378
       120  -8.0869    103.1224     87.8481   8.9752733498e+01   4.4711194808e+01    0.2271778     0.203673 -25.77 0.0003979845    1.092    0.085
       121 -10.3236    103.8922     82.4999   8.7930016900e+01   4.5700550573e+01    0.5619909    0.2951925 -52.18 0.0009117849    2.026    0.506
       122  -9.4248    105.3233     71.2304   8.3938012155e+01   4.7718877465e+01    0.7986271    0.4240884 -31.70  0.002467376    1.991    0.498
       123  -8.4489    163.4112     86.6411   7.3868244933e+01   3.1717871679e+01     0.354888    0.1991464 -28.27 0.0009476474    1.934    0.483
       124  -9.4824     87.3762     78.7634   9.1780308645e+01   4.9450838966e+01    0.5390019    0.3562004   6.59  0.001585272    2.290    0.563
       125  -8.3910    157.8048     83.5393   7.4201513404e+01   3.3654812923e+01    0.3538742    0.1939894 -45.14  0.000812648    1.879    0.468
       126  -8.7176    157.2839     77.0716   7.2340316950e+01   3.4971915107e+01    0.4824516    0.2396735 -51.78  0.001357768    2.593    0.614
       127  -7.6423    170.3813     83.2541   7.1344473257e+01   3.0636178786e+01    0.2304569    0.1402423 -45.03 0.0009391137    1.685    0.406
       128  -9.0356    149.9499     80.3010   7.5035198843e+01   3.6146910265e+01     0.439614     0.221637 -36.40  0.001214391    1.942    0.485
       129  -8.8379    118.9647     80.5591   8.3048314696e+01   4.3083239222e+01     0.348168    0.2458788 -49.19  0.000637104    1.450    0.310
       130  -8.3053    119.8192     75.8769   8.1328357500e+01   4.3833668977e+01    0.3215488    0.2114759  28.44  0.000865367    1.796    0.443
       131  -8.9914     74.1061     80.2476   9.6423557051e+01   5.1229835734e+01    0.4243381    0.2250472 -60.45 0.0007928209    2.165    0.538
       132  -8.4545     75.3439     74.3338   9.4275913626e+01   5.2317593466e+01    0.2805196    0.1849497  -3.45  0.001264647    2.260    0.557
       133  -8.2929    166.2706     78.6489   7.0841614019e+01   3.2479485568e+01    0.2821273    0.1798061 -45.16 0.0006081865    1.613    0.380
       134  -7.8148    184.2265     78.0621   6.6993228821e+01   2.8108982514e+01    0.2352189    0.2058356   6.12 0.0006196445    1.237    0.192
       135  -9.2680    138.1453     65.0486   7.2987224121e+01   4.1725750958e+01    0.6556069    0.4159781 -19.94  0.001954692    1.813    0.448
       136  -8.5963    130.3939     64.2801   7.4678282447e+01   4.3665069169e+01    0.4671888    0.2692489 -47.76  0.001063821    1.925    0.481
       137  -9.4305    127.3808     75.2067   7.9074215157e+01   4.2321273444e+01    0.4454541    0.2666427 -50.60 0.0008681338    1.866    0.464
       138  -8.7138    129.2081     68.9694   7.6555513053e+01   4.3086240371e+01    0.4405446    0.2746267  20.90  0.001729056    2.290    0.563
       139  -7.8503    130.5290    224.1068   1.0974658725e+02   1.1466247919e+01     0.152298    0.1205249 -64.70 0.0002996786    1.474    0.322
       140  -9.9176     81.6190     72.4196   9.1646330731e+01   5.1736016116e+01    0.4463397    0.3063144 -64.93  0.001050525    1.890    0.471
       141  -9.0184     83.5052     64.3967   8.8421571736e+01   5.3057102582e+01     0.537331    0.3238778 -12.34  0.002182684    2.615    0.618
       142 -10.0391     62.4602     60.7582   9.4370532057e+01   5.6994503751e+01    0.5742868    0.3304194  25.95  0.001070059    2.050    0.512
       143 -10.4695     54.9976     70.8968   1.0011269436e+02   5.5833361064e+01    0.5559956    0.3697148  59.89  0.001264515    2.353    0.575
       144  -9.2325     55.4812     63.2731   9.7660264560e+01   5.7388347913e+01    0.4315417    0.2423809 -18.76  0.001869015    2.663    0.624
       145  -8.3048    162.7982     73.0811   6.9882107750e+01   3.4325114246e+01    0.2414788    0.2071543 -60.39  0.000704769    1.296    0.228
       146  -8.9825    115.0935     72.7416   8.1624196399e+01   4.5442308304e+01    0.3640451    0.2304781 -35.42 0.0005019095    1.520    0.342
       147 -10.6760    118.1826     66.4839   7.8680265889e+01   4.5979025941e+01    0.5144127    0.3043724  41.07  0.001259859    1.752    0.429
       148  -8.3877    122.4803     61.4607   7.5791685729e+01   4.5951916157e+01    0.3806732    0.2396887  22.75  0.001314715    2.088    0.521
       149  -7.6136    175.4880     72.4718   6.7049491205e+01   3.1255187688e+01    0.1553284    0.1512373 -46.43 0.0001812404    1.047    0.044
       150  -8.0968    169.4848     71.4352   6.7956298107e+01   3.2940643608e+01    0.2800098    0.1342566 -43.86 0.0008207565    2.162    0.538
       151  -9.2481    147.0578     69.3743   7.2262762296e+01   3.8835187008e+01    0.4097436    0.2706922 -57.10 0.0008958723    1.915    0.478
       152  -8.4257    156.6543     70.1138   7.0300801541e+01   3.6363686388e+01    0.2460462    0.1841186 -48.59 0.0005847744    1.420    0.296
       153  -9.7534     94.8081     68.2357   8.6118813044e+01   5.0309382485e+01    0.4862711    0.2616009 -47.80 0.0008846291    1.853    0.460
       154  -9.4300     97.4922     58.4900   8.1932401632e+01   5.1672185929e+01    0.8215773    0.5069295 -18.82   0.00359975    1.955    0.489
       155  -9.4144    109.7601     63.9402   8.0188358916e+01   4.8224513370e+01    0.4124111    0.2773505 -51.12 0.0006024655    1.675    0.403
       156  -9.0075    110.5635     58.2475   7.7966284643e+01   4.9094848212e+01    0.3725073    0.2805928   5.25  0.001015564    1.536    0.349
       157  -7.7080    170.8989     64.8586   6.5631133358e+01   3.3683970104e+01    0.2117431    0.1817072 -60.89 0.0004080808    1.282    0.220
       158  -8.1911    157.5309     63.0419   6.7843989830e+01   3.7349958158e+01    0.2368076    0.1489663 -35.51 0.0008904918    1.563    0.360
       159  -8.9267     49.6002     61.9103   9.9359710251e+01   5.8378241993e+01    0.2506396    0.1536739 -63.37  0.001213079    1.883    0.469
       160  -7.8281    152.8258     60.7618   6.8133376777e+01   3.8897726002e+01    0.2090024    0.1786208 -60.82 0.0004303824    1.328    0.247
       161 -10.1699     89.5825     38.3940   7.6784953158e+01   5.6617306936e+01    0.8213409    0.3307768  33.21  0.002943176    3.227    0.690
       162  -8.7486     87.5010     58.4724   8.5076294291e+01   5.3515986443e+01    0.3900806    0.2232958 -45.57  0.001382745    1.712    0.416
       163 -10.4781     85.1177     48.0582   8.2028303955e+01   5.5835170188e+01    0.6379551    0.4726799 -76.16 0.0009186565    2.546    0.607
       164  -9.0655     79.9640     46.3467   8.3094879365e+01   5.7035072520e+01    0.3574277    0.1984095 -31.25  0.000529964    1.695    0.410
       165  -9.6970     73.2292     59.4481   9.0173398320e+01   5.5691003730e+01    0.4065817    0.2515482 -55.70 0.0008925232    1.873    0.466
       166  -9.4922     74.3407     51.9016   8.7111425890e+01   5.6961749632e+01    0.6459894     0.370744  -3.33  0.002469142    3.265    0.694
       167  -8.5987     10.2357     60.4733   1.1359045569e+02   6.2076963655e+01    0.2508109     0.200493  84.41  0.001711739    1.563    0.360
       168  -8.2152    164.5247     60.1146   6.5427125923e+01   3.6068385389e+01    0.2314561    0.1510787 -31.01 0.0007157075    1.523    0.344
       169  -8.9255    146.5238     59.0042   6.8972848941e+01   4.0739845343e+01    0.2833122    0.2574832 -63.50 0.0006027942    1.236    0.191
       170  -9.1342    147.6365     54.8600   6.7325834644e+01   4.1137323072e+01    0.4413792    0.2300639 -24.73  0.001709085    2.101    0.524
       171  -9.0262    213.5617     56.5388   5.5831506274e+01   2.4148355572e+01     0.378946    0.2467172 -30.19  0.001228377    1.488    0.328
       172  -8.8593    139.0184     56.9903   7.0051436268e+01   4.2890087635e+01    0.3285345    0.2266748 -44.37 0.0005479535    1.528    0.346
       173  -8.4111    130.0203     57.9954   7.2620397280e+01   4.4842779987e+01    0.2609125    0.2096969 -38.64 0.0005638266    1.252    0.201
       174  -7.7088    130.3461     54.3115   7.1250590213e+01   4.5381896922e+01    0.2193061    0.1527986 -11.20 0.0006457962    1.652    0.395
       175  -8.4574    122.4224     41.3483   6.8552193195e+01   4.9238405928e+01    0.4441023    0.2578286   9.37  0.001653633    2.751    0.637
       176  -9.4635    118.2762     54.7977   7.4581887397e+01   4.8038212330e+01    0.5902053    0.3274502 -35.85  0.001510998    1.742    0.426
       177  -9.1375    121.0825     47.1015   7.1035089272e+01   4.8668938282e+01    0.4254597    0.2259014 -35.26 0.0004335171    1.840    0.457
       178  -8.9203    162.9287     53.2326   6.3531210141e+01   3.7550505902e+01    0.6273555    0.2402728 -24.65  0.001922354    3.144    0.682
       179  -7.7278    152.8374     53.8781   6.5849375079e+01   3.9999695191e+01    0.2092069    0.1768596 -55.66 0.0004594737    1.315    0.240
       180  -9.0752    105.3644     51.9175   7.7180792455e+01   5.1277989186e+01     0.556971    0.2452744 -33.42   0.00171905    2.212    0.548
       181  -9.3709    141.2580     49.0190   6.6769621467e+01   4.3614203843e+01     0.717911    0.4104841  -1.42  0.001530823    2.924    0.658
       182  -9.6593    130.5693     46.3472   6.8355425777e+01   4.6590354564e+01    0.9014971    0.3589835 -21.31  0.001986095    3.575    0.720
       183  -8.8634    132.9606     36.0066   6.4012061585e+01   4.7507175899e+01    0.3327903    0.2131683 -26.82 0.0004972232    1.568    0.362
       184 -10.8967    134.0230     31.0488   6.1940134002e+01   4.7900583848e+01     0.408601    0.2849765  -0.48  0.001948196    1.633    0.388
       185  -7.8185    162.4124     46.2692   6.1352902738e+01   3.8713671987e+01    0.2120051    0.1355363 -41.20 0.0005155449    1.607    0.378
       186  -8.5359    157.4438     48.7867   6.3180111032e+01   3.9613276643e+01    0.2879726    0.1386793 -35.51 0.0009045484    2.037    0.509
       187  -8.9909    149.8018     47.9082   6.4487215999e+01   4.1669306649e+01    0.3609651    0.1871914 -41.74 0.0009808553    2.020    0.505
       188  -7.3093    187.7453     47.9856   5.7352850460e+01   3.1931069294e+01    0.1822348    0.1280376 -28.76  0.000327527    1.427    0.299
       189  -8.5457    111.9500     47.0329   7.3479325986e+01   5.0700339980e+01    0.2163779    0.2051257 -22.91  0.000428398    1.117    0.105
       190  -8.5500    238.6946    212.0622   8.7977896011e+01  -4.9352424269e+00    0.1995653    0.1451072  28.71 0.0005380767    1.186    0.157
       191  -9.9427     10.1679    207.2479   1.3007860407e+02   3.0301525025e+01    0.4266395    0.2656317  28.85  0.002941844    2.250    0.556
       192  -9.3273    192.1477    194.6295   9.3306045377e+01   5.5054564229e+00     0.774937    0.4037036 -61.27  0.002514358    5.553    0.820
       193  -9.9647     69.4463     42.4404   8.5247930874e+01   5.9441354405e+01    0.8388132    0.2804254 -43.50  0.002847661    2.854    0.650
       194  -9.2739    236.7928    193.8361   8.4921263481e+01  -2.3017239362e+00    0.3186971    0.2772287 -83.21  0.001886458    2.122    0.529
       195  -7.0957    149.3512    190.3341   1.0110689200e+02   1.4133748005e+01    0.1372163    0.1048602   6.61 0.0007046542    1.783    0.439
       196  -8.9996     84.8134     21.8141   7.1277427373e+01   5.9903063641e+01    0.2570837    0.2106693   7.52 0.0005706793    1.073    0.068
       197  -8.7736     40.2231     34.6598   9.3540878231e+01   6.4748793976e+01    0.2947771    0.2071401  -0.70  0.001191587    1.508    0.337
       198  -9.9609     37.8084     41.9825   9.7298485892e+01   6.3654686271e+01    0.3777793    0.3446001 -71.31  0.001544873    1.501    0.334
       199 -10.1208     35.8928     37.9687   9.6623769400e+01   6.4609721878e+01    0.2875721    0.1898514 -39.68 0.0003605069    1.210    0.173
       200  -8.7589    113.6438     41.3874   7.0876259643e+01   5.1209587629e+01    0.5367597    0.3043045   5.36  0.001949856    3.043    0.671
       201  -9.1288    104.9241     41.2143   7.3250230579e+01   5.3111072297e+01     0.384984    0.2481501 -46.68  0.001031658    1.816    0.449
       202  -8.4060    106.0968     36.3188   7.0991848408e+01   5.3596079686e+01    0.2849063    0.2199456  23.14  0.001047371    1.280    0.219
       203 -10.0282    153.3801     40.8273   6.1320190175e+01   4.1783418204e+01    0.4608099     0.318233 -34.40  0.001624122    1.462    0.316
       204  -8.9332    139.2126     39.7799   6.3965812395e+01   4.5466689250e+01    0.4474975    0.2973075 -41.47  0.001358885    1.601    0.376
       205  -7.7060    160.5200     38.7570   5.9222792142e+01   4.0242055015e+01    0.2852817    0.1513179 -21.89  0.001147697    2.059    0.514
       206  -8.2196     53.5492     39.0565   8.9881319831e+01   6.2334100148e+01    0.2676196    0.1646139 -43.07 0.0008627734    1.475    0.322
       207  -8.3486     54.8524     35.3632   8.7889012670e+01   6.2805377977e+01     0.180983    0.1584298 -21.12 0.0005953101    1.137    0.120
       208  -8.6646    144.0656     36.5518   6.1758400715e+01   4.4707409787e+01    0.2629485     0.194461 -43.96 0.0006921882    1.467    0.318
       209  -8.8293    118.9767     34.7216   6.6911592247e+01   5.0972607225e+01    0.3526219    0.1920785 -31.50 0.0008327027    1.810    0.447
       210  -9.3054    101.0370     32.6117   7.0948673754e+01   5.5194010589e+01    0.5240477    0.2394972 -27.94  0.001505075    2.155    0.536
       211  -9.0225    225.0629    188.9952   8.6071695141e+01   3.9231115166e-01    0.2863561    0.1982204  40.33 0.0004225281    1.402    0.287
       212  -9.0757    225.9283    184.2267   8.4975652928e+01   9.2146458612e-01    0.2258905     0.194719  -6.25 0.0002674618    1.105    0.095
       213  -7.5665      6.5071    181.0360   1.2919856473e+02   3.5775822635e+01    0.1597698   0.08281553 -81.39 0.0003599001    1.506    0.336
       214  -9.0387    226.1428    179.1773   8.3921853894e+01   1.6186124946e+00    0.2199537     0.184413  10.47 0.0003475706    1.030    0.029
       215  -7.2781    236.2713    179.3085   8.2136722773e+01  -2.1617863829e-01    0.1341684   0.09071077   5.55 0.0001667556    1.544    0.352
       216  -8.3312    146.8820    177.6739   9.9426306161e+01   1.6971624283e+01    0.2058312    0.1868046 -20.23 0.0003941313    1.253    0.202
       217 -10.3673    194.1825    176.0529   8.9349345963e+01   8.1383336529e+00    0.2492291    0.2341321   0.23 0.0002830346    1.085    0.078
       218  -8.5485     42.1708     27.9017   8.9943375360e+01   6.5697077064e+01    0.2243022    0.1482137 -23.82 0.0003789943    1.299    0.230
       219  -9.2267     79.9564    176.0961   1.1374257363e+02   2.8534317845e+01    0.1916587    0.1620412 -85.32            0    1.079    0.073
       220  -7.9301     96.9422     33.0146   7.2318525212e+01   5.5979156206e+01    0.2219286    0.1536033   7.99  0.000359968    1.600    0.375
       221  -8.9962     91.4107     26.2006   7.1134921497e+01   5.8036601459e+01    0.3537067    0.2173813 -43.61  0.001083717    1.949    0.487
       222  -8.8689     92.3307     20.7010   6.8478559676e+01   5.8559478339e+01    0.3831904    0.2310535  12.91  0.001305186    1.957    0.489
       223  -8.8145     79.8654    160.7991   1.1162455673e+02   3.1895250320e+01    0.2015827    0.1814021 -88.56 0.0003063648    1.052    0.049
       224  -8.5749    153.9120     27.0356   5.6473870412e+01   4.3414414831e+01    0.2461939    0.1603713  31.56 0.0008751571    1.695    0.410
       225  -8.8434    144.1916     25.9197   5.7936020517e+01   4.6010389279e+01    0.2881696    0.1836975 -28.81  0.001276255    1.602    0.376
       226  -8.7626    214.3350    159.2990   8.1917485084e+01   6.9544400903e+00    0.2285661    0.2136794  11.10 0.0002851327    1.096    0.087
       227  -9.0066    127.9450     25.4660   6.1199291403e+01   5.0057873619e+01    0.4455389    0.3173831  28.17  0.001571827    1.427    0.299
       228  -7.4338    200.4057    157.4934   8.4213190869e+01   1.0063080838e+01    0.1430019    0.1331309   2.98 0.0003073085    1.036    0.034
       229  -8.1001    111.6931     22.1719   6.3783850591e+01   5.4231863000e+01    0.2637696    0.1667549 -27.23 0.0006471551    1.581    0.367
       230  -7.4170    142.4761    154.5674   9.5958497549e+01   2.2456848376e+01    0.1439302     0.139039  34.14 0.0001204712    1.050    0.048
       231  -8.4444    133.6334    147.0768   9.6451664670e+01   2.5771924498e+01    0.4767821    0.1395281 -49.46  0.001481195    3.476    0.712
       232  -9.8097    237.1699    146.2163   7.4849435727e+01   4.5455986528e+00    0.7260816    0.2591118  37.67  0.002561909    3.236    0.691
       233  -8.7301     68.3441    144.6765   1.1191505657e+02   3.7160013926e+01    0.3076606    0.2109289  83.46  0.001635347    1.586    0.370
       234  -9.0722     65.5811    143.2273   1.1237036514e+02   3.7858939590e+01    0.3399453    0.2082244 -66.43  0.001235111    1.455    0.313
       235  -8.5778    241.8093    137.7997   7.2129917970e+01   4.9458073605e+00    0.2482622    0.1416639   8.64 0.0009533601    2.861    0.651
       236  -8.6410    132.8702     17.3153   5.7042348223e+01   4.9777769933e+01    0.2270771    0.1889591 -33.66 0.0005198552    1.297    0.229
       237  -8.2475    129.0394     16.6692   5.7589185372e+01   5.0778928568e+01    0.2429351    0.1956139  72.49 0.0006355425    1.376    0.273
       238  -7.5849    189.4864     15.5329   4.7327810145e+01   3.5472679507e+01    0.1392296     0.130808  81.91 2.540944e-05    1.005    0.005
       239  -8.4094    112.3771    134.1245   9.8880624506e+01   3.2646904857e+01    0.3046811    0.2083953  76.94  0.001143368    2.050    0.512
       240  -7.1335    232.5452    134.5129   7.2944902642e+01   7.3170884561e+00    0.1444188    0.1294114 -11.76 0.0001698531    1.025    0.025
       241  -9.9860    133.7385    131.3995   9.2958919043e+01   2.9145283157e+01    0.6033183    0.5584406 -36.92  0.002431854    1.098    0.089
       242 -10.3846    139.7565    103.7652   8.4424299723e+01   3.3811433915e+01    0.8968189    0.4707736 -32.47   0.00158082    2.164    0.538
       243 -10.7622    132.0123    119.7580   9.0581098323e+01   3.2036256800e+01     1.069274    0.6448593  75.18  0.003580144    3.483    0.713
       244 -10.2812    109.1164    112.3047   9.4684480308e+01   3.8187721695e+01      1.15151     0.521647 -45.61  0.002328565    2.110    0.526
       245 -10.4713    108.5382     99.8668   9.1605104988e+01   4.1074273431e+01    0.9613408    0.6280878  72.31  0.003530293    2.556    0.609
       246 -10.5769    124.1947     89.6726   8.4406571596e+01   4.0117058220e+01     1.403394     0.623867 -31.82  0.003222388    2.832    0.647
       247 -10.0097    127.8039    102.4731   8.7119718250e+01   3.6655260252e+01    0.5241451    0.4088452 -44.13  0.001739498    1.236    0.191
       248 -10.2849    121.5845    112.2987   9.1366156682e+01   3.5788271431e+01    0.6558585     0.521774  85.67  0.001415451    1.614    0.381
       249  -8.6748     82.8199    130.9746   1.0584712387e+02   3.8292672561e+01    0.6566987    0.3643317  74.45  0.002407799    3.417    0.707
       250 -10.2081     58.2817    124.6142   1.1118844857e+02   4.3122729176e+01    0.7350457     0.389904  83.44  0.002829165    3.352    0.702
       251  -9.8335     66.4268    128.6193   1.0972404129e+02   4.1152349965e+01     0.432391    0.3682595 -35.53  0.001967602    1.377    0.274
       252  -9.9897     71.2188    125.6489   1.0790503923e+02   4.1206157824e+01    0.5494212    0.3115487 -77.81   0.00146216    2.142    0.533
       253  -9.7944     98.4898    128.5492   1.0125580525e+02   3.6355824856e+01    0.6070381    0.3764392  74.76  0.002248254    2.589    0.614
       254  -7.8942    161.3520    129.4971   8.5982974734e+01   2.3706338428e+01    0.2864436    0.1440836 -42.34  0.001104063    1.983    0.496
       255  -7.1556      8.3503    130.2542   1.2475833493e+02   4.6558626676e+01    0.1089025   0.07451622 -50.11 0.0003499799    1.597    0.374
       256 -10.0792    117.1046    125.3895   9.5726980187e+01   3.3738506823e+01    0.6140188    0.4893147 -75.36  0.001549548    1.417    0.294
       257  -9.8176     27.5332    123.0924   1.1911015294e+02   4.6678959795e+01    0.5653484    0.2801835  72.55  0.002260398    2.806    0.644
       258 -11.3609    133.5597    109.3448   8.7502597595e+01   3.3967334830e+01     1.799771    0.5309859 -49.56  0.005027382    3.850    0.740
