#   1 NUMBER                 Running object number                                     
#   2 MAG_AUTO               Kron-like elliptical aperture magnitude                    [mag]
#   3 X_IMAGE                Object position along x                                    [pixel]
#   4 Y_IMAGE                Object position along y                                    [pixel]
#   5 X_WORLD                Barycenter position along world x axis                     [deg]
#   6 Y_WORLD                Barycenter position along world y axis                     [deg]
#   7 A_WORLD                Profile RMS along major axis (world units)                 [deg]
#   8 B_WORLD                Profile RMS along minor axis (world units)                 [deg]
#   9 THETA_WORLD            Position angle (CCW/world-x)                               [deg]
#  10 FWHM_WORLD             FWHM assuming a gaussian core                              [deg]
#  11 ELONGATION             A_IMAGE/B_IMAGE                                           
#  12 ELLIPTICITY            1 - B_IMAGE/A_IMAGE                                       
         1 -12.2186      2.0235     24.8796   1.0950029981e+02   7.1813103821e+01    0.4101898    0.1571541 -72.99  0.001249281    2.140    0.533
         2 -12.1640      6.5698     17.5208   1.0471232992e+02   7.3188612341e+01    0.7322577    0.4815367  60.10  0.003653614    1.989    0.497
         3 -12.4105    116.8946     22.2745   5.9699093342e+01   5.3747340111e+01    0.3484278    0.2622274 -32.67 0.0007226352    1.300    0.231
         4 -11.2681    182.1318     19.0707   4.6915570292e+01   3.6483915683e+01    0.3945264    0.2860703  -0.80  0.001103951    1.556    0.357
         5 -11.6661    166.2961     18.0551   4.8698636217e+01   4.0971625704e+01    0.3581723    0.2965257  19.12 0.0004598927    1.326    0.246
         6 -12.0195    174.6296     12.1055   4.5434115539e+01   3.9285950747e+01     0.620046     0.317303  37.15  0.002371217    2.359    0.576
         7  -9.6564     62.9764     12.4920   7.2003171532e+01   6.7170421669e+01    0.5699823    0.1862724  40.76  0.001688839    3.705    0.730
         8 -10.7206     65.1807     15.3989   7.2664748002e+01   6.6285385611e+01    0.4806898    0.3454519  20.76  0.002526891    1.688    0.408
         9 -10.5247    230.0332     16.0761   4.1052019121e+01   2.4214474165e+01    0.2130352    0.1856672 -42.31 0.0003582065    1.059    0.056
        10 -11.2588    133.0435     13.0021   5.2200288269e+01   5.0697409141e+01    0.3336403    0.2672871 -18.16 0.0003313768    1.268    0.211
        11 -11.2974    209.7186     12.2563   4.1706649801e+01   2.9743625157e+01    0.5367099    0.3061023  -0.75  0.002218265    2.141    0.533
        12 -10.4732    140.0099     13.7395   5.1231432991e+01   4.8721022207e+01    0.3704406    0.1959957  45.84  0.001078752    1.938    0.484
        13 -11.0994    148.7538     12.4693   4.9238529650e+01   4.6455440233e+01     0.549141    0.2230181  55.66   0.00200915    2.270    0.559
        14  -9.8559     75.0621     12.4492   6.7287183257e+01   6.4822886027e+01     0.225274    0.1839959 -46.08  0.001258763    1.278    0.218
        15 -10.4663    218.6349     11.8444   4.0787204024e+01   2.7473483691e+01    0.2642477    0.2310566  69.70 0.0006153645    1.198    0.166
        16  -9.9334     97.7991     11.5041   5.9584671488e+01   5.9899418198e+01    0.3500113    0.1588441 -43.92  0.001042863    2.415    0.586
        17 -11.2218     14.5488     10.5054   9.6933333347e+01   7.4112497781e+01    0.3499745    0.1832888 -52.64  0.001274803    1.498    0.333
        18  -9.5003      8.2897     10.7059   1.0114824335e+02   7.4541604010e+01    0.1492801    0.1192772 -38.65 0.0003856622    1.192    0.161
        19 -10.5316      4.8155      9.5146   1.0303191139e+02   7.5016755131e+01    0.2473237    0.1909251 -72.98  0.001185672    1.232    0.188
        20 -11.2219    116.7885     15.0512   5.6499324522e+01   5.4736257602e+01    0.3686578     0.277853  34.95 0.0009976435    1.395    0.283
        21  -9.7520     38.1439     10.0761   8.2523768981e+01   7.1594947734e+01    0.2096261    0.1623623  73.47  0.001190182    2.023    0.506
        22 -10.6827    185.3183      8.8867   4.3066627371e+01   3.6641073741e+01    0.2602772    0.2073483  65.22 0.0003612568    1.250    0.200
        23 -10.8661    164.6967      8.2038   4.5280647068e+01   4.2447954328e+01    0.3215559    0.2459982 -62.23 0.0007582261    1.378    0.274
        24 -11.0199    146.2443      8.2316   4.7930327531e+01   4.7597808488e+01    0.3032995    0.2154247  30.15  0.001406493    1.552    0.356
        25 -11.0221    128.4977      8.4513   5.1083548262e+01   5.2430971208e+01    0.3290229    0.2420729  69.20  0.000926568    1.374    0.272
        26 -10.7778    134.0519      6.1122   4.9050664028e+01   5.1172622882e+01    0.3036116    0.2000868  51.05  0.001397548    1.474    0.322
        27  -8.9674     79.2998      9.6784   6.4299215918e+01   6.4339519659e+01    0.1384997    0.1053427 -59.15 0.0003818733    1.625    0.385
        28 -10.5710     73.6013      8.4139   6.5598160261e+01   6.5717271454e+01    0.3034134    0.2023929  25.13  0.001495035    1.778    0.438
        29 -11.1894    193.0007      8.1254   4.2007120196e+01   3.4607240004e+01    0.3809787    0.2049333 -89.96  0.001551532    2.132    0.531
        30 -10.9081    115.6737      1.9711   5.0608219530e+01   5.6516808639e+01    0.2519864    0.2067183  61.64 0.0002694473    1.207    0.172
        31 -11.3396    108.5970      7.6558   5.4919753833e+01   5.7721603531e+01    0.6672246    0.3224534 -39.97  0.002147428    2.111    0.526
        32 -10.5693    104.0238      7.5555   5.5975805615e+01   5.8878412574e+01     0.299299    0.2318827  49.59 0.0007864156    1.275    0.215
        33 -10.5725    112.0000      4.9936   5.2848052174e+01   5.7153489201e+01    0.3039988    0.2056368 -28.67 0.0009847814    1.450    0.310
        34 -12.0977     87.1776      5.8752   5.9702762474e+01   6.3103327654e+01    0.3155119    0.2724951 -37.94 0.0003039338    1.185    0.156
        35  -9.5605     90.5495      1.4067   5.6280240066e+01   6.2854967421e+01    0.2553973    0.1243356  55.30  0.000531643    1.990    0.498
        36  -9.9564     46.6589      8.7068   7.7301162776e+01   7.0586585255e+01     0.209209    0.1290811  27.93 0.0005587374    1.969    0.492
        37 -10.3395     50.8377      7.0000   7.4258707670e+01   7.0196003336e+01    0.3682742    0.2299228  13.74  0.001740305    2.406    0.584
        38  -9.1482    240.5036      7.5751   3.7893339209e+01   2.2459010203e+01    0.1350183    0.1196988 -42.22 0.0001123871    1.021    0.020
        39 -11.5121    208.8091      4.5580   3.9415975239e+01   3.0691100001e+01    0.4690287    0.3677278 -41.69  0.002506509    1.195    0.163
        40 -10.3471     61.9132      6.5475   6.9056390751e+01   6.8298243955e+01    0.2856149    0.2374132 -72.27  0.001060808    1.628    0.386
        41 -11.1218     39.1051      3.9474   7.8399894575e+01   7.2542374377e+01    0.4819031     0.284483 -58.92  0.002322905    2.421    0.587
        42 -10.1643     24.7101      6.8861   8.8616201222e+01   7.3856967611e+01    0.2466434    0.1754307 -69.14  0.001271829    1.741    0.426
        43 -10.3445     19.9610      4.7654   9.0516337377e+01   7.4767522154e+01    0.4768475    0.2965299 -75.96  0.002410239    2.595    0.615
        44 -11.0537    170.8385      6.1248   4.3746751222e+01   4.0928240253e+01    0.2314166    0.1921199 -59.04 0.0003883081    1.220    0.181
        45 -11.9305    195.2921      3.5965   4.0299465830e+01   3.4396433186e+01    0.6393023     0.278483  68.80  0.002406328    2.205    0.546
        46 -10.2300     46.5575      4.4924   7.4827663739e+01   7.1306080342e+01    0.2187704    0.1780805 -21.87 0.0001228196    1.113    0.101
        47 -10.3009     49.5432      2.4965   7.2107262264e+01   7.1128263921e+01    0.2195597    0.1950311   2.94 0.0006204808    1.117    0.105
        48  -9.7631    184.7764      4.4048   4.1594308281e+01   3.7207231208e+01    0.2046889    0.1290999  59.73 0.0002954582    1.559    0.359
        49 -11.6072    161.0020      3.0262   4.3798675215e+01   4.3974508307e+01      0.52858    0.3592356  77.93  0.001877242    1.478    0.324
        50 -10.0133     30.9130      3.4014   8.2777600158e+01   7.3763596227e+01     0.219667    0.1514278 -54.68  0.000576678    1.528    0.345
        51  -9.8007    248.8688      2.8833   3.6097544217e+01   2.0905510639e+01    0.1884518    0.1715802  13.91 0.0003086505    1.232    0.188
        52 -10.6790    218.2784      2.3277   3.7990992846e+01   2.8421282320e+01    0.2682134    0.2550487 -17.29 0.0008544613    1.090    0.082
        53 -11.2641     74.1618      1.9934   6.1690444016e+01   6.6469764477e+01    0.2851025    0.2284422  45.92  0.000562656    1.283    0.221
        54  -9.3545     13.3428      3.6503   9.4442588506e+01   7.5604990608e+01    0.1258994    0.0994433 -44.51 0.0008490243    1.026    0.026
        55  -9.3449     10.9997      1.2494   9.4857144744e+01   7.6278319659e+01    0.1375419    0.1082152  41.48 0.0002588822    1.628    0.386
        56 -10.8739    180.2980      1.9969   4.1222776561e+01   3.8663522466e+01    0.3488205    0.2142118  74.61  0.001337026    1.609    0.379
        57 -10.6698    130.8612      1.9142   4.7755347290e+01   5.2458634744e+01    0.3448066    0.2089457  75.28  0.001092572    1.721    0.419
        58 -10.5766    120.7469      2.1222   4.9678574496e+01   5.5162613313e+01    0.4170941    0.1135246  57.33  0.001140112    3.031    0.670
        59  -9.8264     81.4153      1.8968   5.9246112755e+01   6.4898147999e+01    0.2333732    0.1974963  75.56  0.001314598    1.398    0.285
        60  -9.9773    148.5556      1.4818   4.4840363274e+01   4.7605747386e+01    0.3006129    0.1438785  71.05  0.001050985    2.038    0.509
        61 -10.3598    142.0151      3.6368   4.6691022145e+01   4.9226205132e+01    0.2874062    0.2005226  24.32 0.0008911924    1.610    0.379
        62  -9.4436     43.0585      1.3906   7.4655413383e+01   7.2362549286e+01     0.177647    0.1217509  39.06 0.0008235965    1.618    0.382
        63 -10.9408    125.6081    212.1418   1.0169739825e+02   1.8545616231e+01     0.365226    0.2128958  29.66  0.001566602    1.949    0.487
        64 -10.2871    187.0000    250.3026   9.5758859851e+01   5.5137100453e+00    0.1481172   0.09833544  36.56  0.001201826    1.012    0.012
        65 -10.3643    161.2478    250.0427   9.9627424479e+01   9.0380715511e+00    0.1685988    0.1180042  34.54 0.0004368642    1.158    0.136
        66 -10.8525    165.6859    248.6989   9.8815402122e+01   8.5657268771e+00    0.2808181     0.209846  77.64            0    2.210    0.547
        67 -11.3710    127.4356    248.3686   1.0474814062e+02   1.3777040843e+01    0.2278074    0.2173116  56.73  0.001567886    1.426    0.299
        68 -10.9037    115.6604    249.4788   1.0669873529e+02   1.5197638137e+01    0.2505081    0.1394413  51.91  0.001708651    1.341    0.254
        69 -10.2508    112.0140    246.2980   1.0703558408e+02   1.6048961905e+01     0.155659    0.1291365  65.35 0.0002789721    1.306    0.234
        70 -11.2141     38.8255    249.3291   1.1880985221e+02   2.4288316094e+01    0.1960885    0.1390196  56.69 0.0007935239    1.152    0.132
        71 -10.2384     30.9236    250.4876   1.2006738490e+02   2.4938895657e+01    0.1644689   0.06848057  53.87  0.001227856    1.490    0.329
        72 -11.4528     31.1447    244.6798   1.1984144431e+02   2.5706921987e+01    0.2557275    0.1616199  28.39  0.001992143    2.128    0.530
        73 -10.7710     26.1297    249.8003   1.2077961316e+02   2.5507806393e+01    0.2514147    0.1183252  41.16  0.001443751    1.580    0.367
        74 -10.4001     19.7863    247.5664   1.2168590601e+02   2.6427431293e+01    0.2738877     0.052074  37.84  0.001463638    3.275    0.695
        75 -10.9242     15.9885    244.0204   1.2217563730e+02   2.7277328110e+01    0.2057947    0.1089947  49.87  0.001181588    1.211    0.174
        76 -11.3869     20.0867    241.8599   1.2148161103e+02   2.7188595100e+01    0.3703008    0.1030165  51.77  0.002397763    2.024    0.506
        77 -10.1822     22.9523    238.3351   1.2092712774e+02   2.7408358039e+01     0.211437    0.1258664  51.17 0.0008550644    1.134    0.118
        78 -11.3351     11.3676    249.7226   1.2301601950e+02   2.6924585128e+01    0.4314571    0.0918451  45.34  0.001861574    2.245    0.555
        79 -11.4302      4.6968    246.1834   1.2394691714e+02   2.8014330403e+01    0.2495464    0.2151257 -71.12  0.002182789    1.928    0.481
        80 -11.0346      5.0009    237.9098   1.2373449541e+02   2.9147473541e+01    0.2347545    0.1011813  54.48 0.0006022924    1.399    0.285
        81 -10.7854      3.5801    232.8550   1.2385254031e+02   3.0002258540e+01    0.2159079    0.1534009 -82.09  0.001756613    1.706    0.414
        82 -11.7418     12.7511    235.9068   1.2247405743e+02   2.8727742583e+01    0.2976958     0.240035 -70.87  0.002304449    1.881    0.468
        83 -10.9803     10.9396    231.0073   1.2263890063e+02   2.9607214373e+01    0.2245475    0.1225948  79.05 0.0009980869    1.548    0.354
        84 -11.5478      2.1395    225.0539   1.2392078396e+02   3.1282313720e+01     0.231991    0.1519906  88.02 0.0006863601    1.507    0.336
        85 -11.1905      8.6899    224.0503   1.2282938230e+02   3.0848534287e+01    0.2691635    0.1330387  66.71  0.001583442    1.436    0.304
        86 -10.8827    126.9868    208.7631   1.0109708405e+02   1.8805365315e+01    0.4634784    0.2247924  28.91  0.002294049    2.861    0.650
        87 -10.1470     68.4552    215.0427   1.1214349080e+02   2.5864311171e+01    0.1567154     0.115733  43.53 0.0003371224    1.298    0.230
        88 -10.4588    111.6012    213.6664   1.0433145707e+02   2.0353573495e+01    0.1892394    0.1358723  45.05 0.0005736696    1.113    0.101
        89 -11.8990      8.4660    210.6526   1.2251544987e+02   3.2945802814e+01     0.266213    0.1650238 -83.37  0.002168993    1.668    0.401
        90 -11.5434     23.7765    208.6071   1.1976849298e+02   3.1827657701e+01    0.3920798    0.2159968  50.31  0.001559686    1.274    0.215
        91 -11.2252     17.6756    207.6528   1.2081366429e+02   3.2572942658e+01    0.2150938    0.1166652  62.41 0.0006725659    1.282    0.220
        92 -10.5875     13.9731    212.3504   1.2161394987e+02   3.2170840497e+01     0.151137    0.1130392  65.62 0.0004396208    1.175    0.149
        93  -9.8795    117.9372    211.9132   1.0303458409e+02   1.9693544554e+01    0.1699361    0.1246797  50.19 0.0005602912    1.018    0.018
        94 -10.2512    155.0939    209.6836   9.6273878067e+01   1.4425577825e+01    0.1578429    0.1114194  41.57 0.0004249691    1.066    0.062
        95 -10.6879    144.4528    208.2993   9.7956712299e+01   1.6233570699e+01    0.2440219    0.1640975 -64.14  0.001188352    2.119    0.528
        96  -9.6772     39.3382    210.0717   1.1706022168e+02   2.9989535955e+01    0.1350923    0.1121256 -82.75  0.001156033    1.504    0.335
        97  -9.0936     96.9664    208.9776   1.0653281038e+02   2.3076133243e+01    0.1310074   0.09636974  53.38 0.0004702305    1.004    0.004
        98  -9.0110     79.6595    209.2783   1.0971006932e+02   2.5338200605e+01    0.1135983   0.05866832  58.83  0.000649064    1.622    0.383
        99 -11.3194     67.0965    207.3057   1.1186253079e+02   2.7230536501e+01    0.2380365    0.1728616 -84.65  0.001105038    1.487    0.328
       100 -10.6417     59.5663    208.2109   1.1329990208e+02   2.7997957910e+01     0.295008    0.1340266  50.94  0.001012198    1.575    0.365
       101 -10.0277     57.6209    203.6610   1.1336517058e+02   2.8957893459e+01    0.2142365    0.1257562 -64.93  0.001362537    2.075    0.518
       102  -9.6093      4.7000    205.4440   1.2303115497e+02   3.4118078172e+01    0.1470104    0.0695373 -88.50 0.0005620283    1.923    0.480
       103 -10.6303    121.5706    200.5500   1.0118857359e+02   2.0779039860e+01     0.398018    0.2249546 -82.41  0.002096015    3.167    0.684
       104  -9.3294     40.1747    204.8588   1.1664746004e+02   3.0739596477e+01    0.1241049    0.1023081  61.43 0.0007502325    1.256    0.204
       105 -11.0334     35.0806    204.2582   1.1754747543e+02   3.1381275943e+01    0.2208699    0.1668394  81.84  0.001081564    1.276    0.216
       106 -10.5633     32.1764    199.2876   1.1784378880e+02   3.2506510891e+01    0.2093204    0.1477132  67.10  0.001672853    1.074    0.069
       107  -9.7996      1.4560    204.4750   1.2357530464e+02   3.4557242764e+01    0.1435293   0.06291948  75.37 7.629052e-05    1.783    0.439
       108  -9.6437    142.1047    203.4399   9.7799523819e+01   1.7237584883e+01    0.1519623    0.1359942  48.03 0.0003326816    1.176    0.150
       109 -10.6800     97.1403    200.5080   1.0572583507e+02   2.4339704557e+01    0.3290074    0.1568466  45.09  0.001251682    1.585    0.369
       110  -9.7052     17.6856    201.3063   1.2058735518e+02   3.3609681169e+01    0.1083695    0.0469849  59.43 0.0002975607    1.624    0.384
       111 -11.0065      5.7223    200.1516   1.2270756720e+02   3.4895442567e+01    0.1558497    0.1110315  63.56 0.0002812848    1.094    0.086
       112  -8.9824    240.3275    200.7123   8.1389053379e+01   2.2861155337e+00   0.09172305   0.07902568  45.70 0.0003084343    1.613    0.380
       113 -10.0644    170.1419    200.1115   9.2464668589e+01   1.3244516908e+01      0.16678    0.1337934  42.84 0.0004714349    1.092    0.084
       114  -9.2917     87.4953    200.5039   1.0753626732e+02   2.5669723205e+01    0.1114297   0.08405773  54.88 0.0008104663    1.031    0.030
       115  -9.1402     41.7748    200.0379   1.1609636354e+02   3.1358780939e+01    0.1169186    0.0725278  89.79 0.0003383157    1.544    0.353
       116 -10.3628     12.9633    197.2159   1.2130450842e+02   3.4733588542e+01    0.1786957    0.1366119 -84.54  0.001084066    1.472    0.321
       117  -9.5165     62.3078    198.5557   1.1214092290e+02   2.9229535375e+01    0.1309502   0.08780026  39.66 0.0003583691    1.430    0.301
       118 -10.2438    108.3498    194.1843   1.0297338458e+02   2.3708766625e+01    0.2876814    0.1334704 -60.21  0.001542326    2.646    0.622
       119 -10.4592     82.4636    195.4388   1.0804763369e+02   2.7160684025e+01    0.1850145    0.1431778  62.33 0.0001560915    1.063    0.059
       120  -9.8837     36.5584    196.2173   1.1687037120e+02   3.2562309931e+01    0.2415601   0.07261565  46.24  0.001319493    2.201    0.546
       121 -10.1832     95.4848    194.8131   1.0549337281e+02   2.5468417389e+01    0.1962703    0.1314662  41.73  0.000823235    1.303    0.233
       122  -9.0693     44.4937    194.4008   1.1526206154e+02   3.2005800569e+01    0.1063138   0.07642841  59.87 0.0001392538    1.030    0.030
       123  -9.3004      6.4873    194.6027   1.2240933443e+02   3.5756756133e+01   0.09921161   0.06748033  62.10 0.0001178634    1.032    0.031
       124 -10.2625    100.0917    192.5544   1.0438357041e+02   2.5171277047e+01    0.1664582    0.1497636 -89.45  0.001280391    1.294    0.227
       125 -10.9564     58.9687    190.1457   1.1217930351e+02   3.1049960593e+01    0.1961111    0.1361547 -81.95 0.0004444932    1.492    0.330
       126  -9.0938     52.7025    192.6898   1.1357613690e+02   3.1360203270e+01   0.08513946   0.08495305   0.63 0.0004684856    1.597    0.374
       127 -11.1385     91.6527    188.9355   1.0565848951e+02   2.6963406655e+01    0.2311621    0.1742861  79.02 0.0004249554    1.311    0.237
       128  -9.7969     67.1072    190.8027   1.1063655666e+02   2.9931935765e+01    0.1700607    0.1331251 -45.23 0.0004226889    2.019    0.505
       129  -9.1635    120.4891    188.9841   1.0007075679e+02   2.2677301155e+01    0.1471468   0.09229992  82.12 0.0008067234    2.328    0.570
       130  -9.3539    166.0272    188.3425   9.1550490933e+01   1.5402435541e+01    0.1823098    0.1228389  86.91  0.000737885    3.221    0.690
       131 -10.6989    105.0677    185.9433   1.0271123004e+02   2.5506296058e+01    0.2468071     0.167533  58.57 0.0007038145    1.258    0.205
       132  -9.9921     85.6765    186.6652   1.0661474266e+02   2.8176958524e+01    0.1958788     0.114781  37.74 0.0008385229    1.606    0.377
       133  -8.7825     48.3002    187.3102   1.1407923120e+02   3.2797608041e+01   0.08671471   0.08468545 -55.30 0.0005082123    1.602    0.376
       134  -8.7875    149.0040    186.7734   9.4418741795e+01   1.8434587624e+01    0.1462688   0.08007289  43.67            0    1.453    0.312
       135  -9.9006     75.3292    185.8696   1.0859866831e+02   2.9712297443e+01    0.1961778   0.09676681 -80.79 0.0009007672    2.424    0.587
       136  -9.1594    130.1478    184.3491   9.7646816724e+01   2.1863706306e+01    0.1458884    0.1333882  46.24  0.000198865    1.172    0.147
       137  -9.3666     36.1057    184.3027   1.1630596289e+02   3.4674150706e+01    0.1521417    0.1032377  55.16   0.00111988    1.125    0.111
       138 -11.0156     15.6127    183.1166   1.2028205951e+02   3.6923493844e+01    0.1995001    0.1504544  71.37  0.000467359    1.124    0.110
       139  -9.3442     44.0138    182.5980   1.1462393258e+02   3.4114423671e+01    0.2642859   0.08297372  64.49  0.001096541    3.846    0.740
       140  -9.9868    107.9565    181.0372   1.0157962934e+02   2.5873707837e+01    0.1756863    0.1396486  58.87 0.0003673955    1.052    0.049
       141  -9.6044    131.3974    179.2285   9.6732239664e+01   2.2449840135e+01    0.1504588    0.1125757 -76.98 0.0007649906    1.699    0.411
       142 -12.2445     31.8836    176.8047   1.1672612317e+02   3.6466628050e+01     0.267337    0.2252763 -55.83  0.001013434    1.742    0.426
       143 -10.3310     92.0578    177.5480   1.0439611468e+02   2.8831117391e+01     0.185892    0.1576029 -76.53 0.0006175591    1.336    0.252
       144  -9.0730      4.0285    178.7917   1.2239060664e+02   3.8720022005e+01    0.1175284   0.06471727  40.86            0    1.581    0.368
       145 -10.0391     46.3031    177.0724   1.1378577936e+02   3.4851921693e+01    0.2008887    0.1196775  50.60 0.0001833308    1.310    0.237
       146 -10.1367     55.6208    180.8017   1.1215144526e+02   3.3089553307e+01    0.1969117    0.1396707  59.99 0.0007823726    1.062    0.059
       147 -12.1010     78.3978    173.4796   1.0679757153e+02   3.1477473759e+01    0.3954984    0.2135848  69.10  0.001242095    1.974    0.493
       148  -9.4131     24.0302    176.4462   1.1830543805e+02   3.7322438739e+01    0.1430352   0.08382505  43.43 0.0002826765    1.462    0.316
       149  -9.2313     17.4890    175.0134   1.1956411731e+02   3.8208915400e+01    0.1243764   0.07302852 -58.73 0.0008058235    2.298    0.565
       150  -9.6462     63.0398    171.0182   1.0980243411e+02   3.3953058449e+01    0.1761814    0.1319952  60.31 0.0004477855    1.044    0.042
       151  -9.8437     43.3174    170.1943   1.1392249324e+02   3.6458570656e+01    0.2433043    0.1769328   8.86  0.001233913    2.508    0.601
       152 -10.1386    122.1361    168.8624   9.7159925064e+01   2.5644446502e+01    0.3268082    0.2454242 -20.54  0.001888718    2.193    0.544
       153  -9.2425      4.7330    168.6962   1.2191177893e+02   4.0498849842e+01    0.1341046   0.06997228  48.30  0.000202195    1.478    0.323
       154  -9.4055      3.0000    165.9753   1.2217392493e+02   4.1147926767e+01    0.1431927   0.08825044 -74.13 0.0005651729    1.692    0.409
       155  -9.8542     53.2597    166.8454   1.1153581784e+02   3.5937647098e+01    0.1845375    0.1522351   1.27 0.0008161621    2.091    0.522
       156 -10.4251     46.6070    166.3451   1.1293246461e+02   3.6811404785e+01      0.27658    0.1339342  49.01 0.0006990588    1.637    0.389
       157 -10.5929     24.5070    162.9581   1.1748273924e+02   3.9798085609e+01    0.1857762    0.1338378  50.41 0.0003704479    1.241    0.194
       158  -9.9825     75.3746    162.1029   1.0625618342e+02   3.3991029006e+01    0.1781474    0.1517098  49.68 0.0009026585    1.222    0.182
       159  -9.8800    140.0486    160.9137   9.2338507043e+01   2.3890973616e+01    0.1915037    0.1570763  48.65 0.0004339914    1.032    0.031
       160 -11.0665     37.5316    159.4811   1.1440434325e+02   3.9137982411e+01    0.5661169    0.1426531  48.19  0.002555555    2.891    0.654
       161 -10.6263     30.2157    154.4381   1.1568796434e+02   4.0889881626e+01    0.3284032    0.1511387  49.19  0.001625116    1.738    0.425
       162  -9.4323     66.1061    158.1560   1.0789729462e+02   3.5990840358e+01    0.1723535    0.1098521  60.40 0.0004787484    1.328    0.247
       163 -10.4501    113.0671    153.8085   9.6900267903e+01   2.9774916797e+01    0.2125278    0.1740054  59.36 0.0006239868    1.054    0.051
       164  -9.1329     72.4805    154.4081   1.0605128993e+02   3.5864824118e+01    0.1211488   0.09815791  64.68 0.0001316776    1.022    0.022
       165  -9.1353    107.8990    152.9520   9.7905049269e+01   3.0788906570e+01    0.1517363    0.1226289  53.56 0.0004101218    1.068    0.064
       166  -9.4547     45.8805    151.6550   1.1188634228e+02   3.9756036995e+01    0.1570821    0.1163416  62.84 0.0003439919    1.085    0.079
       167  -8.8664     85.7376    150.2621   1.0251621605e+02   3.4777414802e+01     0.121379   0.08080139  68.03 0.0006819785    1.450    0.310
       168  -9.0447     20.3038    149.6901   1.1764159839e+02   4.2792409479e+01    0.1190138   0.06008238  63.47   0.00035484    1.609    0.379
       169 -10.9529      5.6309    147.7762   1.2089343164e+02   4.4437847489e+01    0.2411002    0.1139929  54.92  0.001508393    1.633    0.388
       170  -9.2054     27.6493    147.7454   1.1581599387e+02   4.2482276837e+01   0.09389065   0.08578333 -47.25 0.0002207724    1.598    0.374
       171 -10.9879     13.5635    143.1582   1.1882948160e+02   4.4706412470e+01    0.2490836    0.1619202  61.32 0.0008197994    1.210    0.174
       172  -9.6018      4.8495    142.8682   1.2085414354e+02   4.5479259143e+01    0.1506198    0.1167428  86.22 0.0003388616    1.170    0.146
       173  -9.7172     40.7350    138.6859   1.1194331573e+02   4.2980113484e+01    0.2494579   0.08952656  52.19  0.001158747    2.459    0.593
       174 -10.3099     34.4858    138.1680   1.1343578509e+02   4.3755189396e+01    0.3173193    0.1723443  59.29  0.001862774    1.583    0.368
       175 -10.5268    236.0491    137.3075   7.0781136389e+01   9.2087842140e+00     0.177201    0.1457109  28.84 0.0007965445    1.114    0.102
       176  -9.4622     49.8002    136.4139   1.0946986725e+02   4.2420282532e+01    0.1502272    0.1143908  24.57   0.00093774    1.728    0.421
       177  -8.8552     76.2848    133.2663   1.0245943493e+02   3.9587185468e+01    0.1079383    0.1009535 -23.66 0.0006894349    1.493    0.330
       178 -10.8806     41.0130    131.6988   1.1119881686e+02   4.4419243989e+01    0.3067504    0.2702813  -9.42 0.0007718997    1.746    0.427
       179 -12.6077     28.2862    131.9537   1.1446123833e+02   4.5682992010e+01    0.2838153     0.201544  61.97 0.0005841068    1.178    0.151
       180  -9.7793      7.9907    133.3306   1.1962991316e+02   4.7178133122e+01     0.153216    0.1202544  69.83 0.0007091973    1.090    0.083
       181  -8.9976    105.0176    132.7755   9.5365493028e+01   3.5127433195e+01    0.1672416   0.09970285  45.33 0.0008403063    1.537    0.350
       182  -9.3635     61.8706    131.1622   1.0580928581e+02   4.2020775887e+01    0.1507045    0.1369184 -74.12 0.0003260824    1.261    0.207
       183 -10.0879     17.9616    130.7585   1.1698413587e+02   4.6887935869e+01    0.2235297     0.129896 -84.16 0.0003217048    1.453    0.312
       184  -9.6756     33.6649    129.6285   1.1288350594e+02   4.5639795990e+01    0.1562366    0.1270967 -51.76 0.0005467492    1.597    0.374
       185  -9.2865      3.2899    130.6596   1.2065249185e+02   4.8090706350e+01    0.1193253   0.05834526  64.89 0.0006231797    1.646    0.392
       186  -9.9114     77.8325    129.0345   1.0145243307e+02   4.0243205891e+01    0.2673953    0.1566562  50.46  0.001414377    1.559    0.359
       187  -9.5068     88.5354    127.4753   9.8506683189e+01   3.8926885800e+01    0.1855462    0.1232363  32.82 0.0001018008    1.740    0.425
       188 -10.0912     91.6762    125.9908   9.7470638888e+01   3.8729404855e+01    0.2503547    0.1782856  70.33 0.0007034742    1.424    0.298
       189  -9.9999     21.0807    126.2989   1.1585733550e+02   4.7557991403e+01    0.1828568    0.1314863 -78.72  0.000310846    1.272    0.214
       190  -9.3964     30.0667    125.6914   1.1345791445e+02   4.6844371559e+01    0.1557203    0.1281724  74.87 0.0006725097    1.070    0.066
       191 -10.9266      2.3182    124.1031   1.2056755354e+02   4.9531003356e+01     0.301809    0.1669018 -78.77   0.00115511    1.539    0.350
       192 -10.5128      6.3723    122.1215   1.1940829300e+02   4.9654457309e+01    0.3313882    0.1168282  68.43  0.001565902    2.678    0.627
       193 -11.0853      9.2454    118.1309   1.1839826130e+02   5.0291570964e+01    0.2524744    0.1710732 -58.94 0.0006899121    1.676    0.403
       194 -10.9620     69.2872    123.0309   1.0276358632e+02   4.2748919859e+01     0.214424    0.1715059  51.83 0.0002685866    1.202    0.168
       195 -10.5165    237.1524    121.2864   6.7241624372e+01   1.0797553589e+01    0.2147213     0.141908  28.64  0.001193587    1.449    0.310
       196  -9.3552    123.2919    121.0118   8.8816734270e+01   3.4107678245e+01     0.179983    0.1656626  83.85 0.0003255861    1.073    0.068
       197 -10.5507     15.5907    115.9068   1.1651491139e+02   5.0271337300e+01     0.398875    0.1908723  83.16  0.002163673    1.870    0.465
       198 -11.5255     21.6177    119.8514   1.1519487486e+02   4.8898250719e+01     0.644245    0.3171279  58.13  0.003609232    1.814    0.449
       199 -10.2236     19.2415    114.0558   1.1535382359e+02   5.0370370021e+01    0.2614793    0.1348229 -76.29 0.0008261637    1.642    0.391
       200 -11.4139     19.4776    110.0373   1.1493306159e+02   5.1235859945e+01    0.4452258    0.2571657 -26.88  0.002176343    3.551    0.718
       201 -10.0182     92.9753    119.1079   9.5930556147e+01   3.9947576130e+01     0.204359     0.191861  71.44  0.001282917    1.113    0.101
       202 -11.1275     55.2820    117.9943   1.0580267728e+02   4.5706089333e+01    0.2211225    0.1656809  47.13 0.0004234704    1.317    0.240
       203 -10.4219     49.5755    117.5432   1.0730798063e+02   4.6503322502e+01    0.2520252    0.1715657  72.22 0.0005700539    1.357    0.263
       204  -9.9650    239.3090    117.3338   6.6063273832e+01   1.0832817817e+01    0.1364602    0.0870708  16.22 0.0004858237    1.673    0.402
       205 -10.6882      5.6429    115.2185   1.1918499419e+02   5.1186147332e+01    0.2387499    0.1432554 -70.91 0.0007992759    1.536    0.349
       206 -10.9687      4.6088    110.6852   1.1918341239e+02   5.2241250278e+01    0.2657954    0.1682578 -61.31  0.001724881    1.673    0.402
       207  -9.4817    108.7625    114.7695   9.1073321979e+01   3.8078580646e+01    0.1897258    0.1501194  76.54 0.0005959908    1.318    0.241
       208 -10.0617     34.2647    114.8881   1.1123915184e+02   4.8781026596e+01    0.2257491    0.1305027  60.11  0.001283627    1.598    0.374
       209  -9.8962     47.9588    111.4995   1.0695670549e+02   4.8032937899e+01    0.1726519    0.1167374  40.67  0.000435009    1.521    0.342
       210  -9.4826     45.2202    108.9960   1.0740140311e+02   4.8909824541e+01    0.1741635    0.1219806  82.60 0.0002912334    1.300    0.231
       211 -10.4772     61.2478    113.2570   1.0346594133e+02   4.5977876242e+01    0.3269543    0.1707996 -56.04  0.001361874    1.945    0.486
       212  -9.3494     93.4246    108.4973   9.3774915273e+01   4.2112782120e+01    0.1358132    0.1235861  83.80 0.0002564497    1.019    0.018
       213  -9.1265     84.8353    108.3809   9.6080149936e+01   4.3569348058e+01    0.1827545    0.1274479  31.76 0.0009447804    1.706    0.414
       214  -9.2522     36.6771    108.6944   1.0983592321e+02   4.9910895594e+01    0.1152536   0.08822786 -46.87 0.0004762704    1.641    0.391
       215  -9.6534     63.6303    106.1914   1.0165101928e+02   4.7224810619e+01    0.3595913    0.1834646  85.05  0.001432073    3.065    0.674
       216  -9.0687      8.2945    106.6604   1.1786162263e+02   5.2860553362e+01    0.1234352   0.06537719  66.98 0.0005547387    1.654    0.395
       217 -10.8764     47.5426    102.8862   1.0584757966e+02   5.0016356545e+01    0.4957077    0.1697068 -63.75  0.002073785    2.530    0.605
       218  -9.7190     97.8452    118.8909   9.4643347034e+01   3.9170183311e+01    0.1815322    0.1756518  63.15 0.0003408385    1.169    0.144
       219 -10.0556     36.0982    103.8885   1.0940571162e+02   5.1052039751e+01    0.1852221    0.1361119  74.19            0    1.209    0.173
       220  -9.6712     29.3596    103.4578   1.1136595369e+02   5.1817843145e+01    0.1969513   0.09807324 -76.01 0.0004897919    1.727    0.421
       221  -9.3200    174.8617    102.8970   7.3463839484e+01   2.6428052398e+01    0.1747725    0.1632177 -84.63 0.0009852378    1.208    0.172
       222 -11.0828    141.8798    100.8951   7.9927656700e+01   3.4116204928e+01    0.2190363    0.2100804  54.97 0.0002824109    1.021    0.021
       223 -10.4692      9.0115     99.3304   1.1707808998e+02   5.4434780487e+01    0.2803475    0.1328772  47.69   0.00110903    1.967    0.492
       224  -9.9160      3.8764     98.0224   1.1852785647e+02   5.5076118972e+01    0.1803733    0.1509675  58.09  0.001341159    1.240    0.194
       225 -11.2639     41.8124     98.9296   1.0699574372e+02   5.1567112411e+01    0.2500367    0.2025168  41.53 0.0003304736    1.359    0.264
       226 -11.2229     54.6157     94.3135   1.0228397383e+02   5.1099186482e+01    0.4145146    0.1296139 -61.69  0.001152896    2.780    0.640
       227  -9.9717     31.9591     94.7915   1.0947987520e+02   5.3536311463e+01    0.3014395    0.1382206  78.04  0.001303558    2.762    0.638
       228  -9.9509     23.1119     95.8426   1.1239396437e+02   5.4111326495e+01    0.1782966    0.1302913  74.54            0    1.200    0.167
       229 -10.8604     46.2057     94.1403   1.0488701368e+02   5.2163423050e+01    0.3023334    0.1887172  39.06 0.0009209518    1.686    0.407
       230 -10.2251      1.5588     93.1130   1.1887833179e+02   5.6316444936e+01    0.2345438    0.1049122  85.74 0.0006840162    1.900    0.474
       231  -9.6638     14.3044     93.2872   1.1489025649e+02   5.5406448828e+01    0.1111482   0.07908954 -53.75 0.0002317763    1.565    0.361
       232 -10.3996    104.6107     91.2643   8.6846674120e+01   4.3728739863e+01    0.2595966    0.2234898  70.13 0.0004186579    1.150    0.131
       233  -9.7323     30.8036     84.3672   1.0836287089e+02   5.6045765848e+01    0.2100592    0.1564035 -28.35   0.00111698    1.893    0.472
       234 -11.1505     27.0936     88.2069   1.1015541520e+02   5.5505531320e+01    0.4030479    0.2247166 -64.93  0.001218065    1.561    0.359
       235 -12.1519     21.2247     87.7297   1.1202975855e+02   5.6125477021e+01    0.2277953    0.1880389  74.68 0.0002946839    1.117    0.105
       236  -9.3308     17.4693     91.4620   1.1368936582e+02   5.5576414364e+01    0.1204321   0.09559541  88.15 0.0002465526    1.007    0.007
       237 -10.6072      7.1055     89.6851   1.1684452373e+02   5.6733015439e+01    0.2505709    0.1626022 -82.22 0.0006812131    1.230    0.187
       238  -9.9762    118.0609     90.0113   8.2942520687e+01   4.1295311034e+01    0.2131675    0.2035101  62.88 0.0004317963    1.050    0.048
       239 -10.1547     88.0445     88.2370   9.0807139222e+01   4.7418568463e+01    0.2348797    0.1879245 -62.12 0.0003484138    1.198    0.165
       240 -10.5664    123.6318     86.7812   8.0654414595e+01   4.0763188080e+01    0.2768586     0.237065 -67.14 0.0004660578    1.211    0.175
       241 -10.7704      2.7076     86.9431   1.1803226997e+02   5.7631102645e+01    0.2632604    0.1547669 -81.47  0.001632456    1.344    0.256
       242 -10.6643    155.1358     85.1738   7.2840224172e+01   3.3935500633e+01    0.2290985    0.2266664  35.35 0.0003500482    1.020    0.020
       243 -10.2142     11.0706     86.0910   1.1520427792e+02   5.7278300404e+01    0.3467918    0.1631852  78.91  0.001763999    2.087    0.521
       244 -11.7529     50.2133     83.2792   1.0163674902e+02   5.4179856167e+01    0.3646979    0.2858684   8.92 0.0006576647    1.816    0.449
       245 -10.8015     72.8896     81.4703   9.3818633837e+01   5.1424010547e+01    0.4924669    0.2293847 -49.17  0.002118431    2.144    0.534
       246 -10.0277     20.1245     81.6610   1.1162295420e+02   5.7612111866e+01    0.2091897    0.1396383  85.05 0.0007958487    1.328    0.247
       247  -9.7436     57.4707     81.3017   9.8809375472e+01   5.3701666924e+01    0.2157017    0.1199626  36.13 0.0007921589    1.972    0.493
       248 -10.4956     44.3354     80.2810   1.0304465552e+02   5.5570613532e+01    0.2386958    0.2246546 -14.80 0.0009741141    1.366    0.268
       249  -9.5234     63.8785     86.8660   9.7912094446e+01   5.1549121196e+01    0.1917955    0.1773491 -43.68 0.0006493322    1.274    0.215
       250 -10.8614     18.5725     75.5249   1.1133301475e+02   5.9153199802e+01    0.4615164    0.2322497 -68.63  0.001221125    1.616    0.381
       251 -10.4880     52.8788     75.2034   9.9034941699e+01   5.5702696635e+01     0.245872     0.213288 -40.47  0.000335809    1.334    0.251
       252  -9.6966     29.0094     77.0676   1.0783171782e+02   5.7905610034e+01    0.3840241    0.1459136  34.74  0.001783651    2.707    0.631
       253  -9.3382     29.4736     73.5046   1.0706293364e+02   5.8689828987e+01    0.1952772   0.09425241 -61.28 0.0001884532    1.750    0.429
       254  -9.4368    130.4927     76.0182   7.5878702613e+01   4.1322075221e+01    0.2274912    0.1478715 -35.52  0.001017254    1.626    0.385
       255 -10.8223     63.7534     75.7335   9.5429375056e+01   5.4094516032e+01    0.4016142    0.2203539  48.22  0.001357607    1.935    0.483
       256 -10.2742     93.4227     74.4754   8.5585584915e+01   4.9412136649e+01    0.2299495    0.1773306 -58.50  0.000484294    1.256    0.204
       257  -9.8587     69.3873     74.0623   9.3121278426e+01   5.3628796159e+01    0.1943866    0.1541661 -66.77 0.0005594604    1.163    0.140
       258 -10.4310     42.4767     70.9839   1.0182298524e+02   5.7933342532e+01    0.3077443    0.2018456  69.66  0.001496734    1.733    0.423
       259 -10.1484     45.2029     68.9732   1.0038212096e+02   5.8082673310e+01    0.2506109    0.1563913 -64.96 0.0003216101    1.396    0.284
       260  -9.2053    168.8432     72.3651   6.6357655490e+01   3.2751954145e+01    0.2117472    0.1317369  45.34 0.0003149995    1.622    0.383
       261  -9.0768    138.0060     72.2919   7.2944493187e+01   4.0268102656e+01    0.1771754    0.1337218  53.68 0.0003750179    1.313    0.238
       262 -10.9374     88.8825     70.9349   8.5958135206e+01   5.1013113865e+01    0.4780251    0.2182977 -53.95 0.0006216151    2.169    0.539
       263 -11.2689     79.7340     69.9200   8.8582173087e+01   5.2860877358e+01    0.2287014    0.2136289  81.90 0.0002782795    1.069    0.065
       264 -11.1932     52.5184     69.5856   9.7860894710e+01   5.7037517852e+01    0.2436697    0.2101822 -84.61 0.0001879385    1.079    0.073
       265 -10.0664     56.8703     66.9242   9.5628441080e+01   5.7064454119e+01    0.2910489     0.207476  79.88 0.0008105313    1.654    0.395
       266  -9.1515    205.1412     69.3960   5.9255603881e+01   2.4242702702e+01    0.1784566    0.1413503  78.20 0.0003125228    1.477    0.323
       267  -9.6298     63.9855     69.4627   9.3767575187e+01   5.5477378120e+01    0.1917224    0.1339386  40.32 0.0005846246    1.558    0.358
       268  -9.8861      9.4995     62.5213   1.1292192053e+02   6.2802816424e+01    0.2935084    0.1841905  16.12  0.001455324    2.070    0.517
       269 -11.7260      5.6443     58.4156   1.1389993069e+02   6.3981930210e+01    0.4446721    0.3146763  77.97  0.001315953    1.320    0.242
       270  -9.8957      1.2805     69.3166   1.1690677660e+02   6.1718968416e+01    0.2073525    0.1101293 -65.09  0.000445534    1.578    0.366
       271 -10.3550      1.4017     65.5280   1.1645921929e+02   6.2579725892e+01    0.2116496    0.1238228  83.24 0.0001532634    1.495    0.331
       272 -10.4453      1.5073     62.4364   1.1607042218e+02   6.3282946470e+01     0.238747     0.139925 -69.24 0.0006712563    1.370    0.270
       273 -10.1242    105.9146     66.9760   7.9653907935e+01   4.8479574919e+01    0.2459168    0.2070741  53.13 0.0005460837    1.209    0.173
       274 -10.4819     21.8254     64.4992   1.0837514319e+02   6.1451817702e+01    0.5253527    0.1355909 -67.37  0.001508121    2.926    0.658
       275 -10.3641     17.2851     61.0433   1.0957676914e+02   6.2608674811e+01    0.3717059    0.1763513  63.23  0.001745774    2.649    0.622
       276 -12.7592     23.9709     57.6005   1.0620443764e+02   6.2872964329e+01    0.3141965    0.2632686 -76.73 0.0004299144    1.022    0.021
       277  -9.6767     75.3044     66.0906   8.8949201791e+01   5.4447283744e+01    0.1933991    0.1628587 -60.89 0.0003190699    1.098    0.089
       278  -9.7954     49.0051     65.0021   9.8031726775e+01   5.8533541135e+01    0.1559351    0.1378489 -74.12 0.0003315845    1.018    0.018
       279 -10.6291     31.5319     64.9052   1.0467112648e+02   6.0491757964e+01    0.3209243    0.1886442  27.04   0.00174716    2.043    0.511
       280  -9.5826     15.0473     65.0112   1.1110829871e+02   6.1852468600e+01    0.1868661    0.1217193 -45.77  0.000946329    1.679    0.404
       281  -9.4030    203.3730     63.7673   5.7936857478e+01   2.5420597438e+01    0.2998134    0.1648517 -75.54 0.0009654289    3.973    0.748
       282 -10.8229     71.3503     60.4990   8.8641194543e+01   5.6321539681e+01     0.448946    0.2455332  50.94  0.001696456    2.054    0.513
       283  -9.3191     98.4745     60.5807   7.9784575216e+01   5.1305490548e+01    0.1432061    0.1380046 -69.10 6.954653e-05    1.013    0.013
       284 -10.5467     38.8955     57.3080   1.0003802176e+02   6.1485022924e+01    0.3693923    0.1966517 -71.26  0.001789547    1.802    0.445
       285 -11.9273     42.1267     51.7678   9.7242258112e+01   6.2379458607e+01    0.5329576    0.3118951 -33.30  0.001232966    2.294    0.564
       286  -9.2585    238.4515     58.5138   5.1867794190e+01   1.7767366637e+01    0.1374251    0.1239637 -13.92 7.983987e-05    1.010    0.010
       287 -10.3509     53.1613     55.4543   9.3864836095e+01   6.0156298890e+01    0.4299476    0.2397778  86.50  0.001551939    3.923    0.745
       288  -9.7441    118.3650     55.6475   7.2445647072e+01   4.7918540774e+01    0.3031997    0.1887522 -15.35 0.0007752874    2.508    0.601
       289 -10.3766    151.1970     53.2960   6.3892547409e+01   4.0251549573e+01    0.2914782    0.2381015 -25.19  0.001106109    1.259    0.206
       290  -9.9171     93.1580     54.5642   7.9386596843e+01   5.3590737692e+01    0.3369986    0.2121918 -30.58  0.000942744    1.889    0.471
       291 -11.0250     94.3595     49.5711   7.7222802617e+01   5.4332956985e+01     0.428741    0.2859726  33.53  0.000992715    1.804    0.446
       292  -9.7771     28.8816     53.1402   1.0316761526e+02   6.3463308447e+01     0.188474    0.1502244  85.08 0.0007752564    1.266    0.210
       293  -9.1316     13.6888     53.3146   1.0970832241e+02   6.4655048208e+01    0.1222065   0.07953175  71.98 0.0005371232    1.635    0.388
       294 -10.3797    122.6589     51.8474   6.9986374587e+01   4.7595596099e+01    0.3593344    0.2512492  53.48  0.001221756    1.443    0.307
       295 -10.1730     60.8109     51.9752   8.9828737730e+01   5.9833647995e+01    0.2102365    0.1932455  55.34  0.000533728    1.188    0.158
       296  -9.6313     23.5309     46.7040   1.0396554410e+02   6.5419647740e+01    0.4117812    0.1794146  34.74  0.002029049    2.543    0.607
       297 -11.0599     17.2884     46.8937   1.0683588905e+02   6.5876442497e+01    0.2665097    0.2588933  85.07 0.0004711257    1.206    0.171
       298 -12.7796     12.4096     44.0574   1.0847586929e+02   6.6871510183e+01    0.6731536    0.2348159 -49.38 0.0005894671    2.631    0.620
       299 -11.5151     14.0697     39.6959   1.0671643149e+02   6.7754496023e+01     0.224575    0.2018591 -33.58 0.0005225214    1.280    0.219
       300 -12.0202     13.7364     36.0094   1.0598544186e+02   6.8614172846e+01    0.2412525    0.1980851 -61.75 0.0003598756    1.056    0.053
       301 -10.7782     65.6753     49.2502   8.7063737488e+01   5.9666610094e+01    0.3082471    0.2100832 -38.86 0.0008633636    1.514    0.339
       302 -10.0493     67.2175     44.5842   8.4818235391e+01   6.0398171204e+01    0.2521343    0.1922536  -2.83 0.0008597414    1.866    0.464
       303  -9.8579     31.7409     47.8608   1.0060336502e+02   6.4394063684e+01    0.1753075    0.1485269 -54.19 0.0009008044    1.118    0.106
       304 -10.1253    114.7138     46.8124   7.0241655468e+01   5.0362634174e+01    0.2463677    0.1933963 -26.08 0.0004476588    1.343    0.255
       305  -9.0403    165.0196     46.0346   5.8759927051e+01   3.7738494909e+01    0.1807404    0.1722868 -28.98  0.000320226    1.045    0.043
       306 -11.2174     62.1052     44.4953   8.6768946405e+01   6.1240964811e+01    0.3116681    0.2302297 -47.48 0.0004437354    1.232    0.188
       307  -9.2658    122.8576     45.3865   6.7579842554e+01   4.8668129405e+01    0.2127117    0.1364539  44.51 0.0004431151    1.630    0.386
       308 -10.1131    199.9769     43.2882   5.2378157266e+01   2.8898473973e+01    0.2458128     0.203725 -21.82 0.0004498062    1.178    0.151
       309  -9.0964    192.5058     44.4869   5.3797585594e+01   3.0689995161e+01    0.1480089    0.1445573  -7.30  0.000810429    1.021    0.021
       310 -10.3621     31.6358     58.7954   1.0332596858e+02   6.1896253238e+01    0.2547832    0.1769551  55.29  0.001490553    1.593    0.372
       311 -10.1422     33.3484     43.6920   9.8719196975e+01   6.5172743422e+01    0.2275638    0.1858541 -89.64 0.0008925628    1.287    0.223
       312 -11.8460    103.6058     39.0767   7.0365711874e+01   5.4280598877e+01    0.3714055     0.252761 -35.32 0.0004173694    1.434    0.303
       313  -9.1874     53.1121     42.8108   8.9816730428e+01   6.2940583873e+01    0.1714057    0.1408116 -36.10 0.0002999822    1.251    0.200
       314 -10.4350     20.6243     40.7186   1.0381058695e+02   6.7026200786e+01    0.3196076    0.2281032   2.90  0.001943895    1.874    0.466
       315 -10.4966     38.9859     40.2795   9.5105494229e+01   6.5311785785e+01    0.3592942    0.2277026  -6.40  0.001700875    2.722    0.633
       316 -11.1315      4.9798     38.7835   1.1096859827e+02   6.8523942786e+01    0.4541813    0.3057583  48.25  0.002903677    1.715    0.417
       317  -9.9108      4.8349     32.2650   1.0968138387e+02   7.0010400009e+01    0.3179421    0.1221489 -44.07  0.001235465    2.596    0.615
       318  -9.6932     91.7535     40.6054   7.4620852198e+01   5.6580577784e+01    0.1970162    0.1397616  62.07 0.0004426066    1.618    0.382
       319  -9.7277     82.3234     39.0363   7.7146079485e+01   5.8779507987e+01    0.2029871    0.1659279 -44.45 0.0005001283    1.148    0.129
       320 -10.0754    118.1042     38.6463   6.6210159447e+01   5.0949988343e+01    0.3184923    0.1429561  56.93 0.0008493075    2.282    0.562
       321  -9.3037     96.8879     38.6410   7.2207935669e+01   5.5846798860e+01    0.1952945    0.1381754  66.41 0.0005147987    1.674    0.403
       322 -10.3324     85.9900     37.1630   7.5122649712e+01   5.8403881791e+01     0.235582    0.1907988 -39.23 0.0003118873    1.167    0.143
       323 -11.5758    156.1475     36.6188   5.7110263404e+01   4.1432771190e+01    0.3475379    0.2635876 -54.66   0.00028951    1.413    0.292
       324 -10.3695    208.4818     35.5719   4.8948962577e+01   2.7619225176e+01    0.3438728    0.2194784  13.17  0.001495611    2.011    0.503
       325 -12.3126    194.0169     35.1407   5.0649966012e+01   3.1444496068e+01    0.2864882    0.2837162  -6.22 0.0003746134    1.026    0.025
       326  -9.6806    198.9688     34.9618   4.9944338406e+01   3.0160246695e+01    0.2789202    0.1894301  41.72 0.0006526015    1.585    0.369
       327  -9.7583    175.9823     35.9794   5.3527262840e+01   3.6168211134e+01    0.2588731    0.1742094 -59.08  0.001134052    1.700    0.412
       328 -10.0873    136.0180     35.9797   6.0913522752e+01   4.6854641400e+01    0.2266889    0.2213597  20.82 0.0003050209    1.041    0.039
       329 -11.0040    129.2537     35.5159   6.2254030547e+01   4.8666695662e+01    0.4597404    0.2897385  78.48  0.001898106    2.051    0.513
       330 -11.0799     75.1975     34.1329   7.7664187245e+01   6.1074030520e+01    0.5192721    0.3483219   8.48  0.001604775    2.520    0.603
       331  -9.8856     60.7824     32.9421   8.2807616919e+01   6.3824921419e+01    0.2704692     0.173149 -45.99 0.0008428102    1.405    0.288
       332  -9.9131     58.2888     35.2943   8.4813564026e+01   6.3747522063e+01    0.2113143    0.1877467  11.92 0.0005463326    1.297    0.229
       333 -10.6791     55.0197     33.2667   8.5379247466e+01   6.4662487895e+01    0.2385798    0.1956746 -54.32  0.000279649    1.130    0.115
       334 -10.0545     40.3264     35.0545   9.2681581646e+01   6.6290863594e+01    0.1776131    0.1416244 -56.69 0.0002561079    1.088    0.081
       335 -11.0241    142.5460     31.9461   5.7999718054e+01   4.5721152780e+01    0.5699839    0.2527442 -26.80  0.002081971    2.291    0.563
       336  -9.3312     47.7853     34.3675   8.9005558609e+01   6.5475044249e+01    0.1568765    0.1254576  15.07 0.0004038535    1.536    0.349
       337 -10.3546    117.9776     32.9548   6.3956251471e+01   5.1894108434e+01    0.2206574     0.215427 -62.84 0.0003334666    1.044    0.042
       338 -10.0489     88.0219     32.5409   7.2485385631e+01   5.8825413039e+01    0.2914107    0.2465054  19.23  0.001576492    1.338    0.253
       339  -9.4186     66.5575     33.0450   8.0509446298e+01   6.2837476552e+01    0.2089122    0.1242413 -44.38 0.0005007767    1.532    0.347
       340  -9.8898    233.0736     32.0006   4.5255357697e+01   2.1892497045e+01    0.2059387    0.1894408 -32.57 0.0003772531    1.016    0.015
       341 -10.6710    104.9961     20.9920   6.2169832236e+01   5.6864926098e+01    0.2250738    0.2134971 -85.84            0    1.143    0.125
       342 -10.2655    109.0540     21.6592   6.1394631323e+01   5.5784163335e+01    0.3753085    0.2402926  -6.13 0.0008701121    2.004    0.501
       343  -9.7630     35.2140     31.8261   9.3943635930e+01   6.7585625447e+01    0.3364557    0.1967845  49.84  0.001738431    2.172    0.540
       344 -10.1146     31.8143     28.8114   9.4519088540e+01   6.8609212327e+01    0.2742501    0.2033421   5.46  0.001629606    1.746    0.427
       345 -10.9038    159.0393     30.1394   5.4254465872e+01   4.1517833199e+01    0.2627493    0.2146798 -33.49  0.001302302    1.209    0.173
       346 -10.3860     24.5452     30.5361   9.8858843017e+01   6.8963001417e+01    0.3061317    0.1913674 -70.43  0.001419005    1.519    0.342
       347 -10.9409    220.9554     28.8093   4.5557598107e+01   2.5194684173e+01    0.4016028    0.2029115 -46.01  0.001702263    1.980    0.495
       348 -10.5773    211.4935     28.6435   4.6515232599e+01   2.7613713159e+01    0.3771808    0.2343806  25.90  0.000848092    2.024    0.506
       349 -10.3354     19.1174     29.0929   1.0123613883e+02   6.9754392328e+01    0.2035641    0.1611402 -63.80 0.0005150288    1.058    0.055
       350 -11.4642     18.4510     23.9093   9.9872887181e+01   7.0945154585e+01    0.2737419    0.1747504 -61.84 0.0006443887    1.294    0.227
       351 -10.2845    181.6987     28.0740   5.0024186679e+01   3.5588738658e+01    0.3481603    0.2414423 -17.50  0.001127101    1.487    0.328
       352 -10.5543     71.3767     28.3949   7.6583390547e+01   6.2857091912e+01    0.3010914    0.2144102 -55.61  0.001551047    1.508    0.337
       353  -9.7603    190.9453     28.6919   4.8986697863e+01   3.3018040315e+01    0.2637848   0.06633712  48.40 0.0007039405    4.364    0.771
       354 -11.7377     48.6348     26.6547   8.5431677041e+01   6.6938940047e+01    0.3721112     0.281112  77.57  0.002018333    1.936    0.484
       355 -10.7361    165.4822     26.4450   5.1858886506e+01   4.0219403322e+01    0.4177247    0.2416214 -87.74   0.00160344    2.330    0.571
       356  -9.3284     99.8341     27.1789   6.6430917037e+01   5.7136189796e+01    0.2029694    0.1696738  12.98 0.0005571764    1.341    0.254
       357  -9.0803    139.6771     26.2600   5.6362444668e+01   4.7263561178e+01    0.1535376    0.1153565 -68.06 0.0002819746    1.552    0.356
       358  -9.3413    137.4378    248.4597   1.0318001933e+02   1.2429235330e+01    0.1016827    0.0684793  45.68 8.492591e-05    1.043    0.041
       359  -9.1740     78.2433    248.6202   1.1258175494e+02   1.9980424132e+01   0.09678572   0.05060763  62.16 0.0003116242    1.638    0.390
       360 -11.5656    201.8062    244.5424   9.2929108128e+01   4.0028889031e+00    0.2176994    0.1275828  33.99 0.0002639689    1.178    0.151
       361 -10.4914     63.2349     22.9427   7.7282434247e+01   6.5320679665e+01     0.456846     0.216886  41.45  0.001899702    2.338    0.572
       362 -11.2155    227.9238     22.6895   4.3117979212e+01   2.4090451187e+01    0.2897637    0.2024961  62.09  0.001401762    1.508    0.337
       363 -10.3138    192.8350     17.1518   4.4991803564e+01   3.3764670134e+01    0.2325096    0.2092157  86.50 0.0003397681    1.126    0.112
       364 -10.0381    187.7635     22.9872   4.7521722030e+01   3.4519049221e+01     0.225341    0.2213643  77.49 0.0003214538    1.034    0.033
       365  -9.8500    190.1627     20.1680   4.6294536662e+01   3.4173297438e+01    0.2226603     0.196203  37.82 0.0002989174    1.197    0.165
       366 -10.1677    169.9122     23.4886   5.0127376783e+01   3.9353301599e+01    0.2248912     0.149244  68.34 0.0003743106    1.510    0.338
       367 -10.2947    153.6988     23.0651   5.2540879596e+01   4.3867919667e+01    0.2730823    0.2141824  54.33 0.0002713364    1.260    0.207
       368 -10.4344    123.4695     22.2014   5.8129972802e+01   5.2077367024e+01    0.4927018    0.2781634 -69.15  0.001749555    2.994    0.666
       369 -10.2940     26.6593     21.7676   9.4493465625e+01   7.0646187855e+01    0.3207067    0.1867577 -34.36 0.0009927814    1.863    0.463
       370 -10.9365    176.0372     21.6336   4.8603096402e+01   3.7878274852e+01     0.418369    0.1695641  47.20  0.001457221    2.628    0.619
       371 -10.5391    132.3011     21.6569   5.5992398739e+01   4.9835430030e+01    0.2732558    0.2295943 -64.22  0.001319945    1.297    0.229
       372  -8.9767     90.2782     22.2921   6.7100843048e+01   6.0063298681e+01    0.1405399    0.1091116  10.73 0.0006941332    1.526    0.345
       373 -10.0126     40.8239     21.6201   8.6946177289e+01   6.9021147762e+01    0.2519411     0.181288  51.80 0.0008321775    1.744    0.427
       374 -10.0424     36.6930     21.3794   8.8950376702e+01   6.9596842400e+01    0.2191673    0.1860627 -20.20 0.0007033243    1.252    0.201
       375  -9.0073    187.3051    245.3116   9.5176831866e+01   5.9195643337e+00   0.09931977   0.05916584  24.25 0.0003844072    1.615    0.381
       376  -9.7492     97.4883    244.9972   1.0927224119e+02   1.8074357341e+01     0.114782   0.09341355 -83.79 0.0008493309    1.572    0.364
       377 -10.5439     73.2131    244.4067   1.1314376194e+02   2.1125561758e+01    0.1712081     0.129987  65.55 0.0006615329    1.225    0.184
       378 -10.5365    169.7359     14.1687   4.6807492202e+01   4.0435027806e+01     0.298953    0.1982505  54.95 0.0008183484    1.486    0.327
       379 -10.6061    219.2420     19.2375   4.2920291871e+01   2.6605691451e+01    0.2572497    0.1313769 -54.18   0.00106182    2.138    0.532
       380 -10.4398    198.9368     18.7067   4.4815306666e+01   3.1961337613e+01    0.2096759    0.1973918 -81.98   0.00116909    1.070    0.065
       381 -12.0869    107.6354     28.9947   6.5014813443e+01   5.5023295833e+01     0.477089    0.3396324 -28.67 0.0005877638    1.393    0.282
       382  -9.8104     61.3869     17.8806   7.5537595712e+01   6.6548100210e+01    0.2139252    0.1761641  26.19   0.00040248    1.333    0.250
       383 -11.4254     76.0381    241.1240   1.1249563593e+02   2.1224049328e+01    0.2808483    0.1356255  58.38 0.0006112253    1.647    0.393
       384 -10.0446     65.4582     18.9627   7.4399332854e+01   6.5629834379e+01    0.2635374    0.1698048 -32.39 -1.106155e-05    1.474    0.322
       385 -10.2751     62.8150    243.2537   1.1475329646e+02   2.2489541384e+01    0.1497794   0.09219659  64.46 0.0006333766    1.304    0.233
       386 -10.3524     46.4120     17.7362   8.2301009593e+01   6.8996370344e+01    0.3438762    0.2295277  64.07  0.001724664    2.377    0.579
       387  -9.2365     92.7893     17.3934   6.3959045290e+01   6.0248222832e+01    0.2052286    0.1277317  44.12 0.0009474885    1.663    0.399
       388 -10.6689    145.9522    242.6781   1.0131069099e+02   1.1903093789e+01    0.1444296   0.09418795  43.44 0.0005239903    1.055    0.053
       389  -9.6219    112.5144     15.5058   5.7713679358e+01   5.5765349496e+01    0.2986145    0.1896277  21.39  0.001235965    2.025    0.506
       390  -9.4453    185.6754    242.3312   9.5096516053e+01   6.4180083077e+00   0.09510902   0.06567224  55.13 0.0004762606    1.704    0.413
       391  -9.2397     26.4146     12.4702   9.0470081138e+01   7.2578098947e+01    0.1237591    0.1020827 -46.11 5.403887e-05    1.024    0.023
       392  -9.1200     23.3018     15.6871   9.3820515479e+01   7.2248842059e+01    0.2096899   0.09522634 -65.06  0.000936517    2.451    0.592
       393  -9.1384     22.9748     12.2757   9.2444044354e+01   7.2977198268e+01    0.1957821    0.1161688  16.85 0.0005268628    2.186    0.542
       394 -10.8398    110.0505    240.6467   1.0691606549e+02   1.6995549615e+01    0.2654997     0.151018  68.18  0.001817682    2.061    0.515
       395  -9.5946    154.9355     13.6693   4.8740330481e+01   4.4609960623e+01    0.2111642    0.1900061  77.03 0.0005141633    1.111    0.100
       396 -10.2199     91.7231    242.1767   1.1001117549e+02   1.9159133123e+01    0.1715378   0.09103113  49.97 0.0005312506    1.285    0.222
       397  -9.4952    127.5537     14.5191   5.3933505730e+01   5.1989195118e+01    0.1474655    0.1452545  12.05 0.0001111793    1.005    0.005
       398 -10.0145     89.0898     13.8109   6.3301655920e+01   6.1603291104e+01    0.1998324    0.1889284 -69.98 0.0002834869    1.185    0.156
       399 -10.0363    179.5032     13.5031   4.5324625140e+01   3.7792016949e+01    0.1482301    0.1445392 -63.07 1.012058e-05    1.001    0.001
       400  -9.8898     55.1856    241.3793   1.1588810982e+02   2.3606717536e+01    0.1666344   0.08539365  73.14 0.0009004649    1.864    0.464
       401 -10.8450    246.7741    239.9225   8.5960719244e+01  -1.6055142698e+00    0.1845979    0.1080571   2.23  0.001420361    1.742    0.426
       402  -9.4106     51.3956     13.2113   7.7533503459e+01   6.9052214443e+01    0.1875887    0.1120707 -49.24 0.0009398522    1.673    0.402
       403 -10.2512    134.1625    241.0502   1.0304424937e+02   1.3706083655e+01    0.1448792    0.1076193  35.63 0.0004320969    1.252    0.201
       404 -10.2225     33.7007    239.6684   1.1926238940e+02   2.6144822370e+01    0.1530557    0.1399364  87.02 0.0007264377    1.642    0.391
       405  -9.4352     32.2647     12.5607   8.7121046392e+01   7.1886989532e+01    0.1548906    0.1192603   9.57 0.0009447296    1.550    0.355
       406  -9.5270    197.9318    240.4853   9.3039379864e+01   4.8858275150e+00    0.1530656   0.07129293  40.99   0.00045961    1.509    0.337
       407 -10.2756    138.0054    239.9873   1.0232932293e+02   1.3299994283e+01    0.1560316    0.1059907  49.62 0.0004935904    1.152    0.132
       408 -11.0649    143.2150    237.8032   1.0128474484e+02   1.2825697996e+01    0.4426873    0.1087922  43.90  0.002088967    2.808    0.644
       409  -9.9716    119.4880    240.6832   1.0538416158e+02   1.5737722822e+01    0.1756526   0.06667473  41.74 0.0004312351    1.833    0.454
       410  -9.9364     96.0967    238.6304   1.0904895757e+02   1.9063088309e+01    0.1639082   0.08144321  49.57  0.000449966    1.396    0.284
       411  -9.6986    167.8735    238.0893   9.7386989462e+01   9.3269663387e+00    0.1517825    0.1097968  49.26 0.0008504351    1.281    0.219
       412  -9.5464     84.1115    238.0392   1.1098090528e+02   2.0650471937e+01    0.1654574   0.07948942  57.33 0.0008136095    1.680    0.405
       413  -9.6904     63.0929    237.8128   1.1442214791e+02   2.3199319839e+01    0.1453446    0.0864571  58.71  0.001139518    1.216    0.178
       414 -10.5925    100.9796    236.9615   1.0812160698e+02   1.8649249729e+01    0.1378357    0.1114528  25.49  0.001123932    1.645    0.392
       415 -10.1209     93.6181    234.2594   1.0914423358e+02   1.9955171127e+01     0.149703   0.09307512 -78.86 0.0006268686    2.049    0.512
       416  -9.3766    156.6619    233.7213   9.8709169105e+01   1.1382949226e+01    0.1124178   0.09634604 -79.69  0.000574623    1.711    0.416
       417 -11.3394     18.0462    232.8413   1.2154692721e+02   2.8672491814e+01    0.2201853    0.1541327  45.67  0.001958829    1.344    0.256
       418  -9.0752    197.4893    233.4884   9.2283425746e+01   5.5767489838e+00    0.1045178   0.07323781  34.88 0.0001650872    1.031    0.030
       419 -10.5506    143.8006    232.2497   1.0064681472e+02   1.3380521648e+01    0.4132394    0.1176198  40.39  0.002008739    2.587    0.613
       420 -10.8490     41.2726    231.4686   1.1770818734e+02   2.6525341586e+01    0.2827716    0.1225192  71.15  0.001490384    2.135    0.532
       421 -10.7895     29.4036    230.9520   1.1964170570e+02   2.7832789508e+01    0.1775575    0.1213944  70.02 0.0005673184    1.199    0.166
       422  -9.7424    243.9591    231.2769   8.5223394542e+01  -6.2929676271e-01    0.1390351   0.09108849  28.91 0.0004078104    1.068    0.063
       423  -9.3839    159.5576    230.5518   9.7905937542e+01   1.1316256393e+01    0.1064897    0.0756287  42.16 -3.447661e-05    1.032    0.031
       424 -11.4695     47.0162    230.7639   1.1672382758e+02   2.6007185704e+01     0.334093    0.1337438  53.62  0.001238011    1.690    0.408
       425 -10.7405     73.1867    226.2709   1.1205176092e+02   2.3625213361e+01     0.317257    0.1265432  56.26  0.001298082    2.029    0.507
       426 -10.0188     93.6379    227.8987   1.0866971795e+02   2.0812728506e+01     0.163059   0.08875514 -55.36  0.001101457    2.578    0.612
       427  -9.7727    230.3991    233.1033   8.7376475844e+01   1.0455304719e+00    0.1730111   0.09476309  30.69 0.0005036574    1.296    0.229
       428  -9.6769    175.1908    227.0880   9.5003732340e+01   9.4169133637e+00    0.1357011    0.1057324  52.93  0.001058729    1.380    0.276
       429 -10.1889    109.4943    225.6718   1.0578151223e+02   1.8998986765e+01    0.2792134    0.1482999  64.09  0.001126503    2.090    0.522
       430  -9.2554    153.4908    226.4385   9.8453008863e+01   1.2659641302e+01    0.1085005   0.07705569  43.90  7.16615e-05    1.045    0.043
       431  -9.4899    164.5019    225.5216   9.6548240382e+01   1.1152395747e+01    0.1085396   0.07795735  40.37  0.000123981    1.009    0.009
       432  -9.9244    125.0663    224.1669   1.0298687956e+02   1.7030141164e+01    0.1606767    0.1176797  34.02 0.0007942228    1.346    0.257
       433  -9.3152    110.0242    220.9866   1.0528030211e+02   1.9559108403e+01    0.1467866    0.1070033  51.03 0.0003570306    1.021    0.020
       434  -9.6535     38.7790    223.4576   1.1777804151e+02   2.7974919426e+01    0.1191955     0.078316  37.03 0.0006769054    1.571    0.363
       435  -9.1824     78.4340    222.4214   1.1088935949e+02   2.3531108815e+01    0.1064242   0.07077772  55.50 7.695435e-05    1.075    0.070
       436 -11.3516     83.9966    220.7053   1.0979692948e+02   2.3074166106e+01     0.158659    0.1243896  67.55 0.0003491174    1.191    0.161
       437  -9.2232     54.2536    221.0357   1.1500263803e+02   2.6635441547e+01    0.1099116   0.07508545  89.73 0.0004377189    1.514    0.340
       438 -10.2335    228.7733    220.0473   8.5877214279e+01   2.3177571875e+00    0.1696581    0.1093794  35.07 0.0002890814    1.171    0.146
       439  -8.7362    183.3100    219.6904   9.2812993593e+01   8.9923739009e+00    0.1000369   0.07285796  56.88 0.0006538176    1.621    0.383
       440 -10.1796    136.3092    217.8346   1.0042713536e+02   1.6222052788e+01    0.2442534    0.1811757  17.91  0.001723232    1.779    0.438
       441 -10.3462     15.4163    217.6105   1.2152840219e+02   3.1211308396e+01    0.2449826    0.1708942 -37.76   0.00169001    3.497    0.714
       442 -10.7623     96.1918    217.8300   1.0742977899e+02   2.1887346590e+01    0.2081325    0.1245098  40.59 0.0005345669    1.376    0.273
       443 -11.4415     89.7112    216.7612   1.0848900177e+02   2.2904227534e+01    0.5169884    0.1465814  47.74  0.002460165    2.506    0.601
       444  -9.5978     47.0406    218.1734   1.1610510115e+02   2.7881819043e+01    0.1361868    0.1040632  24.57   0.00105011    1.923    0.480
       445  -9.7827     39.0801    218.0965   1.1748570478e+02   2.8759366351e+01    0.1317713    0.1133833  58.88 0.0008640009    1.383    0.277
       446  -9.2878    175.7469    217.0132   9.3705677323e+01   1.0415925240e+01    0.1074594   0.09452365 -26.34 0.0002932066    1.497    0.332
       447 -10.5584     73.0386    215.9816   1.1139155760e+02   2.5156900881e+01    0.1599776     0.126083  76.02 0.0003387063    1.253    0.202
       448  -9.6089     24.2510    217.0395   1.2000163028e+02   3.0447172039e+01    0.1347428   0.09153249  67.97 0.0003844172    1.128    0.113
       449  -9.3668     58.3092    215.9631   1.1400325809e+02   2.6937390828e+01    0.1368413   0.09740821  59.53 0.0004439943    1.040    0.038
       450 -10.0208     31.7469    216.0183   1.1866732038e+02   2.9849961717e+01    0.1322505   0.09133756  62.85 0.0002630336    1.058    0.055
