#   1 NUMBER                 Running object number                                     
#   2 MAG_AUTO               Kron-like elliptical aperture magnitude                    [mag]
#   3 X_IMAGE                Object position along x                                    [pixel]
#   4 Y_IMAGE                Object position along y                                    [pixel]
#   5 X_WORLD                Barycenter position along world x axis                     [deg]
#   6 Y_WORLD                Barycenter position along world y axis                     [deg]
#   7 A_WORLD                Profile RMS along major axis (world units)                 [deg]
#   8 B_WORLD                Profile RMS along minor axis (world units)                 [deg]
#   9 THETA_WORLD            Position angle (CCW/world-x)                               [deg]
#  10 FWHM_WORLD             FWHM assuming a gaussian core                              [deg]
#  11 ELONGATION             A_IMAGE/B_IMAGE                                           
#  12 ELLIPTICITY            1 - B_IMAGE/A_IMAGE                                       
         1 -14.0186      6.7929     14.3494   2.9195438238e+02   7.5780551522e+00    0.1531052    0.0600952 -54.49   0.01241285    2.505    0.601
         2 -13.6968    203.0321      9.8751   2.8947653285e+02   6.5088101016e+00   0.07196034   0.04241147 -13.60  0.001486305    2.411    0.585
         3 -14.4466    198.1841     16.8218   2.8957492879e+02   6.4560785887e+00    0.1401816   0.07644071 -32.24   0.01012122    2.379    0.580
         4 -10.1076     74.7501    243.1867   2.9234331240e+02   4.5303365315e+00    0.0235536   0.01580861 -73.88  0.002391637    1.689    0.408
         5 -10.3314    205.2507    249.9999   2.9075464780e+02   3.7063464339e+00  0.009264654   0.00919808  63.84 0.0008167311    1.071    0.066
         6  -9.4622    184.0141    250.4988   2.9102166571e+02   3.8219587792e+00  0.009505718  0.005651846  -9.53 0.0003979629    2.331    0.571
         7 -11.1871    142.9931    244.6183   2.9150066908e+02   4.1246551556e+00   0.02433707   0.01080709  26.14  0.002047136    2.070    0.517
         8 -11.5769    146.1083    240.6526   2.9144041803e+02   4.1529948287e+00   0.01653444   0.01225074  34.86 0.0004372598    1.263    0.209
         9 -10.5047    143.4066    249.2046   2.9152031629e+02   4.0689522414e+00   0.01697521   0.01223319  62.98  0.001040993    1.616    0.381
        10 -11.4856    150.4348    248.0678   2.9142663067e+02   4.0420510665e+00   0.02792237   0.01512652  30.39  0.002437483    1.676    0.403
        11 -11.3086    133.6935    249.5516   2.9164318061e+02   4.1203493286e+00   0.03681981   0.01091772  34.62  0.002648495    2.826    0.646
        12 -10.1249    122.8486    250.0676   2.9178107134e+02   4.1762146706e+00   0.01404018   0.01304512  69.60  0.001549077    1.152    0.132
        13  -9.9511    126.8963    249.3110   2.9172655589e+02   4.1619268896e+00   0.01597069  0.009739745  39.99 0.0009833814    1.568    0.362
        14 -10.7132    121.4579    244.8046   2.9176996351e+02   4.2453685029e+00    0.0234806   0.01047718  46.82  0.001860308    2.470    0.595
        15 -12.4067    126.3422    240.9657   2.9168836251e+02   4.2621639963e+00   0.02606718   0.02419869 -80.73  0.001833572    1.167    0.143
        16 -10.1262     92.4810    231.6749   2.9206017362e+02   4.5633078175e+00   0.01663068  0.009196993 -61.20  0.001556849    1.873    0.466
        17  -9.7489     93.6486    217.0033   2.9196637261e+02   4.7273624443e+00   0.01513977   0.01020136 -86.21  0.001315775    1.848    0.459
        18 -12.4007    111.6139    248.4785   2.9191246311e+02   4.2587643069e+00    0.0607994   0.02723499  36.25  0.005201851    2.025    0.506
        19 -11.6367     99.5792    247.6380   2.9205788567e+02   4.3371367970e+00   0.03517447   0.02029569  40.01  0.003364494    1.656    0.396
        20 -11.8907     99.2975    223.1863   2.9192934963e+02   4.6232277543e+00   0.02972705   0.01713171  23.07 0.0008808358    1.648    0.393
        21 -10.5503    110.3921    222.3330   2.9178643282e+02   4.5699020926e+00   0.01718514   0.01238978 -42.80 0.0008773134    1.476    0.322
        22 -10.8465    105.1132    219.1351   2.9183495630e+02   4.6372090151e+00   0.01679645   0.01224388  70.90 0.0003811698    1.660    0.398
        23 -11.1759     81.2172    246.5424   2.9228080686e+02   4.4544737459e+00   0.03123148   0.01883128 -84.07  0.002286788    2.169    0.539
        24 -10.4465     87.3757    250.5846   2.9222586123e+02   4.3723745231e+00   0.03066633  0.009602291  19.90  0.001732195    3.673    0.728
        25 -11.1420     88.0236    247.0267   2.9219859202e+02   4.4100791276e+00   0.01870876   0.01428963   2.68  0.001533442    1.392    0.282
        26 -10.5332     83.6050    242.2349   2.9222780812e+02   4.4909970530e+00   0.02380912   0.01405582 -14.32  0.002055122    2.382    0.580
        27 -11.1581     90.0018    236.1752   2.9211537276e+02   4.5250702160e+00   0.02543234   0.01388991  39.20  0.002367557    1.733    0.423
        28  -9.8189     83.5120    238.4418   2.9220849991e+02   4.5356614272e+00   0.01720952   0.01093591  23.82  0.001542968    1.482    0.325
        29  -9.2259     86.3152    237.2809   2.9216729408e+02   4.5332037076e+00   0.01051851   0.01001859  80.52 0.0002529803    1.128    0.113
        30  -9.5184     74.8146    250.5885   2.9238242313e+02   4.4438446497e+00   0.01376988  0.006569897  19.27   0.00114891    2.144    0.534
        31 -13.4841     45.7033    247.0076   2.9272597113e+02   4.6510936242e+00   0.06182473   0.04404888  12.20  0.004800463    1.432    0.302
        32 -12.8297     42.1645    236.9964   2.9271616461e+02   4.7877089492e+00   0.03492221   0.01965577  32.70  0.000957934    1.620    0.383
        33 -13.1390     47.1989    228.4542   2.9260736188e+02   4.8585037557e+00   0.03257269    0.0247282 -10.54 0.0009412389    1.479    0.324
        34 -14.9558     55.8038    216.3253   2.9243464870e+02   4.9507201456e+00    0.1599341    0.1370696 -68.76   0.01864158    1.255    0.203
        35  -9.3502    199.2754    245.4486   2.9080435554e+02   3.7934238099e+00  0.009971618   0.00576621  36.52 0.0009409914    1.605    0.377
        36 -10.6440     92.6829    226.1346   2.9202773722e+02   4.6266196779e+00   0.03273403   0.01045552  40.14  0.002338164    2.955    0.662
        37 -10.7540    152.4713    243.7223   2.9137776328e+02   4.0809613385e+00   0.01761952   0.01076875  76.15  0.001562857    2.356    0.576
        38 -12.4024    248.8536    239.9624   2.9015783084e+02   3.5734838002e+00   0.02851317   0.02513777 -41.36    0.0033646    1.189    0.159
        39 -10.6586    165.7752    241.7626   2.9120146849e+02   4.0277633675e+00   0.01791502   0.01177472   1.00  0.000988379    1.780    0.438
        40 -12.1380    136.1587    227.8576   2.9149517162e+02   4.3586211440e+00   0.03094134   0.01397249 -48.65  0.002608272    2.318    0.569
        41 -12.2518    132.4520    224.0656   2.9152085091e+02   4.4238888243e+00   0.03001493   0.01950255 -82.18  0.002932221    1.895    0.472
        42 -11.4819    135.5652    241.2805   2.9157515432e+02   4.2058736248e+00   0.02231414   0.01582362  -6.50   0.00172617    1.638    0.389
        43 -12.0763    135.1997    236.9341   2.9155620798e+02   4.2585162872e+00   0.02470951   0.01546406 -61.39  0.001596016    1.670    0.401
        44  -9.1739    158.1636    241.8388   2.9129667704e+02   4.0703576716e+00  0.009429253  0.007692162 -27.61 0.0004207814    1.323    0.244
        45 -10.8020    173.3634    240.0908   2.9109792573e+02   4.0038452275e+00   0.01614822   0.01205275  87.91  0.000952078    1.616    0.381
        46 -10.5465    115.8342    240.1647   2.9181496813e+02   4.3314176393e+00   0.01258273   0.01111213  64.83 0.0009313078    1.219    0.180
        47  -9.5396    224.3373    237.3125   2.9044839437e+02   3.7446195004e+00  0.007203219   0.00502662 -23.00 6.622044e-05    1.690    0.408
        48 -11.8396     96.3565    239.3011   2.9205304264e+02   4.4524957494e+00   0.03303221    0.0212681  49.94  0.002721497    1.654    0.396
        49 -10.7699    104.6410    238.0021   2.9194277626e+02   4.4203949183e+00   0.02207975   0.01550606  37.33  0.002185433    1.343    0.256
        50 -10.8009    165.9883    235.5049   2.9116494465e+02   4.0993155216e+00   0.01352943  0.009791878  87.11  0.001390563    1.701    0.412
        51 -11.1212     98.5353    231.5616   2.9198409258e+02   4.5301263148e+00   0.02177567   0.01854497 -88.01  0.001649735    1.317    0.241
        52 -11.7504    111.2727    230.3682   2.9181888333e+02   4.4713988358e+00   0.02848924   0.02296239  14.31   0.00157747    1.214    0.176
        53  -9.7182    104.2226    229.4240   2.9190165526e+02   4.5225797959e+00   0.01657254   0.00929084  37.64  0.001262346    1.666    0.400
        54 -11.7083    245.1552    232.6627   2.9016421652e+02   3.6794755547e+00   0.02666896   0.01174106  47.35  0.002111892    2.555    0.609
        55 -11.5562    121.7687    232.9675   2.9170212183e+02   4.3812958408e+00   0.01721746   0.01477502  20.48  0.001057975    1.103    0.093
        56 -15.0919     12.1042    207.3943   2.9293161480e+02   5.3029258315e+00    0.1724611   0.09692889 -55.75   0.01644527    1.816    0.449
        57 -11.4943    141.9576    230.0615   2.9143483759e+02   4.2998797767e+00   0.02417718   0.01287256 -54.00  0.001660318    1.913    0.477
        58 -10.5610     84.4685    230.4771   2.9215359029e+02   4.6228882079e+00   0.01633281   0.01481053  46.67 0.0009237516    1.107    0.097
        59 -10.2741     73.3111    230.1832   2.9229110424e+02   4.6898378496e+00   0.02698619   0.01389042  33.50  0.002461699    1.760    0.432
        60 -10.1686    180.9612    229.6468   2.9094675760e+02   4.0818587637e+00  0.009702619  0.008442125  23.04 0.0006859053    1.080    0.074
        61 -10.1300     79.5471    229.2233   2.9220817732e+02   4.6655041952e+00   0.01137155  0.006972896 -72.78 0.0007094197    1.863    0.463
        62 -11.1495    165.3879    227.2322   2.9112763599e+02   4.1989513042e+00   0.01877912   0.01277753  88.51  0.001279994    1.875    0.467
        63 -10.9568    156.8192    231.6196   2.9125812060e+02   4.1968843548e+00   0.01340682   0.01163405  52.13 0.0003978931    1.186    0.157
        64 -10.0237    190.9271    228.1000   2.9081428630e+02   4.0428560736e+00   0.01009929  0.009315552  30.41 0.0003076953    1.029    0.028
        65  -9.0980    184.6602    228.6668   2.9089538905e+02   4.0721037811e+00  0.007325617  0.004987479 -24.54 0.0007051535    1.749    0.428
        66  -9.6461    150.8961    229.7806   2.9132195464e+02   4.2521049470e+00   0.01438082  0.008049154  41.62  0.001337622    1.738    0.425
        67 -10.8538    117.1112    224.4270   2.9171399961e+02   4.5072187276e+00   0.01734408   0.01222904   6.72 0.0006983483    1.520    0.342
        68 -13.3125     14.0664    239.0872   2.9307774074e+02   4.9229358966e+00    0.0273045    0.0164342  17.84   0.00104726    1.663    0.399
        69  -8.8814    220.3642    223.5029   2.9042293928e+02   3.9278640311e+00   0.00664679  0.006338964  43.87 0.0007939592    1.062    0.058
        70  -9.6603    155.8016    223.5749   2.9122725273e+02   4.2962585750e+00   0.00961223  0.005747387  37.16 0.0003215623    1.562    0.360
        71 -10.3887    149.9788    222.4793   2.9129386792e+02   4.3422641880e+00   0.01203621  0.009902805 -57.73 1.894775e-05    1.278    0.218
        72  -9.4510    149.5691    218.5304   2.9127759631e+02   4.3905330742e+00   0.01228144  0.008651253  46.74 9.495568e-05    1.441    0.306
        73 -12.7259    131.8382    211.6432   2.9146129070e+02   4.5718947224e+00   0.02250889   0.01854263 -49.48 0.0005722688    1.270    0.213
        74 -10.6098    141.6756    212.7884   2.9134487932e+02   4.5024045604e+00   0.02196642    0.0132842  22.94  0.001345585    1.570    0.363
        75 -12.1700    142.1301    220.9901   2.9138360544e+02   4.4044096649e+00   0.02265757   0.01849479 -69.23 0.0009866311    1.324    0.245
        76 -10.3068    137.2175    214.7752   2.9141119353e+02   4.5047513742e+00    0.0136224   0.01112094  65.83 0.0009677756    1.366    0.268
        77  -9.8765    164.3500    220.6405   2.9110486903e+02   4.2815409154e+00   0.01429807  0.008659868 -29.00 0.0008727312    2.061    0.515
        78 -10.0058    177.2703    219.9978   2.9094045116e+02   4.2151580502e+00  0.009527589  0.009443362  -9.14  0.001178488    1.062    0.058
        79 -10.6554    246.2616    218.9812   2.9007620186e+02   3.8321095491e+00   0.01294547  0.008914708   2.76  0.001293862    1.629    0.386
        80  -9.7953     89.1404    219.2187   2.9203455041e+02   4.7272737324e+00   0.01227119  0.008751909 -37.06 0.0008630762    1.533    0.348
        81 -10.9493     88.2098    213.0991   2.9201309742e+02   4.8037807421e+00   0.01592022   0.01316797 -31.98 0.0004236095    1.291    0.225
        82  -9.5275    182.9922    213.9907   2.9083663238e+02   4.2522872609e+00  0.008137383  0.007742804  22.67  0.000390835    1.015    0.015
        83 -10.5606    102.1361    212.2339   2.9183477164e+02   4.7344753708e+00   0.02108091   0.01359066  38.73  0.001772133    1.471    0.320
        84  -9.3886    152.1549    211.9021   2.9120948792e+02   4.4528541955e+00    0.0104456  0.008812538  53.87 0.0005571637    1.235    0.190
        85  -8.7481    109.3046    210.6398   2.9173677450e+02   4.7121454289e+00  0.007304389  0.004904788  58.51 0.0007038894    1.727    0.421
        86  -9.0570    197.8119    208.1572   2.9062044691e+02   4.2353292443e+00  0.008955733  0.007575692 -11.62 0.0003117666    1.254    0.203
        87 -10.5177    174.6306    206.2922   2.9089905994e+02   4.3896258177e+00   0.01816961   0.01137238 -34.90  0.001248482    1.851    0.460
        88 -11.8198     93.2003    205.0684   2.9190746697e+02   4.8687836639e+00   0.03529192   0.01741933  33.39  0.001596288    1.827    0.453
        89 -11.7950    247.4165    205.4117   2.8998815791e+02   3.9831618448e+00   0.02349865   0.01784165 -12.02   0.00251082    1.485    0.327
        90 -10.0904    126.0363    205.8645   2.9150234364e+02   4.6722360195e+00   0.01066636  0.008619018  47.29 0.0004524114    1.247    0.198
        91  -9.8342    122.9596    200.9917   2.9151433056e+02   4.7464821562e+00   0.01255769  0.007196922  24.40  0.001052382    1.639    0.390
        92 -10.4770    115.2804    200.0944   2.9160522435e+02   4.8007418605e+00    0.0141069  0.009940444 -46.08 0.0009819083    1.494    0.331
        93  -9.9909    149.6844    204.3156   2.9119918939e+02   4.5552062485e+00   0.01493037   0.01028215 -27.98 0.0009715936    1.689    0.408
        94 -10.6963    103.3469    203.2232   2.9177095670e+02   4.8324090393e+00   0.01727135   0.01285766  32.06  0.001173012    1.249    0.199
        95 -10.1869    100.5725    198.2215   2.9177850773e+02   4.9064217743e+00    0.0134246   0.01138613 -19.28 0.0008873377    1.257    0.205
        96 -10.3286     99.2340    194.8506   2.9177697033e+02   4.9532720700e+00   0.02210256   0.01199937 -24.03  0.001399066    2.717    0.632
        97  -9.4957    224.8934    202.6651   2.9025349945e+02   4.1441206895e+00  0.009609785  0.007967322  30.23 0.0003772557    1.127    0.113
        98 -10.4206    166.9599    203.2285   2.9097802379e+02   4.4691125744e+00   0.01021629   0.00878249  -7.43  0.000307353    1.215    0.177
        99 -10.2450    169.8448    200.3591   2.9092652658e+02   4.4859860988e+00   0.01166982   0.01077856 -14.42 0.0003286371    1.113    0.102
       100  -9.8910    133.0484    202.9364   2.9139908137e+02   4.6662666639e+00   0.01125228  0.009807796 -42.42 0.0003169588    1.203    0.169
       101 -10.9811    134.1147    197.7952   2.9135795298e+02   4.7199825011e+00   0.01606951   0.01238689  79.79 0.0002717767    1.545    0.353
       102 -10.7502    197.2792    200.8288   2.9058733068e+02   4.3235763487e+00   0.01822756   0.01171153  41.22  0.001654984    1.506    0.336
       103  -8.5720    179.6931    200.7384   2.9080588554e+02   4.4252507820e+00  0.006776173  0.005065871 -18.66  0.000190604    1.525    0.344
       104 -10.0415     86.0913    197.7397   2.9195651950e+02   4.9945669381e+00   0.02335645  0.009556779 -65.36 0.0007837277    2.617    0.618
       105 -10.3012     83.3054    193.3992   2.9196780947e+02   5.0609440558e+00   0.02165601   0.01201593  -2.04 0.0007466414    2.562    0.610
       106  -9.7138    192.0660    198.0138   2.9063698842e+02   4.3861398159e+00   0.01004182  0.009415563  34.54            0    1.038    0.037
       107  -8.6888    149.6965    198.7418   2.9116884657e+02   4.6199655224e+00  0.006740862  0.005062962 -18.40 -0.0001541599    1.513    0.339
       108 -10.2335     52.7060    198.0792   2.9237483132e+02   5.1806746684e+00   0.01319026  0.009869341  20.95 0.0007261296    1.273    0.214
       109  -9.8047     75.4235    203.5560   2.9212100987e+02   4.9876548127e+00   0.01934884   0.01140477  10.87  0.001782981    1.879    0.468
       110 -12.0708     71.0731    194.3331   2.9212545469e+02   5.1197453030e+00   0.02989104   0.01533033 -50.78  0.002703902    2.006    0.502
       111 -11.9637     75.7849    187.8989   2.9203190079e+02   5.1677822511e+00    0.0170272   0.01481596 -17.66 0.0008668577    1.211    0.174
       112  -9.8807    113.1771    195.6987   2.9160766774e+02   4.8638801793e+00   0.01590111  0.008024437  43.09   0.00139606    1.976    0.494
       113 -10.0423    112.9879    192.0214   2.9159012934e+02   4.9077405278e+00   0.01154036  0.009731153 -38.23  0.001316765    1.251    0.200
       114  -9.2611    107.2171    195.9382   2.9168328961e+02   4.8950935101e+00   0.01068582  0.008872974  54.96 0.0007787562    1.266    0.210
       115 -10.4242    159.5953    194.1176   2.9102041851e+02   4.6171717082e+00   0.01715243   0.01110339  46.92  0.001037312    1.586    0.370
       116 -11.0992    120.4722    194.0002   2.9150750642e+02   4.8420116489e+00    0.0203423   0.01491422  34.06  0.002190146    1.273    0.214
       117 -10.7621     38.6907    192.7339   2.9252085836e+02   5.3225657655e+00     0.017162   0.01136739 -48.73  0.001749111    1.577    0.366
       118 -14.5253     27.3123    247.9649   2.9296037423e+02   4.7444324437e+00    0.0787221   0.05686503  11.36   0.00634955    1.416    0.294
       119 -10.0678    173.1460    192.3701   2.9084208194e+02   4.5600076865e+00   0.01723022  0.009560502 -38.02  0.001002959    2.114    0.527
       120  -9.8532    249.5378    193.3356   2.8989617091e+02   4.1113166187e+00   0.01197329  0.008129819  -5.38  0.001167994    1.761    0.432
       121  -9.7439     47.2631    192.9371   2.9241498824e+02   5.2714678926e+00   0.01005024  0.008435332 -31.21    0.0004755    1.267    0.211
       122 -10.4955    191.3802    191.5288   2.9061034967e+02   4.4654626345e+00   0.01423275   0.01251822  -4.63 0.0006787979    1.169    0.145
       123  -9.2275    178.1715    193.6746   2.9078653942e+02   4.5160929227e+00   0.01551736  0.008278038  -9.82  0.001164916    3.112    0.679
       124  -9.8371    135.6161    189.9494   2.9129674559e+02   4.8026696877e+00   0.01227783  0.009598098 -22.66 0.0009679149    1.416    0.294
       125 -11.0246    249.8616    187.6532   2.8986126598e+02   4.1754821486e+00   0.02001589    0.0114854 -53.22  0.001912862    1.787    0.441
       126  -9.1170     42.4983    189.4059   2.9245538515e+02   5.3396518076e+00   0.01010598  0.008950743  80.88 0.0004658634    1.249    0.200
       127  -9.4376     46.3003    187.7381   2.9239893758e+02   5.3374448645e+00   0.01963151    0.0101082   7.64  0.001592325    2.497    0.600
       128 -10.4323     72.3809    237.0638   2.9233982017e+02   4.6150689876e+00   0.02751186   0.01490113  68.98  0.002172721    2.977    0.664
       129 -10.1472    175.8765    186.9601   2.9077871848e+02   4.6072967422e+00   0.01010313  0.009612828  27.75 0.0003783401    1.022    0.021
       130 -10.5450    222.8311    244.7139   2.9050726099e+02   3.6672195781e+00   0.01134746  0.008590283  -2.75  0.001201461    1.451    0.311
       131  -8.7430    160.9851    185.7413   2.9095769048e+02   4.7066383998e+00  0.008583119  0.005629491  23.91 0.0002629063    1.435    0.303
       132  -9.3650    154.5111    185.0678   2.9103473638e+02   4.7514842812e+00   0.01006939  0.006838222 -65.02 0.0008418883    1.571    0.364
       133 -11.3806    135.2758    179.8335   2.9124618882e+02   4.9222789196e+00   0.01998873   0.01941112  79.62  0.002472127    1.100    0.091
       134 -10.3587    143.3170    184.7051   2.9117232098e+02   4.8196770723e+00   0.01110041  0.009881238  70.83 0.0005441348    1.224    0.183
       135 -10.3007    140.0617    183.1063   2.9120424583e+02   4.8568713694e+00   0.01177493    0.0108405  68.88 0.0003943789    1.165    0.141
       136  -9.2542     37.9953    184.4394   2.9248477555e+02   5.4230440654e+00   0.01047653  0.006368983  24.23  0.000660242    1.546    0.353
       137  -9.6796    217.2280    183.1878   2.9024317001e+02   4.4144112770e+00  0.009596813   0.00896809  -3.63 0.0004227503    1.079    0.073
       138 -12.9920    248.2683    174.1613   2.8980775788e+02   4.3413751033e+00   0.05642809   0.03084439 -73.19  0.005091733    2.165    0.538
       139 -11.6819    249.2315    149.6269   2.8966234501e+02   4.6208811248e+00   0.03707743   0.02041196 -68.31  0.002920562    2.008    0.502
       140 -11.9056    240.1221    151.0095   2.8978325335e+02   4.6570895779e+00   0.03287676   0.02155277 -16.54   0.00314592    1.921    0.479
       141 -11.8733    245.3125    162.3790   2.8978048075e+02   4.4952193950e+00    0.0210178   0.01869868  75.56  0.002059795    1.235    0.191
       142 -11.5505    247.9092    141.4821   2.8963448848e+02   4.7230847252e+00   0.04560667   0.01904177  14.67  0.003327761    2.993    0.666
       143 -12.4640    248.3630    134.3706   2.8959013709e+02   4.8030860827e+00   0.04451923    0.0405126  65.16  0.005066576    1.173    0.147
       144  -9.8613     65.9929    182.0079   2.9212224407e+02   5.2920860814e+00    0.0100257  0.009261462  17.94            0    1.028    0.028
       145  -9.8451     87.0267    183.5818   2.9186830275e+02   5.1539689519e+00   0.02187921   0.01037723  18.82  0.001828173    2.182    0.542
       146  -9.4011    114.8129    180.0036   2.9150231356e+02   5.0371344546e+00   0.01254216  0.008461932  72.29            0    1.909    0.476
       147  -9.6652    115.2766    176.6674   2.9147846560e+02   5.0732989173e+00   0.01369499  0.009734149  65.13 0.0008927441    1.676    0.403
       148 -10.5086    104.2173    180.7304   2.9163841664e+02   5.0891319632e+00   0.01124906   0.01077008  28.00 0.0002896865    1.027    0.026
       149 -10.4272    236.3712    145.9618   2.8980249332e+02   4.7372552540e+00   0.02550679   0.01145166  12.01  0.001903909    2.894    0.654
       150 -10.0416    175.5284    179.9277   2.9074490927e+02   4.6910603536e+00   0.01493193  0.008974753  18.38  0.001103718    1.658    0.397
       151  -9.3641     48.1872    179.8587   2.9233284429e+02   5.4184064772e+00   0.01008209  0.008338906  39.74 0.0005070825    1.166    0.142
       152 -11.6770     11.1318    178.7905   2.9278960184e+02   5.6413371422e+00   0.03665571  0.009730821  34.72  0.002528431    3.078    0.675
       153 -10.7253    181.9234    177.4301   2.9065166734e+02   4.6835072068e+00   0.01635361   0.01291577  23.39  0.001819103    1.191    0.160
       154 -11.8139     84.8345    176.0371   2.9185484887e+02   5.2542436455e+00   0.02363737   0.01841179  43.90  0.001310319    1.267    0.211
       155 -10.4853     30.3213    177.4967   2.9254308639e+02   5.5474417203e+00   0.03071765  0.007534628  33.41  0.001998734    3.221    0.690
       156  -9.8235    109.0633    176.3241   2.9155411290e+02   5.1127487269e+00   0.01223887   0.01008866 -86.06 0.0007164143    1.374    0.272
       157  -9.2787     95.4464    175.8547   2.9172145314e+02   5.1958754001e+00    0.0111167  0.008976662  -4.85 0.0007062909    1.324    0.245
       158  -9.9778     77.1771    175.7466   2.9194883055e+02   5.3012526820e+00   0.01006314  0.009188949  77.31 0.0005137434    1.192    0.161
       159 -12.4248     71.1502    174.2836   2.9201613176e+02   5.3526009051e+00   0.01923318    0.0149474   3.81 0.0007836247    1.349    0.259
       160 -11.1098     68.9454    167.8027   2.9200860563e+02   5.4405625822e+00   0.01893354   0.01151936 -56.11 0.0008138644    1.689    0.408
       161  -9.4765    154.1217    173.0567   2.9097446911e+02   4.8933962127e+00   0.01534762  0.007430956 -35.75  0.001211389    2.725    0.633
       162  -8.7353     42.2569    174.3489   2.9237710806e+02   5.5162411631e+00  0.006983384  0.004925219 -31.64 0.0005030482    1.599    0.374
       163 -11.4712     11.4658    172.4168   2.9275106069e+02   5.7136151841e+00   0.01679367   0.01400327  20.16  0.001921324    1.138    0.121
       164 -10.3894    129.0826    179.4855   2.9132153545e+02   4.9616989345e+00   0.01224118   0.01069235  73.68 -7.768124e-06    1.265    0.210
       165 -10.9978     80.7174    163.4370   2.9183806060e+02   5.4243012200e+00   0.01292773   0.01201169  32.17 0.0002262191    1.032    0.031
       166 -10.1814     91.1613    172.7711   2.9175823361e+02   5.2561818712e+00   0.01424983   0.01017877 -27.57 0.0009325838    1.600    0.375
       167 -12.5838     90.2102    167.1052   2.9173943977e+02   5.3275218572e+00   0.03560799   0.03192205  -7.84    0.0028316    1.146    0.127
       168 -10.0718     84.9720    165.2290   2.9179465704e+02   5.3792072806e+00   0.01334006   0.01019701  39.42 0.0003138471    1.254    0.203
       169 -15.5994      6.1872    244.8172   2.9320678615e+02   4.9009469054e+00    0.1525961   0.07816922 -52.35   0.01388756    1.992    0.498
       170 -10.9454      2.0624    168.5967   2.9284786043e+02   5.8114126444e+00   0.01656283  0.009090981  87.27  0.001327508    2.910    0.656
       171  -9.2014    183.5288    171.5001   2.9059948021e+02   4.7432642837e+00  0.006818548  0.006419597  14.73 -2.89682e-05    1.025    0.024
       172  -8.8172    132.9698    171.0221   2.9122719780e+02   5.0379407123e+00  0.008257336  0.007576483  24.05 0.0004140776    1.022    0.021
       173  -9.1883    100.6241    170.7727   2.9162934622e+02   5.2254724246e+00  0.009012314  0.006640364 -83.50 0.0009361704    1.594    0.373
       174  -9.1374     31.5226    171.5912   2.9249621476e+02   5.6093393620e+00  0.006816978  0.006308491  19.85 9.817896e-05    1.021    0.020
       175  -9.0729    167.0304    169.9808   2.9079686029e+02   4.8553402181e+00   0.00815569  0.007803567 -63.60 0.0009854739    1.115    0.103
       176 -11.1448     45.0209    169.0587   2.9231403147e+02   5.5620853655e+00   0.02904822   0.01575168  17.32   0.00174932    1.899    0.473
       177 -10.8555     27.7148    169.6051   2.9253302932e+02   5.6540833887e+00   0.01503555  0.009277814  50.73 0.0008779717    1.763    0.433
       178 -11.2590     25.1148    164.3074   2.9253689289e+02   5.7304990354e+00   0.02056917  0.008242271 -61.68  0.001659384    2.525    0.604
       179  -9.6416    107.3169    168.2089   2.9153195979e+02   5.2171185776e+00   0.01127512   0.00873993  12.23  0.000443903    1.288    0.224
       180  -9.5532     58.8520    167.5696   2.9213333245e+02   5.5007326697e+00  0.009770622  0.009219676 -66.95 0.0005463169    1.133    0.117
       181 -11.5560    247.6550    123.1064   2.8953763296e+02   4.9379865109e+00   0.04327157   0.01949402  48.69  0.003443547    2.573    0.611
       182 -12.1713    246.3819    157.3800   2.8973998429e+02   4.5471623384e+00    0.0473396   0.02083472  45.98  0.003808574    2.457    0.593
       183  -9.4962    176.1031    166.3871   2.9066427147e+02   4.8452144788e+00   0.01004753  0.005518162  37.30 0.0003612843    1.694    0.410
       184  -9.3221    136.6709    165.8829   2.9115318152e+02   5.0765704981e+00   0.01099461  0.007277249  65.51  0.001053829    1.890    0.471
       185  -8.9119    124.4379    165.4740   2.9130355091e+02   5.1512025734e+00  0.006803879   0.00638116  29.98 4.374042e-05    1.023    0.022
       186  -9.9553     47.1490    163.3611   2.9225668086e+02   5.6162813485e+00   0.01123971  0.009570877 -69.80  0.001290786    1.267    0.211
       187 -10.7335     37.0858    162.8454   2.9237953331e+02   5.6794964794e+00   0.01072394  0.008585378  47.34  0.000667969    1.260    0.206
       188  -9.6214    123.2816    160.7566   2.9129240999e+02   5.2126762146e+00   0.01180758  0.009992043 -18.31 0.0008782652    1.261    0.207
       189  -8.8496    119.7282    159.2947   2.9132881920e+02   5.2499706921e+00  0.009139002  0.006259219  12.79            0    1.499    0.333
       190 -11.3502     96.1387    159.0522   2.9162186005e+02   5.3874031027e+00   0.01708001   0.01355764 -48.03  0.001906403    1.318    0.241
       191 -11.4452     73.5569    158.7875   2.9190228128e+02   5.5191892495e+00   0.02113336   0.01719563  81.05  0.002360839    1.420    0.296
       192  -9.7255     79.0200    158.9853   2.9183515846e+02   5.4857651954e+00   0.01018435  0.009400804  30.03  0.000382857    1.027    0.027
       193 -11.3269     23.9499    149.4669   2.9247130155e+02   5.9097982478e+00   0.01877396   0.01134035 -59.86  0.001253955    1.714    0.417
       194 -13.1803     25.7237    155.9283   2.9248404717e+02   5.8245409847e+00   0.04800677   0.02532636  24.04  0.004384669    1.787    0.440
       195  -9.2310     52.4940    158.4809   2.9216357305e+02   5.6426611747e+00  0.006832555  0.006404824   7.28 5.628556e-05    1.048    0.046
       196  -9.3911     89.1248    156.8854   2.9169766661e+02   5.4526038959e+00  0.009449726  0.007778933 -17.82            0    1.313    0.238
       197  -8.8321     47.6876    157.6624   2.9221915956e+02   5.6795250191e+00  0.007215033  0.004986309 -26.41 0.0002458966    1.690    0.408
       198  -9.6484    134.4877    155.8978   2.9112627549e+02   5.2051766773e+00   0.01323574  0.008759576 -63.80  0.000759695    1.601    0.376
       199  -9.5810    132.0923    152.3272   2.9113679504e+02   5.2603893912e+00   0.01064277   0.00879207  56.83 0.0003538191    1.287    0.223
       200  -8.7104    228.2479    155.6267   2.8995619560e+02   4.6715520959e+00  0.006942319  0.005005279  64.44 0.0003868385    1.633    0.388
       201 -10.5071     32.9949    153.9771   2.9238270690e+02   5.8059344940e+00   0.01197933   0.01000855 -67.75  0.001365004    1.285    0.222
       202 -10.9126    112.6839    152.4292   2.9137950793e+02   5.3700444707e+00   0.01664183    0.0132882  38.09 0.0005028221    1.195    0.163
       203 -10.8111     13.8865    153.9854   2.9262138247e+02   5.9143570355e+00   0.01177033  0.009805943 -81.16  0.001215157    1.338    0.253
       204 -10.7519    102.4656    151.1883   2.9150030504e+02   5.4427915061e+00   0.01571252   0.01364163  65.93  0.001130293    1.252    0.202
       205  -9.8993    105.1477    146.1076   2.9143930184e+02   5.4865860948e+00   0.01486559   0.01043498 -28.56  0.001513833    1.635    0.388
       206  -9.6971     61.9930    152.6614   2.9201350584e+02   5.6563122733e+00   0.01562725  0.009874431 -79.03  0.001083125    1.914    0.477
       207 -10.0093     90.9731    150.2457   2.9163864407e+02   5.5193061490e+00   0.01046656  0.009836784 -70.11 0.0003934438    1.141    0.123
       208 -11.0820     56.2668    150.3757   2.9207264021e+02   5.7154967231e+00   0.02918782    0.0204905 -46.57  0.001139807    1.497    0.332
       209  -9.3890     52.9966    146.4662   2.9209233159e+02   5.7795897528e+00  0.009889364  0.008443385  27.90 -8.52689e-05    1.095    0.087
       210  -9.0454    134.6810    149.3443   2.9108832311e+02   5.2802881965e+00   0.01298574   0.00904618  69.81   0.00129408    1.784    0.439
       211  -9.7882    134.0000    145.0079   2.9107329739e+02   5.3346097352e+00   0.01622525  0.008184335 -58.36  0.001251496    2.013    0.503
       212 -11.0365    133.2893    140.6058   2.9105828336e+02   5.3898647862e+00   0.02034023    0.0154285 -70.21   0.00143644    1.438    0.305
       213 -10.1430     60.9660    137.6317   2.9194501162e+02   5.8370111369e+00   0.01522156  0.009213964  11.80 0.0009558068    1.785    0.440
       214 -13.2331     67.3693    143.8026   2.9189844587e+02   5.7287652366e+00   0.04365884   0.03195564  79.25  0.004548796    1.682    0.405
       215 -12.1240     74.2391    138.8728   2.9178597701e+02   5.7469831162e+00   0.03455264    0.0255411  62.80  0.002596359    1.554    0.357
       216 -12.4886     32.6061    142.4102   2.9232505870e+02   5.9427251855e+00   0.03367504   0.01810862 -58.35  0.002549957    1.898    0.473
       217 -10.9620     33.5254    136.1639   2.9227981172e+02   6.0101722227e+00   0.01608221  0.009674831  16.45  0.001094453    1.692    0.409
       218  -9.3411    141.6732    147.9996   2.9099380168e+02   5.2559616112e+00   0.01478331  0.008238739 -10.88  0.001179201    2.749    0.636
       219 -11.5897      8.1902    141.3934   2.9262455001e+02   6.0931934070e+00   0.02185069   0.01032544  33.77  0.001914241    1.903    0.474
       220 -11.5345      3.0829    138.7512   2.9267408616e+02   6.1529070958e+00   0.01728027   0.01344436 -86.63 0.0007498746    1.492    0.330
       221 -10.8081     45.7873    143.5077   2.9216636373e+02   5.8550209842e+00   0.01656073   0.01153592  77.10  0.001652163    1.827    0.453
       222 -11.5025     26.6550    140.3717   2.9238837560e+02   6.0002541015e+00   0.01969258   0.01286947 -83.05  0.001923583    1.890    0.471
       223  -9.3436    164.0436    139.6324   2.9066936844e+02   5.2252995132e+00   0.00948481  0.008111222  23.43 0.0005264558    1.098    0.089
       224  -9.4876     53.5336    140.0585   2.9205096378e+02   5.8510817871e+00   0.01114677  0.008714943  48.27 0.0004264872    1.301    0.232
       225 -11.4746     47.7133    138.3507   2.9211441840e+02   5.9040625664e+00   0.03031564   0.01357408   9.45   0.00218436    3.170    0.685
       226 -12.1960     45.9023    131.4595   2.9209976148e+02   5.9945315073e+00   0.03750684   0.02035672  46.89  0.003126236    1.945    0.486
       227  -8.7959    107.6830    135.7323   2.9135141748e+02   5.5927917023e+00    0.0068615  0.005066098 -19.01 0.0002672408    1.554    0.356
       228 -10.0750    119.0027    138.5017   2.9122514907e+02   5.4959532560e+00   0.01700399   0.01132322 -30.50   0.00167891    1.750    0.429
       229 -10.8798    112.7689    136.3117   2.9129107686e+02   5.5570198657e+00   0.02295234   0.01455061  24.04  0.001692759    1.484    0.326
       230 -11.4943      2.2059    144.2703   2.9271483461e+02   6.0936664933e+00   0.02162198   0.01175955 -59.47  0.002020069    1.885    0.469
       231 -10.9129     58.8843    133.4697   2.9194848426e+02   5.8972781675e+00   0.01571805  0.009496448 -60.48 0.0007308921    1.718    0.418
       232 -12.5197      2.1758    112.4262   2.9254322838e+02   6.4642959576e+00    0.0537006    0.0111701 -65.42  0.003060947    5.200    0.808
       233  -9.1039    107.2352    130.2059   2.9132704337e+02   5.6596219780e+00   0.01150853  0.004084988  34.54 0.0005453443    2.444    0.591
       234 -11.2099     66.0802    128.0257   2.9182913501e+02   5.9196343144e+00   0.02247223   0.01602612 -84.80  0.001240396    1.682    0.405
       235 -12.0735     31.6403    126.7469   2.9225244206e+02   6.1304364532e+00   0.02523455   0.01250267  34.12  0.002089766    1.826    0.452
       236 -10.3615    209.7944    125.8640   2.9002420195e+02   5.1232249638e+00   0.01226224   0.01120944 -59.75 0.0005392825    1.161    0.138
       237  -9.3946     85.9561    126.7408   2.9157394517e+02   5.8213181334e+00   0.01327087  0.009223188 -18.75  0.001301401    1.718    0.418
       238  -9.3985     61.0882    125.1377   2.9187585177e+02   5.9816519129e+00   0.00968835  0.007611178  50.33 0.0004057452    1.314    0.239
       239 -11.7830     37.9862    123.7467   2.9215692922e+02   6.1292670292e+00   0.02194047   0.01657755  -3.35  0.002343493    1.457    0.313
       240 -10.9218      9.7873    124.5595   2.9251366971e+02   6.2799780703e+00   0.01758465  0.004131025  33.74 0.0008426096    3.326    0.699
       241  -9.9040    117.8406    128.9413   2.9118779802e+02   5.6137729311e+00   0.01162609  0.006821002 -36.54 0.0009734227    1.992    0.498
       242  -9.6981     50.5884    122.8410   2.9199458198e+02   6.0681277346e+00  0.009334445  0.006638095 -88.28 0.0008112415    1.718    0.418
       243 -11.0096     15.0503    122.9738   2.9243933467e+02   6.2685543005e+00   0.01147179  0.007901565 -25.04  0.001141148    1.708    0.415
       244  -9.1063    143.5134    121.5216   2.9082712219e+02   5.5533170179e+00  0.006938946  0.006289989  40.43 0.0008088824    1.080    0.074
       245 -10.0441    238.9030    121.6280   2.8963855424e+02   5.0054111799e+00   0.01378954  0.008687399 -43.57  0.001351838    1.708    0.415
       246  -8.5393    130.6722    119.2610   2.9097510415e+02   5.6530206594e+00  0.007064662  0.004789365  50.43 0.0002600021    1.564    0.360
       247 -11.9942     31.6253    117.1673   2.9220081497e+02   6.2419563893e+00   0.02205682   0.01673936 -29.04  0.002377088    1.456    0.313
       248 -11.1227    168.1716    113.4184   2.9047545660e+02   5.5063969884e+00   0.01689777   0.01325954  60.17 0.0008766674    1.404    0.288
       249  -9.6467     72.8439    115.1259   2.9167477231e+02   6.0311423409e+00   0.01008554   0.00870812  44.45            0    1.148    0.129
       250  -8.8173     82.1539    114.3628   2.9155434187e+02   5.9869541245e+00  0.009510165  0.005675482  35.42 0.0001187814    1.550    0.355
       251 -10.0696     69.9997    111.2661   2.9168938635e+02   6.0922363953e+00  0.009796412  0.008136142  26.94 0.0003462755    1.125    0.111
       252 -10.9111     57.1357    110.8830   2.9184803215e+02   6.1699502159e+00   0.02538881  0.009640871  20.35  0.001878476    2.764    0.638
       253 -12.0893    248.3108    113.9127   2.8947940630e+02   5.0409951495e+00   0.03590297   0.02642737 -73.36  0.003847664    1.512    0.339
       254 -10.5526     62.4047    106.7802   2.9175996968e+02   6.1876654197e+00   0.01278596  0.008688346 -53.46   0.00131803    1.524    0.344
       255 -10.1990    134.5724    105.2004   2.9085006508e+02   5.7941919381e+00    0.0170009  0.006240161 -61.27  0.001314059    2.723    0.633
       256  -9.6891     28.5998    106.2338   2.9217946720e+02   6.3863170086e+00  0.009127348  0.006149364 -50.16 0.0001837474    1.543    0.352
       257 -12.0262    247.8436    101.0610   2.8941521943e+02   5.1929213717e+00   0.03646819   0.02100515 -49.54  0.003486532    1.806    0.446
       258  -8.6508     42.6629    103.7084   2.9199003202e+02   6.3357412685e+00  0.007088511  0.005044715 -21.11 0.0003345409    1.642    0.391
       259  -8.8676     35.5903    102.5163   2.9207197419e+02   6.3898216008e+00  0.006714142  0.006407718  17.02 7.472668e-05    1.020    0.020
       260 -10.0608     62.8615     99.9355   2.9171716848e+02   6.2646604258e+00   0.01070171  0.008871542 -23.70 0.0004978207    1.297    0.229
       261  -8.7587    136.7271     94.3223   2.9076406416e+02   5.9083162239e+00  0.006937442  0.004979709  58.75 0.0003292543    1.574    0.365
       262  -9.3775     44.9913     90.0464   2.9188692636e+02   6.4813675576e+00  0.008404301  0.007379401  24.00 0.0003534138    1.068    0.064
       263 -10.5864      1.6480     88.9666   2.9242299062e+02   6.7401233396e+00    0.0150206  0.006501625 -64.94  0.001232211    2.454    0.593
       264  -8.5260    102.0088     88.2247   2.9116451471e+02   6.1775920144e+00  0.008409163  0.005357186  24.20  0.000822458    1.475    0.322
       265 -10.9668    247.0989    248.3131   2.9022494716e+02   3.4865072187e+00   0.01320032   0.01052498 -80.16 0.0009839422    1.414    0.293
       266  -9.8490    209.3329    246.6623   2.9068576694e+02   3.7217951375e+00  0.007396387  0.004846221  56.03 0.0007051943    1.742    0.426
