#   1 NUMBER                 Running object number                                     
#   2 MAG_AUTO               Kron-like elliptical aperture magnitude                    [mag]
#   3 X_IMAGE                Object position along x                                    [pixel]
#   4 Y_IMAGE                Object position along y                                    [pixel]
#   5 X_WORLD                Barycenter position along world x axis                     [deg]
#   6 Y_WORLD                Barycenter position along world y axis                     [deg]
#   7 A_WORLD                Profile RMS along major axis (world units)                 [deg]
#   8 B_WORLD                Profile RMS along minor axis (world units)                 [deg]
#   9 THETA_WORLD            Position angle (CCW/world-x)                               [deg]
#  10 FWHM_WORLD             FWHM assuming a gaussian core                              [deg]
#  11 ELONGATION             A_IMAGE/B_IMAGE                                           
#  12 ELLIPTICITY            1 - B_IMAGE/A_IMAGE                                       
         1 -15.7201    235.7733     52.5280   9.6267209923e+00   1.9888932884e+01     2.381583      1.71255 -87.07   0.01384302    1.665    0.399
         2 -13.6352      4.1214     52.5970   7.8651732004e+01   6.6659496512e+01     1.088028    0.5255513  85.34  0.004846924    2.399    0.583
         3 -14.0624     34.1934     53.5137   6.2597472821e+01   6.4131015899e+01     1.375075    0.8058352 -50.46  0.006679473    1.525    0.344
         4 -13.9911      8.1832     37.0808   7.2895681072e+01   7.0259223491e+01     1.069032    0.6235192  40.78  0.005591938    2.040    0.510
         5 -13.1840      4.7705     26.3946   7.2165814697e+01   7.2950963996e+01    0.8373031    0.4604377 -89.12  0.004013409    2.383    0.580
         6 -13.3390    118.5880     19.0518   1.5528528784e+01   5.3095087014e+01    0.8054779    0.5236378 -64.15  0.003581489    1.878    0.468
         7 -13.1906     65.2504     12.9062   2.8223933437e+01   6.7033028862e+01    0.6527672    0.5059366  50.25  0.003570633    1.283    0.221
         8 -13.2471     90.5416     12.5558   1.9346917035e+01   6.1137470513e+01    0.8438621    0.5298117  83.97  0.003674775    2.145    0.534
         9 -13.3978    170.7087      4.7601   2.7349641488e+00   4.0630359623e+01     0.517954     0.466089 -76.44    0.0028908    1.014    0.014
        10 -13.1491    159.3002      2.8378   3.2282637956e+00   4.3808630798e+01    0.7937148    0.2888201  73.90  0.002997171    2.551    0.608
        11 -12.0702     19.9827     21.8350   5.9313318645e+01   7.2841461897e+01    0.4399609    0.2563955  44.44  0.002196685    2.220    0.550
        12 -11.6150     46.5836    232.5430   8.1566298238e+01   2.1117900291e+01    0.7758825    0.4978983 -78.27  0.004672857    1.797    0.443
        13 -11.1285    140.7207    250.4244   6.4431947638e+01   6.8364694802e+00    0.2223141   0.07826504  36.47  0.001134384    2.060    0.515
        14 -13.8444    117.3479    248.7527   6.8702901420e+01   1.0038902986e+01     1.139632    0.4137422  41.07  0.005907374    2.072    0.517
        15 -13.1637    100.4019    241.3009   7.1341341529e+01   1.3281227505e+01    0.9379894    0.5995977  57.21  0.005749665    1.626    0.385
        16 -10.6502     85.3111    250.3160   7.5022194682e+01   1.3774280498e+01    0.1001821   0.07801548   8.85 0.0004287431    1.638    0.389
        17 -12.7189     56.2330    240.2421   8.0062539930e+01   1.8749549698e+01    0.5284039    0.2753845  58.27  0.002587425    1.705    0.414
        18 -12.4980     63.1260    242.8479   7.8854816348e+01   1.7543589634e+01    0.3661869    0.2214147  50.13  0.001859612    1.278    0.217
        19 -12.6693     72.0174    249.5008   7.7538122139e+01   1.5466509401e+01    0.3972823    0.1879011  33.24  0.001716433    1.619    0.382
        20 -13.0334     67.2547    247.6628   7.8344812565e+01   1.6302458993e+01    0.4596754    0.3729034  13.69  0.002485768    1.552    0.356
        21 -12.1219     51.5360    249.4416   8.1477786888e+01   1.7775036081e+01    0.3115205    0.1825553  43.86  0.001488413    1.196    0.164
        22 -12.3108     34.3319    247.8248   8.4678744771e+01   1.9839016517e+01    0.3489548    0.2586825  80.14  0.002763138    1.408    0.290
        23 -10.6813      1.0000    248.0463   9.0846269397e+01   2.2923105525e+01    0.1202072   0.06789368  85.44  0.000725791    1.752    0.429
        24 -12.1214     14.5462    250.1957   8.8438166917e+01   2.1368237267e+01    0.2879688     0.103755  38.21  0.001151327    1.808    0.447
        25 -12.0878      5.0402    249.9350   9.0155887086e+01   2.2265791677e+01    0.2427588    0.1802097  27.20  0.001058067    1.525    0.344
        26 -11.9049      8.6507    245.6405   8.9404653937e+01   2.2646959140e+01    0.2982404    0.1198617  60.68  0.001616924    1.880    0.468
        27 -12.3110      3.7669    239.6235   9.0173961449e+01   2.4082104989e+01    0.4369257   0.08902977  51.27   0.00220376    2.648    0.622
        28 -13.6767     37.9000    228.7373   8.3135148227e+01   2.2710892666e+01    0.8609078    0.3452893  88.48  0.004400591    3.023    0.669
        29 -13.1969     23.3003    226.2240   8.5989083252e+01   2.4630497594e+01    0.4449901    0.3150532  76.60  0.001997739    1.320    0.242
        30 -13.8113     16.3673    217.0503   8.7071223664e+01   2.6970783621e+01    0.8273995    0.2745418  73.62  0.003819229    3.165    0.684
        31 -13.8071      5.9490    204.3602   8.8855228541e+01   3.0328582448e+01    0.9068258    0.2406117  52.77  0.004305757    2.557    0.609
        32 -12.6246    142.7044    236.1386   6.2488577312e+01   8.4955520798e+00    0.3889523    0.2485871  44.94  0.002490021    1.503    0.335
        33 -12.6535    138.0040    233.5373   6.3107016744e+01   9.4928416946e+00    0.3872043    0.3522221  37.86  0.002489689    1.245    0.197
        34 -14.7602    165.4363    230.2216   5.7415018546e+01   6.2391997450e+00    0.9183385    0.5900799  47.38  0.005697364    1.808    0.447
        35 -12.8737     72.1365    233.2232   7.6399945709e+01   1.8075730573e+01    0.5540204    0.3306206  81.81  0.003231104    2.087    0.521
        36 -11.9826     99.8740    229.0110   7.0332334140e+01   1.5285027148e+01    0.4868365    0.1491356  42.35  0.002168452    2.491    0.599
        37 -12.9552    110.6936    232.9559   6.8499462936e+01   1.3234691487e+01    0.5785937     0.270167  30.93  0.003103812    1.764    0.433
        38 -13.4399    105.1104    224.2930   6.8782369638e+01   1.5361961845e+01    0.8341514    0.4596677  57.07   0.00451162    2.086    0.521
        39 -13.1137    131.3324    222.2287   6.3125241915e+01   1.2088291473e+01    0.8050969    0.3916465  46.03  0.004189295    1.954    0.488
        40 -12.5958    123.2490    218.2566   6.4326983448e+01   1.3849280154e+01    0.4661024    0.3519404  41.17  0.002637045    1.133    0.118
        41 -15.1286     39.1308    144.0948   7.6835417640e+01   4.0545048012e+01     3.359024     1.316542  68.77  0.003097582    3.790    0.736
        42 -14.7810     32.5869    168.8283   8.0802479468e+01   3.5387459779e+01     2.250796    0.9266549 -74.13   0.01044503    2.351    0.575
        43 -14.2426     59.1945    205.5177   7.7110620085e+01   2.4647145968e+01     1.918908     1.237782 -89.53  0.008630443    1.700    0.412
        44 -13.9709     46.0493    182.9572   7.8455868290e+01   3.0808954583e+01    0.8784978    0.5586799  63.43  0.003626114    1.424    0.298
        45 -14.8416     14.0550    139.5439   8.3895905848e+01   4.3987435680e+01      1.86598     1.016048 -89.35  0.007947538    1.653    0.395
        46 -13.4765      1.9733    124.7789   8.6677133258e+01   4.8455971465e+01      1.41496    0.2285833 -82.84  0.003978767    5.621    0.822
        47 -14.2902     23.3261    182.2909   8.3984077699e+01   3.3316483086e+01     1.478983    0.5375552  61.56  0.006570735    2.608    0.616
        48 -14.4751     16.7665    164.1198   8.4637437122e+01   3.7950904896e+01     1.429736    0.5416125  81.41  0.006099582    2.764    0.638
        49 -11.9439     90.1279    218.5735   7.1401693398e+01   1.8325279784e+01    0.8194855    0.4111014 -50.77  0.004376174    2.549    0.608
        50 -13.0116     86.4976    208.0110   7.1177252003e+01   2.0706541076e+01    0.6498141    0.2027984  46.31  0.002642521    2.801    0.643
        51 -13.0589     89.3963    204.1269   7.0130306623e+01   2.1038455249e+01    0.6715951    0.4738366  50.69  0.003805501    1.240    0.194
        52 -11.9782     78.4211    214.5040   7.3572066798e+01   2.0570521850e+01    0.4437109    0.2602524 -56.98  0.002579268    2.078    0.519
        53 -14.0436    149.8687    222.6052   5.9442055133e+01   9.4336685799e+00    0.5785818    0.5255598 -64.84  0.003251797    1.547    0.353
        54 -12.7597    137.7451    208.0110   6.0000984237e+01   1.3413376827e+01     0.250226    0.2155436 -43.31  0.001548556    1.403    0.287
        55 -13.1695    134.9149    201.7328   5.9748903710e+01   1.4870220709e+01    0.4669291    0.3037711  35.37  0.002678956    1.278    0.217
        56 -13.4737    120.6377    194.6442   6.1915926472e+01   1.8272334387e+01     0.795813    0.6596466  62.36  0.004953631    1.339    0.253
        57 -13.3791     91.7593    189.5119   6.7956361139e+01   2.3531356330e+01     1.028912     0.583175  70.20  0.004724961    2.513    0.602
        58 -12.3233     11.2880    180.4176   8.6799562221e+01   3.4801834271e+01    0.6487163    0.3036457  81.49  0.003428497    1.968    0.492
        59 -14.2912      3.5964    185.0152   8.8783332072e+01   3.4455815248e+01    0.9570228    0.3224109  84.19  0.003432414    2.840    0.648
        60 -12.5332      2.0893    166.7007   8.8522700396e+01   3.8545433305e+01     0.739858    0.2231295 -89.39  0.003083335    3.101    0.678
        61 -13.2065     47.7897    163.0653   7.6270640079e+01   3.5055354425e+01    0.9350955     0.530036 -57.08  0.002867238    1.935    0.483
        62 -12.6828     59.6614    152.4240   7.1812898974e+01   3.6098813465e+01     0.305348    0.2444561  62.84 0.0006685959    1.143    0.125
        63 -14.3073     67.4567    176.8528   7.2512137843e+01   2.9517759100e+01     1.706592     0.846479 -65.21  0.008237321    2.136    0.532
        64 -13.8708     58.5748    162.9954   7.3341760304e+01   3.3764558101e+01      1.00297    0.5902795 -52.20  0.005002963    1.958    0.489
        65 -11.7584     68.1853    149.1284   6.8951285185e+01   3.5741440038e+01     0.420307    0.1889942 -60.62   0.00165097    2.219    0.549
        66 -11.3651     70.5923    145.7671   6.7782274967e+01   3.6205715382e+01    0.3991092    0.2437614  74.18   0.00179405    2.011    0.503
        67 -11.8486    107.4190    184.2865   6.3561772453e+01   2.2245324982e+01    0.4727157    0.2413234 -42.98  0.002158887    2.491    0.599
        68 -12.0469     47.2041    137.5995   7.3669028978e+01   4.1241530498e+01    0.5761334    0.2960782  79.55  0.002391042    2.426    0.588
        69 -11.6659     74.2735    133.8261   6.4825616670e+01   3.8558508500e+01    0.2375903    0.2305337 -45.14 0.0003960413    1.156    0.135
        70 -12.1773     63.9252    131.2656   6.7597231565e+01   4.0683474402e+01    0.7017589    0.2522534  52.81  0.002229783    3.681    0.728
        71 -12.7566     47.9089    123.9381   7.1633545282e+01   4.4595667975e+01    0.8934663    0.4956563  88.36  0.003871729    2.104    0.525
        72 -12.4532     40.9968    112.4854   7.2314223199e+01   4.8327881492e+01    0.7101744    0.3617991  61.85  0.002934986    2.348    0.574
        73 -14.0794    131.5436    118.5410   4.5262922646e+01   3.1713444936e+01    0.6859549    0.5998981 -63.29  0.003567949    1.238    0.192
        74 -12.5100     23.0440    100.9326   7.7264517439e+01   5.3055687140e+01    0.9968563    0.3275079 -65.75  0.003879585    2.488    0.598
        75 -13.1830     14.0818     95.6688   8.0067455359e+01   5.5090881175e+01     1.207994    0.6649374  79.63   0.00577719    1.855    0.461
        76 -10.6043     89.1152    122.8141   5.8245049419e+01   3.8854839944e+01    0.2036502    0.1811586  -8.70 0.0007952217    1.345    0.256
        77 -12.5422     57.1502     94.8521   6.3155981111e+01   5.0877416847e+01    0.6238034    0.3108965 -66.57  0.002533309    2.025    0.506
        78 -14.3630    107.3536     88.0681   4.3967155265e+01   4.3514152906e+01     1.507257     1.104576 -62.82  0.006850096    1.530    0.347
        79 -14.0957    247.2491     82.7218   1.5480693344e+01   1.3832266649e+01    0.9455969    0.5717837 -33.81  0.005201078    1.349    0.258
        80 -12.3306      1.8462    226.5764   9.0259045093e+01   2.6515527818e+01    0.5803607    0.1784358  84.91  0.002886466    3.258    0.693
        81 -12.5498     19.1210     79.9241   7.5862217989e+01   5.8820591905e+01    0.6680548    0.5050574  88.63  0.003223113    1.275    0.215
        82 -13.4436     12.9151     69.5931   7.7027487804e+01   6.1900942825e+01     1.233007    0.4344278 -80.27  0.004582402    2.927    0.658
        83 -13.1180     18.1790     58.0550   7.2201786096e+01   6.4477518522e+01    0.7894515    0.5584446  63.75  0.003810209    1.660    0.397
        84 -14.5791     16.1461    239.1889   8.7830682885e+01   2.3042890775e+01     1.101396    0.2875537  63.21  0.005074665    3.480    0.713
        85 -12.8827     36.7166     70.6951   6.6071081501e+01   5.9595370975e+01    0.8921471    0.5263772  58.29  0.003973871    2.169    0.539
        86 -13.4423      6.2304    220.5674   8.9247587761e+01   2.7227580724e+01     1.001401    0.1874734  60.50  0.003982688    4.161    0.760
        87 -12.6947     22.0921     41.0188   6.5403982359e+01   6.8324076637e+01    0.4687935    0.3928772 -55.78  0.002502905    1.081    0.075
        88 -11.4872     87.0380    245.5410   7.4329081255e+01   1.4291701664e+01    0.3663281    0.1246002  37.45  0.001865879    2.033    0.508
        89 -11.8907     82.0000    239.9601   7.4903046929e+01   1.5779328492e+01    0.3667851    0.2363389  66.40  0.001854894    1.697    0.411
        90 -12.6694    249.3050     37.0211   4.8019757686e+00   1.9057767976e+01    0.5480784    0.2231237 -34.68  0.002666899    1.869    0.465
        91 -13.7997     88.2496     58.2785   4.0437362464e+01   5.4068260322e+01     1.364723     1.125511 -66.24  0.006706503    1.375    0.273
        92 -13.5716      4.0883     84.5994   8.2895000724e+01   5.8527197387e+01     0.856923    0.4964107 -86.14   0.00342961    1.520    0.342
        93 -13.3734     14.0485     49.4324   7.2465083430e+01   6.6907587499e+01    0.7614416     0.429071  25.24  0.003890618    1.950    0.487
        94 -11.9368    135.9004    244.8896   6.4761534326e+01   8.1907344790e+00    0.2542689    0.1192053  31.20   0.00144015    1.641    0.391
        95 -12.7888    121.5296    235.2294   6.6552321563e+01   1.1453213497e+01    0.5573971    0.2745096  48.61  0.003028499    2.012    0.503
        96 -13.6767     22.0493    198.8422   8.5109683039e+01   2.9980328989e+01      1.48218    0.2485263  37.76  0.006094657    3.124    0.680
        97 -13.8184     29.9291    213.2428   8.4053897776e+01   2.6379542854e+01     1.123671    0.4385689  66.76  0.004719109    2.566    0.610
        98 -12.6763     18.8471    205.9556   8.6125726403e+01   2.8865831639e+01    0.4468905    0.3178504  30.40  0.002049555    1.421    0.296
