#   1 NUMBER                 Running object number                                     
#   2 MAG_AUTO               Kron-like elliptical aperture magnitude                    [mag]
#   3 X_IMAGE                Object position along x                                    [pixel]
#   4 Y_IMAGE                Object position along y                                    [pixel]
#   5 X_WORLD                Barycenter position along world x axis                     [deg]
#   6 Y_WORLD                Barycenter position along world y axis                     [deg]
#   7 A_WORLD                Profile RMS along major axis (world units)                 [deg]
#   8 B_WORLD                Profile RMS along minor axis (world units)                 [deg]
#   9 THETA_WORLD            Position angle (CCW/world-x)                               [deg]
#  10 FWHM_WORLD             FWHM assuming a gaussian core                              [deg]
#  11 ELONGATION             A_IMAGE/B_IMAGE                                           
#  12 ELLIPTICITY            1 - B_IMAGE/A_IMAGE                                       
         1 -15.1378      8.3897    142.5062   1.4238525625e+02   4.4705595053e+01     7.851399     2.366677 -80.66   0.02790813    4.091    0.756
         2 -13.3393    198.8652     27.6570   6.7075130287e+01   3.2482715810e+01     1.397658     1.249313  32.18   0.00691761    1.411    0.291
         3 -13.3058    213.9877      9.5970   6.1067686981e+01   3.0946727354e+01    0.9310583    0.7876615  63.30  0.003112769    1.289    0.224
         4 -11.9346      3.9092      3.4732   1.1183413583e+02   7.1957410029e+01    0.3792344    0.2945127 -14.36  0.003175236    1.196    0.164
         5 -10.9980    124.2161    244.0687   1.2985986753e+02   7.1589722477e+00    0.2352407    0.1684519  84.80  0.001367875    1.593    0.372
         6 -10.1522    156.7898    249.9790   1.2442417293e+02   6.0523668433e-01    0.1868091    0.1283795  27.36  0.001050954    1.598    0.374
         7 -11.6421    140.1153    250.0815   1.2759628044e+02   3.4287763537e+00    0.4790652    0.1841985  46.09  0.002139315    2.139    0.532
         8 -10.7493    122.5024    250.2584   1.3093165645e+02   6.3490896621e+00    0.3107519    0.1611162  60.93  0.001523146    2.058    0.514
         9  -9.8779     66.4875    250.1351   1.4107613831e+02   1.4984721204e+01    0.2020238    0.1343083  54.10 0.0005240481    1.247    0.198
        10 -10.4407     46.9093    249.4207   1.4436575345e+02   1.7742377733e+01    0.2564783    0.1639348 -84.39  0.001634352    1.394    0.282
        11 -10.7251     50.4790    245.4049   1.4345640758e+02   1.8038586533e+01    0.2876476    0.1893955  77.20  0.001918735    1.214    0.176
        12 -10.9472     28.9195    248.8180   1.4728614407e+02   2.0064717737e+01    0.3410465    0.2056031 -62.22  0.001332383    2.021    0.505
        13 -12.2449     35.2515    245.9340   1.4606087009e+02   1.9852058471e+01    0.5486534    0.4100676  81.28  0.004084083    1.110    0.099
        14 -11.7802      7.0707    249.7077   1.5076542658e+02   2.2323841057e+01    0.8708739     0.178894  39.33  0.003346597    4.177    0.761
        15 -12.1127      5.3966    240.6717   1.5055154216e+02   2.4178121126e+01    0.4232427    0.3141752  41.63  0.001807324    1.737    0.424
        16 -11.0668     18.4539    241.6672   1.4853241872e+02   2.2603936010e+01    0.2193985    0.1276091  74.26 0.0006587711    1.294    0.227
        17 -10.4770     81.3138    249.1189   1.3836791898e+02   1.3040163629e+01    0.2072764    0.1512713  44.37  0.001337747    1.403    0.287
        18 -10.0184    183.4776    238.9415   1.1769338368e+02  -2.2366475177e+00    0.1734019    0.1292442 -43.50 0.0005975016    1.566    0.362
        19 -10.9961    198.1541    245.1546   1.1587675693e+02  -5.6820989858e+00    0.2225036    0.1816891 -32.14  0.001025623    1.402    0.287
        20 -10.9615     50.0790    235.5334   1.4273651166e+02   2.0002859078e+01    0.2863297    0.2279262  82.98  0.001136671    1.132    0.117
        21 -14.4287    101.4916    228.9992   1.3242418277e+02   1.3770120440e+01     6.670295          nan  45.53   0.01293632   11.406    0.912
        22 -11.0160      9.3187    232.6901   1.4948049166e+02   2.5303001037e+01     0.160051     0.114111  66.79 0.0006715173    1.170    0.146
        23 -12.4089      9.7460    207.0386   1.4777662694e+02   3.0422007093e+01    0.6351442    0.4532703  34.36  0.002993893    1.845    0.458
        24  -8.6061    152.4885    213.0346   1.1975671632e+02   7.9387024553e+00    0.1815354    0.1388277 -54.37 -1.087133e-05    1.443    0.307
        25 -11.5873     58.6662    198.5535   1.3752913305e+02   2.6634260010e+01    0.2940883    0.2284867 -70.34  0.000536189    1.264    0.209
        26 -10.9629     11.0736    194.7558   1.4663750847e+02   3.2888200224e+01    0.2804495     0.165731  60.67  0.001788005    1.523    0.344
        27 -11.9079     65.2283    190.1334   1.3514667642e+02   2.7629710178e+01    0.2891787    0.2375593 -66.27 0.0004847368    1.263    0.208
        28  -9.0763    192.0344    193.1438   1.0796861931e+02   4.1267842536e+00    0.2613567    0.1879226 -73.64 0.0009781345    2.122    0.529
        29 -12.7409     31.2734    232.2594   1.4577348272e+02   2.2973191101e+01    0.2970597    0.2297339 -74.70  0.000762648    1.415    0.293
        30 -10.7299     75.7699    177.3011   1.3106990255e+02   2.9074042370e+01    0.2428316    0.2067097 -86.29 0.0003078005    1.028    0.027
        31 -13.0952     62.3314    175.3331   1.3387421886e+02   3.1434265727e+01     0.521236    0.2771342 -46.86   0.00176455    2.316    0.568
        32  -9.8149     96.0870    172.8370   1.2563056182e+02   2.6914793175e+01    0.2291095    0.2117781 -89.24 0.0004773345    1.066    0.062
        33 -11.7304     83.5649    168.0680   1.2782677517e+02   3.0061198446e+01    0.6656852    0.5832922 -43.02  0.003846356    1.361    0.265
        34 -13.8047     36.4206    225.6812   1.4437602015e+02   2.3681349733e+01    0.7298592      0.52475  70.00  0.002375858    1.095    0.087
        35 -10.1783     96.4125    152.4978   1.2192630110e+02   3.1676823814e+01     0.292281    0.2713832 -76.42 0.0008042734    1.042    0.040
        36 -11.9638     84.9781    151.4100   1.2461916977e+02   3.3808735186e+01    0.3073968      0.24587 -47.97 0.0005719363    1.311    0.237
        37  -8.9650     99.6631    148.0762   1.2024050746e+02   3.2172404835e+01    0.2052613    0.1755749 -60.21 0.0003677854    1.115    0.104
        38 -12.0915     67.5025    143.6116   1.2771314367e+02   3.8254458159e+01    0.6671595    0.4340861  67.81  0.002492908    1.853    0.460
        39  -9.6755    108.5295    137.5310   1.1575035096e+02   3.3082951879e+01    0.4239116    0.2787252 -19.57  0.001494931    2.684    0.627
        40 -10.3614     95.7540    134.6063   1.1848601953e+02   3.6048920602e+01    0.2627839    0.2308434 -41.07 0.0005379876    1.201    0.168
        41  -9.0716     76.3907    129.3205   1.2262114292e+02   4.0390449818e+01    0.2257496    0.1584455  61.52 0.0005356254    1.676    0.403
        42 -10.2717     82.5254    125.2517   1.2007199844e+02   4.0418917532e+01    0.3158856    0.2175217  61.92  0.001007207    1.765    0.433
        43  -8.8330    106.1267    123.8945   1.1329123559e+02   3.6713901529e+01    0.2051945    0.1873715 -88.99 0.0002901991    1.133    0.117
        44 -11.8860     24.2750    127.7812   1.3651821760e+02   4.6791430787e+01    0.8910267    0.2754385  50.11  0.002482619    5.359    0.813
        45 -10.2920    167.9235    113.0456   9.5146664085e+01   2.5842423306e+01     0.322768    0.2719501 -84.71  0.000532566    1.337    0.252
        46  -8.5989    203.2851    111.3861   8.7470093232e+01   1.7825580244e+01    0.1548978    0.1223271   0.05 0.0007008627    1.744    0.427
        47 -10.4837     42.1885     96.8045   1.2573657074e+02   5.2124923146e+01    0.4315524    0.2213652  49.45  0.001785277    2.744    0.636
        48  -8.9487     55.4453    230.2025   1.4131393301e+02   2.0358798150e+01    0.1626562   0.09487583  89.10 0.0007048072    1.593    0.372
        49  -9.6170    158.5045     76.9544   8.7446059964e+01   3.5103656166e+01     0.227882    0.1498692 -38.67 0.0006457313    1.555    0.357
        50  -8.1327     57.3430     75.6726   1.1551118962e+02   5.4847090004e+01    0.1236685    0.1029395  85.10 0.0007051039    1.742    0.426
        51  -9.6076     47.7551     70.0703   1.1719279935e+02   5.7097626443e+01    0.2285289    0.1676396  47.15 0.0007494307    1.790    0.441
        52 -12.3067    240.2995    248.0002   1.0864310478e+02  -1.2704783369e+01    0.5404601    0.3536586  38.96  0.003383739    1.482    0.325
        53 -12.8885      5.4463     50.7462   1.2742727658e+02   6.4342892289e+01    0.5887637    0.4407645 -56.50  0.002048009    1.282    0.220
        54 -12.0291     99.4355    247.4422   1.3490398125e+02   1.0581682631e+01    0.4392298    0.3345903  60.82  0.002863026    1.044    0.042
        55 -10.8114    128.9916    245.3236   1.2910508634e+02   6.1318406346e+00     0.192608     0.143658  50.31  0.001173353    1.111    0.100
        56 -12.9574     46.3913    214.6051   1.4159689188e+02   2.4749827042e+01      1.07405    0.9478197 -31.08  0.007258351    1.880    0.468
