#   1 NUMBER                 Running object number                                     
#   2 MAG_AUTO               Kron-like elliptical aperture magnitude                    [mag]
#   3 X_IMAGE                Object position along x                                    [pixel]
#   4 Y_IMAGE                Object position along y                                    [pixel]
#   5 X_WORLD                Barycenter position along world x axis                     [deg]
#   6 Y_WORLD                Barycenter position along world y axis                     [deg]
#   7 A_WORLD                Profile RMS along major axis (world units)                 [deg]
#   8 B_WORLD                Profile RMS along minor axis (world units)                 [deg]
#   9 THETA_WORLD            Position angle (CCW/world-x)                               [deg]
#  10 FWHM_WORLD             FWHM assuming a gaussian core                              [deg]
#  11 ELONGATION             A_IMAGE/B_IMAGE                                           
#  12 ELLIPTICITY            1 - B_IMAGE/A_IMAGE                                       
         1 -15.2810     68.4910    144.2453   1.0933465590e+02   3.7371740321e+01     5.371211     2.632225  71.53  0.003657888    3.861    0.741
         2 -14.3365    197.7450     36.0648   4.9674220209e+01   3.1158445066e+01       1.7199     1.299332  26.00   0.00655565    1.715    0.417
         3 -14.5406    208.8760     24.0917   4.5019806570e+01   2.9857468161e+01     1.459495     1.068388   3.82  0.004835439    1.935    0.483
         4  -9.7680    152.7906      8.8406   4.7934535106e+01   4.5811310069e+01    0.1913464    0.1544006 -75.64 0.0005800003    1.345    0.256
         5 -11.9095    232.6461      2.0389   3.7319357091e+01   2.6592875395e+01    0.6325775    0.2241689  75.40  0.002374438    2.668    0.625
         6 -12.2961     52.4285      3.3330   7.1324240119e+01   6.8176151502e+01     0.388633    0.2389504  49.88  0.002218472    1.988    0.497
         7 -11.1372     61.5031      7.9759   7.0156787273e+01   6.6160079266e+01    0.1938529    0.1500092  27.62 0.0005081475    1.183    0.155
         8 -14.3799     46.8272    220.6147   1.2260963204e+02   2.3401213665e+01     1.034255    0.8752062  87.28  0.001334227    1.243    0.195
         9 -13.0121     72.2808    175.4104   1.1289011444e+02   2.9584026703e+01    0.9763389      0.53317 -32.58   0.00326236    4.780    0.791
        10 -14.5899     86.9233    228.1619   1.1575496032e+02   1.6635947755e+01     1.923407     1.063488  46.08  0.004690228    1.499    0.333
        11 -13.1448     18.5965    192.1093   1.2592412328e+02   3.2255678731e+01     0.367472    0.2580408  50.98 0.0004618267    1.372    0.271
        12 -16.4829     49.7639    200.2417   1.2039189003e+02   2.7136263633e+01     14.71628     4.936842 -83.59   0.02133475    4.564    0.781
        13 -10.0684     82.0320    195.1512   1.1317727723e+02   2.3873653706e+01    0.2208811    0.2020394  62.73   0.00104821    1.179    0.152
        14  -9.4565     95.9680    188.9872   1.0937336895e+02   2.3058136349e+01    0.2107583    0.1403087  69.93 0.0003565052    1.579    0.367
        15 -10.7549    150.4102    188.1778   9.7322902259e+01   1.3725093319e+01    0.2310084    0.1670348  86.45 0.0006985754    2.010    0.503
        16  -9.2663     73.5442    188.4513   1.1421128974e+02   2.6525912595e+01    0.1305767    0.1077232  75.06 5.320177e-05    1.024    0.024
        17  -9.8202     98.9885    186.4901   1.0836062194e+02   2.3110066163e+01    0.2452916    0.1735357 -86.87 0.0006955312    1.525    0.344
        18 -10.5523     99.4024    180.8713   1.0746048315e+02   2.4257169485e+01    0.2455061     0.192577  38.79 0.0006260084    1.330    0.248
        19 -16.3484     65.2477    248.1466   1.2136606824e+02   1.6055396400e+01     8.356812     2.519539  32.25    0.0259081    7.225    0.862
        20 -10.4874    107.9807    203.4888   1.0873239990e+02   1.8142568814e+01    0.1947055    0.1154768  43.49 0.0004877212    1.507    0.336
        21 -12.9678     55.0306    146.0583   1.1308168970e+02   3.8682042390e+01     2.662272    0.7437692 -48.20  0.008033328    5.069    0.803
        22  -9.3121    205.5081    167.4348   8.1849703754e+01   6.8736383770e+00    0.1433411    0.1280766   9.41 7.170693e-05    1.042    0.040
        23  -9.7309    162.1684    167.1489   9.0819241389e+01   1.5587477964e+01    0.1959067    0.1733132  84.58 0.0003479994    1.314    0.239
        24 -11.9846    193.4337    195.3302   8.9728861128e+01   4.4345462105e+00       0.8813    0.4496789 -60.75  0.002889598    5.162    0.806
        25  -9.4114    192.5116    165.0158   8.3935296890e+01   9.8775854254e+00    0.2147921    0.1411536 -37.60 0.0009273807    1.554    0.357
        26 -10.4168     98.2652    200.2911   1.1036369419e+02   2.0338329425e+01    0.2667486    0.2055778  17.95 0.0008541378    1.844    0.458
        27 -10.2831    173.4987    244.4872   1.0138797386e+02   3.6315157665e-01    0.1925839    0.1563001 -47.35  0.001064527    1.577    0.366
        28 -12.5576     89.7746    156.0521   1.0586018788e+02   3.1422051210e+01    0.5883444    0.4428324 -30.55  0.002711151    1.831    0.454
        29 -11.2962    133.7071    143.9205   9.2575651100e+01   2.6271714247e+01      1.13959    0.2763768 -54.34  0.002642322    6.040    0.834
        30 -10.3652    174.5994    149.1880   8.4266587663e+01   1.6610295258e+01    0.2886968    0.2128824  44.46 0.0008301674    1.334    0.250
        31 -10.7084     41.3318    147.4751   1.1673261922e+02   3.9919344307e+01    0.2567769    0.1803414  88.26 0.0006757505    1.296    0.228
        32 -11.4983     44.9566    144.7533   1.1546960402e+02   4.0166577413e+01     0.406627    0.2143335  54.65  0.001221144    2.037    0.509
        33  -9.8648     84.9875    144.2059   1.0503274936e+02   3.4969009201e+01    0.2460529    0.1495802  66.70  0.001079995    2.066    0.516
        34 -12.4407     90.8472    140.8688   1.0288678402e+02   3.4832281980e+01     0.287146    0.2577065 -55.94 0.0004580949    1.136    0.120
        35 -10.6920    209.9940    199.5665   8.7313250211e+01   8.0735569832e-01    0.2211421    0.1826384 -49.75 0.0006119254    1.565    0.361
        36 -11.2879    103.3231    140.7427   9.9598538947e+01   3.2752082077e+01    0.5531611    0.3366971 -31.07   0.00223736    2.488    0.598
        37 -11.9958     45.3667    137.3519   1.1434846635e+02   4.1883816017e+01    0.3876474    0.2101022 -52.59  0.001841437    1.799    0.444
        38  -9.3332    174.5204    138.4978   8.1827613398e+01   1.8773779013e+01    0.1510345    0.1495403 -88.98 0.0008095432    1.063    0.059
        39 -13.0702     83.1782    163.0829   1.0859912806e+02   3.0810711554e+01    0.9980773    0.4358656  54.62 0.0003823868    2.649    0.622
        40 -11.6822    113.0559    198.7257   1.0701381285e+02   1.8261705348e+01    0.4447017    0.3107409  78.53  0.001879817    1.644    0.392
        41 -10.3869    106.0207    130.7537   9.6798054359e+01   3.4620906719e+01    0.3379497     0.287507 -69.25  0.001309772    1.158    0.136
        42 -10.4310    112.4197    130.7484   9.5096264453e+01   3.3439612529e+01    0.2980204    0.2524589  -2.33 0.0007179439    1.512    0.339
        43 -13.7599     71.3405    158.6357   1.1081723384e+02   3.3569864741e+01    0.5979936    0.5351056 -27.94  0.002019613    1.474    0.322
        44 -11.0395    138.3785    171.9472   9.7079700266e+01   1.9267167669e+01    0.3795727    0.2493829 -82.32  0.001617349    2.350    0.574
        45 -10.0465    160.8346    127.8334   8.2339566142e+01   2.4000398536e+01    0.2233227    0.1919517 -82.72  0.001086624    1.367    0.269
        46 -11.2181     99.0815    127.2188   9.7902416384e+01   3.6691341152e+01    0.3920982     0.291707  16.41  0.001227644    1.805    0.446
        47 -11.2739    135.3275    122.6316   8.7234133861e+01   3.0700060543e+01    0.5976487    0.1407737 -49.98  0.001475139    4.793    0.791
        48 -12.1375     45.7058    115.2798   1.1077197767e+02   4.7146328492e+01    0.5778418    0.1647278  41.34  0.002113782    3.774    0.735
        49 -12.8287     43.7089    109.2319   1.1028652090e+02   4.8807402885e+01    0.4719558     0.389807  54.17  0.002898116    1.361    0.265
        50 -11.7846    118.4324    125.4690   9.2298092533e+01   3.3508911292e+01    0.7708285    0.3826862 -40.39  0.002915197    2.239    0.553
        51 -11.5227    118.0169    109.5171   8.8457746371e+01   3.7239467460e+01    0.6226192    0.4505118  59.33  0.002861727    1.573    0.364
        52  -9.9182    205.5724    110.1651   6.8487448322e+01   1.7228320642e+01    0.2605109    0.2182667  48.69 0.0005994723    1.245    0.197
        53  -9.4478    167.8252    112.5577   7.6848576065e+01   2.5567916587e+01    0.2997296    0.2049031 -75.33  0.001168073    2.276    0.561
        54 -11.4314    125.8299    173.2482   1.0018373778e+02   2.1336185921e+01    0.3902794    0.1690525  32.43  0.001391742    2.955    0.662
        55 -10.0078    108.3479    119.6224   9.3630989254e+01   3.6800157914e+01    0.2359122     0.216736  57.37 0.0002936745    1.121    0.108
        56  -9.9781     94.0845    104.6710   9.4013423164e+01   4.2866845376e+01     0.224186    0.1905573 -65.26 0.0003151073    1.178    0.151
        57 -10.3061     33.3910    100.2878   1.1183985083e+02   5.1940064106e+01    0.2041225    0.1447131  59.55 0.0008944039    1.685    0.407
        58 -11.7124     53.4265     92.9373   1.0385813341e+02   5.1579102296e+01    0.5361947    0.3224627 -68.80  0.002619059    1.713    0.416
        59 -11.1260     41.8076     91.4600   1.0736529545e+02   5.3201143487e+01     0.290674    0.2062374 -49.67  0.001003447    1.222    0.181
        60  -8.7192    184.3739     77.2941   6.3633652020e+01   2.8245759157e+01    0.1616547    0.1192452  23.72 0.0007025024    1.736    0.424
        61  -9.5173     58.4879     67.4706   9.5306045757e+01   5.6638437484e+01       0.2329    0.1185332  44.92  0.001032145    2.489    0.598
        62 -11.0626     13.3936     59.8045   1.1048562422e+02   6.2614839890e+01    0.2076783    0.1869102 -64.45 0.0004424685    1.205    0.170
        63 -11.1516    149.7930     53.3487   6.3351990168e+01   4.0971323950e+01    0.4616317    0.3147338 -81.19  0.001535237    2.182    0.542
        64 -13.3684    188.3840     43.2291   5.3081113583e+01   3.2582540839e+01    0.8977696    0.6314573  40.48 0.0009571322    1.612    0.380
        65 -10.8821    171.8064    241.0363   1.0122690962e+02   1.1206439944e+00    0.2251974    0.1740367 -51.88 0.0008981518    1.676    0.403
        66 -16.9027      7.9412    244.8061   1.3055968059e+02   2.3213897946e+01     1.876896     1.534105  41.51      0.01029    1.670    0.401
        67 -10.7229    151.1431     46.7055   6.0876730823e+01   4.1647236625e+01    0.3078766    0.2456459 -82.08 0.0008305049    1.501    0.334
        68 -11.6295     21.7202     33.8543   9.9231472223e+01   6.7254841205e+01    0.3121872    0.1477206  31.78     0.001668    2.518    0.603
        69  -9.8204    189.7094     14.9814   4.4771378126e+01   3.5728199628e+01    0.1918059    0.1738383 -59.30 0.0005970073    1.103    0.093
        70 -16.9034      6.2806    212.3590   1.2937056042e+02   2.9343978874e+01     7.192557    0.8111024 -72.27   0.02630564    5.434    0.816
        71  -9.6045    130.4828    212.8979   1.0535417398e+02   1.2603437547e+01    0.1719398    0.1295251 -61.59 0.0004973466    1.511    0.338
        72 -10.4978    198.5414    222.7860   9.3494477989e+01  -6.6411241871e-01    0.2259468    0.1499293  36.79 0.0005192398    1.281    0.220
