#   1 NUMBER                 Running object number                                     
#   2 MAG_AUTO               Kron-like elliptical aperture magnitude                    [mag]
#   3 X_IMAGE                Object position along x                                    [pixel]
#   4 Y_IMAGE                Object position along y                                    [pixel]
#   5 X_WORLD                Barycenter position along world x axis                     [deg]
#   6 Y_WORLD                Barycenter position along world y axis                     [deg]
#   7 A_WORLD                Profile RMS along major axis (world units)                 [deg]
#   8 B_WORLD                Profile RMS along minor axis (world units)                 [deg]
#   9 THETA_WORLD            Position angle (CCW/world-x)                               [deg]
#  10 FWHM_WORLD             FWHM assuming a gaussian core                              [deg]
#  11 ELONGATION             A_IMAGE/B_IMAGE                                           
#  12 ELLIPTICITY            1 - B_IMAGE/A_IMAGE                                       
         1 -14.2040     52.9326    209.7183   2.9241299694e+02   5.0385428205e+00    0.5027384    0.2836333  59.04    0.0448679    2.370    0.578
         2 -14.7061     16.4105    166.5886   2.9257371849e+02   5.7475395888e+00     0.340088    0.1286892 -76.94   0.01917652    5.788    0.827
         3 -13.2735    190.5970     28.1862   2.8976289629e+02   6.3411867723e+00   0.05902552   0.05485196 -75.34  0.005927214    1.080    0.074
         4 -13.7037    203.8004     10.2467   2.8950510806e+02   6.4714536277e+00    0.0789364   0.05728082 -25.90  0.008473485    1.610    0.379
         5 -13.4187      6.6378     11.7382   2.9176495773e+02   7.5935650217e+00    0.1073797   0.05369937 -53.45  0.009969721    1.893    0.472
         6 -10.3483    152.6798    248.5481   2.9150772766e+02   4.0144627035e+00   0.01213921  0.006662185  21.03  0.001070615    1.999    0.500
         7 -10.4903    249.4035    249.2334   2.9041245816e+02   3.4475581026e+00   0.01453768   0.01306647  -9.21  0.001770161    1.188    0.158
         8 -11.5734    139.7133    249.0951   2.9165846878e+02   4.0829717572e+00   0.02238571   0.01855534  45.49  0.002632088    1.240    0.194
         9 -11.2180    124.0390    249.7956   2.9184094840e+02   4.1652925818e+00   0.02482251  0.009230099  22.08  0.001841925    3.178    0.685
        10 -10.8900    102.0002    247.4338   2.9207773664e+02   4.3196677580e+00   0.01821162   0.01264723 -63.69  0.001414467    1.418    0.295
        11  -9.0061     67.0126    250.4998   2.9249411858e+02   4.4857046456e+00  0.009828554   0.00640263  29.79 0.0006926192    1.544    0.352
        12 -10.7663     28.1184    248.9546   2.9292776359e+02   4.7272458318e+00   0.02552783   0.01454192  45.97  0.002455057    1.881    0.468
        13 -11.0491     34.9445    244.9675   2.9282647626e+02   4.7341507561e+00   0.03797361   0.02441219 -41.15  0.003888266    1.647    0.393
        14 -11.2715     12.0076    240.2276   2.9305964419e+02   4.9207592581e+00   0.02789644   0.01536237  66.09  0.002298097    2.860    0.650
        15 -11.3147      2.9490    248.8947   2.9321397947e+02   4.8724675259e+00   0.05087316   0.02133102  30.00  0.004334227    2.335    0.572
        16 -11.5642      3.9772    240.7645   2.9315426354e+02   4.9606440556e+00   0.02676392   0.02346396 -53.12  0.001425615    1.114    0.103
        17 -10.4897     98.6200    249.1972   2.9212665293e+02   4.3187511525e+00   0.01768877   0.01138456 -51.74  0.001835689    1.506    0.336
        18 -10.2911     81.8464    242.4222   2.9227744216e+02   4.4937463205e+00   0.01798979   0.01197939  53.12  0.001850561    1.683    0.406
        19 -10.4009    232.9214    235.8598   2.9052012714e+02   3.6973944475e+00   0.01626865  0.009362195 -87.82  0.001401611    2.541    0.606
        20 -10.0360    229.6125    230.2318   2.9052424508e+02   3.7815595017e+00   0.01783617    0.0104434  84.81  0.001519923    2.665    0.625
        21  -9.4169    194.4939    237.4993   2.9096661424e+02   3.9006565701e+00  0.006600674  0.006255498 -37.57 -3.841435e-05    1.060    0.056
        22 -13.6400      7.8218    207.8746   2.9291607231e+02   5.3191622365e+00    0.1039128   0.05034528 -54.35  0.006178123    1.942    0.485
        23 -13.0919      2.9235    181.6512   2.9281672653e+02   5.6507179538e+00    0.1282658   0.03485325 -61.04  0.008929675    3.368    0.703
        24  -9.7739    161.9709    248.9682   2.9140454859e+02   3.9559667214e+00   0.01090804  0.007767907  66.85 0.0006996574    1.696    0.410
        25 -10.3560     81.2744    248.4500   2.9231964762e+02   4.4273124381e+00   0.01609014    0.0121602  83.46  0.001441111    1.559    0.359
        26  -7.9186    221.3155    213.3204   2.9051791548e+02   4.0249671956e+00  0.006942765  0.004856928 -29.47 0.0003770239    1.657    0.397
        27  -8.7025    152.4890    212.9508   2.9129853232e+02   4.4271557743e+00  0.009423519  0.006393409 -64.08 0.0003825587    1.456    0.313
        28  -9.4834     32.0314    206.7412   2.9263350093e+02   5.1931951529e+00   0.01970974  0.008649799  47.67  0.001506891    2.692    0.629
        29 -12.0698     23.2416    201.4472   2.9270232154e+02   5.3049676086e+00   0.02445872   0.01364265  47.62  0.002306704    1.973    0.493
        30 -10.8252     16.4022    198.9802   2.9276566261e+02   5.3728060525e+00   0.01930236   0.01190309  47.95  0.001110608    1.756    0.431
        31  -9.8266    191.8840    192.6833   2.9072977323e+02   4.4337468813e+00    0.0243711   0.01260505  84.54   0.00167378    4.185    0.761
        32 -11.3098     66.2100    198.5484   2.9219552598e+02   5.0913474751e+00   0.02111474   0.01194836 -40.52   0.00148821    1.946    0.486
        33  -9.1830     51.4704    197.1818   2.9235537193e+02   5.1920001408e+00  0.009871673  0.008442876  63.22 0.0005247995    1.255    0.203
        34 -11.5398     71.7034    190.7694   2.9208679836e+02   5.1497043552e+00   0.01505489   0.01161283 -41.99  0.000720001    1.323    0.244
        35 -13.7738     47.3045    225.8135   2.9257241642e+02   4.8846991805e+00   0.05567056   0.04240726 -74.74  0.004650867    1.375    0.273
        36  -8.2644    103.7005    179.7539   2.9165684025e+02   5.0926867977e+00  0.006410909   0.00492407 -23.30 0.0001911418    1.488    0.328
        37 -10.6889     80.9320    178.0853   2.9190636297e+02   5.2432610655e+00    0.0122304   0.01062448 -45.61 0.0003686219    1.143    0.125
        38 -13.0607     68.2487    175.8928   2.9203789776e+02   5.3416954345e+00   0.02794177   0.01350752 -41.27  0.001923087    2.359    0.576
        39  -8.6716    171.2031    173.1777   2.9084901209e+02   4.7788305982e+00  0.008742141  0.007420416  65.14 0.0003141821    1.276    0.216
        40  -8.5651    250.6930    171.7130   2.8993617782e+02   4.3355314773e+00   0.00670552  0.004906019 -27.57 0.0002706846    1.570    0.363
        41 -11.6585     88.3611    168.5196   2.9176489277e+02   5.3110829347e+00    0.0311964   0.02695309  -8.17  0.003727843    1.265    0.209
        42 -10.8391    148.9415    229.5803   2.9143766961e+02   4.2553584328e+00    0.0201412  0.006862802  24.51  0.001464967    3.233    0.691
        43  -9.4613     19.8952    229.5598   2.9290676420e+02   4.9988995687e+00   0.01144096  0.007769364 -69.42  0.001120455    1.512    0.339
        44 -10.6597    189.8410    153.3289   2.9051866508e+02   4.9004107312e+00   0.02308608   0.01315207  66.58  0.001355657    2.661    0.624
        45  -9.6075    183.8371    147.0317   2.9054947905e+02   5.0079379220e+00   0.01473659   0.01004548  69.49  0.001115222    1.862    0.463
        46  -9.6711    100.0886    152.4374   2.9153565450e+02   5.4294409664e+00   0.01275577   0.01077111 -53.23 0.0007031199    1.155    0.134
        47 -11.9491     88.7310    151.8322   2.9166151971e+02   5.5019495953e+00   0.01377756    0.0113947 -34.26 0.0005656109    1.268    0.211
        48 -12.3796     67.1465    144.1217   2.9186179576e+02   5.7155331436e+00   0.03786115   0.02709458  70.30  0.003981043    1.707    0.414
        49  -9.1322     32.7790    228.3384   2.9275279713e+02   4.9390035931e+00   0.01048432  0.008814806 -82.56 0.0006382975    1.256    0.204
        50  -8.9637    102.9121    148.0578   2.9147742990e+02   5.4637955661e+00   0.01075598  0.007427339 -30.13 0.0006944369    1.680    0.405
        51  -8.3275    192.2060    144.0010   2.9043615513e+02   4.9945120655e+00  0.008488116  0.005148278 -62.69  0.000368015    1.615    0.381
        52 -11.2325      9.1054    226.4614   2.9301134950e+02   5.0967153747e+00   0.02171571   0.01524249 -52.29  0.002358263    1.382    0.276
        53  -9.0534    180.0536    143.0227   2.9056865947e+02   5.0761671338e+00  0.009842354  0.009309831  79.22 0.0004133096    1.089    0.082
        54 -12.3812     41.1179    233.2861   2.9268709528e+02   4.8338187134e+00   0.01932729   0.01384061 -40.30 0.0007653808    1.460    0.315
        55  -9.5070    110.6607    137.0989   2.9132391349e+02   5.5457894831e+00   0.01701318  0.008996822 -38.59  0.001057314    2.214    0.548
        56 -11.6965     24.9989    137.5379   2.9230345642e+02   6.0342425654e+00   0.02643979  0.008499744  35.76  0.002008271    2.892    0.654
        57  -8.9181     87.1959    136.8999   2.9159024303e+02   5.6834841613e+00  0.009760225  0.008272629  60.26 0.0005887519    1.263    0.208
        58 -11.3956     57.7799    132.0692   2.9189700653e+02   5.9088721914e+00   0.04081671   0.01717033 -77.64   0.00272104    4.129    0.758
        59 -10.4954    162.5234    127.0246   2.9067294107e+02   5.3624974932e+00   0.03981664   0.01704987  58.88  0.002419479    5.178    0.807
        60  -9.4483    107.6290    123.9708   2.9128033933e+02   5.7150715102e+00  0.009524387   0.00875595  -1.58 0.0003257714    1.145    0.127
        61 -10.4022     98.3014    134.6069   2.9144998257e+02   5.6459353491e+00   0.01286046  0.009934853 -35.67 0.0003101333    1.374    0.272
        62 -10.9160    173.7780    222.5089   2.9111311110e+02   4.1936569498e+00   0.02091212      0.01573  64.72  0.002287107    1.533    0.348
        63  -9.1884    102.3342    224.6683   2.9193898590e+02   4.5810617514e+00  0.007034779    0.0048911  63.63 0.0007052207    1.730    0.422
        64 -10.3731    168.0029    113.1565   2.9052784330e+02   5.4910409535e+00   0.01594258   0.01198897  66.54 0.0008843461    1.547    0.354
        65 -10.0054    157.4861    227.0254   2.9132528092e+02   4.2355577161e+00   0.01404336  0.007360096 -21.26   0.00103815    3.510    0.715
        66  -8.7516    203.4575    111.5169   2.9011433511e+02   5.3046262006e+00  0.006595003  0.006234248 -38.60 8.993486e-05    1.061    0.058
        67 -10.0557     34.2113     92.9352   2.9193332043e+02   6.4970263674e+00   0.02301504  0.009650163  43.35  0.001888794    2.547    0.607
        68  -8.3877    184.5173     77.4689   2.9012673504e+02   5.8076182261e+00  0.006584704  0.006253231 -37.07 4.981326e-05    1.058    0.055
        69  -9.0658    156.3042     75.6861   2.9043757882e+02   5.9916276375e+00  0.006792085  0.004944138  64.84 0.0002963459    1.618    0.382
        70  -9.8820     16.3031     66.1463   2.9197848621e+02   6.9096329129e+00   0.01354314  0.008813751  34.92 0.0005628068    1.534    0.348
        71 -10.9349      4.4573     62.2955   2.9209091372e+02   7.0221925944e+00   0.02463862    0.0107309  37.96  0.001625044    2.257    0.557
        72  -8.8870     31.8449     61.8546   2.9177540527e+02   6.8698480477e+00  0.008901378  0.007520685  65.24 0.0002826293    1.286    0.222
        73  -8.7677     23.8976     58.8279   2.9184817268e+02   6.9505326423e+00  0.009193132   0.00740052  57.31 0.0004428736    1.344    0.256
        74 -10.8229     12.1554     54.8776   2.9195881857e+02   7.0636747166e+00   0.01812725  0.007785316  40.05  0.001274347    2.341    0.573
        75 -10.3591      1.9058     51.6948   2.9205700303e+02   7.1593261939e+00    0.0122399  0.008512158 -52.01   0.00083157    1.395    0.283
        76  -9.7614     46.5866    248.5238   2.9271495546e+02   4.6260737154e+00   0.01466485   0.00904842  51.89 0.0009847106    1.838    0.456
        77 -10.6892    198.6331    246.6588   2.9097398658e+02   3.7708714345e+00   0.01686605  0.008652297 -67.87  0.001519591    2.058    0.514
