#   1 NUMBER                 Running object number                                     
#   2 MAG_AUTO               Kron-like elliptical aperture magnitude                    [mag]
#   3 X_IMAGE                Object position along x                                    [pixel]
#   4 Y_IMAGE                Object position along y                                    [pixel]
#   5 X_WORLD                Barycenter position along world x axis                     [deg]
#   6 Y_WORLD                Barycenter position along world y axis                     [deg]
#   7 A_WORLD                Profile RMS along major axis (world units)                 [deg]
#   8 B_WORLD                Profile RMS along minor axis (world units)                 [deg]
#   9 THETA_WORLD            Position angle (CCW/world-x)                               [deg]
#  10 FWHM_WORLD             FWHM assuming a gaussian core                              [deg]
#  11 ELONGATION             A_IMAGE/B_IMAGE                                           
#  12 ELLIPTICITY            1 - B_IMAGE/A_IMAGE                                       
         1 -13.5352    187.9872     27.0046   7.4095836743e+01   3.4959293686e+01     1.231972     1.060718   0.14  0.006108861    1.188    0.158
         2 -14.2313    199.6029     10.3780   6.7684820841e+01   3.3737052686e+01      2.08098     1.296565  36.99   0.01023025    1.841    0.457
         3 -10.4039     83.8901    244.7882   1.4035323966e+02   1.7788017135e+01    0.3201041    0.1214301  57.36  0.001598332    3.368    0.703
         4 -10.3503    138.7206    248.4238   1.3106931416e+02   1.0806375681e+01    0.2090006   0.09408987 -43.99  0.001275358    2.974    0.664
         5 -10.7022    124.6328    250.0754   1.3366135801e+02   1.2325848483e+01    0.3425248     0.106559  31.97  0.001662936    2.793    0.642
         6 -10.3367     98.4101    249.2352   1.3814227338e+02   1.5532729146e+01    0.2069675    0.1575547  61.93  0.001539408    1.359    0.264
         7 -10.0874     97.0208    245.3168   1.3808317987e+02   1.6222732402e+01    0.1451237    0.1004841  40.93 0.0003794281    1.073    0.068
         8 -10.2273     81.7758    248.8064   1.4099779504e+02   1.7462738624e+01    0.1893722    0.1363609  68.63 0.0007682781    1.453    0.312
         9 -10.6293     66.7588    243.0743   1.4324594834e+02   1.9894144788e+01    0.2536784    0.1553166  79.59 0.0005459606    1.872    0.466
        10 -10.2971     67.3815    250.4476   1.4357559960e+02   1.8778955517e+01     0.196528    0.1359163  44.82 0.0009592223    1.052    0.050
        11  -9.2172     63.6528    250.7328   1.4422702500e+02   1.9126418599e+01    0.1556589   0.08352049  27.88 0.0004867878    1.837    0.456
        12 -11.0700     46.3182    248.3901   1.4704382684e+02   2.1194404072e+01    0.2982869    0.1394701  58.70  0.001122805    1.825    0.452
        13 -10.4268     37.5217    249.5146   1.4856606922e+02   2.1868178514e+01    0.2863983    0.1100365  36.68  0.001453643    1.888    0.470
        14 -11.0124     29.4541    249.1765   1.4988837845e+02   2.2655884710e+01    0.3060609    0.2264054  72.07  0.002767101    1.255    0.203
        15 -11.9796     35.6825    244.5738   1.4867135803e+02   2.2759822058e+01    0.4222677    0.3766072 -30.32  0.003807619    1.781    0.438
        16 -10.5900     29.4737    242.7073   1.4964477467e+02   2.3605012358e+01     0.269881    0.1352331  44.58  0.001813359    1.404    0.288
        17 -14.7041      6.0363     16.4443   1.3134892932e+02   7.3154042405e+01     18.12106          nan -63.07   0.03146628   15.634    0.936
        18 -15.0612     21.9069    174.3022   1.4793241785e+02   3.6117897660e+01     4.746858     1.632673  72.85    0.0202769    3.641    0.725
        19  -9.6036     95.2650    240.9724   1.3805433109e+02   1.7027639552e+01    0.1361834    0.1157275  49.33 0.0006110008    1.138    0.121
        20 -10.4750    234.8403    239.1886   1.1407458918e+02  -2.0810225542e-01    0.1937057    0.1242214 -41.63  0.001303252    2.877    0.652
        21 -10.4976    194.3073    237.0388   1.2027641602e+02   5.0354129719e+00    0.2240741    0.1303009 -43.92  0.001467289    2.537    0.606
        22 -13.9430     11.2098    206.8592   1.5157243999e+02   3.0961786203e+01     1.223184    0.7366354  73.91  0.003470755    1.391    0.281
        23 -11.0644    229.5954    230.0029   1.1359299784e+02   1.2654838742e+00    0.4115776    0.2681383 -49.53  0.002377098    3.943    0.746
        24 -10.6804     34.9019    229.9173   1.4817496346e+02   2.5068568470e+01    0.2292178    0.1364335  51.02 0.0007327968    1.243    0.195
        25 -10.1930     36.8485    226.1716   1.4765227638e+02   2.5481295732e+01    0.1626667    0.1232899  71.12 0.0005201222    1.185    0.156
        26 -12.7486     46.3864    233.0732   1.4628292025e+02   2.3475010512e+01    0.3005034    0.2517247  63.63  0.000783009    1.161    0.139
        27 -11.2164    173.4447    222.0751   1.2191176114e+02   9.5021150107e+00    0.3599239    0.2683577  50.53  0.002489362    1.683    0.406
        28 -14.0022     52.7667    223.4175   1.4458555533e+02   2.4358665266e+01    0.9227039    0.6602085  73.34  0.006282373    1.325    0.246
        29 -10.1795     27.5720    221.4830   1.4912215514e+02   2.7095846360e+01    0.2068329    0.1186619  53.63  0.000846707    1.314    0.239
        30  -8.7015    152.5249    212.9762   1.2454519293e+02   1.3582306269e+01    0.1368951    0.1141691 -38.87 0.0003687497    1.468    0.319
        31  -9.9553    102.7402    247.6295   1.3726216842e+02   1.5245939351e+01    0.1616133    0.1077098  65.37 0.0006608609    1.742    0.426
        32  -9.6700    152.4920    248.4759   1.2870684870e+02   9.0878814408e+00    0.1055909   0.07681023  29.64 -9.40659e-06    1.017    0.017
        33 -14.9100      5.4148    239.5160   1.5355088291e+02   2.6131460045e+01     3.931529    0.7687011 -72.45   0.01975231    4.993    0.800
        34 -11.5129     70.0107    198.4856   1.3939675561e+02   2.6707577451e+01    0.2947694    0.2248512 -40.28  0.001621048    1.776    0.437
        35  -9.3749     66.3744    195.7178   1.3991549433e+02   2.7617324216e+01    0.1996873    0.1204481  47.49 0.0005490363    1.388    0.279
        36 -10.2887    193.6827    196.0130   1.1445690983e+02   9.8731221674e+00    0.3702771    0.2148613 -57.56  0.001590892    4.698    0.787
        37 -11.6433     75.0598    190.7154   1.3762661419e+02   2.7513269825e+01    0.2340292    0.2116853 -44.68 0.0006090397    1.371    0.271
        38  -9.6196    106.4225    181.9605   1.2984478539e+02   2.5032347323e+01     0.188732    0.1415568  46.11  0.001181906    1.195    0.163
        39 -10.9871     83.7286    178.1885   1.3441288389e+02   2.8773547156e+01    0.2046463    0.1907292  69.96 0.0003796205    1.084    0.078
        40 -13.2574     71.3609    175.9360   1.3695794553e+02   3.0740112478e+01    0.4270175     0.259445 -40.83  0.001688448    2.272    0.560
        41 -12.1398     90.0988    168.5685   1.3178701594e+02   2.9788070016e+01    0.8856315     0.459068  49.19   0.00448561    1.880    0.468
        42 -13.1598     65.8213    142.0132   1.3428318980e+02   3.8432021920e+01     2.386328     1.103986  84.30  0.003506206    5.215    0.808
        43 -10.0233    101.7000    152.2851   1.2667519357e+02   3.1374164562e+01    0.2697713    0.2470953 -20.93 0.0007251041    1.231    0.188
        44  -9.3429    104.3110    148.1396   1.2535791284e+02   3.1817785786e+01    0.2425178     0.181068 -25.18 0.0005782512    1.706    0.414
        45 -12.0608     90.7797    151.7913   1.2928757584e+02   3.3059560714e+01    0.2559698    0.2294337 -10.68 0.0006182006    1.324    0.245
        46 -10.4618     46.4409    147.2515   1.3995993684e+02   3.9463333089e+01     0.234926    0.1024504 -65.54  0.001143221    2.130    0.530
        47 -12.4730     31.8816    139.8631   1.4302030357e+02   4.2485930449e+01    0.3832317      0.30998  32.46  0.002401519    1.349    0.259
        48 -10.0492    198.5032    245.5000   1.2066123121e+02   3.6402061879e+00    0.1058872   0.07447191  21.83 -8.783509e-05    1.005    0.005
        49  -9.6125    242.3717    138.8067   9.5418328359e+01   9.3811616460e+00    0.1761544    0.1005586 -15.09 0.0002906827    1.613    0.380
        50  -9.7915    111.7904    137.4265   1.2158480568e+02   3.2817800807e+01    0.3127716    0.2181417 -21.21  0.001124986    1.956    0.489
        51  -9.0858     89.2612    138.2497   1.2753494482e+02   3.6123660543e+01    0.1740687    0.1414233  65.06 0.0003449406    1.290    0.225
        52  -8.6680    192.0423    144.0035   1.0512729901e+02   1.7373025522e+01    0.1598619    0.1368249  -2.08 0.0003734806    1.051    0.049
        53 -10.5863     99.5420    134.6064   1.2420443462e+02   3.5358030181e+01    0.2524335    0.2167545 -15.23 0.0009142356    1.367    0.268
        54 -10.5055     43.9691    127.7482   1.3841299113e+02   4.4072214302e+01    0.1952132    0.1251787  79.04 0.0009048342    1.652    0.395
        55 -14.5708     59.5373    213.5323   1.4266324640e+02   2.5273970957e+01     7.526689          nan  39.55   0.01884298    9.938    0.899
        56 -10.3998     33.0000    119.4760   1.4059148207e+02   4.7022463698e+01    0.2792263   0.06326594 -71.49 0.0009354046    3.940    0.746
        57  -9.3996    108.5316    124.0724   1.1977739677e+02   3.6133472691e+01    0.1900951    0.1800344  31.70 0.0002978181    1.048    0.046
        58 -10.7632    168.2581    113.4090   1.0290604633e+02   2.6863907410e+01    0.3550422    0.3066457 -80.62  0.001128908    1.617    0.382
        59  -9.0551    203.4839    111.5064   9.5599240169e+01   2.0055368442e+01    0.1427863    0.1214752   0.75 5.330435e-06    1.055    0.052
        60  -9.7987    155.1633     75.7895   9.5377909622e+01   3.6170694538e+01     0.214586    0.1740499   7.06 0.0006409041    1.332    0.249
        61 -10.6494    248.7650    248.9472   1.1332065246e+02  -2.6339998437e+00    0.2254719    0.1173621  16.76  0.001617146    1.456    0.313
