#   1 NUMBER                 Running object number                                     
#   2 MAG_AUTO               Kron-like elliptical aperture magnitude                    [mag]
#   3 X_IMAGE                Object position along x                                    [pixel]
#   4 Y_IMAGE                Object position along y                                    [pixel]
#   5 X_WORLD                Barycenter position along world x axis                     [deg]
#   6 Y_WORLD                Barycenter position along world y axis                     [deg]
#   7 A_WORLD                Profile RMS along major axis (world units)                 [deg]
#   8 B_WORLD                Profile RMS along minor axis (world units)                 [deg]
#   9 THETA_WORLD            Position angle (CCW/world-x)                               [deg]
#  10 FWHM_WORLD             FWHM assuming a gaussian core                              [deg]
#  11 ELONGATION             A_IMAGE/B_IMAGE                                           
#  12 ELLIPTICITY            1 - B_IMAGE/A_IMAGE                                       
         1 -15.3030    182.6222     82.5323   2.9017433120e+02   5.7408353608e+00    0.4305714    0.1532903 -73.19   0.01545715    5.190    0.807
         2 -18.3089    233.5802     19.6609   2.8921927491e+02   6.1713450791e+00    0.4853082    0.4461959 -28.49    0.0613003    1.067    0.063
         3 -11.9743    106.1192      5.0549   2.9060460829e+02   7.0252411245e+00   0.02594851  0.009849722 -48.06   0.00165185    2.564    0.610
         4  -9.8084    183.5682      5.8871   2.8971519786e+02   6.5971845897e+00  0.009223808  0.006296847 -61.81 0.0003409373    1.475    0.322
         5  -9.8171    165.4890      1.4678   2.8989795049e+02   6.7447114274e+00   0.01081096  0.006297582   7.46 0.0009481657    2.078    0.519
         6 -10.0740     59.6758      1.6819   2.9112180706e+02   7.3133667310e+00  0.006958349  0.004695627 -27.07 0.0007044668    1.672    0.402
         7 -13.7470     63.5405    172.2087   2.9207015494e+02   5.3731780728e+00   0.03800323   0.03351565  77.69  0.002527418    1.284    0.221
         8 -13.5286    240.8763    247.3491   2.9046456098e+02   3.5715266156e+00   0.05525782   0.02694602  27.47   0.00511933    1.995    0.499
         9 -10.0721    230.2903    166.6344   2.9011613615e+02   4.5368793539e+00  0.006741968  0.004925384  65.61 0.0007025658    1.705    0.414
        10 -11.6388    244.6347    151.2941   2.8986158089e+02   4.6318519468e+00   0.01499436   0.01032068  60.74  0.001552236    1.817    0.450
        11 -13.8319    162.1743     64.7794   2.9030643865e+02   6.0510622462e+00   0.06232954   0.02269206 -47.91  0.001460498    2.681    0.627
        12 -14.4700     10.2792    208.8107   2.9289657383e+02   5.2464417932e+00   0.08116806   0.07019074  53.33  0.009882118    1.256    0.204
        13 -10.6397    120.4538    103.4866   2.9101369393e+02   5.8407951079e+00  0.006472654  0.006168344 -22.51 0.0001781978    1.017    0.017
        14 -10.8729    144.4856     98.5472   2.9070762531e+02   5.7667323743e+00   0.01343076   0.01032392 -29.65 0.0006570099    1.360    0.265
        15 -10.2669    131.8070     95.5211   2.9083624496e+02   5.8692118798e+00   0.01161512  0.009382502 -75.18 0.0007642475    1.351    0.260
        16 -13.8085    233.2887     42.8313   2.8935829040e+02   5.9126893098e+00   0.02608918   0.02279323  78.60  0.002103364    1.304    0.233
        17 -11.3642    215.9386     93.7884   2.8985614617e+02   5.4339575767e+00     0.015131  0.008095516  33.28  0.001128209    1.820    0.450
        18 -12.2048    152.9815     91.2837   2.9056724330e+02   5.8025901278e+00   0.02533385   0.01771696 -17.88  0.002687026    1.658    0.397
        19 -11.1094    203.2588     89.4232   2.8997672891e+02   5.5516839366e+00   0.01956112   0.01437274  69.46  0.001359786    1.720    0.419
        20  -9.9333    199.1916     85.9707   2.9000342742e+02   5.6125223264e+00   0.01253726  0.009808364  87.19  0.001112807    1.544    0.352
        21 -13.3800    164.8202     81.0930   2.9037120329e+02   5.8532738633e+00   0.03713837   0.02617783 -30.25  0.004025457    1.534    0.348
        22 -11.3779    137.3328     87.9329   2.9072822069e+02   5.9247828157e+00   0.01456886   0.01259415  61.21 0.0008754716    1.292    0.226
        23 -12.4616    149.6222     80.7360   2.9054442871e+02   5.9394030199e+00    0.0162065   0.01189562 -51.56 0.0009530943    1.327    0.247
        24 -10.3884    208.0563     77.9556   2.8985443464e+02   5.6546648745e+00   0.02135787  0.006020115 -49.49   0.00152081    3.293    0.696
        25 -11.1418    148.3238     69.5240   2.9049394745e+02   6.0725417748e+00   0.01271833  0.009352286  70.65 0.0009644242    1.726    0.421
        26 -11.1087    130.9647     65.5735   2.9067121401e+02   6.2107131975e+00   0.01276699  0.008336278 -44.47 0.0007170508    1.522    0.343
        27 -14.7607     31.2385    199.5578   2.9260131970e+02   5.2383933341e+00    0.0493121   0.04565277  -6.76   0.00366229    1.067    0.063
        28 -12.1142    144.2025     62.5525   2.9050079106e+02   6.1732171399e+00   0.01858682   0.01352281 -79.20  0.002025565    1.597    0.374
        29 -12.8879    193.2373     54.6745   2.8988913713e+02   5.9966338638e+00   0.03616267   0.03168205  -0.49  0.003433375    1.156    0.135
        30 -11.4533    192.5043     46.1088   2.8984749650e+02   6.0968820956e+00   0.01492837   0.01203605 -87.95  0.001397252    1.447    0.309
        31 -10.2300    225.9168     55.1147   2.8951508837e+02   5.8146485966e+00   0.01400639  0.007731287  38.27 0.0008615279    1.826    0.452
        32 -12.0524    165.5296    103.5964   2.9049438613e+02   5.5962685803e+00   0.01806064   0.01327195  77.77  0.001582689    1.751    0.429
        33 -10.9368    203.1447     50.2616   2.8974911588e+02   5.9925848177e+00   0.01025813  0.009786936  21.77 0.0002930749    1.056    0.053
        34 -10.3908    172.6691    150.3167   2.9068454657e+02   5.0318968253e+00  0.006788034  0.004862987  59.34 0.0004303287    1.685    0.406
        35 -10.3008    208.1379     49.7954   2.8968883595e+02   5.9707751599e+00   0.01398202   0.01124227  21.60 0.0003256948    1.237    0.192
        36 -10.9530    212.9318     47.4210   2.8961969464e+02   5.9714827712e+00   0.02316016    0.0128965 -64.26   0.00225071    1.852    0.460
        37 -13.5536    205.8641     43.8310   2.8968015180e+02   6.0501218088e+00   0.02664858   0.02072418 -33.81  0.003071867    1.315    0.240
        38 -13.0222    202.9514     35.5998   2.8966556852e+02   6.1583944862e+00   0.02532466   0.01754075 -48.08  0.002153831    1.410    0.291
        39 -11.5634    128.1720     50.8756   2.9061762812e+02   6.3911055322e+00   0.01076181   0.01058061 -43.58 0.0003546718    1.045    0.043
        40 -11.9634     68.0724    144.5456   2.9185717531e+02   5.6604553039e+00   0.03107314    0.0170151  50.49  0.002624033    2.230    0.552
        41 -10.7188     71.9751     46.0000   2.9123828989e+02   6.7488504309e+00   0.01083759  0.003649822  24.85  0.000805201    2.962    0.662
        42 -11.3516    175.7421     41.6037   2.9001446518e+02   6.2382513851e+00   0.01746651   0.01082274 -63.94 0.0009454204    1.653    0.395
        43 -10.6350    218.0577     43.1303   2.8953551912e+02   5.9919146589e+00   0.01054719  0.008775088  41.51 0.0004392319    1.246    0.197
        44 -12.1292    160.8892    128.3571   2.9069231260e+02   5.3426777878e+00   0.01784455   0.01627588  81.51  0.001669371    1.217    0.178
        45 -11.3161    135.0000    120.4345   2.9094466275e+02   5.5715747120e+00   0.02525686  0.006779306 -63.39    0.0016823    3.878    0.742
        46 -10.0359    179.6656     27.9714   2.8988946896e+02   6.3702236891e+00   0.00852036  0.007674662 -60.49 0.0002603108    1.128    0.113
        47 -11.6223    134.7721    108.0488   2.9087509150e+02   5.7122197653e+00   0.04835646   0.01001508 -63.98  0.002735568    5.446    0.816
        48 -11.8929    101.7542     22.2967   2.9075580874e+02   6.8549888432e+00   0.01501321  0.009959854 -47.98  0.001465517    1.472    0.321
        49 -11.2280    191.3961    192.2375   2.9071303782e+02   4.4588954273e+00   0.03059007   0.01516742  86.72   0.00183614    5.839    0.829
        50 -14.2160     67.9741    165.9362   2.9198258907e+02   5.4200219356e+00   0.08455925   0.05271869 -19.42  0.001802503    2.029    0.507
        51 -12.9780    167.4755    114.0400   2.9053288494e+02   5.4682377902e+00   0.02192487   0.02118625  17.83  0.001661643    1.045    0.043
        52 -13.4983     56.8880    177.8560   2.9217966914e+02   5.3452851003e+00    0.0412273   0.02706769  23.74   0.00167056    1.517    0.341
