#   1 NUMBER                 Running object number                                     
#   2 MAG_AUTO               Kron-like elliptical aperture magnitude                    [mag]
#   3 X_IMAGE                Object position along x                                    [pixel]
#   4 Y_IMAGE                Object position along y                                    [pixel]
#   5 X_WORLD                Barycenter position along world x axis                     [deg]
#   6 Y_WORLD                Barycenter position along world y axis                     [deg]
#   7 A_WORLD                Profile RMS along major axis (world units)                 [deg]
#   8 B_WORLD                Profile RMS along minor axis (world units)                 [deg]
#   9 THETA_WORLD            Position angle (CCW/world-x)                               [deg]
#  10 FWHM_WORLD             FWHM assuming a gaussian core                              [deg]
#  11 ELONGATION             A_IMAGE/B_IMAGE                                           
#  12 ELLIPTICITY            1 - B_IMAGE/A_IMAGE                                       
         1 -10.9188     42.3904     14.9009   7.8136892629e+01   7.1178988871e+01    0.3220443     0.269508 -13.30  0.001089808    1.105    0.095
         2 -11.6216     40.9918     21.5784   8.2679851100e+01   7.0182074898e+01    0.5322061    0.2891822 -46.77  0.002575618    1.761    0.432
         3 -11.7207    121.3888     37.3728   5.9409972634e+01   5.0564063796e+01     0.452314     0.386638 -48.97  0.001355976    1.202    0.168
         4 -11.2532      2.0847     22.2344   1.0919045364e+02   7.3761750025e+01    0.4478765    0.1765472 -66.68  0.002052361    2.087    0.521
         5 -11.5338     75.6694     20.0865   6.5405712993e+01   6.4033000598e+01    0.5014819    0.3312237 -20.18    0.0022585    1.623    0.384
         6  -9.5949     20.9237     17.8750   9.3707340388e+01   7.3392995816e+01    0.3167379    0.2623086  73.93  0.001919576    1.737    0.424
         7 -10.9698     13.7922     15.6842   9.7901278343e+01   7.4487883301e+01    0.3838321    0.2953694 -81.98  0.001585696    1.687    0.407
         8  -9.8850     15.4722      8.9056   9.3107712693e+01   7.5724071786e+01    0.1966676    0.1364224 -28.97  0.000404788    1.301    0.231
         9 -11.3740    234.7570     15.1068   3.6997106290e+01   2.5187124147e+01    0.2333247    0.1865021 -45.62 0.0002313098    1.038    0.037
        10  -9.8175     92.9786     10.0178   5.4547882314e+01   6.1332163271e+01    0.3050444    0.1662963  29.03 0.0009871498    2.303    0.566
        11 -11.1403     89.9657     14.8008   5.7842484822e+01   6.1489818076e+01    0.4463709    0.2376112 -37.44   0.00196517    1.927    0.481
        12 -11.6438     66.9193     13.7259   6.5384381442e+01   6.6820119270e+01    0.5481369    0.3047778  57.62  0.001372015    2.036    0.509
        13 -10.0386     26.6734      2.5060   8.0341980881e+01   7.5598338877e+01    0.4063647    0.2067215  21.11   0.00144973    2.471    0.595
        14 -10.9225     37.5399      7.1395   7.6196426877e+01   7.3241659059e+01    0.4505333    0.2283756 -42.66  0.001713466    1.970    0.492
        15 -11.4189     34.4812     12.6289   8.1596885957e+01   7.2768723579e+01    0.3238959    0.3032824 -42.04  0.001011932    1.248    0.199
        16 -11.5632     30.5662      7.3068   8.0852699750e+01   7.4251472935e+01    0.4578716    0.3882405  27.66    0.0029407    1.269    0.212
        17 -10.4369    135.0473     11.6682   4.6355326295e+01   5.0277714639e+01    0.2416485    0.2109087  -3.54 0.0003413825    1.258    0.205
        18  -9.9675     99.7677     11.6496   5.3563727584e+01   5.9465171564e+01    0.2470911     0.184444  72.02   0.00118482    1.407    0.289
        19 -10.9813    125.9954     11.0152   4.7644480364e+01   5.2749607667e+01    0.2095726    0.2005764  63.24            0    1.017    0.016
        20  -9.8112      3.7491     10.7700   1.0374089747e+02   7.6209945336e+01    0.1374778     0.131144 -77.16 0.0003205062    1.263    0.208
        21  -9.5985    104.1184     10.3043   5.1849452267e+01   5.8517199814e+01    0.1986744    0.1772075  61.69 0.0005932361    1.086    0.079
        22 -11.9269     57.1441      4.4006   6.3934889854e+01   7.0086193018e+01     0.689542    0.3592783 -30.56  0.003285121    1.881    0.468
        23 -10.6138     22.5683      9.6413   8.8042356364e+01   7.4845544585e+01    0.3271674    0.2119702   3.20  0.001792603    1.784    0.439
        24 -10.4667     85.9618     12.0511   5.7645993003e+01   6.2783599845e+01    0.2345398    0.2068084  66.71 0.0004657184    1.204    0.170
        25 -10.4470    217.8643      7.1515   3.6106534286e+01   2.9716102137e+01    0.1657774    0.1535881  13.28 0.0009678325    1.325    0.245
        26  -9.8731     65.4328      6.9909   6.2030220573e+01   6.8036825785e+01    0.2333158     0.188396  61.06  0.000732242    1.385    0.278
        27 -11.0470     71.0497      6.2757   5.9446950029e+01   6.6902473543e+01     0.365007     0.343673 -21.22  0.002242578    1.130    0.115
        28 -10.3452     74.4975      4.4907   5.7180730290e+01   6.6332697379e+01    0.2205904    0.1980841  22.10 0.0008636534    1.034    0.033
        29  -8.8787     11.3060      7.6190   9.5815258304e+01   7.6346119964e+01    0.1148137   0.09494502  77.90 0.0004865465    1.786    0.440
        30  -9.9210    211.7354      5.7978   3.6166244498e+01   3.1260201624e+01    0.1936215    0.1602242   0.35  0.001159502    1.471    0.320
        31 -10.3068    151.1434      5.9048   4.1859351541e+01   4.6552956335e+01    0.2121139    0.1752779 -60.84 0.0002714556    1.192    0.161
        32  -9.8142      2.5074      6.6739   1.0298478594e+02   7.7143890778e+01    0.1874999    0.1070657   9.50  0.000814256    1.919    0.479
        33  -8.9921    107.7329      4.7057   4.8393727327e+01   5.8163290015e+01    0.1427782   0.09985701  33.08            0    1.511    0.338
        34 -10.8769    102.1107      2.1993   4.8388606176e+01   5.9843895301e+01    0.4210601    0.2703165  70.98  0.001092812    1.547    0.354
        35  -9.5598    176.1758      2.7937   3.8120378870e+01   4.0279026163e+01    0.1838303    0.1518772  49.57 0.0003869781    1.331    0.248
        36  -9.9108    130.0322      3.0657   4.3680162320e+01   5.2444450490e+01    0.2292688    0.1557999 -60.57 0.0005168747    1.607    0.378
        37 -10.6920     20.5085      2.0338   8.4729934574e+01   7.6468956171e+01    0.2221798    0.1842398   2.60 0.0006391588    1.151    0.131
        38 -11.2215     80.3495      1.6660   5.3676769902e+01   6.5271258772e+01    0.3401431    0.1721949  55.76 0.0008830318    1.802    0.445
        39 -10.4297     11.5014      1.8344   9.2217666012e+01   7.7456477892e+01    0.1925178    0.1596911  37.10 0.0005564258    1.518    0.341
        40  -9.5764      1.3808      2.2206   1.0183292643e+02   7.8127382022e+01    0.1605737    0.1040786 -69.57 0.0009432943    1.669    0.401
        41 -10.2024    153.9202      1.3587   3.9892518567e+01   4.6225618741e+01    0.2045731    0.1256784  76.47 0.0003818212    1.544    0.353
        42  -9.1268     67.3919      1.4487   5.7865285299e+01   6.8264904683e+01    0.1327644     0.120744  15.69 0.0001912366    1.020    0.020
        43  -9.3602    236.6817    138.6766   6.5868780540e+01   8.9638688792e+00     0.130359   0.08566279   3.31 0.0007044371    1.671    0.401
        44 -12.0271     14.1510    238.9266   1.2405812238e+02   2.3984673897e+01    0.3162207    0.1352546  61.58  0.001483773    1.811    0.448
        45 -12.1351      4.0915    232.6851   1.2575714992e+02   2.5918828048e+01    0.2856453     0.161654  48.91  0.002086799    1.222    0.182
        46 -12.7950      9.8108    227.4989   1.2455627832e+02   2.6324402438e+01    0.5183289    0.2966207  54.20  0.001774882    1.235    0.190
        47 -12.8095      5.4840    240.2134   1.2566878857e+02   2.4532638770e+01    0.5430501    0.4062623  28.94  0.004306471    1.506    0.336
        48 -11.9301     17.3289    249.5026   1.2377784067e+02   2.1971497719e+01    0.3144085    0.2109539  20.06  0.002331984    1.872    0.466
        49 -11.3810      2.9238    249.0283   1.2630304475e+02   2.3318517170e+01    0.4154426    0.2104362  46.00  0.003063208    1.307    0.235
        50 -12.2843      9.9767    246.1020   1.2499851679e+02   2.3177746639e+01    0.4823536     0.230001  51.61   0.00339097    1.403    0.287
        51 -10.2136    212.6637    133.8920   6.8698221945e+01   1.3738891982e+01    0.2272673    0.1936392  48.23 0.0008537446    1.380    0.275
        52  -9.3804     96.0205    133.9393   9.5130445730e+01   3.5630643414e+01    0.1723055    0.1635788  74.94 0.0005249555    1.017    0.017
        53 -11.0561      2.7502    133.1301   1.2272962191e+02   4.6572554462e+01     0.339412    0.1931002  58.94  0.001917326    1.543    0.352
        54 -10.9780     12.0786    129.8029   1.1977830382e+02   4.6748042452e+01    0.2368063    0.1741082  56.15 0.0008834614    1.245    0.197
        55  -9.0969    233.6722    127.7004   6.4011921157e+01   1.0959033784e+01    0.1308538   0.08916646   5.72   0.00045515    1.639    0.390
        56 -10.5928      1.9521    122.9919   1.2242867259e+02   4.9058010725e+01     0.310207    0.1476438  84.35  0.001131548    1.839    0.456
        57 -12.2274      8.6621    120.7654   1.2020372870e+02   4.9188665686e+01    0.3621513    0.3277121 -62.19   0.00137218    1.242    0.195
        58 -11.8205     23.8714    121.3021   1.1540440529e+02   4.7929564394e+01    0.4376253    0.2103687  60.50  0.001623259    2.151    0.535
        59  -9.3111     69.3103    117.2717   1.0006144085e+02   4.3798379797e+01    0.1369627    0.1108972 -25.98 0.0001637317    1.548    0.354
        60 -10.6802     65.7244    110.8496   1.0002743560e+02   4.5903921004e+01    0.3277829    0.2358909  80.57 0.0009618766    1.571    0.364
        61 -12.2687      3.8385    108.3064   1.2090278791e+02   5.2556351024e+01    0.5149745     0.302653 -46.32  0.002383326    1.911    0.477
        62  -9.7031     35.5309    109.0175   1.1005495770e+02   4.9972921429e+01    0.2078414     0.122246 -75.68 0.0004370851    1.554    0.357
        63 -10.6121     57.6816    107.6850   1.0215455202e+02   4.7787811355e+01    0.2576687    0.2255573   8.53 0.0007650373    1.360    0.265
        64 -11.5935     13.7017    107.6683   1.1748303574e+02   5.2112748266e+01    0.2897891    0.1785166 -46.97   0.00154575    1.785    0.440
        65  -9.0923    119.7067    107.2787   8.2585243972e+01   3.7315705108e+01    0.1484477     0.119532  82.77 0.0002549656    1.529    0.346
        66  -9.8882     26.6038    106.3569   1.1283387180e+02   5.1464264695e+01    0.3038947    0.1358439  13.66  0.001263721    2.980    0.664
        67  -9.3755     89.3081    104.6825   9.0985627229e+01   4.3690026735e+01    0.1534543    0.1149273  77.29 0.0004473259    1.634    0.388
        68 -10.0946    186.9271    103.0327   6.6052788657e+01   2.3726645991e+01    0.2153949    0.2026805 -21.60 0.0005517618    1.019    0.019
        69  -9.5034    246.6498    101.6864   5.6503011291e+01   1.2240501555e+01    0.1296648   0.08955197   7.28 0.0004192069    1.725    0.420
        70 -11.2135     19.7694     99.6673   1.1448224291e+02   5.3708229168e+01    0.2326315    0.1878175 -53.65 0.0007848211    1.270    0.213
        71  -9.0100     55.5003     97.4642   1.0094603396e+02   5.0651343749e+01    0.1426502    0.1306946 -56.65 0.0008077757    1.097    0.088
        72 -12.3943     10.3000     91.7966   1.1714812597e+02   5.6334376365e+01    0.5759773    0.3016485 -85.76  0.001608444    1.705    0.414
        73 -11.0317     24.1046     88.1952   1.1129504046e+02   5.6302283126e+01     0.333238    0.2698298 -60.18  0.000382771    1.154    0.133
        74 -12.3330     20.9217     92.7709   1.1318630381e+02   5.5379286327e+01    0.3615944    0.2916031 -31.34 0.0004276272    1.444    0.308
        75 -11.0059     19.1898     87.0388   1.1308877314e+02   5.6967486881e+01    0.3957546    0.2204406 -77.64  0.001002818    1.585    0.369
        76 -10.5269      3.7783     94.8835   1.1989279967e+02   5.5911167919e+01    0.2395583    0.1750848  74.53  0.001446156    1.251    0.201
        77 -11.8896    125.1981     93.3033   7.7346161886e+01   3.9180405135e+01    0.2654402    0.2625675 -86.96 0.0002233479    1.014    0.014
        78  -9.7719     78.8905     93.9318   9.1818738417e+01   4.8060751851e+01    0.2147724    0.1912397 -22.50 0.0003090837    1.275    0.216
        79  -9.3065     89.3246     93.6889   8.8238239824e+01   4.6303599332e+01    0.1548803    0.1172832  78.49 0.0003098281    1.657    0.396
        80 -11.3211     58.0195     91.6138   9.8770163382e+01   5.1791505820e+01    0.3155875    0.2557622   2.91 0.0008979308    1.530    0.346
        81 -10.0893     44.4862     91.5469   1.0388779029e+02   5.3487933517e+01    0.3059846     0.124339 -64.51 0.0008349554    2.195    0.544
        82  -9.9427     29.0794     92.4534   1.0999376984e+02   5.4798889361e+01    0.1875491    0.1330706  26.83  0.001018303    1.564    0.361
        83 -12.0156     55.4672     85.7610   9.8403459610e+01   5.3600643552e+01    0.2775754    0.2514307  36.20 0.0002209214    1.184    0.156
        84  -9.3469    124.4456     86.4835   7.5585150394e+01   4.0775816718e+01    0.1523915    0.1503451 -47.10 0.0001318554    1.008    0.008
        85  -9.0539    145.7704     83.3700   6.9259211377e+01   3.6532248413e+01    0.1552914    0.1151413 -62.80 0.0005116897    1.597    0.374
        86 -11.1036      3.4126     82.0985   1.1886709633e+02   5.9142510207e+01    0.3504854    0.2003385 -88.76  0.001601082    1.542    0.351
        87  -9.8946    124.5107     79.1124   7.3337530346e+01   4.2276093165e+01    0.2296226    0.1512876 -42.35 0.0006502352    1.502    0.334
        88  -9.0795     76.6800     82.7267   8.9639206898e+01   5.1130399490e+01    0.1456816    0.1163198 -15.68 0.0003352223    1.570    0.363
        89  -9.6742     89.5309     81.0398   8.4633757888e+01   4.9216471581e+01    0.2302857    0.1462696 -53.57 0.0006992418    1.559    0.358
        90  -9.9681     64.6842     80.2302   9.3443186719e+01   5.3658508398e+01    0.2597564    0.1822117 -46.92  0.001097873    1.388    0.279
        91 -10.4142     27.0966     77.6600   1.0830573076e+02   5.8742408167e+01    0.4160394    0.2264625 -21.47 0.0007058667    2.702    0.630
        92 -11.6418     11.5126     78.3533   1.1507238128e+02   5.9670023875e+01    0.3365121    0.1603083   7.36  0.001548861    2.691    0.628
        93 -10.8226     14.7903     75.7779   1.1330532267e+02   6.0124944123e+01    0.2314541    0.1984144  39.88  0.001415242    1.305    0.233
        94  -9.7340    176.7411     76.6050   6.0837513243e+01   3.0440283426e+01    0.2006794    0.1453416  70.21 0.0005729671    1.602    0.376
        95  -9.9414     55.8232     75.8963   9.5800063081e+01   5.5999560330e+01    0.2225757    0.1869124 -36.55 0.0005469556    1.237    0.192
        96 -10.0278     42.1676     75.5767   1.0141743298e+02   5.7787102251e+01    0.2242609    0.2077101  74.34 0.0008101295    1.132    0.117
        97 -11.3523     36.0313     73.7941   1.0365383557e+02   5.8890681029e+01     0.478879    0.4108207  57.39  0.001283756    1.262    0.207
        98  -9.0857    248.6853     74.3316   5.0032456960e+01   1.5432456696e+01      0.13199   0.08372695 -52.02 0.0007045721    1.681    0.405
        99  -9.5291     81.1955     73.8495   8.5379827524e+01   5.2417078659e+01    0.2008395    0.1668221 -30.72 0.0004687759    1.287    0.223
       100 -10.6114     20.9680     72.8149   1.1010679655e+02   6.0454389512e+01    0.2965772    0.1705452 -82.07 0.0006444468    1.690    0.408
       101  -9.4238    217.0020     72.0557   5.3291163039e+01   2.2062528730e+01    0.1690299    0.1390624 -31.94 0.0004049159    1.082    0.076
       102 -11.1646    106.2542     71.2861   7.6117688606e+01   4.7953791774e+01    0.3662561    0.2958457  79.93  0.001368155    1.518    0.341
       103  -9.4752     24.9834     72.0198   1.0816765210e+02   6.0345122133e+01    0.1590321    0.1395806 -68.70 0.0003964026    1.004    0.004
       104  -8.9938     91.9976     72.0000   8.0983329421e+01   5.0772254003e+01    0.2438705   0.08686933  42.93 0.0007931759    2.879    0.653
       105 -11.7571     10.6107     68.9323   1.1414382693e+02   6.2098486185e+01    0.4230687    0.2640594 -85.33  0.002277902    1.481    0.325
       106 -11.0641      6.1686     63.2115   1.1536947805e+02   6.3755867778e+01     0.380985    0.2248793  50.99  0.002018171    1.918    0.479
       107 -10.1653     45.9863     69.5096   9.8256164240e+01   5.8846825123e+01    0.2541085    0.1679709  12.62 0.0008083343    1.893    0.472
       108 -11.1804      5.1944     68.3832   1.1653745208e+02   6.2507482025e+01     0.380113     0.181203  71.69  0.001699579    2.470    0.595
       109  -9.9473      1.4818     66.4971   1.1799974380e+02   6.3134990428e+01    0.2376163    0.1325819  56.79 0.0007558411    1.989    0.497
       110  -9.5478     80.5433     67.4794   8.3571700505e+01   5.3982172433e+01    0.2538296    0.2019629  49.43 0.0007618169    1.328    0.247
       111  -9.6068     77.5070     66.9057   8.4519093749e+01   5.4667531687e+01    0.2305305     0.142169 -50.19  0.000798301    1.561    0.359
       112  -9.5907     62.8171     67.6866   9.0575250459e+01   5.6956825819e+01    0.2029279    0.1664881 -44.32 0.0003023591    1.169    0.144
       113 -10.1338     16.3685     67.5005   1.1125939522e+02   6.2113370876e+01    0.3391249    0.1686734  64.19  0.001378435    2.669    0.625
       114 -10.4919     14.4292     63.5089   1.1146546506e+02   6.3236852562e+01    0.2287202    0.1925324 -67.05 0.0006232536    1.014    0.013
       115  -9.1707    166.8499     65.6395   5.9448398919e+01   3.4609268788e+01     0.188564    0.1434133  73.36 0.0001386697    1.470    0.320
       116  -9.4810     96.8489     64.1615   7.6706101287e+01   5.1457945528e+01    0.1986922    0.1753363   3.89            0    1.280    0.219
       117  -9.0316     72.7301     63.6952   8.5289341393e+01   5.6242663623e+01    0.1452892     0.112525 -20.18 0.0003281189    1.535    0.348
       118 -10.1091     62.8924     62.1003   8.8758997530e+01   5.8248883609e+01    0.2778901      0.18445 -46.09  0.001332582    1.425    0.298
       119 -10.5731     39.0449     61.7183   9.9291243448e+01   6.1563680076e+01    0.3382765     0.245546 -51.34  0.001527205    1.240    0.194
       120 -13.2675     20.3951     58.1447   1.0746475886e+02   6.4168052448e+01    0.4189697    0.2809672 -80.77  0.001294684    1.476    0.322
       121 -10.1793     26.0968     57.4481   1.0444672824e+02   6.3884738371e+01    0.2733415    0.1914276   5.37 0.0008771284    1.699    0.411
       122  -9.9350    194.3538     58.9284   5.2910178100e+01   2.9014075487e+01    0.2310271    0.1910264  82.55 0.0006579884    1.333    0.250
       123 -10.8961     84.1343     57.1097   7.8604423303e+01   5.5541578224e+01    0.3906625    0.2505228 -58.61  0.001708968    1.810    0.448
       124  -9.4523     48.5264     58.7612   9.4002709977e+01   6.1120144170e+01    0.2038797    0.1317884 -71.13 0.0009507453    1.756    0.431
       125 -10.5534     10.1793     58.6274   1.1267453286e+02   6.4697241701e+01    0.3171015    0.2566895 -42.20    0.0019842    1.226    0.184
       126 -10.8824      4.7889     57.2067   1.1513773421e+02   6.5309359923e+01    0.3141048    0.2338861 -39.56  0.001921888    1.351    0.260
       127  -9.6268     71.6127     56.3816   8.3165376964e+01   5.8062826232e+01    0.2680604    0.1368827 -52.36  0.001043367    1.969    0.492
       128 -10.0947     33.3182     55.7755   1.0039787572e+02   6.3615321294e+01    0.5369487    0.1911169 -46.01  0.002040978    2.674    0.626
       129  -9.9159    104.3957     56.4858   7.1517648491e+01   5.1347909348e+01    0.2273309    0.2047365  62.45 0.0004596135    1.163    0.140
       130 -10.7996    105.6527     52.6690   6.9701558779e+01   5.1785578404e+01    0.2842222    0.2598919 -24.93 0.0003016658    1.108    0.098
       131 -11.2570    114.5767     53.8429   6.7527698117e+01   4.9480626724e+01    0.3341933    0.3143031 -74.96 0.0006812562    1.121    0.108
       132  -9.8514     95.9087     54.7091   7.3580757496e+01   5.3576246753e+01    0.2113503    0.1934151  43.51 0.0008213822    1.109    0.098
       133  -8.9019    164.6889     54.2454   5.6307742676e+01   3.6946411702e+01    0.1471674    0.1123733 -71.94 0.0001982902    1.508    0.337
       134 -11.0522     88.4250     52.8383   7.5439369083e+01   5.5541380432e+01    0.2957834    0.2598524 -44.03 0.0006749156    1.121    0.108
       135 -11.7120     65.5945     52.6273   8.4273568053e+01   5.9930730091e+01    0.5002955    0.2394113  39.77  0.001522172    2.187    0.543
       136  -9.2428    149.4759     52.4036   5.8621331148e+01   4.1074418305e+01    0.1485651     0.145971  88.87 0.0001808822    1.019    0.019
       137  -9.9941    121.8237     51.7610   6.4791431445e+01   4.8103428982e+01    0.2157614    0.2037824  22.71 0.0003686775    1.103    0.093
       138 -10.6402      3.9350     50.8207   1.1453577394e+02   6.6917290186e+01    0.2032681     0.141619 -51.12 0.0005706702    1.266    0.210
       139  -9.1441    161.2470     49.9898   5.5562853740e+01   3.8460528609e+01    0.1914902    0.1247619 -32.27 0.0003682197    1.501    0.334
       140 -11.8461     77.7313     46.6959   7.6978653669e+01   5.8936336003e+01    0.5000018     0.378258   4.36  0.001064502    1.698    0.411
       141 -10.2691     38.6271     48.4641   9.5449649916e+01   6.4768242473e+01    0.2150561    0.1948605 -42.95 0.0001534501    1.015    0.015
       142 -10.7885      9.1068     47.1738   1.1102373578e+02   6.7567127869e+01    0.4142209    0.2371167 -66.19  0.001929728    1.443    0.307
       143  -9.8035     19.6827     45.3472   1.0467272644e+02   6.7334063902e+01    0.2511768    0.1170958 -69.12  0.001129019    2.014    0.504
       144 -10.0918     14.0228     48.7207   1.0865937282e+02   6.6910932827e+01    0.2288259    0.1601233 -77.11 0.0005763262    1.351    0.260
       145 -10.8403     15.4484     43.6515   1.0661241812e+02   6.8041088849e+01    0.5323416     0.306328  78.37  0.002467558    2.495    0.599
       146 -10.5578     56.5538     46.7587   8.6045799462e+01   6.2687439972e+01     0.443206    0.3683797  67.54  0.001518731    1.513    0.339
       147  -9.4487    154.5322     47.5102   5.5984585530e+01   4.0543802856e+01    0.2847831    0.2219944 -62.25 0.0005198071    1.383    0.277
       148  -9.9903    152.2179     44.6431   5.5451950902e+01   4.1565151535e+01    0.2038562     0.181064  64.40  0.000191017    1.129    0.114
       149 -10.1656     31.2595     45.4942   9.8339686239e+01   6.6268624965e+01    0.3536011    0.1853993 -62.41  0.001625077    1.785    0.440
       150 -10.0509     35.7942     41.0206   9.4316055050e+01   6.6801445047e+01    0.4144214    0.2878216 -42.87  0.002081993    1.304    0.233
       151 -11.7959     39.0143     32.5437   8.9106242792e+01   6.8257403657e+01    0.5322025    0.3947999 -58.16  0.002608257    1.399    0.285
       152 -10.8843     30.2570     21.2915   8.9093872441e+01   7.1674839949e+01     0.292697    0.2165231  25.50  0.001708519    1.441    0.306
       153 -10.5664     35.0289     22.0529   8.6482300329e+01   7.0921856981e+01    0.2390382    0.1707665 -38.75 0.0003230641    1.257    0.205
       154  -9.8324    229.6743    248.0099   8.5481841473e+01  -2.8021907301e+00     0.137686   0.09907842   5.90 0.0005447636    1.110    0.099
       155  -9.8513     36.4760     18.5775   8.3756463182e+01   7.1395997099e+01    0.2203191    0.1929294 -75.40 0.0005866895    1.548    0.354
       156 -11.3509     45.4966     27.4629   8.3153761854e+01   6.8378364543e+01    0.4977515    0.3950813  10.61   0.00283483    1.342    0.255
       157 -10.0816    225.0004    247.2222   8.6110902450e+01  -2.1982029071e+00    0.1720565    0.1212396  -7.09  0.001371601    1.300    0.231
       158 -12.7172    141.3591     41.5856   5.6521809041e+01   4.4817370587e+01    0.3151239    0.2776521 -70.01 0.0004913516    1.186    0.157
       159  -9.3532    184.8064     42.3003   4.9413121366e+01   3.3627740178e+01    0.2909669    0.1353841  75.58   0.00109725    2.665    0.625
       160 -10.5851     69.2747     42.0617   7.8473517075e+01   6.1477993241e+01    0.2409908    0.2084824  48.14 0.0006844726    1.245    0.197
       161 -10.8834      7.8152     34.2117   1.0870156697e+02   7.0729707544e+01    0.4206184    0.2130503  53.48  0.001936599    2.828    0.646
       162 -10.6308      4.8935     40.2800   1.1196134662e+02   6.9430579674e+01    0.4899316    0.1449475 -45.05  0.001212629    2.878    0.653
       163 -11.3745      2.8648     35.5984   1.1215814670e+02   7.0629731742e+01    0.4182557    0.2638042 -79.66  0.001870338    1.499    0.333
       164 -10.4617     26.3906     45.4611   1.0098308672e+02   6.6747301179e+01    0.4813133    0.1947485 -64.22  0.002005831    2.287    0.563
       165 -10.1565     43.1475     40.5686   9.0210599483e+01   6.5986241963e+01    0.2071729    0.1912803  21.27   0.00125607    1.164    0.141
       166  -9.6906     88.8324     39.9974   7.0059913083e+01   5.7888714625e+01     0.337965    0.2151907  82.05  0.001241624    3.127    0.680
       167 -10.3857    128.0805     38.8550   5.8397927956e+01   4.8638647137e+01    0.2189151     0.209999 -77.03 0.0003799246    1.058    0.055
       168 -11.6362     24.4327    246.3168   1.2240320922e+02   2.1820723059e+01    0.2322517    0.1273133  87.51  0.001330353    1.883    0.469
       169 -11.0922     26.9815     35.2608   9.7194622409e+01   6.9044871381e+01    0.4019627    0.1970768 -41.95  0.001343227    1.898    0.473
       170  -9.2937    223.7910     36.0627   4.3189745309e+01   2.5259044228e+01    0.1805288   0.09370682 -30.30 0.0003841065    1.682    0.406
       171  -9.9707     90.0724     35.9095   6.7850012648e+01   5.8326579448e+01    0.2237688     0.206882  12.34 0.0005050908    1.090    0.082
       172 -10.2407     96.9645     34.9730   6.5186763119e+01   5.6905349559e+01    0.2297285    0.1724982  17.67 0.0004972459    1.604    0.376
       173 -10.7549     73.4860     33.3724   7.2844721368e+01   6.2305620734e+01    0.4525035    0.3106032 -59.54   0.00195253    1.903    0.475
       174 -10.6608     69.2227     27.0177   7.1529823435e+01   6.4270782882e+01    0.4452305    0.2491243 -51.11  0.001509473    2.188    0.543
       175 -10.0397     16.8438     32.8866   1.0257733384e+02   7.0465308724e+01    0.2606275    0.1692343  -3.08  0.001425529    1.788    0.441
       176  -9.8310     20.8451     31.4121   9.9529198499e+01   7.0477854037e+01    0.3401809    0.2231996 -53.87  0.001426965    1.307    0.235
       177 -11.1584    127.8920     30.3909   5.5149912791e+01   4.9908912252e+01    0.3945835    0.3254254 -49.57 0.0008617658    1.249    0.200
       178  -9.4153    187.7678     31.0000   4.5624656269e+01   3.4331685319e+01    0.1824609    0.1123601 -28.77 0.0003068099    1.559    0.359
       179  -9.4365    166.3977     31.2013   4.8542859450e+01   3.9738276315e+01    0.1978596     0.125775 -41.10 0.0002600314    1.503    0.335
       180 -10.1614     22.4589     38.0816   1.0087367854e+02   6.8818723566e+01    0.2183678     0.171395  40.33 0.0006480322    1.486    0.327
       181 -10.7911      7.5119     28.0809   1.0714914604e+02   7.2167994655e+01    0.4804016    0.2795204  57.60  0.002419012    2.460    0.594
       182  -9.4399    170.8316    247.1653   9.5199365816e+01   4.3766239317e+00    0.1528871     0.101786  15.10  0.000776428    1.361    0.265
       183 -10.3971     77.1404     26.9695   6.8336337087e+01   6.2643682129e+01    0.4003972     0.193388 -30.64   0.00111234    2.172    0.540
       184  -9.0869     74.2765    243.6978   1.1293107102e+02   1.6969326658e+01    0.1102001   0.06173506  54.71 0.0003397472    1.541    0.351
       185 -11.0728    113.7640     26.1521   5.6667327385e+01   5.4117453890e+01    0.3077422    0.2359632 -44.10 0.0008600687    1.354    0.261
       186  -9.2850    106.6873     27.2870   5.8977880945e+01   5.5735458873e+01    0.1471011    0.1140091 -70.09  0.000303175    1.581    0.368
       187 -10.6350    100.4669     26.2885   6.0260928191e+01   5.7405032422e+01    0.3099978    0.2206004  42.17   0.00112029    1.405    0.288
       188  -9.0137    139.0728     27.0000   5.1588301490e+01   4.7434133754e+01    0.2501608   0.08252337  64.68 0.0008065135    2.971    0.663
       189  -8.3925     18.4740     26.1235   9.9048557056e+01   7.1856137212e+01    0.2954767    0.1038951 -47.83  0.001079187    2.310    0.567
       190 -10.9622     14.0875     21.8186   1.0035130124e+02   7.3149777943e+01    0.4834772    0.2402394  16.28  0.002424433    2.260    0.558
       191 -10.1149     59.1966     23.5489   7.4201115383e+01   6.6794524441e+01    0.2207482    0.1795225  -6.14 0.0004997209    1.272    0.214
       192 -10.0686     58.5882     19.7477   7.2444455463e+01   6.7549828486e+01    0.2745572    0.2111788 -48.27 0.0005980554    1.453    0.312
       193 -10.3103     90.8503     22.5742   6.1416166626e+01   6.0235956477e+01      0.28442    0.2508061  32.09 0.0009863337    1.111    0.100
       194 -10.9710     82.6586     22.3475   6.4023845948e+01   6.2153619013e+01    0.5073986    0.2160296  35.23  0.001719786    3.295    0.697
       195  -9.4197    135.5535     46.4738   5.9530259095e+01   4.5553402600e+01    0.1516634    0.1456203 -67.89 0.0001733369    1.045    0.043
       196  -9.4626    202.4490    240.4466   8.8891506439e+01   1.1735247908e+00    0.1089756   0.07809715  16.76 0.0001119499    1.023    0.022
       197  -9.2605    117.6916    239.3092   1.0420190018e+02   1.2287207114e+01    0.1126718   0.07039987  53.08 0.0003650189    1.617    0.382
       198  -9.4154     90.8870    237.2340   1.0923283389e+02   1.5995939402e+01    0.1337578    0.1170226  22.03 0.0005246323    1.305    0.234
       199  -9.5388      6.8338     20.6283   1.0516765885e+02   7.3889679982e+01    0.1488333    0.1093515  29.51 0.0003689483    1.599    0.375
       200 -10.6636    209.0088     18.3196   3.9789394304e+01   3.0629304796e+01    0.1845233    0.1610163 -77.36 0.0004901357    1.116    0.104
       201  -8.9750     65.2978     18.3356   6.8646810009e+01   6.6469303605e+01     0.143563    0.1030794   8.11 0.0007031836    1.652    0.395
       202 -10.2115    114.6971     17.3562   5.2636311293e+01   5.5001799577e+01    0.2656004    0.1644739  59.95 0.0002378817    1.530    0.346
       203 -10.5095     82.8764     16.2186   6.0819391007e+01   6.2969315740e+01    0.2536348    0.2010518 -17.69 0.0004232846    1.283    0.221
       204 -11.9264     25.6696    235.6266   1.2180295886e+02   2.3470361814e+01    0.2754561    0.2182025  22.69  0.001178436    1.558    0.358
       205  -9.9023    249.4348    233.9757   8.0509849026e+01  -3.6932378656e+00    0.1509148    0.1000743  14.25 0.0003876334    1.100    0.091
       206  -9.1416    243.3158    230.3030   8.0902335645e+01  -2.6583630953e+00    0.1081622   0.06000116   6.91 0.0006492398    1.620    0.383
       207  -9.1493     27.2785     16.7010   8.8682958864e+01   7.2941562135e+01    0.1138357    0.1020253  89.34  0.000203557    1.539    0.350
       208 -10.0018    154.2948     14.9608   4.4701599702e+01   4.4809862494e+01    0.1929118    0.1869278 -41.50 0.0003441904    1.075    0.070
       209  -9.0831     47.9890    230.0212   1.1722350269e+02   2.2165424810e+01    0.1299514    0.0967634  52.44 0.0003795162    1.016    0.016
       210 -10.3995    140.5947    228.6265   9.8632033733e+01   1.0795541159e+01    0.2143191    0.1130307 -48.43  0.001241094    2.380    0.580
       211  -9.6942    209.4960    229.5308   8.6216025552e+01   1.4922185978e+00     0.111072   0.08154519  14.83 1.026511e-05    1.002    0.002
       212  -9.9504    223.2874    226.5822   8.3514468294e+01   9.3990213555e-02    0.1812465    0.1055971  -4.59 0.0006236208    1.739    0.425
       213 -11.0628      1.3883    224.7706   1.2609018705e+02   2.7520245001e+01    0.2781827    0.1398154  87.91  0.001103251    1.872    0.466
       214  -9.3116    191.5120     13.5797   4.0008588313e+01   3.5355836261e+01    0.1344644    0.1245762 -67.37 0.0001095669    1.041    0.039
       215  -9.4759    164.9460     12.5399   4.2493677106e+01   4.2254650672e+01    0.2019838    0.1338569  73.59 3.567747e-05    1.464    0.317
       216 -11.2074      2.4905    220.4760   1.2578367259e+02   2.8193913828e+01    0.2562292     0.131488  64.51  0.001715149    1.485    0.327
       217  -9.0264    123.4795    222.4587   1.0131384531e+02   1.4066800196e+01    0.1193819   0.09434224  36.56 6.354919e-05    1.009    0.009
       218  -8.7654    126.6776    220.7297   1.0047373438e+02   1.3896433640e+01    0.1137018   0.08284537  11.63 0.0003545017    1.569    0.363
       219 -11.1554      9.0425    218.0076   1.2444170671e+02   2.8086809528e+01    0.2172524    0.1830089  15.10  0.001659265    1.622    0.384
       220 -10.0364    205.7452    212.5198   8.4364595213e+01   3.9608848305e+00    0.1907458    0.1414493 -15.13 0.0007554815    1.318    0.241
       221 -10.8170      4.2598    212.2367   1.2523452751e+02   2.9553710869e+01     0.375488   0.02819167  46.29  0.001592241    3.458    0.711
       222  -9.4767    249.4692    211.4778   7.7113700324e+01  -1.5024250673e+00    0.1095808    0.0773702   4.54 0.0002735505    1.030    0.029
       223  -9.2533    209.6619    211.2837   8.3499850528e+01   3.5815181838e+00     0.100372   0.08518029  42.28 0.0007013017    1.627    0.386
       224 -10.2877     20.1658    209.8668   1.2191611006e+02   2.8606215483e+01    0.1833402    0.1062476  55.12 0.0006508744    1.301    0.231
       225 -10.7199      3.0369    205.7176   1.2531195961e+02   3.0881551372e+01    0.1585145    0.1135684  49.30  0.001172873    1.135    0.119
       226 -10.1461     10.1919    203.3977   1.2376118079e+02   3.0730605335e+01    0.1633054   0.07020278  42.43 0.0005600716    1.715    0.417
       227  -9.2987    193.4843    201.5744   8.4845843058e+01   7.0765533712e+00    0.1204871   0.09591756  15.96 0.0001025466    1.011    0.011
       228 -10.2224     23.5483    196.8536   1.2063254634e+02   3.0821294604e+01    0.1860047    0.1770097 -29.14  0.001075857    1.495    0.331
       229 -11.0395     13.8349    192.6032   1.2258926524e+02   3.2550427458e+01    0.2252811    0.1265935  59.16 0.0005321162    1.394    0.283
       230 -10.8103      6.1145    191.8987   1.2425858078e+02   3.3339393566e+01     0.176703    0.1336291  63.37  0.001284196    1.016    0.016
       231  -9.6196      1.2707    191.1499   1.2529003143e+02   3.3874306983e+01    0.1562444   0.07576991  79.69 0.0007238413    1.765    0.434
       232  -9.6029    208.4440     13.4937   3.8509259964e+01   3.1267466078e+01    0.1349184     0.114706 -54.26 0.0001355236    1.028    0.028
       233  -9.8276     22.4709    179.9467   1.2003447211e+02   3.4406729123e+01    0.1768716    0.1357814  47.72 0.0004693986    1.160    0.138
       234  -9.3208     13.4911    180.4974   1.2216796171e+02   3.5079405693e+01    0.1216161   0.08777525  62.15 0.0001524983    1.083    0.077
       235 -11.3461      5.0921    167.2458   1.2362239972e+02   3.8598805275e+01    0.3212255    0.1967862  68.14  0.002001348    1.319    0.242
       236  -9.6962    226.6435    163.9921   7.2479004434e+01   7.1562796964e+00    0.1756277    0.1365039 -12.91 0.0007543722    1.114    0.103
       237  -9.7940     14.6429    163.6769   1.2109253486e+02   3.8636440551e+01    0.1147305   0.08574072 -45.54 0.0001219455    1.768    0.434
       238  -9.1832    247.4935    155.4556   6.7604454626e+01   5.1306415591e+00    0.1203703   0.09531035  -6.22 0.0001945355    1.006    0.006
       239 -11.1972      3.0487    153.5715   1.2358713483e+02   4.1794373377e+01    0.3169561    0.1333053  26.24  0.001615027    2.379    0.580
       240 -10.9716     15.5801    150.6076   1.2011850632e+02   4.1536593085e+01    0.2171968    0.1688546  49.33 0.0007912329    1.196    0.164
       241  -9.3677    237.7197    149.6793   6.7939295135e+01   7.3385728758e+00    0.1253843   0.08209152   0.39 0.0002527654    1.584    0.369
