#   1 NUMBER                 Running object number                                     
#   2 MAG_AUTO               Kron-like elliptical aperture magnitude                    [mag]
#   3 X_IMAGE                Object position along x                                    [pixel]
#   4 Y_IMAGE                Object position along y                                    [pixel]
#   5 X_WORLD                Barycenter position along world x axis                     [deg]
#   6 Y_WORLD                Barycenter position along world y axis                     [deg]
#   7 A_WORLD                Profile RMS along major axis (world units)                 [deg]
#   8 B_WORLD                Profile RMS along minor axis (world units)                 [deg]
#   9 THETA_WORLD            Position angle (CCW/world-x)                               [deg]
#  10 FWHM_WORLD             FWHM assuming a gaussian core                              [deg]
#  11 ELONGATION             A_IMAGE/B_IMAGE                                           
#  12 ELLIPTICITY            1 - B_IMAGE/A_IMAGE                                       
         1 -14.5042      3.0465     92.3219   1.3699310471e+02   5.6155434574e+01     3.784763     1.029414 -73.75   0.01214056    5.432    0.816
         2 -14.8063      3.1871    135.2925   1.4282577424e+02   4.6699115300e+01     4.189585    0.6813432 -72.16   0.01304316    5.145    0.806
         3 -13.3296    199.0704     29.3019   6.7457614264e+01   3.2229051580e+01      1.39947       1.0083  48.66  0.005863902    1.534    0.348
         4 -13.4520    215.8082      9.1031   6.0776487316e+01   3.0573705291e+01    0.9255314    0.7664625  75.33  0.003392836    1.167    0.143
         5 -10.8668      2.7564      4.1886   1.1271408973e+02   7.1949952537e+01    0.3226582    0.1057425 -38.76   0.00179302    2.367    0.578
         6 -10.4433    122.4649    250.0000   1.3090809665e+02   6.4004421981e+00     0.284355   0.06012372  42.01  0.000937081    3.954    0.747
         7 -11.9976    238.1784    247.8551   1.0899429198e+02  -1.2374077231e+01    0.3797781    0.2954533 -33.49  0.002579278    1.509    0.338
         8 -11.0704    249.1681    248.5563   1.0718244520e+02  -1.4051876120e+01    0.3901398    0.2450042 -19.17  0.002443123    1.592    0.372
         9 -11.7778    244.0168    247.4627   1.0789927969e+02  -1.3179385473e+01    0.3961197    0.2462802 -16.59  0.002401385    1.676    0.403
        10 -13.5149     33.5983    246.3533   1.4636219134e+02   1.9972051061e+01     1.318277     1.046814  51.57  0.009959599    1.446    0.309
        11 -13.2096     44.9039    215.0443   1.4191924849e+02   2.4843432344e+01     1.082782    0.7054501 -71.92  0.005183005    1.422    0.297
        12 -12.9974     29.3824    232.7735   1.4613484988e+02   2.3091933719e+01    0.3011548    0.2270954 -86.49 0.0007815201    1.220    0.180
        13 -14.1225     34.1114    226.9566   1.4488515893e+02   2.3698424881e+01    0.7582461    0.5349281  73.01   0.00242783    1.080    0.074
        14 -11.8056     99.3540    247.9440   1.3497237186e+02   1.0502562932e+01     0.397972    0.3413616  15.38    0.0025692    1.811    0.448
        15 -10.1938     81.7228    249.1647   1.3829902427e+02   1.2971104746e+01    0.1986223     0.126723  77.27  0.001196093    1.477    0.323
        16 -11.6892    154.6062    248.8642   1.2468665295e+02   1.1601693641e+00    0.4121751     0.183027  45.33  0.001955425    1.868    0.465
        17  -9.8066    139.3139    245.6538   1.2717561452e+02   4.3198992073e+00    0.1317424   0.08840182  69.62 0.0007047135    1.715    0.417
        18 -10.9627    139.5972    250.2377   1.2771416856e+02   3.4901847059e+00    0.3577684    0.1189576  45.06  0.001485315    2.452    0.592
        19 -13.8613      8.7734    242.4771   1.5011961626e+02   2.3489358758e+01     1.669669     1.206828  89.65    0.0130793    1.213    0.175
        20 -12.1805    112.3847    231.6818   1.3061161326e+02   1.1450085813e+01    0.5713729    0.1605515  43.74  0.002128917    2.997    0.666
        21 -11.6174     87.9693    226.4848   1.3478042598e+02   1.6420054803e+01    0.4831598     0.151653  54.14  0.001754297    3.445    0.710
        22 -11.5833     56.6861    211.7005   1.3932672150e+02   2.4033922507e+01    0.7857789    0.2243603  56.08  0.002664219    4.426    0.774
        23  -8.9183    152.5244    213.0661   1.1975439243e+02   7.9259046453e+00    0.1839684    0.1387065 -54.43 0.0003568749    1.464    0.317
        24 -12.6425      9.5926    207.2370   1.4781788396e+02   3.0395643548e+01    0.6675064    0.4602418  38.76   0.00298254    1.756    0.430
        25 -10.4067     55.7837    205.7590   1.3889571263e+02   2.5434739959e+01    0.2556891     0.144533  52.80  0.001401887    1.612    0.380
        26  -9.9685     66.3136    250.0535   1.4109943904e+02   1.5024205753e+01    0.1642324     0.122357  79.54 0.0006588566    1.114    0.102
        27 -14.1297      8.9801    155.3965   1.4361334783e+02   4.1752724626e+01     4.244171     1.545021  81.58   0.01336539    5.938    0.832
        28 -10.8252    216.1031    248.8884   1.1314139209e+02  -9.1269206399e+00    0.3628798    0.1741512  17.92  0.001411897    3.757    0.734
        29 -12.0648     63.9242    190.5605   1.3548090049e+02   2.7713215152e+01    0.2736412    0.2341091 -78.36 0.0004243949    1.154    0.134
        30 -11.8470     57.2161    199.2003   1.3790069660e+02   2.6684173563e+01    0.3051834    0.2296993 -85.76 0.0005323762    1.130    0.115
        31 -13.1630     61.1817    175.6832   1.3418324741e+02   3.1507106760e+01     0.521561     0.273444 -47.93  0.001921956    2.283    0.562
        32 -10.8159     74.8914    177.4668   1.3129574610e+02   2.9165042490e+01    0.2411603    0.2068087 -82.50 0.0003162736    1.053    0.051
        33  -9.0957     94.8626    172.1579   1.2580723729e+02   2.7278201316e+01    0.2251872    0.1734465  79.74 0.0005695251    1.320    0.243
        34 -12.0270     82.9836    168.2987   1.2800293419e+02   3.0096926542e+01    0.7058573    0.6865157 -10.82  0.004317206    1.313    0.238
        35 -10.7576      7.5236    193.2939   1.4719786997e+02   3.3531619877e+01    0.2436591    0.1427647  69.16 0.0008605796    1.478    0.324
        36 -10.6547     95.6831    152.6683   1.2214283179e+02   3.1759728507e+01    0.3593596    0.3032155 -37.18  0.000941892    1.378    0.274
        37  -9.5116     98.9719    148.4822   1.2049742883e+02   3.2195507603e+01    0.2604064    0.1924706 -44.07 0.0003527262    1.442    0.307
        38 -11.9380     84.2567    151.6296   1.2484217060e+02   3.3869526755e+01    0.3117636    0.2441142 -49.30 0.0004282082    1.315    0.240
        39 -12.1213     67.3079    143.4623   1.2773750881e+02   3.8316840955e+01    0.6717146    0.4297103  65.55  0.002926348    1.882    0.469
        40 -10.1097    108.5248    137.5360   1.1575268223e+02   3.3082630876e+01    0.5070603    0.3426152 -14.30   0.00160873    2.713    0.631
        41 -10.5420     95.2722    134.7663   1.1864857694e+02   3.6093276114e+01    0.2441498    0.2252412 -41.14 0.0003589383    1.155    0.134
        42 -10.4313     26.3600    129.0269   1.3615124846e+02   4.6323527055e+01    0.2057565    0.1742273  59.75 0.0005118574    1.332    0.249
        43  -9.0542    105.7945    123.9948   1.1340454471e+02   3.6752004630e+01    0.1942793    0.1813425 -61.06 0.0002317498    1.017    0.016
        44  -8.6408     68.6128    115.1361   1.2181273741e+02   4.4817671571e+01     0.187379    0.1138149 -47.20  0.000182044    1.516    0.341
        45 -10.3318    242.4947     93.9999   7.6849737416e+01   1.2119485745e+01    0.1980805    0.1254716 -14.78 0.0008105772    2.662    0.624
        46  -8.6309     65.2914     80.6997   1.1429975078e+02   5.2791549926e+01    0.1227743    0.1049345 -87.84 0.0003150392    1.565    0.361
        47 -10.2128    158.9104     77.1297   8.7407498120e+01   3.4974396527e+01    0.2374285    0.2057384 -84.11 0.0005846117    1.256    0.204
        48  -8.6030    191.6880    192.3761   1.0789030895e+02   4.3384304866e+00    0.1441252    0.1143597  89.40 0.0007029736    1.790    0.441
        49 -11.9478      3.0575     50.1266   1.2819049904e+02   6.4590710535e+01    0.3174048    0.2505355 -59.12  0.001940692    1.310    0.237
        50 -10.9725    201.3291    247.8367   1.1570349938e+02  -6.5958185715e+00    0.3192688    0.1535031 -36.10  0.001590315    2.458    0.593
        51 -12.2147    173.3339    248.8453   1.2112560960e+02  -2.0429865920e+00    0.6514114     0.233633  46.34  0.002744094    2.459    0.593
