#   1 NUMBER                 Running object number                                     
#   2 MAG_AUTO               Kron-like elliptical aperture magnitude                    [mag]
#   3 X_IMAGE                Object position along x                                    [pixel]
#   4 Y_IMAGE                Object position along y                                    [pixel]
#   5 X_WORLD                Barycenter position along world x axis                     [deg]
#   6 Y_WORLD                Barycenter position along world y axis                     [deg]
#   7 A_WORLD                Profile RMS along major axis (world units)                 [deg]
#   8 B_WORLD                Profile RMS along minor axis (world units)                 [deg]
#   9 THETA_WORLD            Position angle (CCW/world-x)                               [deg]
#  10 FWHM_WORLD             FWHM assuming a gaussian core                              [deg]
#  11 ELONGATION             A_IMAGE/B_IMAGE                                           
#  12 ELLIPTICITY            1 - B_IMAGE/A_IMAGE                                       
         1 -11.6209    193.0243     19.2204   6.6183172403e+01   3.4099934247e+01    0.9096457    0.8370525 -45.88  0.003764129    1.156    0.135
         2 -10.9085    199.0665     11.4937   6.2889742602e+01   3.3255097526e+01     0.688242    0.3867635  19.46  0.001632563    2.215    0.549
         3  -9.4511     40.5032      2.9127   1.0151038013e+02   7.0198273474e+01     0.253119    0.1055076 -42.86  0.001166744    2.173    0.540
         4 -10.7910    207.3343      2.4732   5.9125854467e+01   3.1883099875e+01    0.6850792    0.3289561  71.29  0.002877223    2.079    0.519
         5  -8.9440     58.4077      3.2339   9.3216928250e+01   6.7607586689e+01    0.1888721    0.1083118 -37.83 0.0009597932    1.715    0.417
         6 -10.4173    100.2020    244.4087   1.3252215759e+02   1.6490132606e+01    0.3064697    0.1194599  44.59  0.001487414    1.809    0.447
         7  -9.4459    164.0962    247.8684   1.2252802715e+02   7.5829062124e+00    0.2609597    0.1103045 -49.66  0.001536872    3.583    0.721
         8 -10.2942    126.9216    249.4025   1.2865236881e+02   1.2453396097e+01    0.2646694    0.2269514 -12.35  0.002271245    1.756    0.431
         9  -9.0045    115.2620    249.1657   1.3049145616e+02   1.3992166527e+01    0.1729874   0.08796087 -63.42  0.001178473    2.727    0.633
        10 -16.7330      7.6537    138.3104   1.4222247956e+02   4.4139234597e+01     15.45928     1.792487 -78.73   0.04433665    8.048    0.876
        11  -8.9015    149.5323    228.4996   1.2284482808e+02   1.1893791218e+01    0.1103397   0.08244976  40.43 9.389441e-05    1.003    0.003
        12  -9.7594    162.5146    225.9955   1.2033003782e+02   1.0302397225e+01    0.2558547    0.1123374  29.67  0.001281167    2.490    0.598
        13  -9.8777     83.5266    237.4850   1.3470122650e+02   1.9439781517e+01    0.2375207    0.1320231  81.71  0.001274897    2.234    0.552
        14 -10.9202     73.7714    240.7709   1.3647438526e+02   2.0118775969e+01    0.3940528    0.1605718  54.12  0.002529021    1.944    0.485
        15 -10.5496    134.3840    231.1718   1.2571160167e+02   1.3705784766e+01    0.3874679    0.1747368 -56.67  0.002277789    3.082    0.675
        16  -8.5690    227.8495    203.7968   1.0598973748e+02   2.7028591561e+00     0.159051    0.1537727 -61.20 0.0005726987    1.855    0.461
        17  -8.8022     68.4212    196.9692   1.3428138782e+02   2.7414993695e+01    0.1995574    0.1117576  54.25  0.000668641    1.482    0.325
        18 -10.3052     74.3979    192.0404   1.3274513211e+02   2.7541887398e+01    0.3190908    0.2280644 -42.26  0.001522895    2.071    0.517
        19 -10.1517     78.8136    185.3818   1.3127857131e+02   2.8152204791e+01    0.2429614     0.200316 -49.36 0.0009050381    1.566    0.362
        20 -11.0988    126.8910    229.8818   1.2685673100e+02   1.4910869602e+01     0.401604    0.2808411  59.94  0.002957473    1.411    0.291
        21  -9.7090     86.7109    173.7936   1.2848162433e+02   2.9209787811e+01    0.2130045    0.1942774 -80.04 0.0005773046    1.190    0.160
        22 -11.6039     74.6864    170.9286   1.3065610211e+02   3.1270448567e+01    0.3962405    0.2578461 -45.22  0.001625077    2.049    0.512
        23  -9.5946     78.0317    231.2734   1.3516621137e+02   2.0959696016e+01    0.2469154    0.1234694  65.63  0.001132499    2.057    0.514
        24  -9.0545    113.8021    174.3855   1.2295483958e+02   2.5282249156e+01    0.1727307    0.1052796  32.22 0.0009508366    1.680    0.405
        25 -10.7252     73.7974    227.0823   1.3557685691e+02   2.2058958341e+01    0.3274294    0.1767619  61.87 0.0005017783    1.640    0.390
        26 -10.8200     93.1958    165.5983   1.2614303739e+02   2.9844118770e+01    0.4798099    0.4013436 -28.35  0.001851252    1.624    0.384
        27 -10.1107     83.2981    162.6552   1.2790643447e+02   3.1731205823e+01    0.3277386    0.1828316 -74.59   0.00178997    2.003    0.501
        28 -12.8393     68.1283    144.8518   1.2912639513e+02   3.7149883540e+01     1.172224    0.7145908  67.95  0.006579708    1.794    0.443
        29 -11.8746     59.2348    135.0022   1.3000430271e+02   4.0218525958e+01     1.363016    0.3647138 -71.65  0.004469356    4.999    0.800
        30  -8.9286    104.1787    148.7951   1.2136078512e+02   3.1456899976e+01    0.2366331    0.1733363 -51.76  0.001315702    1.459    0.315
        31  -8.2585    106.3183    145.3138   1.2031869279e+02   3.1808635349e+01    0.2024163    0.1414583 -12.09 0.0009827426    2.488    0.598
        32 -10.5133     93.1456    148.3675   1.2382372533e+02   3.3159579845e+01    0.2454486    0.2275338  22.68 0.0005402872    1.248    0.198
        33  -9.0441     73.8836    134.7399   1.2641711697e+02   3.8524562934e+01    0.3898256   0.06038957 -60.29  0.001171537    5.360    0.813
        34  -8.8936    113.4930    135.1924   1.1689611652e+02   3.2662109099e+01    0.2455819    0.1734742  -2.32  0.001173703    2.322    0.569
        35  -9.2585    101.0679    132.2294   1.1937043867e+02   3.5233721593e+01    0.2754573    0.2193334 -20.19 0.0007505356    1.655    0.396
        36  -8.3355    109.3504    122.8711   1.1557573374e+02   3.5830131845e+01    0.1844172    0.1651121 -50.63 0.0004745325    1.133    0.118
        37 -12.0057     40.9554    146.1224   1.3545895201e+02   3.9828292591e+01    0.7192524     0.186011 -66.36   0.00314226    3.189    0.686
        38 -14.0349     58.0869    216.6157   1.3751756322e+02   2.5402838142e+01     2.613497     1.743649  48.52    0.0205728    1.202    0.168
        39  -9.0838     86.6693    241.0483   1.3444336189e+02   1.8579842099e+01    0.1632373    0.1181661  44.53 0.0002715223    1.179    0.152
        40  -8.8032    168.4138    113.1489   9.9276642262e+01   2.6351407093e+01    0.2957497    0.2403064 -52.51   0.00086564    1.479    0.324
        41  -8.6903    141.4767    229.9803   1.2438150829e+02   1.2860617043e+01    0.1304081   0.08777877  82.41 0.0008096846    2.503    0.600
        42 -10.1901     83.1614    243.1184   1.3514182872e+02   1.8715318163e+01    0.2603484    0.1247235 -75.97  0.001744339    2.697    0.629
        43 -11.1748    185.2812     26.2936   6.9679204859e+01   3.5398415039e+01    0.6839406    0.5593582  77.96  0.002496794    1.366    0.268
        44  -9.3278    101.0094    249.5061   1.3277241846e+02   1.5736067200e+01    0.2126587    0.1553679  32.93   0.00174376    1.451    0.311
        45 -10.5773    104.3858    244.0276   1.3182247293e+02   1.6018384969e+01    0.3242167     0.199862  73.68  0.001740542    1.942    0.485
        46 -10.5805     58.9988    247.8306   1.3915891588e+02   2.0780851412e+01    0.3060678    0.1984332  57.42  0.002644786    1.088    0.081
        47  -9.0100    144.4758    248.4973   1.2575304313e+02   1.0214505213e+01    0.1043915   0.07379255  42.83 0.0002335931    1.028    0.027
