#   1 NUMBER                 Running object number                                     
#   2 MAG_AUTO               Kron-like elliptical aperture magnitude                    [mag]
#   3 X_IMAGE                Object position along x                                    [pixel]
#   4 Y_IMAGE                Object position along y                                    [pixel]
#   5 X_WORLD                Barycenter position along world x axis                     [deg]
#   6 Y_WORLD                Barycenter position along world y axis                     [deg]
#   7 A_WORLD                Profile RMS along major axis (world units)                 [deg]
#   8 B_WORLD                Profile RMS along minor axis (world units)                 [deg]
#   9 THETA_WORLD            Position angle (CCW/world-x)                               [deg]
#  10 FWHM_WORLD             FWHM assuming a gaussian core                              [deg]
#  11 ELONGATION             A_IMAGE/B_IMAGE                                           
#  12 ELLIPTICITY            1 - B_IMAGE/A_IMAGE                                       
         1 -14.1517    188.5439     34.0568   5.9661734940e+01   3.3645581815e+01     1.234298     1.093221 -15.66   0.00366187    1.140    0.123
         2 -14.7300    196.2539     23.8312   5.5320414506e+01   3.2849318950e+01     1.973068     1.168169  -6.24  0.001339405    2.068    0.516
         3 -10.5076     81.6930      5.8539   7.1263228886e+01   6.3188810130e+01    0.2242757    0.1909986  48.93 0.0004006168    1.318    0.242
         4  -9.2827    114.6688      3.7168   6.1516122117e+01   5.6175014972e+01    0.1494775    0.0948942  30.47 0.0003145879    1.612    0.380
         5 -10.8197     61.2283      1.5628   7.6033495772e+01   6.7503252544e+01    0.1776281    0.1080388  31.65  0.000955348    1.694    0.410
         6 -12.9992    229.4156    238.9518   9.9011620801e+01  -2.8537638095e+00    0.6329345     0.370567  24.27  0.002805389    1.447    0.309
         7 -15.7416    160.1577    198.1076   1.0470262868e+02   1.2959930087e+01      1.92236     1.324503  59.52  0.004243343    1.523    0.343
         8  -9.8781     64.4208    250.3176   1.2601549080e+02   1.9020882701e+01    0.1134917   0.09831123  47.23 0.0006365221    1.542    0.352
         9 -19.4211     12.1486    132.7479   1.2759970359e+02   4.5853979885e+01     16.61257     2.023191 -76.67   0.04389719    8.213    0.878
        10 -11.2806     43.9040    209.9616   1.2685664524e+02   2.7721756139e+01    0.3448613    0.1136617  56.69 0.0008359703    2.507    0.601
        11 -11.2079     37.2142    206.6610   1.2779362090e+02   2.9023547156e+01    0.2119293    0.1199572  56.99 0.0007832164    1.342    0.255
        12 -12.5621     52.1107    228.0532   1.2661241504e+02   2.3807874676e+01    0.3447255    0.1648123  63.95   0.00127667    1.704    0.413
        13 -11.5500     44.1520    226.4673   1.2779456621e+02   2.4960689608e+01    0.5437061    0.2682525  77.16    0.0022388    1.846    0.458
        14 -13.6399     50.2290    218.2677   1.2631710586e+02   2.5608141568e+01    0.6117206    0.1818002  59.54   0.00287235    3.313    0.698
        15 -10.0384     70.9565    228.9695   1.2362100406e+02   2.1405541740e+01     0.153941    0.1049957  63.51 0.0004225312    1.089    0.082
        16  -9.3332     88.6528    243.1870   1.2181107211e+02   1.7033127743e+01    0.1031167   0.05169372  55.57 0.0002351646    1.519    0.342
        17  -9.2110     80.6742    220.6900   1.2137645834e+02   2.1472404687e+01   0.08982562   0.08311658  23.88 0.0007039295    1.657    0.397
        18  -9.9403     77.9804    243.4657   1.2350534437e+02   1.8352877438e+01     0.138823   0.07458954  46.92 -3.858157e-05    1.411    0.291
        19 -15.5550     71.9915    149.2680   1.1569894561e+02   3.5918606279e+01     4.751119     2.287622  82.55   0.01862629    3.587    0.721
        20 -10.9028     39.2045    212.6795   1.2781361744e+02   2.7776331535e+01    0.1726171   0.09813741  59.42 0.0005509097    1.308    0.236
        21 -10.7952    211.1705    202.8574   9.6548000273e+01   3.7125640865e+00    0.1686869    0.1465422  39.00 0.0005730463    1.228    0.186
        22 -13.0696    193.6617    194.4081   9.8169605035e+01   7.7300035949e+00    0.7338159    0.4705367 -54.89  0.004067484    2.338    0.572
        23 -16.0987    243.0792    184.7821   8.8263356521e+01   4.9877796422e-01     1.759538      1.21003 -20.77  0.009824445    1.468    0.319
        24  -9.1259     85.6579    201.3065   1.1878567392e+02   2.4030815172e+01    0.1213312   0.06876836  66.03 0.0002876657    1.687    0.407
        25 -12.1465    204.1554    199.1356   9.7128673746e+01   5.3339264404e+00    0.2460239    0.1739419  28.15 0.0008966232    1.234    0.190
        26  -9.3061     75.2413    200.6582   1.2062656958e+02   2.5540751487e+01    0.1124713   0.06782966  72.69 0.0006460783    1.559    0.359
        27 -13.0460     67.8472    194.0445   1.2139783412e+02   2.7674447920e+01    0.5541792    0.4350932  76.09  0.002869037    1.062    0.058
        28 -10.7534    180.0258    192.5034   1.0027326406e+02   1.0355573962e+01     0.200957    0.1756031 -76.51  0.000720458    1.532    0.347
        29 -12.3248    207.1884    182.1078   9.3732018039e+01   6.9838823076e+00    0.3586345    0.2810442 -58.66  0.002150386    1.897    0.473
        30 -12.0942    211.1536    179.1017   9.2508862406e+01   6.6725833061e+00    0.3640867    0.2664262  -8.88  0.001509191    1.488    0.328
        31 -16.1790    157.6557    241.3970   1.1059155630e+02   7.5512976869e+00     1.139622     1.056147  26.64  0.003538828    1.291    0.225
        32 -10.1994     99.6098    180.8417   1.1389154781e+02   2.5689523506e+01    0.1884201     0.150914  45.86 0.0005489787    1.243    0.195
        33 -10.6755     66.9479    238.7720   1.2492279105e+02   2.0402173568e+01    0.1577583   0.09651296  66.40 0.0002612967    1.282    0.220
        34 -12.1018     79.2822    178.6239   1.1767624751e+02   2.9030549961e+01    0.3373317    0.2417298 -41.23  0.001831173    2.135    0.532
        35 -12.2014     82.9393    173.5146   1.1636277631e+02   2.9504322681e+01    0.2632534    0.2301025 -58.02  0.001281289    1.412    0.292
        36 -11.4188    196.8182    175.8117   9.4433955233e+01   9.7124597876e+00     0.541956     0.346014  76.10  0.002198421    3.904    0.744
        37 -11.8109    196.0678    170.6391   9.3624002186e+01   1.0589597351e+01    0.3616657     0.316704  39.69  0.001915739    1.106    0.096
        38 -11.3393    193.9779    165.2378   9.2990926202e+01   1.1773710604e+01    0.3632333     0.291925 -64.96  0.002077306    1.742    0.426
        39  -9.6591     65.4962    187.4659   1.2124838453e+02   2.9179452732e+01    0.1143182   0.08932892  71.08 1.770555e-05    1.008    0.008
        40 -16.5766    128.0574    246.2130   1.1581615580e+02   1.1256554141e+01     3.200945    0.7386335  42.85   0.01416499    3.193    0.687
        41 -10.1182      1.5799    201.8883   1.3352222177e+02   3.3308424669e+01    0.1226215   0.08136322  68.94   0.00100667    1.046    0.044
        42 -10.8607    137.1931    170.8251   1.0494729761e+02   2.1371317920e+01    0.2000627    0.1650181  66.44  0.000741719    1.189    0.159
        43 -11.1274    141.8347    170.1013   1.0390055682e+02   2.0679129681e+01    0.2064439    0.1665802  72.14  0.001231968    1.320    0.243
        44 -11.1231    145.9171    168.3583   1.0279670201e+02   2.0253310460e+01     0.227444    0.1954365 -39.35 0.0004748233    1.340    0.254
        45 -12.3394     95.7761    156.6420   1.1145433873e+02   3.0956244086e+01    0.5249158    0.3849793 -33.43  0.002903975    2.053    0.513
        46 -10.8412    165.4514    153.1469   9.6129340545e+01   1.9227684864e+01    0.2547714    0.1772426  79.81  0.001187193    2.256    0.557
        47 -11.4649    133.8433    144.6359   1.0110237692e+02   2.6856008866e+01    0.9432816     0.237832 -54.56  0.002584881    5.680    0.824
        48 -10.7503    174.6972    149.1882   9.3506406894e+01   1.8078199371e+01    0.2423966    0.1940096  41.31 0.0007787018    1.162    0.139
        49  -9.1231     48.8845    237.1427   1.2764157768e+02   2.2761822228e+01    0.1453069   0.08601309  69.45 0.0004926531    1.300    0.231
        50 -11.6247    107.4641    140.8452   1.0631242545e+02   3.2310883911e+01    0.4894696    0.3148492 -32.19  0.002290585    2.413    0.586
        51 -12.4806     95.4267    141.5303   1.0920004739e+02   3.4128968023e+01    0.2533751    0.2302785 -60.76  0.001603646    1.206    0.171
        52 -11.3938     92.8899    235.7902   1.2056515599e+02   1.7545745858e+01    0.1658305    0.1226512  76.46 0.0003559767    1.267    0.211
        53  -9.8354     42.4808    235.3753   1.2853658130e+02   2.3745765235e+01    0.2283941   0.08575838  65.85  0.001329705    2.417    0.586
        54 -11.3306    114.6842    131.1594   1.0284081759e+02   3.3075990085e+01    0.3546011    0.2826787 -16.28 0.0008681317    1.818    0.450
        55 -11.1345    119.5968    129.5566   1.0137154806e+02   3.2522330867e+01    0.4010241    0.2668107 -81.32  0.001763334    2.038    0.509
        56 -10.7669    119.6862    124.6765   1.0034671615e+02   3.3520348230e+01    0.2358078    0.1714671 -30.27 0.0009418222    1.773    0.436
        57 -10.9999    105.9316    130.6969   1.0482106735e+02   3.4698716098e+01    0.3345718    0.2679341  83.64  0.001123232    1.302    0.232
        58 -11.1760    102.3915    127.4630   1.0505575862e+02   3.5987323844e+01    0.2663153    0.2217534 -39.21 0.0006723405    1.405    0.288
        59 -10.5376    160.7879    127.6897   9.1755012759e+01   2.4740425576e+01    0.2967579    0.2023558 -55.27  0.001414682    1.665    0.399
        60 -10.1077    125.7737    127.5751   9.9524446550e+01   3.1782148958e+01    0.1977647    0.1274603  57.23 0.0003945837    1.641    0.391
        61 -11.0825    135.4158    122.3580   9.6165185272e+01   3.0973232665e+01    0.4857543    0.1329789 -51.75  0.001386712    4.421    0.774
        62 -14.3684    231.7615    108.7833   7.3950230171e+01   1.2440681643e+01     1.558256     1.044888  22.12  0.005545588    1.694    0.410
        63 -14.0935    235.4152     97.2531   7.0524470564e+01   1.3290416825e+01     1.298093    0.8736197   6.99  0.004609227    1.793    0.442
        64 -11.9728     63.3421    113.6292   1.1244971893e+02   4.4864855722e+01    0.2414619    0.2120478 -61.10 0.0007993444    1.176    0.150
        65 -10.2832    167.9725    112.5965   8.6654101734e+01   2.5977491402e+01    0.2824737    0.2044517 -58.63 0.0008958091    1.637    0.389
        66 -10.4774    110.0725    119.9295   1.0166977196e+02   3.6270674236e+01    0.2040616     0.191643 -85.09 0.0003132284    1.013    0.013
        67 -11.2967    120.4598    111.1203   9.7158582120e+01   3.6217464897e+01    0.3058726    0.1863653  61.25  0.001341492    1.981    0.495
        68 -10.3691    205.6465    110.1471   7.8701493326e+01   1.7950397242e+01    0.2759891    0.2041667  40.78 0.0006180287    1.345    0.257
        69 -11.6892     67.4219    104.0655   1.0958999075e+02   4.6493449617e+01    0.3808914    0.2789759 -27.50  0.002046934    1.930    0.482
        70  -9.6232    134.6067    102.7824   9.1671245662e+01   3.5105759911e+01     0.210411    0.1363019 -54.52 0.0005998545    1.623    0.384
        71  -9.7435     70.1780     72.2076   1.0134897785e+02   5.3261282795e+01    0.1786483    0.1520438  81.78 0.0005259663    1.364    0.267
        72 -10.7580     61.7855     71.3367   1.0382730871e+02   5.4612155536e+01    0.2270937    0.1705237 -52.93 0.0005809265    1.145    0.126
        73 -11.2231    166.7196     66.9414   7.4092015759e+01   3.4420478908e+01    0.3838188    0.2762111 -78.64 0.0005789706    1.958    0.489
        74  -9.4769    105.5099     61.4984   8.7221625582e+01   4.9420033419e+01    0.1463248    0.1362987 -40.71 -6.802998e-05    1.027    0.026
        75  -9.9930     84.5565    234.6440   1.2182603999e+02   1.8810397608e+01    0.1677805   0.09481159 -69.58  0.001159553    2.027    0.507
        76 -13.9421    177.8525     43.2499   6.4371379578e+01   3.5227367174e+01     1.080089    0.8027598 -16.90 0.0009930725    1.402    0.287
        77 -10.8107    196.5322    248.9496   1.0534029501e+02   9.6869554237e-01    0.1240999    0.1030586 -23.21 0.0005248861    1.564    0.361
        78  -9.6651     60.3627    246.0094   1.2637989268e+02   2.0118732487e+01    0.1218335   0.07671123  87.39 0.0007048394    1.525    0.344
        79 -16.4487    138.4237    220.7816   1.1147534515e+02   1.3175377882e+01     1.915491     1.020911  35.19  0.005246135    1.862    0.463
        80 -12.0964     67.4032    244.1967   1.2519384238e+02   1.9546190949e+01    0.2909627    0.1699796  40.26  0.001285522    1.653    0.395
        81 -12.1987    181.8168    234.0354   1.0582684126e+02   4.7640081191e+00    0.2501843    0.1488092  46.26  0.001422385    1.361    0.265
