#   1 NUMBER                 Running object number                                     
#   2 MAG_AUTO               Kron-like elliptical aperture magnitude                    [mag]
#   3 X_IMAGE                Object position along x                                    [pixel]
#   4 Y_IMAGE                Object position along y                                    [pixel]
#   5 X_WORLD                Barycenter position along world x axis                     [deg]
#   6 Y_WORLD                Barycenter position along world y axis                     [deg]
#   7 A_WORLD                Profile RMS along major axis (world units)                 [deg]
#   8 B_WORLD                Profile RMS along minor axis (world units)                 [deg]
#   9 THETA_WORLD            Position angle (CCW/world-x)                               [deg]
#  10 FWHM_WORLD             FWHM assuming a gaussian core                              [deg]
#  11 ELONGATION             A_IMAGE/B_IMAGE                                           
#  12 ELLIPTICITY            1 - B_IMAGE/A_IMAGE                                       
         1 -15.7887    113.4160     74.2965   8.4973109063e+01   4.5535404592e+01     3.103577     1.756982  44.32   0.01142587    1.777    0.437
         2 -17.0648    172.7288     68.7598   6.8907107474e+01   3.2309851993e+01     4.715587     3.036283  38.67   0.02073737    1.677    0.404
         3 -15.9169    200.6171     93.1464   7.0621982458e+01   2.1930959173e+01     2.477409     1.256497 -27.59  0.007751829    1.971    0.493
         4 -19.3542    183.7699    131.5128   8.2974151179e+01   1.9589931088e+01     7.539286     5.718213  34.32    0.0412551    1.221    0.181
         5 -10.8939    166.8137     32.0919   5.8044097243e+01   3.9185181039e+01    0.2416066    0.1972354 -59.85 0.0006478591    1.293    0.226
         6 -12.0764    214.1568     19.6607   4.8137736095e+01   2.8193994189e+01    0.2627909    0.2504565 -19.23 0.0002959733    1.089    0.082
         7 -10.8802     12.1680     15.5818   1.0959277971e+02   7.3805483605e+01     0.348086    0.1520322 -65.56  0.001670658    2.029    0.507
         8  -9.8949     28.0009     12.0523   9.6992642217e+01   7.3175180731e+01     0.156606    0.1278885 -39.05 0.0004955159    1.046    0.044
         9 -12.9689    238.6360      4.4899   4.2069867559e+01   2.3823243084e+01    0.4969504    0.2522404 -25.09  0.002431509    1.748    0.428
        10 -12.6753    248.5129      5.1200   4.1632301103e+01   2.1562836429e+01    0.5650987    0.2729174 -15.14   0.00264953    2.153    0.536
        11 -12.2134    227.4782      6.4410   4.3330438979e+01   2.6243367351e+01    0.2680113    0.1882176   9.86  0.001401387    1.773    0.436
        12 -10.3068    178.3843      5.8948   4.7442836242e+01   3.8919521305e+01     0.302007    0.1050264 -31.44  0.001087309    2.535    0.606
        13  -9.7092     62.5430      6.5334   7.4196974066e+01   6.8741718646e+01    0.1364892    0.1235566  -4.15 3.898157e-05    1.015    0.015
        14 -10.0047     26.6582      7.2969   9.5303626614e+01   7.4265843115e+01    0.1150157   0.09993995  80.16 0.0007033141    1.664    0.399
        15  -9.7694      8.5910      4.8113   1.0779369300e+02   7.6361389509e+01    0.1531176    0.1036881 -69.33 0.0001381479    1.495    0.331
        16 -11.2850    201.8152      3.9927   4.4601362847e+01   3.2851563390e+01     0.232946    0.1951683  87.99  0.000479164    1.182    0.154
        17 -11.2057     40.1183      2.6955   8.3515935563e+01   7.3299534260e+01     0.267939    0.2133021  41.34   0.00111327    1.444    0.307
        18  -9.8740    110.6385    202.6998   1.0993760091e+02   2.0591406948e+01    0.1131427    0.0859763  13.25 0.0007035651    1.720    0.418
        19 -11.9514    201.9226    249.3666   9.8840241170e+01   1.9411711758e+00    0.1750976    0.1243783  24.56 0.0002592198    1.067    0.063
        20 -10.5805    193.4923    249.5590   1.0021222395e+02   3.0121262165e+00    0.1380735     0.124024   2.27 0.0005893717    1.464    0.317
        21 -11.0656    190.2434    249.0347   1.0067713145e+02   3.4849725629e+00    0.1950218    0.1074792  37.50 0.0001964872    1.338    0.253
        22 -10.8837    175.9970    230.8332   1.0091383103e+02   7.3017072112e+00    0.2788533    0.1656359 -16.37   0.00171796    2.490    0.598
        23 -10.2124     81.8114    230.1589   1.1798042213e+02   2.0164520931e+01    0.1354125    0.1064582  33.84 0.0003345507    1.319    0.242
        24 -10.5959     69.3097    230.1292   1.2029933306e+02   2.1674132541e+01    0.1706214    0.1141941  38.09 0.0003764433    1.270    0.213
        25 -12.5838    244.7380    222.8532   8.8682355475e+01  -1.2271899141e+00    0.4758558    0.2485714  15.25  0.001055524    1.699    0.412
        26 -11.3792    237.2805    220.9534   8.9538526566e+01  -1.0076304105e-01    0.2267344    0.2011299  41.61  0.001337195    1.877    0.467
        27 -11.3159    235.2396    214.8487   8.8956137523e+01   7.2034639403e-01    0.2352435    0.1288836   5.71  0.001455992    1.910    0.476
        28 -11.6174    197.1596    226.4776   9.6757893721e+01   4.8091311351e+00    0.2411349    0.1524493  30.30 0.0002590627    1.150    0.130
        29 -11.4364    203.0127    225.5117   9.5653656944e+01   4.0947416092e+00    0.2833829    0.1542327  38.00  0.000980368    1.455    0.313
        30 -12.1605    205.5771    221.0672   9.4622288428e+01   4.1918690117e+00    0.3016793    0.1994453 -28.52  0.001508299    1.821    0.451
        31 -12.6446    182.5506    221.9315   9.8657314735e+01   7.3737888889e+00    0.6246932    0.1875489  36.28   0.00170551    2.595    0.615
        32 -11.2675    175.5252    220.5083   9.9706274601e+01   8.5540394192e+00    0.1242641    0.1120607 -49.62 0.0001418338    1.624    0.384
        33 -13.1078    169.5435    223.9726   1.0120315881e+02   9.0090361547e+00    0.8326618    0.1977206  40.93  0.003447071    3.184    0.686
        34 -10.9459    216.8851    221.9836   9.2897918637e+01   2.5339336974e+00    0.1625362    0.1188794  23.36  0.000452906    1.069    0.065
        35 -12.1989    130.1090    220.9259   1.0807747762e+02   1.5071421798e+01    0.3070665    0.2408561  -0.34  0.002149031    1.742    0.426
        36  -9.4228     30.3359    222.2717   1.2712516726e+02   2.7151064614e+01   0.08327941   0.07580541  22.81  0.000254695    1.599    0.375
        37 -10.7458    199.4863    220.8602   9.5612651667e+01   5.0717019097e+00    0.2423301    0.1108163  26.21  0.001318145    2.041    0.510
        38 -13.2301    123.5616    215.7684   1.0877707271e+02   1.6737743979e+01     0.548321    0.4221693  38.38  0.003829672    1.063    0.060
        39 -12.0589    128.7266    211.2765   1.0728722856e+02   1.6648765628e+01    0.2194504    0.1981753  54.44 0.0006464671    1.214    0.176
        40 -10.8444    230.5394    220.1653   9.0468511156e+01   8.6037590236e-01    0.2006054    0.1188096  43.96  0.000962885    1.913    0.477
        41 -13.3474    142.4960    215.8378   1.0517410195e+02   1.3987082381e+01    0.5027074    0.3599495  39.24  0.003475966    1.063    0.059
        42 -12.3426    138.4153    215.2686   1.0588038204e+02   1.4662791757e+01    0.2688035    0.2208609 -12.73   0.00191818    1.605    0.377
        43 -10.8532    173.0873    247.3188   1.0330853414e+02   5.9192628493e+00    0.1543762    0.1277564  29.62 0.0003168201    1.232    0.188
        44 -10.1228    132.8986    246.6447   1.1010822273e+02   1.1345030125e+01    0.1555739   0.09397759  40.74 0.0007316948    1.162    0.140
        45 -11.7120    156.0514    245.1382   1.0595848218e+02   8.4349868154e+00    0.2405376    0.1615491  20.59  0.001031529    1.463    0.317
        46 -17.3350    190.8767    171.7156   8.9508524875e+01   1.2345732238e+01     3.029136     1.843319 -33.58    0.0166993    1.830    0.454
        47 -16.0923    229.9137    123.2387   7.2988054284e+01   1.1765181025e+01      1.29611     1.221642  12.15   0.00782735    1.206    0.171
        48 -16.1780    173.0234    154.6861   8.9858182160e+01   1.8011893713e+01     1.616547    0.8387061  21.49  0.006367669    3.021    0.669
        49 -17.0341    211.3175    141.6757   8.0029198574e+01   1.2793780256e+01     1.984084     1.485351  28.58    0.0116814    1.204    0.170
        50 -11.8366    243.5549    243.3050   9.1689782176e+01  -2.7389881801e+00    0.1863733    0.1304473  23.38 0.0005021735    1.196    0.164
        51 -11.5430     87.0125    140.5721   1.0749386366e+02   3.5845659202e+01    0.2760374    0.2189533  82.65 0.0004950464    1.287    0.223
        52 -12.5715     96.4157    139.6456   1.0488698606e+02   3.4567046964e+01    0.4262573    0.2288909  48.45 0.0008202023    1.737    0.424
        53 -12.0879     90.7835    142.0958   1.0673931250e+02   3.4938786835e+01    0.4462796    0.2462216 -60.88  0.002167203    1.914    0.478
        54 -12.9319     97.4422    150.4045   1.0629962998e+02   3.2159468736e+01    0.5491831    0.2546639 -65.64  0.002019678    2.566    0.610
        55 -11.9956    100.7552    150.3950   1.0547486867e+02   3.1634380899e+01    0.3159934    0.2227534  31.09   0.00111101    1.473    0.321
        56 -11.9450     82.3635    151.3491   1.1022013869e+02   3.4245858412e+01    0.5039155    0.2697217  77.88  0.001755263    2.824    0.646
        57 -11.8451     90.0469    150.6259   1.0818324931e+02   3.3258050466e+01     0.393154    0.2009838 -46.18  0.001790573    2.498    0.600
        58  -9.3247     71.6261    152.6931   1.1310744668e+02   3.5463470304e+01    0.1209465    0.1003544 -17.43 0.0007031203    1.770    0.435
        59 -10.7701     50.1247    149.8472   1.1829550753e+02   3.8757149023e+01    0.1942929    0.1388428  65.96 0.0004956999    1.220    0.181
        60 -11.7363     46.3935    200.0781   1.2293665657e+02   2.9260812854e+01    0.2158105    0.1861176 -85.53 0.0006844543    1.361    0.265
        61 -10.7251     56.8814    145.7907   1.1612454642e+02   3.8840616631e+01     0.173277    0.1629642  74.60 0.0007110699    1.174    0.148
        62 -10.5635     82.1396    144.0913   1.0928551588e+02   3.5818212500e+01    0.1786596    0.1742865  57.91 0.0002906166    1.182    0.154
        63 -10.1754     14.3873    140.7352   1.2687653744e+02   4.4211826815e+01    0.1533978   0.09286901 -75.13 0.0002952939    1.542    0.352
        64 -11.2355     71.0314    137.9386   1.1138645166e+02   3.8739429114e+01    0.3360316    0.1755591  51.72  0.001434507    1.820    0.451
        65 -10.4625     80.3287    137.1599   1.0876226552e+02   3.7588997206e+01    0.1998384    0.1741136  40.74 0.0004092233    1.177    0.151
        66 -11.0446     93.8835    145.8388   1.0651109484e+02   3.3664704810e+01    0.2323365    0.1771685  46.53 0.0003474216    1.177    0.150
        67  -9.9855     34.1648    197.8568   1.2531877443e+02   3.0948614553e+01    0.1286108    0.1128913  55.91 0.0002552706    1.265    0.210
        68 -10.1335     66.4387    134.4899   1.1217692940e+02   4.0129500263e+01     0.131645    0.1150544  72.06  0.000127456    1.008    0.008
        69  -9.9465     78.0060    131.9722   1.0861411213e+02   3.9078038437e+01    0.1894848    0.1606651 -25.88 0.0003053038    1.572    0.364
        70 -11.3033     87.8509    127.7735   1.0520470993e+02   3.8515542358e+01    0.3090974    0.2478619 -12.77  0.001589082    1.799    0.444
        71 -10.5821     95.8823    196.0184   1.1228624922e+02   2.3794137617e+01    0.1722578    0.1390591  48.94 0.0002747528    1.032    0.031
        72 -12.2397     94.0767    123.9896   1.0280181031e+02   3.8344949169e+01    0.3995359    0.2631063  66.54 0.0009653489    1.766    0.434
        73 -10.4772     81.1802    125.0769   1.0661841796e+02   4.0153453008e+01    0.1879451    0.1805596 -58.14 0.0002782542    1.183    0.154
        74 -12.3096    146.4359    208.5983   1.0355211215e+02   1.4404060778e+01    0.3626955    0.2800312  27.97  0.001487623    1.162    0.140
        75 -10.6228     63.6903    122.5868   1.1128020747e+02   4.3208781773e+01    0.2004674    0.1893035 -60.96 0.0004771755    1.208    0.172
        76 -12.5245    118.4321    191.8906   1.0709328375e+02   2.1202779804e+01    0.4108609    0.3841007 -14.96   0.00259474    1.356    0.262
        77 -10.3422     68.9263    120.9819   1.0949412945e+02   4.2871231157e+01     0.201512    0.1780993  74.53 0.0003282102    1.021    0.021
        78 -11.6111     86.1740    115.9602   1.0354811936e+02   4.1440977608e+01    0.4665463    0.3205668  -6.28  0.001614739    2.731    0.634
        79 -10.3852     71.0442    117.4749   1.0829542345e+02   4.3386377664e+01     0.193818    0.1298104  37.57 0.0001745466    1.491    0.329
        80 -10.9502      9.8088    116.9737   1.2674030912e+02   4.9884185674e+01    0.1812316    0.1572073  58.36 0.0002677426    1.175    0.149
        81 -10.4507    245.0119    191.0220   8.3688351361e+01   1.6320856046e+00    0.1754729    0.1278139  12.89 0.0004864218    1.011    0.011
        82 -10.6813     67.3310    114.8918   1.0898382824e+02   4.4509063585e+01    0.1901332     0.163971 -80.23 0.0004260474    1.099    0.090
        83 -11.2461      5.7400    114.1927   1.2777808058e+02   5.0790030434e+01    0.2143519    0.1222561  89.94 0.0006549826    1.454    0.312
        84 -10.5600     13.4916    216.4898   1.3004109647e+02   2.9690619285e+01     0.102255   0.07037399  57.16 -1.057626e-06    1.016    0.015
        85  -9.9430     33.1659    108.8002   1.1881658938e+02   4.9925789636e+01    0.1657769    0.1363097 -59.10 0.0004060821    1.292    0.226
        86 -16.3424    131.8002    105.8465   8.8666518730e+01   3.5081796911e+01       3.8346     1.925812  44.74   0.01337323    1.917    0.478
        87 -10.8264     85.1334    106.8680   1.0205406717e+02   4.3693942155e+01     0.337688    0.1890777 -50.83 0.0008440028    1.824    0.452
        88 -10.9189    241.4766    104.8245   6.7110180666e+01   1.1899877784e+01    0.2991055    0.1865081 -23.71  0.001420495    1.434    0.303
        89 -10.9858     85.6320    100.4922   1.0053418997e+02   4.5084267167e+01     0.248667    0.1330892 -57.37 0.0007390404    1.848    0.459
        90 -12.4651    111.0737    184.7481   1.0778250687e+02   2.3530336056e+01    0.4923488    0.3040962 -81.72  0.002530511    2.363    0.577
        91 -11.3053     72.5159     97.6370   1.0411552497e+02   4.7834924406e+01    0.2760655    0.2202328  87.85 0.0007957143    1.304    0.233
        92  -9.8578     39.8468     97.8153   1.1516111381e+02   5.1916789982e+01    0.1789062    0.1354524  70.76 0.0002956513    1.279    0.218
        93 -10.1762     60.9088     97.5130   1.0794607427e+02   4.9509670007e+01    0.1904182    0.1339721  36.16  0.000340894    1.484    0.326
        94 -11.3819     75.6194     93.9687   1.0229933136e+02   4.8227351877e+01    0.3396755    0.2085318  49.49 0.0006613029    1.679    0.404
        95  -9.9395     32.8487     95.1126   1.1719341993e+02   5.3254281316e+01    0.1798864    0.1333216 -58.18 0.0006705598    1.330    0.248
        96 -11.3378    105.6451     93.1351   9.2648743693e+01   4.3110618530e+01    0.2463415     0.201211  58.31 0.0004467767    1.250    0.200
        97 -11.3473     92.2519     93.0003   9.6703452239e+01   4.5658297421e+01    0.2020383    0.1863427 -69.44 -0.000430966    1.063    0.059
        98 -11.1269     99.0725     91.3295   9.4163548825e+01   4.4777222752e+01    0.2082102    0.1858311  48.79  0.000594902    1.115    0.103
        99 -11.5248     88.1027     89.0740   9.7043630900e+01   4.7294461263e+01    0.3592939    0.2392638  29.13  0.001080326    1.745    0.427
       100 -11.5572     58.5198    216.4763   1.2150249017e+02   2.5090722037e+01    0.3649694    0.2330922  18.56  0.001273962    2.239    0.553
       101 -10.3887     79.8126     88.1067   9.9532245466e+01   4.8932086763e+01    0.2138205    0.1881711 -89.24 0.0004355371    1.149    0.130
       102  -9.6650     50.2831     88.2606   1.0987780858e+02   5.3089535730e+01    0.1267288   0.09952759 -37.30 0.0006873321    1.481    0.325
       103 -10.6043    230.6236     85.3493   6.3970918972e+01   1.6509929444e+01    0.2377494    0.1972195  32.09 0.0006518339    1.237    0.192
       104 -10.5116    239.9012     83.1697   6.2184364745e+01   1.4877932774e+01    0.3972969    0.1713757 -24.59  0.001701531    2.129    0.530
       105 -12.5482    222.7933     76.9713   6.2943239552e+01   1.9271567966e+01    0.3683959    0.2903814 -54.32  0.000754047    1.461    0.316
       106 -10.5197    248.7813    185.2669   8.2144673585e+01   1.6600963823e+00    0.3083299   0.09415765  34.00  0.001385037    2.977    0.664
       107 -10.1463     17.2180    184.7603   1.2825730650e+02   3.4988682574e+01    0.1280298    0.1118687  82.99 0.0003404594    1.295    0.228
       108 -16.4108    146.1229    191.8172   1.0140603068e+02   1.6895306205e+01     3.504388     1.670672  51.44   0.01681969    2.253    0.556
       109 -11.7379    100.0343     71.5824   8.8236285656e+01   4.8932675709e+01    0.2759384    0.2635442  57.11 0.0003048089    1.058    0.055
       110 -10.9039     53.7568     68.4923   1.0416179292e+02   5.7445847699e+01     0.267887    0.1751392 -60.95 0.0006480357    1.397    0.284
       111 -10.2789    239.9363    183.9708   8.3280181049e+01   3.0648976788e+00    0.1705993    0.1287698  10.79 0.0003587171    1.024    0.024
       112 -11.4614    242.8299     65.6855   5.7495432930e+01   1.6389318192e+01    0.3696592    0.2512148 -80.13  0.001377002    2.181    0.542
       113 -10.5766     86.0312    180.4377   1.1279976258e+02   2.7955914751e+01    0.3457967    0.1609278 -72.66  0.001678959    2.680    0.627
       114  -9.6583     48.6036    180.7263   1.2121304304e+02   3.2607558436e+01     0.102114   0.08929421 -10.27 0.0006987719    1.741    0.426
       115 -16.2216    225.4093    180.2217   8.4957924990e+01   5.6546489545e+00     1.915762     1.586434  -0.47   0.01370385    1.176    0.150
       116 -11.6019     95.7316    176.4050   1.1016364961e+02   2.7324811870e+01    0.2615958     0.175915 -73.19  0.001259605    1.721    0.419
       117 -10.8700     30.0020     62.2599   1.1273225973e+02   6.1540681233e+01    0.2233947    0.1656007 -69.67 0.0003561508    1.173    0.148
       118 -11.2750    130.2437     61.9354   7.6256279881e+01   4.4069604439e+01    0.2107447    0.2028655 -12.39            0    1.060    0.056
       119 -10.3086      9.8419     59.6778   1.2127079310e+02   6.3574476516e+01    0.2536348    0.1159435 -55.56  0.001122006    1.878    0.467
       120 -10.7967    233.9288     58.4234   5.6679537638e+01   1.9157181082e+01    0.3822649    0.1945442  40.70  0.001233218    2.321    0.569
       121 -12.0182    138.4749     58.0295   7.2855302712e+01   4.2735789602e+01    0.3885995    0.2720448   2.85  0.001167716    2.037    0.509
       122 -10.7558     16.9590    176.5585   1.2798125761e+02   3.6585263603e+01    0.1501933   0.09163012  37.05 2.468643e-05    1.498    0.332
       123 -13.3301    101.1583    172.8714   1.0849921916e+02   2.7177751061e+01     0.354368    0.2921185  86.74 0.0007896211    1.313    0.238
       124 -10.3653     34.3946     58.7354   1.0998622328e+02   6.1990806206e+01    0.1917686    0.1035008 -55.79 0.0004914695    1.597    0.374
       125 -10.8746     98.1610    166.4094   1.0835983845e+02   2.8861004598e+01    0.2183317    0.1623093  52.38  0.000599257    1.165    0.142
       126 -10.0716      1.3783     57.7195   1.2482200757e+02   6.4429001675e+01    0.1696405   0.09008964 -69.72 0.0004703741    1.494    0.331
       127  -9.5293    241.3217     56.6655   5.5387154783e+01   1.7765769059e+01    0.1414658   0.09112665 -52.01 0.0007050133    1.705    0.414
       128  -9.9840    225.9822     56.0042   5.6991121615e+01   2.1223240281e+01     0.220921    0.1583865  16.53  0.001114074    1.655    0.396
       129 -13.9596    125.2202     44.0972   7.1131562014e+01   4.8454502229e+01    0.8701361    0.7052813 -27.31  0.002848469    1.259    0.205
       130 -13.1071    126.9129     52.6493   7.3873395071e+01   4.6562028573e+01    0.7816659    0.3389103  55.27 0.0003888702    2.345    0.574
       131 -11.3929    112.4400     55.2247   7.8848377513e+01   4.9558526922e+01    0.4266769    0.2738513  62.37 0.0008026146    1.810    0.448
       132 -12.0616    249.3237     52.9292   5.3600652831e+01   1.6508177376e+01    0.2364241    0.1958336 -30.73 0.0002832355    1.059    0.055
       133 -11.4783     87.8987    173.7780   1.1164230186e+02   2.8951901236e+01    0.2620424     0.174565 -78.67  0.001524974    1.705    0.414
       134 -11.9247    154.3445     52.0684   6.7250044976e+01   3.9656016109e+01    0.3437391    0.2569805  62.54  0.001607479    1.365    0.267
       135 -12.6797    242.4171     48.4725   5.3177566810e+01   1.8469858570e+01     0.296392    0.2558175  19.56 0.0006717458    1.267    0.211
       136 -12.7644    140.9953     47.9831   6.8733768568e+01   4.3778909643e+01    0.6719562    0.3106268 -32.67  0.001212808    2.158    0.537
       137  -9.8121    226.2990     49.3216   5.5155825916e+01   2.1958186715e+01    0.1402415    0.1022343  19.48 0.0003884282    1.624    0.384
       138  -9.8468     29.4680     49.4690   1.1000307995e+02   6.4672960306e+01     0.130992    0.1135309 -62.88 7.304393e-05    1.008    0.008
       139 -11.0721    230.2233     47.2768   5.4162448412e+01   2.1303904830e+01     0.238524    0.2037199 -39.18 0.0003258826    1.093    0.085
       140 -10.8257    113.4660     48.0447   7.5873294394e+01   5.0651630750e+01    0.2781947    0.1966659  32.96  0.001249218    1.588    0.370
       141 -12.5328    155.9229     43.6294   6.4023908614e+01   4.0525027294e+01    0.5987108    0.3034782 -29.33  0.002159464    1.975    0.494
       142 -11.7635    145.3553     42.8600   6.5917178977e+01   4.3441084628e+01    0.3167747    0.2517783 -85.14 0.0004861998    1.488    0.328
       143 -15.2533    231.3614    165.9434   8.1425372511e+01   6.3281587075e+00     1.159509    0.7572585   0.73   0.00699138    1.491    0.329
       144 -11.4643     94.1814    214.4175   1.1437167784e+02   2.1000743580e+01    0.2725368    0.1651114  35.83 0.0008448765    1.385    0.278
       145 -10.2799     38.1154    165.8767   1.2257467486e+02   3.6694657748e+01    0.1839901    0.1229484  62.26 0.0002815493    1.223    0.182
       146 -11.0557    119.0028     56.0365   7.7244674565e+01   4.7865817276e+01    0.3321074    0.2254536 -47.92 0.0003676225    1.530    0.347
       147 -12.2947    117.5410     40.0006   7.1573326324e+01   5.1057914788e+01    0.5685105    0.3406385  18.09  0.001653312    2.854    0.650
       148 -10.8560     93.6989     40.9586   7.9287462977e+01   5.6472985446e+01    0.2113111    0.1866634 -37.27 0.0003407382    1.109    0.098
       149 -11.0593    191.7782     40.1918   5.6916839380e+01   3.1529492117e+01    0.1988443    0.1701895  18.70 0.0004759402    1.283    0.221
       150 -11.9277    132.5154     39.9546   6.7732645703e+01   4.7255577313e+01    0.2971316    0.2717367  18.86 0.0006396282    1.141    0.124
       151 -11.8074    132.9692     33.5037   6.5118471982e+01   4.8112584067e+01    0.3881882    0.3244753  14.54 0.0007227929    1.326    0.246
       152 -11.0398    166.0411     38.3560   6.0333471244e+01   3.8566765894e+01    0.3569204    0.3030751  55.74  0.001039189    1.172    0.146
       153 -10.6371     55.3117     38.9532   9.3997127407e+01   6.4009770559e+01    0.1955019    0.1643456 -46.35 0.0002819218    1.091    0.083
       154 -10.5353     30.4456    213.9810   1.2677712454e+02   2.8511412896e+01    0.1572174    0.1051204  48.17  0.000288692    1.131    0.116
       155  -9.4422    238.3602     38.2805   5.0941767804e+01   2.0493403382e+01    0.1347298   0.09680326  28.16 0.0007014403    1.670    0.401
       156 -11.5420    147.4473     46.4819   6.6768066444e+01   4.2333472449e+01    0.2655036    0.1947199   2.78 0.0006205724    1.721    0.419
       157 -10.1344     89.4441     37.4529   7.9291507417e+01   5.8042729820e+01    0.1457236    0.1412907 -32.71 2.046112e-05    1.043    0.041
       158  -9.7647     49.3016    165.6458   1.1990107978e+02   3.5527117882e+01    0.1315026   0.07084765  62.89 0.0007038555    1.705    0.413
       159 -10.7876     42.2077    160.8864   1.2122855724e+02   3.7292359547e+01    0.3103401    0.1149432 -75.60  0.001443748    2.666    0.625
       160  -9.7088    144.9603     34.9124   6.3067442166e+01   4.4714947154e+01    0.1784639    0.1756051  -9.35 0.0003570999    1.029    0.028
       161 -12.7883    198.7392     32.5829   5.3657265246e+01   3.0665631142e+01    0.3917574    0.3293938  65.30 0.0005942031    1.224    0.183
       162 -11.0534    188.0422     33.2001   5.5241489449e+01   3.3371111345e+01    0.2377848    0.2044891 -34.04 0.0003743479    1.125    0.111
       163 -12.2700    214.3609     31.5954   5.1555971572e+01   2.6855361292e+01    0.2964343    0.2518727  75.61 0.0002064857    1.245    0.197
       164 -10.5183    121.5200    243.2002   1.1179791395e+02   1.3271276162e+01    0.2061443    0.1212147  50.54  0.001071741    1.456    0.313
       165 -10.2081     65.1164    162.8694   1.1584105652e+02   3.4195284632e+01    0.1928453     0.138778  64.89 0.0004788901    1.231    0.188
       166 -10.7953     28.8970     28.2686   1.0367260815e+02   6.9633549808e+01     0.234373    0.1596716 -51.36 0.0002606435    1.247    0.198
       167 -11.0801    195.5731     39.2982   5.6118478915e+01   3.0665253097e+01    0.1991978    0.1411559 -11.21 0.0009384149    1.535    0.348
       168 -12.0749    216.5822     25.6676   4.9627522397e+01   2.6962512012e+01    0.3718159    0.2136459 -46.75 0.0007079862    1.672    0.402
       169 -11.9654    188.6949    242.1426   1.0012680897e+02   4.3653335619e+00    0.2485274    0.1487636  29.42 0.0008859989    1.197    0.165
       170 -11.3136     71.0580     26.8181   8.1552292161e+01   6.3737233351e+01     0.227722    0.2104396 -23.26 0.0002735755    1.021    0.020
       171 -11.1388    209.6843     25.2212   5.0203143419e+01   2.8720014284e+01    0.3362238    0.1996689  80.93 0.0009464829    1.876    0.467
       172 -12.0585    201.8812     22.9576   5.0361709989e+01   3.0946073795e+01    0.4243368    0.2002323 -16.71  0.001676651    2.311    0.567
       173 -10.2498     62.7907     24.3730   8.3991829264e+01   6.5719918701e+01    0.1846721    0.1286452  29.39 0.0003165731    1.567    0.362
       174 -10.9958    175.0851     22.3340   5.3443250217e+01   3.8118517229e+01    0.2586817    0.2099854 -37.04 0.0003728553    1.208    0.172
       175 -10.5827    248.5882    159.4912   7.7535147098e+01   4.3290866776e+00      0.19501    0.1870922 -72.49 0.0009409727    1.817    0.450
       176 -10.2836     76.7297    201.8987   1.1681828368e+02   2.5342111498e+01    0.2333898    0.1278726 -82.35  0.001107416    2.224    0.550
       177 -11.2904    229.3250     19.1026   4.6635683760e+01   2.4585982254e+01    0.3430655    0.1380991 -51.83  0.001265482    2.648    0.622
       178 -11.0741    189.5303     27.0378   5.3084761525e+01   3.3708602577e+01    0.2908064    0.1870237  51.69  0.000788559    1.596    0.373
       179 -10.9599     20.5401     18.5056   1.0501205602e+02   7.2542807811e+01    0.2138034    0.1787605 -47.23 7.036068e-05    1.015    0.015
       180 -10.6444     16.0924     18.9438   1.0815899454e+02   7.2794236175e+01    0.1908808    0.1729892 -21.50 0.0004224674    1.168    0.144
       181 -11.9505    238.7587     16.5093   4.5199582871e+01   2.2665552914e+01    0.2574812    0.1697934 -27.07  0.000956825    1.350    0.259
       182 -11.5658     85.6413     33.4073   7.8888823369e+01   5.9591616601e+01    0.3137116    0.2457292 -24.49 0.0001275443    1.301    0.232
       183 -11.6198     49.6263     16.4303   8.6370236134e+01   6.9409240391e+01    0.3397377    0.2380668  20.65  0.001382693    1.614    0.380
       184 -10.9616     81.9379    242.9560   1.1882194100e+02   1.8295754284e+01    0.1601545    0.1079215  47.87 0.0003410577    1.036    0.035
       185 -10.5561    182.5358     15.8920   5.0323726568e+01   3.6802765087e+01     0.307223    0.1874448 -80.56  0.001324429    1.920    0.479
       186  -9.6710     61.9992     15.9706   7.9955082889e+01   6.7355945181e+01    0.1640712    0.1478614 -15.51 0.0009646409    1.013    0.013
       187  -9.9617      1.7573     15.0093   1.1686090732e+02   7.4461984480e+01    0.1678712    0.1273633 -61.27  0.000303875    1.059    0.056
       188 -11.1060     15.5395    156.0800   1.2738350725e+02   4.0840220236e+01    0.1678661   0.09482514 -88.48 0.0004802757    1.561    0.359
       189 -10.2577     47.2777    242.6380   1.2492123577e+02   2.2260542272e+01    0.1063975   0.04904108  57.70 0.0007010123    1.668    0.400
       190  -9.9542      2.5004    242.4835   1.3252309325e+02   2.6562032004e+01   0.09382563   0.06213843  54.77 -5.618864e-06    1.053    0.051
       191  -9.9616    207.9564    241.4812   9.6919641106e+01   1.8822459706e+00    0.1619289    0.0738868  34.46 0.0006340196    1.559    0.358
       192 -10.7251    110.0400    240.7160   1.1363215516e+02   1.5092878448e+01    0.1514858   0.09996209  40.54 0.0003080843    1.085    0.078
       193 -10.0482     61.5014    240.9144   1.2233521124e+02   2.0962631442e+01    0.1240058   0.09030242  84.77 0.0004200325    1.510    0.338
       194 -12.6859    127.1302    237.7410   1.1030343256e+02   1.3227401986e+01    0.2303723    0.1763767  54.65 0.0004987449    1.304    0.233
       195 -10.4406     43.3740    238.1522   1.2541355258e+02   2.3337827613e+01    0.1336963   0.07292081  74.46 0.0009505082    1.759    0.432
       196 -11.9094    245.5104    235.6896   9.0376452740e+01  -2.3778645461e+00    0.2469888    0.1519767 -19.58  0.001304362    1.757    0.431
       197 -11.3541    232.7701    236.0645   9.2341008768e+01  -8.2787221053e-01     0.262266    0.1530185  17.79  0.001090939    1.333    0.250
       198 -10.8526    102.5293    236.1910   1.1462080851e+02   1.6679825268e+01     0.199967    0.1240362  66.13   0.00135391    1.815    0.449
