#   1 NUMBER                 Running object number                                     
#   2 MAG_AUTO               Kron-like elliptical aperture magnitude                    [mag]
#   3 X_IMAGE                Object position along x                                    [pixel]
#   4 Y_IMAGE                Object position along y                                    [pixel]
#   5 X_WORLD                Barycenter position along world x axis                     [deg]
#   6 Y_WORLD                Barycenter position along world y axis                     [deg]
#   7 A_WORLD                Profile RMS along major axis (world units)                 [deg]
#   8 B_WORLD                Profile RMS along minor axis (world units)                 [deg]
#   9 THETA_WORLD            Position angle (CCW/world-x)                               [deg]
#  10 FWHM_WORLD             FWHM assuming a gaussian core                              [deg]
#  11 ELONGATION             A_IMAGE/B_IMAGE                                           
#  12 ELLIPTICITY            1 - B_IMAGE/A_IMAGE                                       
         1  -9.3635     80.2008     12.4600   8.2327684841e+01   6.0582004879e+01    0.3373175    0.2095768 -50.45  0.001466865    2.697    0.629
         2  -9.7629     50.4441     12.0618   9.1965556611e+01   6.5534455750e+01    0.2774012    0.2283899 -37.00  0.001478663    1.672    0.402
         3  -9.8135    105.0920     11.1779   7.5382137892e+01   5.5809564592e+01    0.3751901    0.1677427 -14.91  0.001707471    2.909    0.656
         4  -8.8180     43.4806     12.1926   9.4666327988e+01   6.6497668911e+01    0.2193507    0.1327415  47.37  0.001298427    2.224    0.550
         5  -8.0607     15.6762     10.9185   1.0599912597e+02   6.9837487754e+01    0.1448501    0.1024188 -19.59 0.0001504825    1.130    0.115
         6  -8.3807     92.6781      9.3664   7.7762138154e+01   5.8491263637e+01     0.113865   0.09430867 -70.33 0.0007038194    1.791    0.442
         7  -9.2289     39.8276      7.3902   9.4035753231e+01   6.7512825523e+01    0.2753045    0.2145143  52.88  0.001502298    2.152    0.535
         8  -8.9990     38.4484      2.0630   9.2223340492e+01   6.8244318296e+01    0.4278255    0.1919091  24.19  0.002306362    2.269    0.559
         9  -9.5232     76.9489      4.8699   8.0320036241e+01   6.1867722014e+01     0.299744    0.2600006 -30.57  0.002138672    1.458    0.314
        10  -9.2764     56.7747      5.7614   8.7044398183e+01   6.5215107912e+01     0.272133    0.2120624 -72.32  0.001308131    3.166    0.684
        11  -9.4621     14.2374      3.5298   1.0343991248e+02   7.0882542500e+01     0.369672    0.1685552 -22.12  0.002186115    2.053    0.513
        12  -8.2059     18.4686      2.5305   1.0101514512e+02   7.0574850940e+01    0.1658675   0.09827214  -1.04 0.0001264644    1.499    0.333
        13  -8.1575    126.4207      5.5133   6.9087492433e+01   5.1685106870e+01    0.1242791    0.1050529  54.28 9.050735e-05    1.013    0.013
        14  -9.6024    105.6927      4.1521   7.2817581144e+01   5.6284211030e+01    0.2595354    0.1962841  15.17  0.001398926    1.392    0.281
        15  -9.5542     59.9777      2.8098   8.4717124691e+01   6.4973620394e+01     0.200579     0.168437  38.23 0.0003389668    1.316    0.240
        16  -8.0493     67.7896      1.7934   8.1804526510e+01   6.3751975004e+01    0.1378285     0.129518  21.60 0.0003580835    1.325    0.245
        17  -8.0908    116.0326      1.4720   6.9771149627e+01   5.4293483050e+01    0.1893814    0.1030351  60.76  0.001017904    1.552    0.356
        18  -8.0520     87.8243      1.5793   7.6116840969e+01   6.0093040588e+01    0.1557346    0.1040591  61.77 0.0005012074    1.578    0.366
        19  -8.7676    186.8405    239.3018   1.1343953661e+02  -3.6357424476e+00    0.2428851    0.1634347 -19.85 0.0006167662    1.880    0.468
        20 -11.1644    236.6222    248.0918   1.0542970106e+02  -1.2724365114e+01    0.8733948    0.6083549  37.11  0.005541375    1.461    0.316
        21 -10.1376    228.6698    249.9206   1.0718751472e+02  -1.1827553522e+01    0.7036745    0.2519179  32.53  0.003094162    2.647    0.622
        22  -9.9238    245.9833    242.7066   1.0282896286e+02  -1.3315572450e+01     0.399804    0.2862006  11.92  0.002597977    1.214    0.177
        23 -11.1430    246.8943    237.8434   1.0182391462e+02  -1.2781948320e+01    0.7395289    0.4037508  35.82  0.001537326    1.760    0.432
        24 -10.1017    248.8257    233.2159   1.0066674231e+02  -1.2412767057e+01    0.5829143    0.2194955 -31.93  0.002629065    2.697    0.629
        25  -8.7998    249.0373    249.7401   1.0348407374e+02  -1.4657388720e+01    0.2767641    0.1809627   2.96  0.000887893    1.458    0.314
        26  -9.5785    249.6508    244.9823   1.0256772952e+02  -1.4121667746e+01    0.6383759    0.2996881 -11.67  0.002579187    3.876    0.742
        27  -9.7655    218.2153    248.5476   1.0890115109e+02  -1.0082027505e+01    0.3812805    0.2471585  21.88  0.002234511    1.418    0.295
        28  -8.3361    219.6748    244.0796   1.0788529431e+02  -9.6645509075e+00    0.1710902    0.1441808  -2.59 0.0005551951    1.108    0.097
        29 -10.2067    211.5601    247.3802   1.0996371556e+02  -8.8928423075e+00    0.4907505    0.3250095 -25.31  0.002875568    1.633    0.388
        30  -9.1199    201.8950    249.4291   1.1213719877e+02  -7.6772158049e+00    0.3030919    0.1833537  22.77  0.001100446    1.664    0.399
        31  -8.3160    197.4967    250.5028   1.1315157289e+02  -7.1373855764e+00    0.1920892    0.1042968  29.26 -0.0002329247    1.730    0.422
        32  -9.0298    187.8015    250.5842   1.1503663910e+02  -5.5852747532e+00     0.245014     0.174282  59.60 0.0007432648    1.848    0.459
        33  -9.3376    186.6147    245.1751   1.1442323621e+02  -4.5442390475e+00    0.2955527     0.179162 -37.35  0.001588618    1.879    0.468
        34  -9.6460    180.5234    249.4989   1.1628778411e+02  -4.2208929807e+00    0.2988783    0.1977636  34.76  0.001700774    1.299    0.230
        35  -8.5812    144.0727    248.8075   1.2338358871e+02   2.0221455105e+00    0.3351478    0.1965473 -31.73  0.001582178    2.729    0.634
        36  -9.1907      4.1545    249.3911   1.4909413737e+02   2.1758507281e+01     0.280866   0.08659194  60.00  0.001390106    2.734    0.634
        37 -10.1894    188.9349    232.9058   1.1197029179e+02  -2.9332754622e+00    0.5042099    0.3838148 -50.66  0.002914711    1.566    0.361
        38  -8.1676    221.1340    237.7782   1.0654177838e+02  -8.9663109813e+00    0.1793038    0.1306592   5.78 0.0007253534    1.356    0.263
        39  -7.4234     78.3209    238.2880   1.3510050033e+02   1.4652577642e+01     0.107416    0.1016792  -8.81 0.0003208842    1.600    0.375
        40  -8.2518    194.8836    236.8389   1.1144631061e+02  -4.5854921948e+00    0.2023181    0.1593059   7.19 0.0006811548    1.312    0.238
        41  -7.6533    123.5165    237.4841   1.2598394936e+02   7.5871126604e+00    0.1326654    0.1149617  54.10 6.306215e-05    1.034    0.033
        42  -7.2211    209.3061    236.3041   1.0854483661e+02  -6.8712921194e+00       0.1299   0.09044291   5.35 0.0007013403    1.602    0.376
        43  -8.5205    178.3622    235.5261   1.1452126516e+02  -1.5595150185e+00    0.3236335    0.2014668   7.59  0.001242289    2.633    0.620
        44  -8.7883    159.6405    235.6699   1.1834036513e+02   1.6721650722e+00    0.2793633    0.2037536  12.91  0.001257629    1.750    0.428
        45  -8.2052    214.7963    239.2359   1.0799122732e+02  -8.1939766607e+00    0.1742167    0.1301132   5.82 0.0005727054    1.324    0.245
        46  -7.4757    216.6270    235.6889   1.0703650122e+02  -7.9469221520e+00    0.1355771   0.08851576   6.76 0.0005096472    1.779    0.438
        47  -7.9780    204.4473    234.7074   1.0921442865e+02  -5.8296885206e+00    0.1667436     0.117142 -21.89 0.0009288301    1.558    0.358
        48  -7.6635    199.5008    235.4585   1.1030807388e+02  -5.1323958491e+00    0.1318211    0.1113964  17.00 7.845439e-05    1.060    0.057
        49  -8.6392    183.8307    234.2597   1.1321622870e+02  -2.2860888145e+00    0.3361451    0.2015436 -55.20  0.001662409    2.179    0.541
        50  -8.3792    229.2055    233.3907   1.0426820582e+02  -9.5573363338e+00    0.2652006    0.1320733 -11.68 0.0009630568    4.172    0.760
        51  -7.4129    130.7100    234.6084   1.2411982443e+02   6.9112956733e+00    0.1283162    0.1048947  -8.63 0.0007006914    1.771    0.435
        52  -9.4779      2.8265    234.0952   1.4847203527e+02   2.4870624443e+01    0.2470822    0.1073903  51.20  0.001473408    1.913    0.477
        53  -7.9054    170.8326    232.8359   1.1561195779e+02   2.1614492824e-01    0.1742871    0.1507577  63.07 0.0003667124    1.295    0.228
        54  -7.4257     91.2930    233.6832   1.3203294391e+02   1.3610952592e+01    0.1349701   0.08571186  70.32 0.0005924188    1.601    0.375
        55  -7.7451    153.5415    232.4734   1.1910029004e+02   3.3249433299e+00     0.134819    0.1196736  39.23 3.461762e-05    1.040    0.039
        56  -9.5536    241.3158    230.4001   1.0151484689e+02  -1.0932568974e+01    0.2694247    0.1709547  -0.89  0.001333524    1.765    0.433
        57  -7.6837    213.5229    231.4681   1.0689959785e+02  -6.7993833670e+00     0.129813    0.1107343  12.41 0.0008093214    1.016    0.016
        58  -8.2860    235.0000    229.9655   1.0259074905e+02  -9.9297472355e+00    0.1968765    0.0667304 -38.76 0.0008071652    2.975    0.664
        59  -7.2940    208.2643    229.3495   1.0754755043e+02  -5.6037683389e+00    0.1312611   0.09314755  -2.22 0.0003622502    1.613    0.380
        60  -8.0005      4.6587    229.3168   1.4788386704e+02   2.5647722198e+01    0.1215841   0.05926935  68.27 0.0003657345    1.710    0.415
        61  -8.0354    195.5186    228.4888   1.0990785452e+02  -3.3191072220e+00    0.1332319    0.1171377  19.91 0.0002175595    1.010    0.010
        62  -7.5681    138.7362    227.6359   1.2144497826e+02   6.8603332927e+00    0.1288381    0.1066302 -10.04 0.0003872082    1.644    0.392
        63  -7.7383    108.5140    227.4565   1.2774152861e+02   1.2104070915e+01    0.1323213    0.1186755  58.97 0.0003736793    1.092    0.084
        64  -7.6588     93.3359    227.3451   1.3086615699e+02   1.4595896764e+01    0.1224704    0.1059418 -18.00 0.0007049231    1.770    0.435
        65 -10.3599    247.3659    224.7666   9.9414270751e+01  -1.0998405291e+01    0.5126658    0.2863117  12.16  0.002522803    2.272    0.560
        66  -9.2610    233.8377    239.3877   1.0445555383e+02  -1.1119830466e+01    0.2169942    0.1345133  25.85 0.0007393007    1.467    0.318
        67  -7.6571    223.2952    225.3747   1.0395563789e+02  -7.4164399575e+00    0.1357046   0.09060735  -2.13 0.0007025221    1.740    0.425
        68  -8.0146    211.7507    224.8424   1.0607487657e+02  -5.4532567647e+00    0.2264467    0.1329804  -0.55 0.0009520375    2.827    0.646
        69  -7.9568    167.9461    224.7315   1.1488256319e+02   2.1886745316e+00    0.1940682    0.1609421  37.91 0.0003798259    1.087    0.080
        70  -8.6950    127.6258    224.2446   1.2328289910e+02   9.4895234620e+00    0.2440609    0.2018175  28.34 0.0002506305    1.348    0.258
        71  -7.6368    218.4355    223.7964   1.0459802043e+02  -6.3836608578e+00    0.1771709    0.1146019 -22.89  0.000835058    1.657    0.396
        72  -7.3437     99.3358    223.3130   1.2911730746e+02   1.4477080699e+01     0.123455    0.1082569  -9.89 0.0007045916    1.688    0.407
        73  -7.3425    229.3295    222.3050   1.0226518814e+02  -7.8946994407e+00    0.1333468   0.08995196   2.80 0.0005551331    1.654    0.395
        74  -7.8004    206.6012    222.1743   1.0660477375e+02  -4.1510885007e+00    0.1771831    0.1188175 -25.06 0.0003895181    1.622    0.384
        75  -8.2485    174.5226    221.9713   1.1305546177e+02   1.5137738162e+00    0.1891777    0.1159222 -20.70 0.0008099347    2.532    0.605
        76  -7.6864    105.4288    222.5518   1.2773762344e+02   1.3635064082e+01    0.1344245    0.1180049  66.43 0.0001561259    1.027    0.026
        77 -10.2832    243.5260    219.8055   9.9198973747e+01  -9.6962153304e+00    0.3762846    0.2029951  20.53  0.001836629    2.159    0.537
        78  -9.8156    244.8308    215.9838   9.8258825053e+01  -9.3133397500e+00    0.3072579    0.2215543 -53.81   0.00172514    1.990    0.498
        79  -7.5833    116.6387    220.7176   1.2510792290e+02   1.2121955518e+01     0.130027    0.1091401   5.36 0.0007016997    1.677    0.404
        80  -7.9034    147.7844    221.4325   1.1857862807e+02   6.4557300060e+00    0.1983625    0.1249075  30.87 0.0009424902    1.690    0.408
        81  -7.9281    195.1422    218.1536   1.0816739945e+02  -1.4809052541e+00    0.1692979     0.161424  71.90  0.000453568    1.275    0.216
        82  -7.7513    170.9971    217.4962   1.1302268413e+02   2.9839451698e+00    0.1899778    0.1166724  18.11 0.0005022589    2.315    0.568
        83  -9.1579    159.3204    216.1819   1.1526455258e+02   5.3778881222e+00    0.2595767    0.2177109  19.67  0.000229135    1.287    0.223
        84  -8.1404    204.2464    215.8682   1.0593009152e+02  -2.6776001848e+00    0.2177555    0.1446108 -11.98   0.00105738    1.927    0.481
        85  -8.9057    248.8944    214.9435   9.7339684726e+01  -9.7640769821e+00    0.1924372    0.1445175  -2.13 0.0004674667    1.243    0.196
        86  -7.5640    211.6570    215.6525   1.0442935814e+02  -3.9165429410e+00    0.1429655   0.09764307   1.49 0.0007044679    1.798    0.444
        87  -7.5491    144.3068    215.3128   1.1833773252e+02   8.3079879157e+00    0.1359834     0.111129   0.13 0.0003727224    1.621    0.383
        88  -7.7149    120.0391    214.7663   1.2350957555e+02   1.2781663315e+01    0.1833984    0.1072789  43.33 0.0004856867    1.570    0.363
        89  -7.5507    112.2966    212.6830   1.2488658399e+02   1.4573382285e+01    0.1437317   0.09936707  73.01 0.0003826305    1.609    0.378
        90  -8.1866    247.3109    211.1152   9.6906551578e+01  -8.9413392268e+00    0.2164955     0.122232  -1.47 0.0009451744    2.740    0.635
        91  -8.0000    186.5541    211.1802   1.0866083304e+02   1.3179942420e+00    0.1853009    0.1295505 -27.63 0.0003273847    1.622    0.383
        92  -8.2898    170.4964    210.8616   1.1196704904e+02   4.3428351503e+00    0.2020616    0.1404735 -45.43  0.001016688    1.544    0.352
        93  -7.4121    199.0000    209.9599   1.0589264193e+02  -7.1289726751e-01    0.2124227   0.07756261 -43.29  0.000645698    2.855    0.650
        94  -7.5359    100.5036    210.5273   1.2715201593e+02   1.7038502469e+01    0.1377443    0.1232821  71.15 0.0008097314    1.039    0.038
        95  -7.8664    108.0628    209.4332   1.2533916870e+02   1.6006126643e+01    0.1817572    0.1252633  13.78 0.0005606255    2.443    0.591
        96  -7.4241     77.9583    209.1951   1.3186355189e+02   2.0905184613e+01    0.1680219     0.096765  42.70 0.0004097162    1.671    0.402
        97  -8.0185    147.4148    208.4717   1.1652584982e+02   9.1321271344e+00    0.1408122    0.1320614  52.14 5.765196e-05    1.015    0.015
        98  -7.5560    177.4243    207.4559   1.0988806714e+02   3.7081948093e+00     0.139536    0.1310955  27.79 0.0001272299    1.008    0.008
        99  -7.7692    163.4767    207.4626   1.1286343284e+02   6.3244620211e+00    0.1422834    0.1325656  36.46 0.0001164249    1.018    0.018
       100  -8.5619    247.6365    205.8394   9.5852132199e+01  -8.1686673536e+00    0.2292156    0.1711236  25.59  0.001095589    1.323    0.244
       101  -8.1735     11.7479    205.7539   1.4502339220e+02   2.9888501113e+01    0.1964715   0.07748543 -87.96 0.0009057405    2.463    0.594
       102  -7.9150    139.8647    205.1614   1.1762600639e+02   1.1230920188e+01    0.1953548    0.1693382  15.99 0.0005048277    1.352    0.261
       103  -7.7274     87.6832    204.6334   1.2915380748e+02   2.0431561902e+01    0.1325063    0.1074329 -30.52 0.0007038548    1.777    0.437
       104  -8.9866    250.2865    198.6900   9.4014990570e+01  -7.4426907954e+00    0.4224415    0.1525494 -34.01  0.001699735    2.721    0.632
       105  -8.7384    243.6696    198.1122   9.5076302436e+01  -6.3058176011e+00    0.4209508    0.1536739 -35.46  0.001689263    2.656    0.623
       106  -8.7421    230.4735    197.8983   9.7449574752e+01  -4.0988545294e+00    0.2880447    0.1918825  15.77 0.0006769294    1.734    0.423
       107  -7.5994    210.6958    198.6575   1.0140132900e+02  -7.7969864276e-01    0.1441011    0.1036139  -2.53 0.0007040593    1.683    0.406
       108  -7.9719    150.8877    198.1940   1.1395942273e+02   1.0623980885e+01    0.1951054    0.1710296  11.34 0.0004344804    1.313    0.238
       109  -7.4969    224.6653    195.6830   9.8110064545e+01  -2.7219555185e+00    0.1423305    0.1003295   0.06 0.0007048008    1.694    0.410
       110  -8.0938    203.0675    194.7588   1.0216318997e+02   1.3297157186e+00    0.2279433    0.1545307  13.69 0.0006832815    1.873    0.466
       111  -7.3549    145.3200    194.3296   1.1450813175e+02   1.2520090077e+01    0.1470087    0.1180381  -5.01 0.0006564985    1.689    0.408
       112  -8.2920    237.1780    192.3474   9.5122233139e+01  -4.2811169579e+00    0.2934634     0.137412 -27.03  0.001188208    2.583    0.613
       113  -7.9047    232.5295    189.9517   9.5501464477e+01  -3.0814678041e+00    0.1974702    0.1089846 -18.64 0.0008093936    2.537    0.606
       114  -8.5696    243.2289    187.8242   9.3136094881e+01  -4.5206286714e+00    0.3341371    0.1841521 -23.02  0.001148324    2.104    0.525
       115  -7.6124    224.4941    189.4976   9.6916731074e+01  -1.6006828637e+00    0.1410497    0.1220397  -5.38 -5.687113e-05    1.104    0.094
       116  -7.8289    191.5204    189.5296   1.0349947687e+02   4.5166308278e+00    0.1453598    0.1351633   6.01 0.0008089569    1.056    0.053
       117  -7.2250    199.2946    188.6895   1.0172556228e+02   3.1893462176e+00    0.1369423     0.115991 -89.59 0.0003939042    1.592    0.372
       118  -8.1434    173.0431    187.9961   1.0713928250e+02   8.4390341601e+00    0.2313232    0.1799062  -5.08 0.0007255991    1.654    0.395
       119  -8.6656    238.0824    185.3609   9.3568646495e+01  -3.2348348228e+00    0.3601926     0.178898 -25.82  0.001493075    2.452    0.592
       120  -9.1910    230.3411    184.7810   9.4871403064e+01  -1.7935278296e+00    0.2607746     0.207097  23.10   0.00032954    1.291    0.225
       121  -7.6387    214.8322    185.6350   9.8000872194e+01   8.4874578257e-01    0.1851572    0.1308186  50.43 0.0004900265    1.588    0.370
       122  -8.9870    249.8200    182.4942   9.0918559770e+01  -4.7042702767e+00    0.2731771    0.1895495  -3.51 0.0006810274    1.710    0.415
       123  -7.8795    211.5194    181.9975   9.7911001034e+01   2.1473119779e+00    0.2007425    0.1193688 -18.62 0.0007137595    2.408    0.585
       124  -7.2281    218.3431    181.3288   9.6442034985e+01   9.9805365420e-01    0.1484206    0.1067802  -0.53 0.0002846628    1.746    0.427
       125  -8.2096    235.4566    179.1940   9.2799474768e+01  -1.7005694745e+00    0.2699181    0.1232354 -34.82    0.0011298    2.138    0.532
       126  -7.9161    182.6056    180.2328   1.0350964808e+02   8.1370875840e+00    0.1999164    0.1386747 -33.11 0.0004486485    1.556    0.357
       127  -8.3875    241.5257    178.4962   9.1568018011e+01  -2.6299767269e+00    0.2429711    0.1203836 -37.71  0.001095923    1.851    0.460
       128  -8.3563    243.3158    175.3264   9.0608342455e+01  -2.3835258253e+00    0.2499806    0.1765087 -25.83  0.001323425    1.356    0.263
       129  -7.8469    189.8347    176.3585   1.0117125426e+02   7.4798043557e+00    0.2107306    0.1348371  31.94 0.0004670373    1.707    0.414
       130  -7.6194    176.6998    176.6620   1.0405411555e+02   1.0070891270e+01    0.1529999    0.1189091  -4.78 0.0005486696    1.663    0.399
       131  -8.9859    246.2506    167.2870   8.8454533492e+01  -1.4788868697e+00    0.2924366    0.2074365  10.97 0.0008926515    1.791    0.442
       132  -7.7961    237.0684    167.4675   9.0096750959e+01   1.1413842447e-01    0.1925647    0.1364007  40.14 0.0005388465    1.522    0.343
       133  -7.6413    227.2993    155.3232   8.9286757356e+01   4.1876528752e+00    0.1440801    0.1096191  -5.54  0.000416974    1.628    0.386
       134  -8.5269    220.0480    148.1033   8.9047690894e+01   7.0030651224e+00     0.220521    0.2085739 -21.48 0.0005497459    1.054    0.051
       135  -7.8507     65.1695    141.4288   1.2472634116e+02   3.8902793386e+01    0.1800314    0.1272196  51.88 0.0004504939    1.550    0.355
       136  -8.0256    248.4811    134.4732   8.1212729557e+01   3.9983164389e+00      0.25517    0.1221746 -31.10  0.001029698    2.339    0.573
       137  -8.3156    242.2885    131.5053   8.1564232635e+01   5.7209245276e+00    0.2604235    0.1140678 -40.33 0.0007456954    2.040    0.510
       138  -8.2310    232.3374    128.3275   8.2505399721e+01   8.2861162999e+00    0.2188077    0.1710786  -1.05  0.001092525    1.740    0.425
       139  -7.8583    192.6432    127.6737   8.9681570644e+01   1.6955823366e+01    0.1584319    0.1237671   6.09 0.0007044948    1.776    0.437
       140  -8.5283    240.0117    124.1407   8.0332534955e+01   7.5179998304e+00     0.357372    0.1915212 -25.55   0.00141232    2.608    0.617
       141  -7.9269    248.4633    116.0434   7.7283584239e+01   7.3118047914e+00    0.1867156    0.1173582 -18.95 0.0006532944    2.401    0.584
       142  -8.1540    218.5031    113.4929   8.1506183233e+01   1.4001764674e+01    0.1469548    0.1366261 -54.03 0.0008105013    1.027    0.026
       143  -8.2205    134.3345    108.4570   9.8142200330e+01   3.4234982362e+01    0.3887811    0.1431448 -45.08  0.001275317    2.693    0.629
       144  -8.4061    241.7925    106.2286   7.6152382898e+01   1.0397737066e+01    0.2540965    0.1801894 -16.34   0.00122049    2.015    0.504
       145  -9.7223      3.9909    105.5120   1.3604349792e+02   5.3229804050e+01     0.321476    0.1838084  62.05  0.001723424    2.512    0.602
       146 -10.5056      6.6003     95.6065   1.3362482171e+02   5.5245657997e+01    0.3185297     0.236999  89.31   0.00207106    1.553    0.356
       147  -8.8840     22.9059     91.9042   1.2768552671e+02   5.4921166298e+01    0.1854693    0.1529435 -51.85 0.0004799946    1.034    0.033
       148  -7.6560    242.3509     91.3308   7.2831369856e+01   1.2887748489e+01    0.1320557    0.1102887   8.70 0.0007047671    1.772    0.436
       149  -8.4719    212.5031     84.5209   7.5721837889e+01   2.0644706760e+01    0.1462062    0.1315328 -72.20  0.000192888    1.013    0.013
       150  -9.8506      2.8452     80.5846   1.3208267155e+02   5.8646591038e+01    0.2675377    0.1128599 -56.98  0.001018784    1.716    0.417
       151  -8.4046    184.2378     77.4950   7.8824009126e+01   2.8558271845e+01    0.2691814    0.2014681 -41.45 0.0007004256    1.353    0.261
       152  -9.2417      1.4458     58.3332   1.2775874668e+02   6.3149877214e+01    0.3797295    0.1049092 -63.12  0.001497463    3.839    0.740
       153  -8.3873     66.4539     58.0671   1.0338781551e+02   5.6740832481e+01    0.1821473     0.158459   6.72 0.0003269122    1.085    0.078
       154  -9.5733     33.2284     57.5359   1.1532755189e+02   6.0925299010e+01    0.2158139    0.1673852 -32.93 0.0003037773    1.064    0.060
       155  -8.7992     94.9290     52.7846   9.2473626406e+01   5.2770242651e+01    0.2150564    0.1847279 -25.27 0.0004766588    1.173    0.147
       156  -8.4690     44.4419     51.8535   1.0927769927e+02   6.0726287596e+01    0.2019923    0.1584005  12.83 0.0006360912    1.259    0.206
       157  -8.1901    132.6886     45.9726   8.0428442021e+01   4.5799964423e+01    0.1835808    0.1737704 -40.08 0.0004364146    1.149    0.130
       158  -8.3777     95.3126     45.5895   8.9931620539e+01   5.3770132492e+01    0.2238458     0.155225  -4.94  0.001164077    1.691    0.409
       159  -8.0689     74.0139     45.6814   9.6605705890e+01   5.7556594602e+01    0.1766859    0.1482333  13.73 0.0003028537    1.074    0.069
       160  -7.8277    116.1105     43.8280   8.3700173907e+01   4.9772722669e+01    0.1795587    0.1460784  21.57 0.0002727539    1.256    0.204
       161  -7.9671     10.3022     42.6755   1.1994248117e+02   6.5461694193e+01   0.09367879    0.0873458 -80.79 0.0003742198    1.637    0.389
       162  -7.8604     77.4478     40.0012   9.3462438917e+01   5.7808461043e+01    0.1775177    0.1181678 -29.07 6.675524e-05    1.489    0.329
       163  -8.5790     21.2219     40.1011   1.1457144740e+02   6.5053712053e+01    0.1750115    0.1376258  -8.15 0.0003885232    1.144    0.126
       164  -8.0303     51.9683     38.6200   1.0184400513e+02   6.1901991461e+01     0.160812    0.1313195   9.34 0.0004474095    1.113    0.101
       165  -7.6184     73.4793     37.4857   9.3850244586e+01   5.8827498061e+01    0.1272155    0.1080666   7.47 0.0008101563    1.002    0.002
       166  -7.8466    124.5700     34.5390   7.8680456496e+01   4.9122648907e+01    0.1343562    0.1189652  40.14 8.457596e-05    1.033    0.032
       167  -8.2427     94.9130     33.7865   8.5952322691e+01   5.5436010328e+01    0.1944246    0.1505791  21.45 0.0004084599    1.225    0.184
       168  -8.3979     14.8321     34.1297   1.1525726358e+02   6.6551638450e+01    0.1581773    0.1397384 -23.79  0.001203776    1.300    0.231
       169  -8.9067      2.9664     34.3045   1.2046535749e+02   6.7351361979e+01    0.1493011     0.111792 -23.50 0.0003808662    1.074    0.069
       170  -7.8212    169.0000     33.0004   6.9714472316e+01   3.8891697231e+01    0.2024835    0.0781621 -31.25 0.0007689195    2.887    0.654
       171  -8.4210     21.9757     31.8059   1.1137713998e+02   6.6310937145e+01    0.1715611    0.1282384 -22.92            0    1.052    0.049
       172  -7.9996     20.3245     28.7081   1.1095803303e+02   6.6931943604e+01    0.1700343   0.09705007 -42.30 0.0007407919    1.614    0.380
       173  -7.6903     18.2725     32.3167   1.1314620965e+02   6.6557299053e+01    0.1156188   0.06605787 -22.08 0.0002205975    1.562    0.360
       174  -8.5757     10.0122     27.2964   1.1498673898e+02   6.7995807791e+01     0.145837    0.1104033 -18.45 0.0003877679    1.053    0.050
       175  -9.2004     91.5048     25.2084   8.3851021562e+01   5.7120141048e+01    0.2271176    0.1854346  32.05 0.0004435081    1.058    0.055
       176  -9.1612      2.9802     23.9890   1.1699877139e+02   6.8997597784e+01    0.2138188    0.1802012  66.63   0.00152456    2.498    0.600
       177  -7.8427    172.5819     24.5231   6.6916830200e+01   3.9036625026e+01    0.1328082    0.1146815  84.99 1.935254e-05    1.053    0.050
       178  -9.6093     84.6643     21.5712   8.4472799968e+01   5.8820406274e+01    0.2113617    0.1922959  23.91 0.0004518501    1.143    0.125
       179  -7.3878     59.6792     22.7061   9.2960257245e+01   6.2939881239e+01    0.1235842   0.07844179  10.43  0.000285538    1.611    0.379
       180  -7.6789    137.4388     21.5961   7.1971677199e+01   4.7669414907e+01    0.1307381    0.1127098  57.95 0.0001786114    1.014    0.013
       181  -8.0194     65.2055     21.3789   9.0524825198e+01   6.2227527364e+01    0.1578065    0.1056091  46.38 0.0005036076    1.618    0.382
       182  -8.9965     19.3335     19.2352   1.0776075441e+02   6.8389622109e+01    0.2751943    0.1439814 -36.76  0.001724595    1.662    0.398
       183  -8.0482    161.4135     18.7904   6.7067699561e+01   4.2333908667e+01    0.1597193    0.1284126  -0.37 0.0007595067    1.627    0.385
       184  -7.8650    151.8521     18.1837   6.8421115609e+01   4.4660745601e+01     0.176297    0.1359692  44.32 0.0003531532    1.296    0.228
       185  -7.5413     12.2855     20.7041   1.1151785399e+02   6.8801396379e+01   0.08785792   0.08149447 -20.40 0.0002095707    1.546    0.353
       186  -7.8196     95.7397     17.6352   7.9970491981e+01   5.7099888959e+01     0.128446   0.08321965  20.73 0.0006977543    1.638    0.390
       187  -9.5735     75.0370     16.4466   8.5413365528e+01   6.1110180594e+01    0.2238468    0.2053894  -4.49  0.000721622    1.246    0.197
       188  -8.5149    146.1524     14.1884   6.8225401668e+01   4.6396100924e+01    0.1871243    0.1514307  48.43 0.0003851202    1.168    0.144
       189  -9.4133    193.0771    248.2820   1.1365381441e+02  -6.0893966191e+00    0.3083959      0.21662   9.83  0.001259416    1.607    0.378
       190  -8.4281    190.6787    244.6836   1.1354944080e+02  -5.1382464007e+00    0.1902424    0.1291446 -35.32 0.0007919852    1.651    0.394
       191  -7.7131    237.4748     12.9956   5.6981714498e+01   2.5393969019e+01    0.1401508    0.1090214   8.83 0.0005081497    2.479    0.597
       192  -8.0312    151.0360     12.6830   6.6998625873e+01   4.5399981512e+01    0.1809865    0.1448045  65.11 0.0004509066    1.061    0.057
       193  -9.6049    164.7703    246.2040   1.1889890043e+02  -1.0411172411e+00    0.2366876    0.1839716  33.19  0.000357271    1.148    0.129
       194  -8.5954     28.3562     12.8211   1.0114474568e+02   6.8296377336e+01    0.1506606   0.08179126 -22.12 0.0003805668    1.648    0.393
       195  -9.4071      9.0243    246.9813   1.4818273711e+02   2.1711265129e+01    0.1374801   0.09614525  72.37  0.000765075    1.050    0.048
       196  -8.5452    224.4519    246.0177   1.0731719624e+02  -1.0663524112e+01    0.1711543    0.1134213 -30.81 0.0006597596    1.565    0.361
       197  -7.4603    250.2874     10.6965   5.5508208469e+01   2.2957340649e+01    0.1237317   0.06868543 -67.90 0.0003125857    1.564    0.360
       198  -9.0881    176.4234    244.7713   1.1636903819e+02  -2.7749161022e+00    0.3234726    0.1527602 -35.57  0.001442704    2.747    0.636
       199  -8.2175    171.7625    245.7872   1.1744804700e+02  -2.1556899085e+00    0.2083002    0.1326254   3.27 0.0009001762    2.694    0.629
       200 -10.2127    157.1093    245.3855   1.2030532279e+02   4.0197887093e-01    0.3814956    0.2774718  12.23  0.001357846    1.788    0.441
       201  -9.2946    150.6301    244.3754   1.2145619676e+02   1.6848924069e+00    0.2886584    0.1952749 -25.00  0.001362935    2.212    0.548
       202  -8.6313    206.4912    244.9393   1.1052950889e+02  -7.7366324278e+00    0.1726838    0.1197059 -31.06 0.0008226162    1.554    0.357
       203  -8.0774    136.9054    245.5789   1.2437136268e+02   3.8082134431e+00    0.1765413    0.1077004  21.14 0.0008039497    2.439    0.590
       204  -9.4545      5.0151    243.0000   1.4861147084e+02   2.2898308450e+01    0.3229792   0.03834074  40.24  0.001305435    4.610    0.783
       205  -8.5570    207.5043    249.5079   1.1107958548e+02  -8.5713661102e+00    0.2027789    0.1608456 -29.05  0.001236441    1.371    0.271
       206  -9.3326    168.6398    241.5632   1.1742597246e+02  -9.1593299018e-01    0.2191313    0.2023623   3.00 0.0007069768    1.168    0.144
       207  -8.1920    146.6740    242.0487   1.2191924994e+02   2.7767741818e+00    0.1767148    0.1620822  45.47 0.0004796242    1.070    0.065
       208  -7.6792    206.3223    240.3290   1.0979889592e+02  -7.0109507134e+00    0.1321165   0.09010703   5.18 0.0003707599    1.694    0.410
       209  -8.5278    201.3806    240.1972   1.1073322288e+02  -6.1903699346e+00    0.2284758    0.1519176  26.86 0.0007163128    1.383    0.277
