#   1 NUMBER                 Running object number                                     
#   2 MAG_AUTO               Kron-like elliptical aperture magnitude                    [mag]
#   3 X_IMAGE                Object position along x                                    [pixel]
#   4 Y_IMAGE                Object position along y                                    [pixel]
#   5 X_WORLD                Barycenter position along world x axis                     [deg]
#   6 Y_WORLD                Barycenter position along world y axis                     [deg]
#   7 A_WORLD                Profile RMS along major axis (world units)                 [deg]
#   8 B_WORLD                Profile RMS along minor axis (world units)                 [deg]
#   9 THETA_WORLD            Position angle (CCW/world-x)                               [deg]
#  10 FWHM_WORLD             FWHM assuming a gaussian core                              [deg]
#  11 ELONGATION             A_IMAGE/B_IMAGE                                           
#  12 ELLIPTICITY            1 - B_IMAGE/A_IMAGE                                       
         1  -7.8181     39.1885     18.3930   3.8367931962e+01   7.1434858070e+01    0.1849083    0.1207768  57.69 0.0005087128    1.595    0.373
         2  -8.6648     55.8347      9.9293   2.5647531722e+01   6.8797533411e+01    0.2329664    0.1732166 -58.29 0.0006281789    1.607    0.378
         3  -8.7940     90.9854      8.9984   1.5963672250e+01   6.0203414779e+01    0.2212718    0.1413783 -68.23 0.0006554059    1.692    0.409
         4  -8.0872    101.4954      7.9999   1.3753524595e+01   5.7650499467e+01    0.1789333    0.1271601 -34.54  0.000462694    1.506    0.336
         5 -10.2364    248.5447      4.3514   2.4438949458e+00   2.7336065651e+01    0.2329493    0.1905105 -28.38  0.001998662    1.497    0.332
         6  -8.3293     33.6088      5.3443   3.2738774618e+01   7.4339255009e+01    0.2327528    0.1003485 -45.54 0.0009457786    3.149    0.682
         7  -8.7190     79.3619      3.9219   1.5916619910e+01   6.3587808514e+01    0.2653384    0.1346431 -37.49 0.0009316612    2.078    0.519
         8  -8.3333     70.4135      6.2136   1.9128906008e+01   6.5621557823e+01    0.1768499    0.1182637 -42.80 0.0008437638    1.638    0.390
         9  -7.9352    115.6593      2.3269   9.7050326493e+00   5.4614501773e+01     0.142474   0.08023091 -63.56 0.0007051424    1.734    0.423
        10  -8.3777     62.9251      1.4690   1.8521695960e+01   6.7895643403e+01    0.2026044    0.1168541  71.94  0.001008148    1.559    0.359
        11 -10.0340    223.6706    242.3478   4.6828826228e+01   2.6376184267e-01    0.2196296    0.1528709 -32.08  0.001136208    1.524    0.344
        12  -9.7176    243.1824    245.7452   4.4415203487e+01  -1.5740783848e+00    0.3899143    0.1208379 -30.65  0.002252178    2.532    0.605
        13  -9.0211    248.8126    250.0868   4.4200539363e+01  -2.4363154114e+00    0.2168016    0.1001355   6.89   0.00151532    2.034    0.508
        14 -10.2912    248.9191    241.4480   4.3040829206e+01  -1.5028705353e+00    0.5434274    0.1584331 -37.64   0.00244506    2.807    0.644
        15  -8.6270    248.1632    233.8323   4.2110534338e+01  -5.9695555896e-01    0.1800885   0.08841971 -24.18   0.00129431    1.485    0.327
        16  -9.8459    246.7879    228.1204   4.1508135526e+01   1.5926330805e-01    0.4848647    0.1451553 -33.29  0.002712887    2.532    0.605
        17  -9.3882    232.5494    246.7399   4.6083256776e+01  -9.1983767894e-01    0.2664635    0.1332743 -30.57  0.001337143    1.581    0.367
        18  -8.8104    234.9732    243.0000   4.5227448696e+01  -6.7097617086e-01     0.205675    0.1085087  14.60  0.001511001    1.717    0.417
        19  -9.1562    201.9711    248.6069   5.1128901254e+01   1.2371575722e+00    0.3938348    0.1612547  -1.74  0.001754162    3.948    0.747
        20  -8.7535    201.8720    243.0514   5.0407975487e+01   1.9455705144e+00    0.2373664    0.1401238 -47.20  0.000979103    2.359    0.576
        21  -9.1018    132.7561    248.3863   6.4125569896e+01   7.5675109319e+00    0.3375596    0.2159051  53.83  0.001845422    2.810    0.644
        22 -10.0710    210.7958    246.0239   4.9342831193e+01   8.3916412042e-01    0.3089429    0.1342129 -37.88  0.001544539    2.094    0.522
        23  -8.2335    169.3071    247.3331   5.6740185778e+01   4.2453177141e+00    0.1171708   0.06652696 -11.01 0.0005659537    1.667    0.400
        24  -8.7052    142.5034    247.5152   6.2009574825e+01   6.7508644808e+00    0.2046703   0.09230894  12.33  0.001025471    2.172    0.540
        25  -8.4983     20.5062    247.5525   8.9830731702e+01   1.8241911795e+01    0.2547555   0.09483953  21.22  0.001200286    2.152    0.535
        26 -10.3501    147.3852    244.7448   6.0682851257e+01   6.6947551236e+00    0.3624282    0.2298175 -23.61  0.001650635    1.508    0.337
        27  -8.1309    146.0188    239.2558   6.0277058751e+01   7.6692694791e+00    0.1700756    0.1536607  65.16 0.0007855491    1.831    0.454
        28  -9.9035    119.8510    244.8486   6.6479283060e+01   9.4135286961e+00    0.2928704    0.2207069  68.09  0.001552246    2.289    0.563
        29  -8.7878    139.4328    244.2211   6.2244861420e+01   7.5559982893e+00    0.1357153    0.1154908 -58.67 0.0009488238    1.719    0.418
        30  -7.8639     67.5039    244.5327   7.8453087746e+01   1.4679269039e+01    0.1247395   0.09941814  23.91 9.137273e-05    1.008    0.008
        31  -8.7551    195.2271    242.6015   5.1470785196e+01   2.5713588399e+00    0.2277572    0.1228625  -3.55  0.001432135    1.734    0.423
        32  -9.2390    194.4338    238.6330   5.1071371561e+01   3.1625549169e+00    0.4309763    0.1511501 -26.56  0.001976517    3.347    0.701
        33  -8.7698    168.9592    243.0002   5.6248401016e+01   4.8862581009e+00     0.169194    0.1339057   1.21 0.0006377886    1.126    0.112
        34  -8.2434     77.4560    242.9391   7.5958485122e+01   1.4005430644e+01    0.1581658   0.09434178  64.48 0.0008077645    2.458    0.593
        35  -9.6015    183.3679    240.2434   5.3233505745e+01   3.9392328802e+00     0.330234    0.2316494  50.20  0.001956005    3.142    0.682
        36  -9.2571    153.4651    241.2872   5.9031246026e+01   6.6210734754e+00    0.2445372    0.1105102 -49.20  0.001279009    2.569    0.611
        37  -9.3063     64.1850    248.4217   7.9535728808e+01   1.4279009203e+01    0.3147436   0.05515056  30.40  0.001151677    3.289    0.696
        38  -8.6167     88.1646    242.1279   7.3364501849e+01   1.3085820076e+01    0.1590486    0.1298774  45.14 0.0006542214    1.346    0.257
        39  -9.5646    159.8359    239.7571   5.7578212247e+01   6.2271560143e+00    0.2442435    0.2095924 -68.55   0.00116924    2.053    0.513
        40  -8.0470     30.3272    241.6892   8.7227887506e+01   1.8580926606e+01    0.1329178   0.06871835  45.97 0.0007040793    1.662    0.398
        41  -9.8062    242.0452    237.2275   4.3428710535e+01  -5.3347384854e-01    0.4432158    0.1594059 -23.55  0.002468369    2.658    0.624
        42  -7.8733      2.6735    239.7028   9.3802343256e+01   2.1114573067e+01    0.1099177   0.08570462 -21.58 0.0006158671    1.631    0.387
        43  -9.7890    230.8701    236.2757   4.4916532285e+01   4.2515256270e-01    0.3099959    0.2019884 -41.23  0.001577159    1.954    0.488
        44  -8.7909    135.2065    238.2570   6.2404068447e+01   8.9237813859e+00    0.1499916    0.1256306  28.88 0.0006309435    1.348    0.258
        45  -8.7615    129.0193    238.2122   6.3721249955e+01   9.5671665850e+00    0.1490834    0.1344068  61.21  0.001032006    1.642    0.391
        46  -9.1805     82.4813    238.4944   7.4364348742e+01   1.4322051762e+01    0.2834465    0.1028079  23.24  0.001235178    2.250    0.556
        47  -8.7843     70.9955    238.4956   7.7122938951e+01   1.5470055784e+01    0.2054156    0.1019317  23.81  0.001042961    1.623    0.384
        48  -8.8775    213.8229    241.1538   4.8203837733e+01   1.1926908397e+00    0.1701954    0.1141966 -11.92 0.0008872013    1.059    0.056
        49  -8.4665     13.7885    237.6204   9.1068290972e+01   2.0714256240e+01    0.1869253   0.08144876  31.48 0.0009499887    1.701    0.412
        50  -9.3720    216.7006    235.3598   4.6954390625e+01   1.6748853553e+00    0.1708809    0.1356673 -33.84  0.001101257    1.643    0.391
        51  -9.5441    213.8265    231.7095   4.6900426240e+01   2.3764423337e+00     0.225546    0.1910646 -40.46  0.001108986    1.856    0.461
        52  -9.8764    175.6576    233.0913   5.3671793713e+01   5.6663981396e+00    0.3855371    0.2130646 -52.80  0.002164055    2.664    0.625
        53  -9.0859    202.9645    234.1407   4.9009098388e+01   3.0026096644e+00    0.2204479    0.1350523 -44.69 0.0008862513    2.028    0.507
        54  -9.3818    108.6083    234.3155   6.7809764753e+01   1.2368536318e+01    0.2622173    0.1829229  72.97  0.001160233    2.547    0.607
        55  -8.1205    122.8363    234.0345   6.4569417963e+01   1.0911428556e+01    0.1791474    0.1360534  59.96 0.0008328209    2.043    0.510
        56  -8.2051     99.7733    234.1837   6.9842666484e+01   1.3325139010e+01    0.2059935    0.1094276  52.70 0.0009483232    2.788    0.641
        57  -8.5743     78.0485    234.2549   7.5037324627e+01   1.5568531207e+01    0.1827657    0.1458415  25.08  0.001161365    1.050    0.048
        58  -8.3672    194.6962    232.7306   5.0213722294e+01   3.9297808863e+00     0.131944    0.1122012   1.74  0.001034933    1.364    0.267
        59  -9.2719     68.5624    232.3581   7.7193397754e+01   1.6893655259e+01    0.3994633    0.1597454  51.34  0.001596563    3.277    0.695
        60  -9.7992    236.0897    229.8655   4.3262080092e+01   7.7924559667e-01    0.3793981    0.1281248 -33.75  0.001761854    2.303    0.566
        61  -9.5876    186.2818    230.2112   5.1337502459e+01   5.0593098008e+00    0.2405605    0.1919504 -55.62  0.001570433    2.114    0.527
        62  -8.5418    157.7957    231.9948   5.6955788659e+01   7.6008916945e+00     0.153668    0.1392855  71.53 0.0007053663    1.951    0.488
        63  -9.1942    151.3069    228.9642   5.7855099880e+01   8.7435645430e+00     0.286995    0.2136707  71.75  0.001525716    3.255    0.693
        64  -9.6029    148.5908    224.3009   5.7780812728e+01   9.7829561227e+00    0.4238031    0.3114582  71.48  0.002207666    3.232    0.691
        65  -9.1280    140.2037    230.1264   6.0317127980e+01   9.7250300299e+00    0.2166971    0.1319552  41.41 0.0008090223    2.015    0.504
        66  -8.7978    229.8064    228.5350   4.3995389634e+01   1.4416145195e+00     0.158425   0.09579755 -31.95 0.0007633223    1.420    0.296
        67  -8.7667    161.9009    227.6666   5.5555009071e+01   7.8472260793e+00    0.2210263    0.1789164  49.51  0.001356629    1.981    0.495
        68  -9.0044    127.9430    227.0914   6.2578589008e+01   1.1554010866e+01    0.2418928    0.1849972  53.98  0.001459901    1.885    0.469
        69  -9.6839    225.2759    221.2547   4.3632318004e+01   2.7250306519e+00    0.3899732    0.1301793 -29.91  0.001409744    2.679    0.627
        70  -7.8812    120.2973    227.6345   6.4356451469e+01   1.2293168289e+01    0.1189215   0.09080084  50.45 0.0007031878    1.722    0.419
        71  -9.1096    206.0618    225.2066   4.7233461197e+01   3.9079616602e+00    0.2859254    0.1275941 -36.15  0.001450327    1.918    0.479
        72  -8.4634    199.8302    225.7625   4.8352347837e+01   4.4044031483e+00    0.1821553    0.1113456 -42.90 0.0008304734    1.838    0.456
        73  -9.0750    216.5128    223.0664   4.5244253432e+01   3.2548411921e+00    0.2177983    0.1526636 -42.65  0.001150378    1.818    0.450
        74  -8.6865    180.3876    224.0323   5.1528669107e+01   6.5191068856e+00    0.1708194    0.1462347  25.61 0.0006435291    1.523    0.343
        75  -8.6910    104.8436    223.7426   6.7468448621e+01   1.4702810958e+01    0.2256616     0.161366  67.01  0.001226078    2.159    0.537
        76  -9.0872     93.6173    223.5937   7.0156141313e+01   1.5969245962e+01    0.2440104     0.155459  53.43  0.001064361    1.986    0.496
        77  -8.6293    172.9377    222.6610   5.2720347346e+01   7.4767433242e+00    0.1919161    0.1514491 -54.95 0.0007101865    1.905    0.475
        78  -8.4793    163.3604    222.7499   5.4580604230e+01   8.4581909230e+00    0.2770617    0.1538896  47.93  0.001308377    3.458    0.711
        79  -8.4614    158.9038    220.1752   5.5099777641e+01   9.3394941598e+00    0.1709232    0.1483495  23.58  0.001028014    1.364    0.267
        80  -7.7424    113.5825    223.5300   6.5388433692e+01   1.3770899387e+01    0.1258347     0.106394  12.88 0.0001287673    1.047    0.045
        81 -10.1261    239.1479    220.6244   4.1512240958e+01   1.6453398508e+00    0.3168402    0.1408505 -29.36  0.001455787    1.710    0.415
        82  -9.1842    192.3816    221.2562   4.8980190120e+01   5.7377768565e+00     0.211539    0.1927425 -37.05  0.001109956    1.645    0.392
        83  -7.7450    140.6538    222.3553   5.9187307753e+01   1.0970197837e+01    0.1171429    0.0915527  50.15 0.0005466267    1.830    0.454
        84  -8.3081    202.5730    219.9461   4.7048022970e+01   4.9437028615e+00    0.1574625   0.08902734 -35.68 0.0004767773    1.568    0.362
        85  -9.0662    120.2586    218.8875   6.3255197275e+01   1.3868140472e+01    0.4221916    0.2154633  50.69   0.00178789    3.273    0.695
        86  -8.3099     82.6770    220.3164   7.2513734405e+01   1.7810669831e+01    0.2072256    0.1307788  50.49  0.001079338    1.792    0.442
        87  -8.5246    210.2358    218.8504   4.5628999108e+01   4.3772689942e+00    0.1759876    0.1091083 -33.40 0.0005098329    1.416    0.294
        88  -9.5754    249.0017    217.9785   3.9768512024e+01   1.1745148762e+00    0.1806586    0.1713861 -86.35  0.001366508    2.758    0.637
        89  -9.5354    247.1753    213.6325   3.9386985376e+01   1.8382903261e+00    0.4122686    0.1728608 -14.14  0.002102142    3.307    0.698
        90  -8.1020     61.5217    217.0186   7.7635954875e+01   2.0738546673e+01    0.1787802   0.09974658  66.26 0.0008033534    2.446    0.591
        91  -8.5603     51.4004    217.2630   8.0324127980e+01   2.1703627274e+01    0.1729667    0.1212552  79.30  0.000947792    1.708    0.415
        92  -8.6701    169.0345    215.5607   5.2435280938e+01   8.9804294489e+00    0.1974729    0.1608538 -50.37  0.000852706    1.663    0.399
        93  -9.1711    132.8280    215.5670   5.9963528118e+01   1.3027793014e+01     0.424395    0.2828773  69.53  0.001904395    3.652    0.726
        94  -9.2117    232.2112    214.1667   4.1567592390e+01   3.0243543084e+00    0.2789201    0.1329959 -34.65  0.001608415    1.669    0.401
        95  -8.3525    185.4104    214.1572   4.9168072174e+01   7.4676223459e+00    0.1465409    0.1016149 -46.18 0.0006999256    1.744    0.427
        96  -7.9466    154.2638    214.6432   5.5245486270e+01   1.0750408317e+01    0.1040573   0.09733875  58.76  0.000375734    1.628    0.386
        97  -8.7595     92.9332    213.7458   6.9197993839e+01   1.7989473858e+01    0.2763023    0.1622642  53.36  0.001245431    2.215    0.549
        98  -9.1736     73.3169    211.7995   7.4029106640e+01   2.0594797535e+01     0.698663    0.2007373  47.82  0.001961927    5.614    0.822
        99  -9.3587    213.8453    211.6849   4.3985621099e+01   5.0068475112e+00    0.3041952    0.2362583 -30.20  0.002018961    1.356    0.263
       100  -8.0200     11.6394    215.6896   9.0789687046e+01   2.5513054139e+01    0.1262538   0.09096887 -27.53 0.0007041368    1.743    0.426
       101  -8.5899    161.3339    211.8849   5.3405651292e+01   1.0413637083e+01    0.1859728    0.1816106 -60.56 0.0008174868    1.544    0.352
       102  -9.0200    204.1647    210.6366   4.5394376784e+01   6.0842727145e+00    0.1884394    0.1532391 -42.98 0.0007102522    1.661    0.398
       103  -9.4263    175.2476    209.6574   5.0363993292e+01   9.2327126033e+00    0.2979191    0.2307802  58.69   0.00153124    2.522    0.604
       104  -8.6944    147.9163    210.4019   5.5949331338e+01   1.2189756782e+01    0.2064645    0.1815849 -72.73  0.001169826    1.734    0.423
       105  -8.8060    116.1896    210.2836   6.3065783373e+01   1.5951213603e+01    0.2756347    0.1683023  46.49 0.0008240259    1.990    0.498
       106  -8.2161    192.3539    210.1925   4.7336312223e+01   7.3374838469e+00    0.1494166   0.09601709 -44.66 0.0004956992    1.754    0.430
       107  -9.2258    236.5019    208.0077   4.0035966897e+01   3.4296525642e+00    0.2243058    0.1676765 -41.09  0.001239119    1.736    0.424
       108  -8.0909     85.4066    209.2347   7.0589783792e+01   1.9778765489e+01    0.1739834     0.130468 -88.97 0.0009437924    1.794    0.443
       109  -9.3033    246.5210    206.9087   3.8486486878e+01   2.7081992320e+00    0.2463107    0.1325174 -31.17 0.0007302891    1.381    0.276
       110  -9.4836    250.2254    201.7405   3.7221876735e+01   3.0287130581e+00    0.2993155    0.1161838 -33.71  0.001461802    1.902    0.474
       111  -8.2902    139.0337    207.8031   5.7485095181e+01   1.3688544060e+01    0.1931678    0.1334285  48.43  0.000825587    1.976    0.494
       112  -8.6447    142.9631    216.4209   5.7871186227e+01   1.1722452612e+01    0.2060051    0.1791286 -68.69 0.0009906667    1.706    0.414
       113  -7.6388    156.2816    207.6229   5.3790905645e+01   1.1695427844e+01    0.1080452   0.09925418  68.18 0.0007011257    1.713    0.416
       114  -9.0082     99.4531    206.0574   6.6606608181e+01   1.8787464684e+01    0.3434708    0.2206865  64.22  0.001335963    2.447    0.591
       115  -8.0937     56.2924    204.9868   7.7941454800e+01   2.3912129308e+01    0.2039129   0.09429463  74.97 0.0006994371    3.995    0.750
       116  -9.2399    194.6656    203.4535   4.5894418087e+01   8.0909865176e+00    0.2427256    0.1890291 -37.71   0.00104807    1.417    0.294
       117  -9.0732    192.4393    197.0900   4.5273365347e+01   9.2873481419e+00    0.3271073    0.2510845 -62.33   0.00130675    2.293    0.564
       118  -8.9657    183.7701    203.5782   4.7845911311e+01   9.2456749947e+00    0.2086376    0.1914423  67.99  0.001115445    1.925    0.481
       119  -9.6139    163.6486    202.9142   5.1577902315e+01   1.1629788822e+01    0.3396413    0.2275933  46.48  0.001183694    2.158    0.537
       120  -8.5448    131.1297    203.8624   5.8677474609e+01   1.5362297542e+01    0.2330078    0.1874055  59.18  0.001149307    1.790    0.441
       121  -9.0978    243.3080    200.7618   3.7999180770e+01   3.7465704343e+00    0.2744733      0.11598 -36.43  0.001160796    1.837    0.456
       122  -8.5817    210.9969    201.7321   4.2912493933e+01   6.6564567172e+00    0.1781576    0.1287466 -43.17 0.0009653057    1.642    0.391
       123  -8.6839     10.8173    202.3121   9.0458805612e+01   2.8621394941e+01    0.2794941   0.07853834  27.37  0.001076866    2.621    0.618
       124  -8.3143    221.9917    201.0324   4.1096424032e+01   5.6724248312e+00    0.1461988     0.123455 -43.58  0.000670011    1.721    0.419
       125  -8.5265    140.0506    200.5126   5.6170024534e+01   1.4885173066e+01    0.2482245    0.1915622  68.23  0.001014728    2.244    0.554
       126  -8.0682     79.8211    201.0200   7.1100356608e+01   2.2184236823e+01    0.2204135    0.1432123  62.86 0.0009041857    2.024    0.506
       127  -9.2441    237.1306    197.8869   3.8410723060e+01   4.6665315971e+00    0.3325396    0.1173625 -39.89  0.001745141    2.369    0.578
       128  -9.2735    149.5220    198.4187   5.3788485719e+01   1.4096149984e+01    0.3210999    0.2575474  86.58  0.001364461    2.327    0.570
       129  -8.7543    123.8983    199.0295   5.9643182481e+01   1.7179735840e+01    0.2423999    0.1931659 -87.32 0.0008762864    1.951    0.488
       130  -8.3831    176.9785    198.7227   4.8334470611e+01   1.0772386520e+01    0.1936005    0.1422992 -47.87 0.0005565345    1.623    0.384
       131  -9.0217    112.7084    198.0527   6.2203608652e+01   1.8784412932e+01    0.3802824    0.2306051  57.65  0.001695599    2.638    0.621
       132  -8.9793     88.9258    198.7778   6.8393554434e+01   2.1586469895e+01    0.3046198    0.2149694  69.29  0.001403502    1.963    0.491
       133  -8.3332    202.6053    197.6463   4.3633390981e+01   8.1066717025e+00     0.192933    0.1286296 -54.35  0.001142263    2.338    0.572
       134  -8.5528     60.6403    196.2892   7.5869007760e+01   2.5431852714e+01    0.3013189    0.1672858  89.38  0.001098335    2.539    0.606
       135  -9.7299    245.9874    193.2632   3.6493068442e+01   4.4535089945e+00    0.3357822    0.2040982 -42.54  0.001829834    1.777    0.437
       136  -8.6946    215.9227    195.4126   4.1142901690e+01   7.0456612186e+00    0.1933935    0.1325855 -44.01 0.0007575596    1.680    0.405
       137  -8.8865    224.5199    193.4607   3.9531737890e+01   6.4539486559e+00     0.291122   0.08700626 -41.27   0.00133031    2.895    0.655
       138  -8.8406    185.0060    194.5791   4.6187792827e+01   1.0510542487e+01    0.1975574    0.1519874 -44.75 0.0006624027    1.512    0.339
       139  -8.0390    231.1204    194.1282   3.8676257912e+01   5.7217941275e+00    0.1369569    0.1050053 -32.28  0.000480935    1.341    0.254
       140  -8.7367    160.8511    193.8036   5.0694066821e+01   1.3511271500e+01    0.2006394    0.1682449 -78.58 0.0009754694    2.010    0.503
       141  -8.5195     76.9899    193.8188   7.1006004147e+01   2.4120817564e+01    0.2179102    0.1643259  43.99 0.0005830587    1.313    0.239
       142  -8.4656     44.2267    193.6573   8.0330278831e+01   2.7775116577e+01    0.3754433    0.1234222  53.44  0.001167175    4.108    0.757
       143  -8.3766      3.9948    194.0000   9.2049454527e+01   3.1077670157e+01     0.216022    0.0691954  16.43 0.0008011383    2.933    0.659
       144  -8.1236    172.5523    191.7569   4.8047591639e+01   1.2431437900e+01    0.1562539    0.1115483 -49.07 0.0009316216    1.634    0.388
       145  -7.9691    205.2023    191.2215   4.2172598492e+01   8.7711549014e+00    0.1688975   0.07785243 -47.09 0.0008590999    2.450    0.592
       146  -8.1391    198.8431    191.3171   4.3241544427e+01   9.4535380502e+00    0.1573002    0.1205282 -30.74 0.0005282155    1.207    0.171
       147  -7.6877    179.2600    191.6010   4.6754367597e+01   1.1655142679e+01    0.1072023   0.09473065 -62.55 0.0005748967    1.715    0.417
       148  -8.9749    139.4562    190.1806   5.4680253466e+01   1.6881965573e+01    0.3094659    0.2380336  76.78  0.001464731    2.344    0.573
       149 -10.0565     92.0574    188.8603   6.6231005863e+01   2.3365412068e+01    0.8562474    0.1868767  37.80  0.002518735    3.978    0.749
       150  -8.3699    148.6122    189.0797   5.2484821127e+01   1.5897446317e+01    0.1848679    0.1615207 -63.83  0.001140123    1.541    0.351
       151  -8.7782    129.1702    188.4214   5.6763756737e+01   1.8575094502e+01    0.2503205     0.198937  69.27 0.0009046493    1.914    0.478
       152  -8.3747    237.2915    188.1902   3.6874909604e+01   5.9159295436e+00    0.1700442   0.09310129 -25.96 0.0005937233    1.423    0.297
       153  -8.7851    216.3656    187.5673   3.9813299704e+01   8.1069882577e+00    0.1946997    0.1395492 -30.89 0.0005533174    1.191    0.160
       154  -9.1326    155.8761    187.2993   5.0648754538e+01   1.5282161677e+01    0.2796425    0.1748323 -52.07 0.0008625397    1.839    0.456
       155  -9.3353    120.3928    185.7948   5.8454709938e+01   2.0277109021e+01    0.4107472    0.2390184 -68.00  0.001803051    2.608    0.617
       156  -8.3926    230.6417    187.1691   3.7641886748e+01   6.7011327640e+00    0.1612017    0.1086059 -38.59  0.000904036    1.438    0.305
       157  -8.6637    190.9406    186.6102   4.3819997257e+01   1.1076348166e+01     0.214993    0.1482804 -52.64  0.001023005    1.918    0.479
       158  -8.5774    164.8895    186.4838   4.8672092650e+01   1.4274270721e+01    0.2093887    0.1716572 -55.88 0.0007656625    1.591    0.371
       159  -8.7282     54.7252    186.6556   7.6567648298e+01   2.8358546254e+01     0.372668     0.171715  57.15  0.001401661    2.813    0.645
       160  -9.3917    249.3707    185.5076   3.4847276206e+01   5.1280098930e+00     0.194878    0.1356419 -37.75 0.0006939186    1.441    0.306
       161  -8.8568    109.1940    185.6341   6.1240429874e+01   2.1816879093e+01    0.2694598    0.2101198  70.09   0.00108425    1.793    0.442
       162  -8.4318    202.8415    184.3592   4.1428353971e+01   1.0053468678e+01     0.186816    0.1337709 -37.93 0.0005697768    1.337    0.252
       163  -8.4350    182.8797    184.3790   4.4883341407e+01   1.2393196979e+01     0.200136    0.1432334 -41.22 0.0005654891    1.392    0.282
       164  -8.6027     66.6520    184.6348   7.2828276899e+01   2.7484172163e+01    0.2904067    0.1681333  54.82 0.0008462718    2.002    0.500
       165  -8.5552    210.3097    184.0540   4.0177171987e+01   9.2658510115e+00    0.1632835    0.1127754 -31.11  0.000483464    1.191    0.160
       166  -8.7692    174.1914    183.4315   4.6340796427e+01   1.3622900052e+01    0.2108111    0.1843606 -78.47 0.0008601946    1.867    0.464
       167  -8.3831    224.1552    183.1920   3.7933568970e+01   7.9064847994e+00     0.165751    0.1137932 -20.43 0.0005318794    1.140    0.123
       168  -8.1194    197.0405    183.2505   4.2208011768e+01   1.0887673677e+01    0.1593002    0.1169882 -48.90 0.0005488678    1.665    0.399
       169  -8.0823      1.7700    183.5935   9.2305420941e+01   3.3771673293e+01    0.2012553    0.1016978  32.38 0.0009460811    1.692    0.409
       170  -8.4911     44.2729    182.2118   7.9257133377e+01   3.0557965086e+01    0.2919753     0.139248  45.74  0.001218161    2.017    0.504
       171  -8.9601    147.3934    180.3543   5.1284320986e+01   1.7679098937e+01    0.2450132    0.2140507  74.57 0.0008997188    1.702    0.412
       172  -9.3514     25.9960    179.6275   8.4670718975e+01   3.2943338183e+01    0.5385181    0.1968608  65.11   0.00173694    3.851    0.740
       173  -9.1930    191.2643    178.1029   4.2319806126e+01   1.2382238707e+01    0.2240288    0.1794272 -38.71 0.0006882554    1.299    0.230
       174  -8.4579    137.3966    178.9805   5.3286796392e+01   1.9314837868e+01    0.2257653    0.1817906  54.07   0.00102543    1.622    0.383
       175  -8.5397    250.4606    172.3096   3.2614936951e+01   6.7131783673e+00    0.1886689   0.09503566 -36.38 0.0009815916    1.492    0.330
       176  -9.1512    249.0484    177.0775   3.3556299196e+01   6.2353723542e+00    0.1927624    0.1452888 -32.94 0.0008811608    1.284    0.221
       177  -8.3195    247.4707    173.5369   3.3187419039e+01   6.8464630603e+00     0.181978    0.1016031 -29.41 0.0005897186    1.316    0.240
       178  -8.9610     36.1320    176.7754   8.1265743211e+01   3.2737685580e+01    0.5108098    0.1896989  70.71  0.001384969    5.471    0.817
       179  -8.3904    231.1385    176.6959   3.5871184149e+01   8.0771112654e+00     0.190234     0.113349 -38.78 0.0007123793    1.448    0.309
       180  -8.5589    217.4495    177.0952   3.7917335284e+01   9.4905289952e+00    0.1624705    0.1382082 -31.96 0.0005569173    1.314    0.239
       181  -8.4205    205.0309    177.0491   3.9839251747e+01   1.0905618713e+01    0.1597616    0.1361698 -53.71 0.0005344694    1.651    0.394
       182  -8.3948    128.9758    176.9992   5.4921599633e+01   2.0887461463e+01    0.2033204     0.168029  68.79  0.000586111    1.705    0.414
       183  -8.0075     97.5061    177.5087   6.3078214409e+01   2.5181466945e+01      0.14378    0.1298306  -0.17 -1.190952e-05    1.067    0.063
       184  -8.3073     88.8575    176.6884   6.5354429041e+01   2.6543016816e+01    0.2561633    0.1779769  69.47 0.0008793542    1.994    0.499
       185  -9.5693     57.5431    173.4536   7.4211125027e+01   3.1289385301e+01    0.8061063     0.357407  71.27  0.002229158    5.387    0.814
       186  -7.5681    211.6804    176.3160   3.8665485231e+01   1.0250688396e+01    0.1004736   0.08695977 -53.34 0.0005234749    1.657    0.396
       187  -8.9602    182.9387    175.7489   4.3387013581e+01   1.3800195492e+01    0.2215379    0.1598327 -43.07 0.0006396421    1.398    0.285
       188  -9.1014    158.6720    174.6147   4.7885539787e+01   1.7203435937e+01    0.2779512    0.2091029  72.47  0.001006039    2.557    0.609
       189  -9.0303    103.7716    174.2497   6.0862437327e+01   2.5041176493e+01    0.4081357    0.2328821  55.79  0.001667106    2.553    0.608
       190 -10.3600     75.8025    170.7423   6.8272949908e+01   2.9691675959e+01     1.045519    0.4715121 -82.43  0.003035198    5.001    0.800
       191  -8.4430    224.2429    174.1559   3.6425249821e+01   9.1654384446e+00      0.14755    0.1087575 -40.43 0.0005997326    1.400    0.286
       192  -9.1158    175.6740    172.1906   4.4099542507e+01   1.5340435121e+01    0.2566103    0.1935473 -43.47 0.0008056155    1.350    0.259
       193  -8.0148    143.0228    172.4957   5.0877430627e+01   1.9789847712e+01    0.1706687    0.1117382  54.69 0.0005082741    2.259    0.557
       194  -8.3339    134.7005    171.5815   5.2621880484e+01   2.1164961218e+01    0.2126103    0.1724372 -74.83 0.0009311598    1.710    0.415
       195  -9.6380    120.9498    169.8804   5.5655323019e+01   2.3518999235e+01    0.4014195    0.2721726 -77.86  0.001483324    2.399    0.583
       196  -8.8106     45.1603    170.9840   7.7826846755e+01   3.3300229003e+01    0.3380837    0.1684127  55.79  0.001338935    2.297    0.565
       197  -8.6783    230.5216    169.9602   3.4836788944e+01   9.0728363992e+00    0.1702873   0.08425544 -36.26 0.0008929523    1.568    0.362
       198  -8.4653    205.7168    169.8030   3.8479040669e+01   1.1925524418e+01    0.2115027    0.1215585 -52.66 0.0006930202    2.344    0.573
       199  -8.3783    198.2100    169.8916   3.9710418934e+01   1.2827699140e+01    0.1712831    0.1443553 -38.13 0.0005884349    1.285    0.222
       200  -8.1446    244.6757    169.1049   3.2820816609e+01   7.7064915766e+00    0.1619614    0.1035236 -40.65 0.0006668502    1.455    0.313
       201  -8.5109    237.1832    168.9365   3.3765417523e+01   8.5034313390e+00    0.1625642    0.1182389 -36.45 0.0009792189    1.275    0.215
       202  -8.9463    166.7574    168.2621   4.5109403764e+01   1.7234720741e+01    0.2427293    0.2017086  69.80  0.001058928    1.910    0.477
       203  -8.6137    149.5315    169.1603   4.8840757338e+01   1.9501337763e+01    0.1918545    0.1843181  64.88 0.0007045369    1.342    0.255
       204  -8.4567    218.8174    168.1420   3.6192420293e+01   1.0634008218e+01      0.16455     0.128567 -35.40 0.0005851295    1.236    0.191
       205  -7.8486    211.4371    167.9573   3.7266265947e+01   1.1521661678e+01    0.1498373   0.09024544 -54.50 0.0008055642    2.430    0.588
       206  -7.8656     88.5462    168.5379   6.4185570185e+01   2.8493166308e+01    0.1457881    0.1346735  40.72 0.0001419343    1.097    0.089
       207  -8.7747    191.7756    166.5072   4.0190066025e+01   1.4180385774e+01    0.2139934    0.1418228 -37.02 0.0005366085    1.304    0.233
       208  -8.7750    185.0457    166.4430   4.1351212025e+01   1.5069677584e+01    0.2246342    0.1535996 -49.36 0.0006247273    1.614    0.380
       209  -8.2676    111.4202    167.1918   5.7634829050e+01   2.5502908879e+01    0.1871657     0.140004 -68.67  0.000703724    1.643    0.391
       210  -8.3608    140.6498    166.2806   5.0289155022e+01   2.1354470120e+01    0.2086394    0.1686583  44.43 0.0009175371    1.416    0.294
       211  -8.8731    136.1817    164.0760   5.0913002385e+01   2.2461378172e+01    0.3929954    0.2184459  55.13  0.001577712    2.980    0.664
       212  -9.8057     94.7186    162.4314   6.1401702585e+01   2.9050185456e+01    0.7829533    0.4108275  65.61  0.002328683    4.812    0.792
       213  -8.6167     21.0341    166.5288   8.5272713137e+01   3.6749954100e+01    0.2326073   0.07368711  41.07 0.0008096336    2.710    0.631
       214  -8.3257    233.8496    164.5894   3.3479966140e+01   9.4557547925e+00    0.1820002    0.1003507 -38.64 0.0006905121    1.466    0.318
       215  -8.7251    212.9299    163.3904   3.6240048453e+01   1.2026629451e+01    0.2059198    0.1356119 -44.74 0.0006286151    1.524    0.344
       216  -8.6095    159.4009    164.0487   4.5814298738e+01   1.9040158031e+01    0.2081655    0.1864161  71.93 0.0008826698    1.575    0.365
       217  -9.1347     33.7228    163.2727   8.0764924724e+01   3.6475069435e+01    0.6088674    0.1506638  45.01  0.001762829    4.015    0.751
       218  -8.4798    204.7486    162.4193   3.7326902621e+01   1.3178223784e+01    0.2070868    0.1212908 -44.71 0.0005519278    1.639    0.390
       219  -9.3094      3.7010    162.5132   9.0771923311e+01   3.9066467656e+01    0.4407105    0.1836519  45.72   0.00167263    2.159    0.537
       220  -8.8638    177.4987    160.3168   4.1590252041e+01   1.7133167851e+01    0.2345869    0.1907882 -71.81 0.0008910869    1.876    0.467
       221  -8.4890    151.8360    160.7639   4.6784602602e+01   2.0767876305e+01     0.234816    0.1761285 -73.35 0.0009703703    2.071    0.517
       222  -8.8683    227.2554    158.7786   3.3375750429e+01   1.1010431623e+01    0.2418015     0.141054 -49.10 0.0009247705    1.962    0.490
       223  -8.0991     60.7632    160.1700   7.1445305684e+01   3.4274374804e+01    0.2687663    0.1325276  58.42 0.0009502558    2.805    0.643
       224 -10.1010    249.7231    157.2215   3.0233106766e+01   8.7524067635e+00    0.2902067    0.2052761 -47.98  0.001408264    1.655    0.396
       225  -7.8491    242.6036    159.7078   3.1522070586e+01   9.1752705168e+00    0.1093699     0.067492 -10.48 0.0001127328    1.790    0.441
       226  -8.6216    236.9952    158.5373   3.2038275538e+01   9.9441568629e+00    0.1783755    0.1098884 -33.87 0.0005992253    1.224    0.183
       227  -8.2098    128.4023    159.1188   5.1843182842e+01   2.4670027136e+01    0.1926069    0.1338453 -63.44 0.0009103364    1.785    0.440
       228  -9.3342    105.7400    157.8419   5.7491359737e+01   2.8458651935e+01    0.4324873    0.2726778  62.39  0.001270036    2.420    0.587
       229  -8.4260    196.4724    157.4666   3.7757831041e+01   1.5023430958e+01    0.1991139    0.1011893 -47.77 0.0006283951    2.027    0.507
       230  -9.1973    167.4730    156.9952   4.2864737960e+01   1.9153831812e+01    0.2773969    0.2112887 -67.67 0.0009301428    1.919    0.479
       231  -8.6011    218.0301    156.4350   3.4258031650e+01   1.2443375571e+01    0.2180212    0.1297375 -46.05 0.0007796301    1.674    0.403
       232  -8.0946    188.2071    157.6084   3.9174192634e+01   1.6111655042e+01    0.1508088    0.1113751  16.39 0.0003418745    1.474    0.322
       233  -9.0163     81.3700    155.1756   6.4131826054e+01   3.2747694738e+01     0.419994    0.3841807 -59.85  0.001655689    1.142    0.125
       234  -8.5426    157.6798    156.1012   4.4660982079e+01   2.0774519107e+01    0.2039129    0.1619743 -58.98 0.0008728115    1.517    0.341
       235  -9.1395    119.5477    155.1419   5.3306403746e+01   2.6907075040e+01    0.3551649    0.2555243 -89.83  0.001595016    2.298    0.565
       236  -8.0945    204.7766    155.0564   3.5989725902e+01   1.4316425023e+01    0.1594781   0.08155674 -39.32 0.0005239965    1.626    0.385
       237  -8.3938    144.8461    154.8575   4.7177115561e+01   2.2982528399e+01    0.2072707    0.1716435  80.53   0.00111633    1.772    0.436
       238  -8.5226     49.5028    155.0189   7.4479295012e+01   3.6982700045e+01    0.2877354    0.1734843  56.87  0.001029018    1.847    0.459
       239  -8.7064    246.1776    162.7094   3.1577454820e+01   8.3981522580e+00    0.1793922    0.1074946 -37.35 0.0004813517    1.325    0.245
       240  -9.5907    132.8498    152.7540   4.9537396661e+01   2.5301352049e+01    0.4075431    0.3094993  70.90  0.001279649    1.970    0.492
       241  -8.4343    133.4962    148.0401   4.8442144898e+01   2.6177414671e+01    0.2516477    0.1840702   1.09  0.001161212    1.670    0.401
       242  -8.7517     67.7267    153.3652   6.8161888164e+01   3.5116402649e+01    0.4315918    0.2405812  69.80  0.001460334    2.899    0.655
       243  -7.9979    151.5305    152.4973   4.5252028700e+01   2.2403020463e+01    0.1335802    0.1239728 -25.38 0.0008089516    1.069    0.064
       244  -9.5467      5.7973    152.1846   8.9489875383e+01   4.1701968645e+01     0.671808    0.1016056  30.56  0.002004563    3.963    0.748
       245  -9.1412    243.1749    149.8566   2.9777667317e+01   1.0441026238e+01    0.2401725    0.1201477 -37.03 0.0009890066    1.492    0.330
       246  -8.2105    182.3783    151.0740   3.8955251185e+01   1.8026940029e+01     0.178548    0.1056841 -50.11 0.0007793476    1.798    0.444
       247  -8.4143     98.4699    150.5089   5.8177476369e+01   3.1292736012e+01    0.2512203    0.1486561 -70.12 0.0008123131    2.254    0.556
       248  -9.3733     29.4070    150.3382   8.0936274102e+01   4.0359462919e+01    0.4224924    0.1820786  59.54  0.001468189    2.885    0.653
       249  -9.4636    248.9373    149.1117   2.8962766874e+01   9.9060620798e+00    0.2532015    0.1153673 -35.96 0.0007483957    1.603    0.376
       250  -7.8970    237.4920    150.0253   3.0509569392e+01   1.1060020826e+01    0.1678012   0.08278216 -35.87 0.0005218032    1.526    0.345
       251  -8.1636    212.9516    149.5227   3.3745513842e+01   1.4110924598e+01    0.1793325     0.123796 -34.62 0.0003330625    1.163    0.140
       252  -8.7397    189.3615    149.8497   3.7512916117e+01   1.7238072471e+01    0.2149853    0.1617598 -52.14  0.001056094    1.500    0.333
       253  -8.0100    162.4920    150.4952   4.2586162934e+01   2.1086977499e+01    0.1304345    0.1197239 -32.44 0.0002014186    1.106    0.096
       254  -8.4391    198.6782    148.8997   3.5804463642e+01   1.6098993144e+01    0.1730181    0.1299901 -35.99 0.0004848975    1.135    0.119
       255  -8.7553     90.7046    148.3620   6.0066741977e+01   3.3019352829e+01    0.2911374    0.2276567  73.94  0.001098574    1.609    0.378
       256  -9.2047     88.4913    144.9925   6.0104995878e+01   3.4185849745e+01    0.3417008    0.2497709  83.89  0.001017484    1.868    0.465
       257  -9.3091     40.0740    148.0025   7.6854782826e+01   3.9921455820e+01    0.5430455    0.2231076  52.43  0.001840631    2.911    0.657
       258  -8.9778    233.5338    147.2760   3.0530286706e+01   1.1902288542e+01    0.2551969   0.08483585 -36.74 0.0008760376    2.324    0.570
       259  -8.3613    223.2228    146.9319   3.1827853664e+01   1.3199219808e+01    0.1616402    0.1165657 -30.95 0.0004540183    1.071    0.066
       260 -10.2347    148.8399    145.0939   4.4345685061e+01   2.4270519449e+01    0.4887261    0.3532794 -86.34  0.001752074    2.535    0.605
       261  -9.9478     54.8628    144.5628   7.1132427093e+01   3.9111588982e+01    0.8078876    0.3710214  61.89  0.002502349    3.687    0.729
       262  -8.8667     13.3593    146.3046   8.6371384788e+01   4.2797052592e+01    0.3188353    0.1584398  53.31  0.001311837    2.025    0.506
       263  -7.5661    206.6362    146.2947   3.4083359308e+01   1.5433035547e+01      0.10978   0.08993159 -65.09 8.023768e-05    1.712    0.416
       264  -8.1179    175.5025    146.0148   3.9206358961e+01   1.9915074011e+01    0.1934342    0.1138995 -43.49 0.0007963059    1.542    0.352
       265  -9.4308    139.1416    144.9095   4.6478497871e+01   2.5895135350e+01    0.3384423    0.2457931 -79.92  0.001204288    2.220    0.550
       266  -9.8465    106.3981    144.2421   5.4695894337e+01   3.1480988416e+01    0.5908802    0.3713891  71.34  0.002211065    2.954    0.662
       267  -7.9108     78.2729    146.6641   6.3620323882e+01   3.5327539214e+01    0.1530348    0.1152582  67.84 0.0006991151    1.601    0.375
       268  -8.3482    240.4417    144.9988   2.9269703135e+01   1.1411341854e+01    0.1677881    0.0812262 -37.46 0.0004732117    1.549    0.354
       269  -9.3763    243.3928    141.1939   2.8252416105e+01   1.1588409353e+01    0.3479353    0.1113682 -33.57  0.001655714    2.597    0.615
       270  -8.8157    247.1257    143.6758   2.8245382655e+01   1.0829330770e+01    0.2010043    0.1145116 -32.07 0.0004364187    1.303    0.233
       271  -8.9082    165.4499    143.8391   4.0671093498e+01   2.1852623402e+01    0.2214071    0.2012575 -79.52 0.0007049803    1.418    0.295
       272  -9.5795    124.7457    142.4595   4.9444987367e+01   2.8812812085e+01    0.3981377    0.2895719 -83.85  0.001424712    2.145    0.534
       273  -7.7064    194.2840    143.6893   3.5514810384e+01   1.7553204079e+01    0.1142961   0.09127148 -59.41   0.00027991    1.571    0.364
       274  -8.3961    181.9140    141.3514   3.7133592454e+01   1.9757206826e+01    0.2192091    0.1527427 -46.67 0.0004839454    1.384    0.277
       275  -9.7650     69.7121    141.0423   6.5428175453e+01   3.8019472100e+01    0.4294224    0.2656796  64.14  0.001729693    2.162    0.538
       276  -9.2085      3.3001    142.1983   8.9788585590e+01   4.4581776764e+01    0.3062657    0.1321637  43.30    0.0011286    2.162    0.538
       277  -7.9941    250.5058    140.5170   2.7315238055e+01   1.0869936367e+01    0.1077552   0.07740263 -31.03 4.126767e-05    1.003    0.003
       278  -9.4596     23.3864    137.8450   8.1833588761e+01   4.4343759626e+01      0.56185       0.2299  55.16  0.001937339    2.865    0.651
       279  -7.5955    218.5206    138.4919   3.0921466201e+01   1.5040563084e+01    0.1171489   0.09173681 -31.90 0.0008101832    1.021    0.021
       280  -8.2071    207.4692    137.4902   3.2293223419e+01   1.6684360616e+01    0.2072982   0.09340198 -46.78  0.000789338    2.135    0.532
       281  -8.7174    197.2882    137.2401   3.3782577237e+01   1.8166653881e+01    0.2083034    0.1426012 -39.76 0.0007111922    1.241    0.194
       282  -8.4790    172.0603    138.0200   3.8229774803e+01   2.1861564766e+01    0.1956479    0.1564751 -70.36 0.0008954284    1.689    0.408
       283  -9.0729    248.5990    134.9428   2.6564714298e+01   1.1825805374e+01    0.2414712    0.1233112 -36.80 0.0008505077    1.427    0.299
       284  -8.9818    250.7826    129.8656   2.5439033302e+01   1.2244898276e+01    0.3905167   0.07339929 -35.50  0.001418004    4.484    0.777
       285  -8.6507    247.0268    130.0126   2.5874751390e+01   1.2667491490e+01    0.2252108    0.1024506 -45.63 0.0007474744    1.963    0.490
       286  -8.3961    162.6252    136.0942   3.9628566500e+01   2.3732247984e+01    0.2088421    0.1554037 -55.00 0.0007890493    1.460    0.315
       287  -8.7714     39.0745    136.1353   7.5639861488e+01   4.3274898462e+01    0.2882467    0.1827292  46.48 0.0007284696    1.577    0.366
       288  -8.1067    187.7470    135.6494   3.5001368937e+01   1.9840795171e+01    0.1267927   0.08722446 -18.26 0.0005110088    1.595    0.373
       289  -7.7929     95.6717    135.2945   5.5978270342e+01   3.5376402177e+01    0.1537442    0.1172819  67.06 0.0002933317    1.629    0.386
       290 -10.1436     83.5387    133.0861   5.9315977366e+01   3.7923673233e+01    0.5131236    0.3480859 -79.93  0.001386133    1.936    0.483
       291  -8.2363    231.5607    133.7762   2.8357912401e+01   1.4044062445e+01    0.1537707   0.08406574 -42.50 0.0004341035    1.507    0.337
       292  -8.5049    179.5655    133.8324   3.6022564918e+01   2.1412096990e+01    0.2465243    0.1377222 -50.61 0.0008939229    1.862    0.463
       293  -8.0715    237.6343    132.9083   2.7465618589e+01   1.3409020065e+01    0.1644887   0.07728753 -43.71 0.0008972814    1.786    0.440
       294  -9.8166    132.2003    131.2126   4.5190841056e+01   2.9912468616e+01    0.4468426    0.2965693 -74.15  0.001167741    2.421    0.587
       295  -8.7786    112.6470    132.8814   5.0577263565e+01   3.3013586466e+01     0.275465    0.2198741  85.22 0.0008350872    1.662    0.398
       296  -9.0762    142.9223    131.5814   4.2787778325e+01   2.7946395603e+01    0.2636504    0.1943599 -53.81 0.0006257412    1.404    0.288
       297  -9.5107     13.2580    129.4845   8.4959565678e+01   4.7481711837e+01    0.5325912    0.2066156  53.77  0.001705057    2.890    0.654
       298  -8.1774    204.4491    130.1744   3.1315469305e+01   1.8250357221e+01    0.1708287   0.09587869 -47.15 0.0006149166    1.672    0.402
       299  -8.2453    192.8471    130.1031   3.3060103346e+01   1.9983921614e+01    0.1850331    0.1487169 -50.54 0.0004560128    1.281    0.219
       300  -8.9879    168.3344    129.3799   3.7115771152e+01   2.4015015573e+01    0.2575615    0.2057769 -73.87  0.000783711    1.674    0.403
       301  -9.3375    152.9886    129.1681   4.0090454512e+01   2.6664514423e+01    0.3323548    0.2011901 -57.99 0.0009124379    1.993    0.498
       302  -9.8640     99.2088    127.6265   5.3257186674e+01   3.6596513576e+01    0.5751652    0.3789416  84.33   0.00168821    2.690    0.628
       303  -9.1681     73.2913    129.4467   6.1999404251e+01   4.0479393969e+01    0.3463608    0.2222946  60.44 0.0008940191    1.956    0.489
       304  -8.0504    220.5259    129.5563   2.8976869626e+01   1.6093500470e+01    0.1164123     0.091331 -33.40 0.0001107693    1.012    0.012
       305  -8.2384    211.6566    129.2897   3.0119034476e+01   1.7357136360e+01    0.1781222     0.125616 -59.57   0.00108075    1.796    0.443
       306  -8.4727     50.3257    128.6649   7.0194200764e+01   4.3977379823e+01    0.2703741    0.1558912 -75.10 0.0005740799    1.935    0.483
       307 -10.3635     44.7913    123.6008   7.1468235724e+01   4.6058833587e+01    0.9577476    0.4547963  66.80   0.00291745    3.773    0.735
       308 -10.1513     60.3407    125.3143   6.5812890477e+01   4.3509771543e+01    0.6836864    0.3870316  67.47  0.002448454    2.727    0.633
       309  -9.6725    117.6922    125.0193   4.7452842813e+01   3.3861498875e+01     0.431496    0.2986711  80.17  0.001453684    2.405    0.584
       310  -8.9936    179.2784    124.6338   3.4153968031e+01   2.3042699844e+01    0.2484087    0.1925142 -68.15 0.0009065305    1.657    0.396
       311  -9.6264     28.7315    122.6201   7.7828274820e+01   4.8108196937e+01    0.6472572    0.2960095  63.79  0.002168387    3.080    0.675
       312  -8.1510    188.5805    123.7635   3.2437865490e+01   2.1689372995e+01    0.1747601     0.103977 -47.44 0.0004515845    1.567    0.362
       313  -7.5790    203.0000    121.9799   2.9895221211e+01   1.9745000693e+01    0.1987274   0.05812556 -39.35 0.0004388153    2.805    0.644
       314  -8.0950    194.8471    121.7882   3.1056287713e+01   2.1025576341e+01    0.1684742    0.1278743 -51.96 0.0004622017    1.331    0.249
       315  -8.7161    171.9013    121.3137   3.4727345743e+01   2.4852285718e+01    0.2232386    0.1621331 -49.24  0.000520506    1.319    0.242
       316  -9.1530    158.6613    121.4678   3.7239339238e+01   2.7124405536e+01    0.3004476    0.2182112 -80.61  0.001180864    2.138    0.532
       317  -8.3270     83.7940    122.3831   5.6937459594e+01   4.0548921827e+01    0.2136377    0.1476215  22.36 0.0007255871    1.599    0.375
       318  -9.7237    141.5004    117.8989   4.0003013898e+01   3.0931367864e+01    0.5704462    0.2752733 -53.99  0.001771841    2.351    0.575
       319  -9.6269    131.0037    118.4933   4.2564287136e+01   3.2778943560e+01     0.477304     0.319663 -87.56  0.001884514    2.807    0.644
       320  -9.0839     71.1667    119.7886   6.0717913176e+01   4.3303976854e+01    0.3311409     0.220918  65.53  0.001131156    1.952    0.488
       321  -9.5769      2.7153    117.0861   8.8256931591e+01   5.1620661037e+01    0.5114019    0.2058462  57.29  0.001834881    2.778    0.640
       322  -8.1581    185.6116    115.7796   3.1225752181e+01   2.3493195591e+01    0.1813244    0.1034939 -47.35 0.0003895342    1.611    0.379
       323 -11.5310    248.6061    106.8636   2.1561740946e+01   1.5538376630e+01    0.8950229    0.1821589 -36.51  0.003582208    3.633    0.725
       324  -7.8055    167.5073    114.4555   3.3997499086e+01   2.6829490466e+01    0.1335414    0.1193596 -44.09 0.0001108016    1.040    0.038
       325  -9.9146     92.8466    112.5220   5.1673401921e+01   4.1329807452e+01    0.4629897    0.3313999 -83.13  0.001408574    1.925    0.480
       326  -9.6775     78.9642    112.2827   5.6236485757e+01   4.3895260762e+01    0.5193454    0.3572117  83.63  0.001674388    2.148    0.534
       327  -9.4508    121.9579    112.5523   4.3366457632e+01   3.5753779308e+01    0.2758914    0.2079707 -57.53 0.0005082497    1.380    0.276
       328  -8.6110    174.9346    111.5433   3.2047181683e+01   2.6027422542e+01     0.250498    0.1615077 -52.73 0.0006626822    1.564    0.361
       329  -8.8307    159.1594    111.7057   3.4918791128e+01   2.8833365999e+01    0.2382236    0.1710132 -51.24 0.0007548683    1.351    0.260
       330  -9.6798    133.5598    109.1219   3.9691435218e+01   3.4200282720e+01    0.5319541    0.2518226 -51.16  0.001634955    2.186    0.543
       331  -9.1954     14.7556    111.6054   8.2397550863e+01   5.2409845427e+01    0.3448887    0.1662624  58.71 0.0009586476    2.434    0.589
       332  -9.0046     66.2813    110.2542   6.0369463128e+01   4.6551644257e+01    0.3720456    0.2692318  87.65   0.00121955    1.789    0.441
       333  -9.6492    109.3507    114.0295   4.7112170656e+01   3.7864095414e+01    0.4806934    0.3239253 -79.38  0.001312026    2.291    0.563
       334  -8.1541    189.4272    107.9788   2.8959240993e+01   2.4131424366e+01    0.1962687    0.1061808 -40.62 0.0005884337    1.560    0.359
       335  -8.1667    109.3576    107.3060   4.5417508783e+01   3.9354437501e+01    0.1542022    0.1202878  -2.57 0.0007040658    1.724    0.420
       336 -10.6844     22.6896    102.6797   7.7484858815e+01   5.4261625877e+01    0.7044611    0.3809887  58.39  0.001845944    2.216    0.549
       337  -9.1873    139.9668    104.4356   3.7085061268e+01   3.3865120253e+01    0.3238505    0.2370676 -74.08 0.0009350908    1.771    0.435
       338 -10.2360     45.6327    102.0194   6.6902904284e+01   5.1822471734e+01    0.8478991    0.4316776  65.69  0.002683281    3.542    0.718
       339  -8.5673    166.7818    104.0778   3.1748006333e+01   2.8786350288e+01    0.2093588    0.1646658 -57.94 0.0006453999    1.290    0.225
       340  -9.5555    150.4951    102.8171   3.4490217685e+01   3.2106462838e+01    0.4057123    0.2338791 -57.87  0.001143237    2.043    0.510
       341  -8.6981      7.0730    103.0395   8.4939219468e+01   5.5332509444e+01    0.2454934    0.1541344  53.13 0.0007111812    1.678    0.404
       342  -8.1066    175.6332    101.8735   2.9746569966e+01   2.7542257149e+01    0.1911533     0.105262 -48.14 0.0003642426    1.681    0.405
       343  -9.0660    128.3946    101.7813   3.9050275591e+01   3.6703169383e+01    0.2717069    0.2220594 -83.23 0.0007231307    1.457    0.313
       344 -10.2121    108.7556     98.5220   4.3265083129e+01   4.1385694086e+01    0.7818004    0.4407298  69.31  0.001142457    3.342    0.701
       345  -8.3428    107.1708     92.7916   4.2125920494e+01   4.2934024621e+01    0.2074875    0.2039235  51.70 0.0005633229    1.046    0.044
       346  -8.3534    159.9051    100.9159   3.2231483181e+01   3.0635302100e+01    0.2126074    0.1531516 -66.57  0.000550821    1.643    0.392
       347  -8.8681     82.0704     99.7804   5.1972981964e+01   4.6380771041e+01     0.323471    0.2321068  88.18 0.0009662123    1.977    0.494
       348  -9.7346     63.9308     95.9065   5.7719817265e+01   5.0596659644e+01     0.534502    0.3368851  79.25   0.00141009    2.703    0.630
       349  -8.9885     95.1231     96.9526   4.6878918174e+01   4.4494677295e+01    0.2796933    0.2403057 -85.06 0.0006963609    1.308    0.235
       350  -7.7065    183.6775     96.6866   2.7317943955e+01   2.6945104302e+01    0.1233956   0.09788747  -3.39 0.0004557495    1.657    0.397
       351  -8.2274    165.1434     94.1800   2.9681531984e+01   3.0800672305e+01    0.1852526    0.1453372 -63.70 0.0004413506    1.333    0.250
       352  -8.4312    193.0172    114.9990   2.9919701367e+01   2.2409286439e+01    0.1922988     0.136014 -59.63 0.0004963457    1.624    0.384
       353  -9.2198    139.1394     92.2500   3.4140974226e+01   3.6348589794e+01    0.3203801    0.2183046 -74.08 0.0008439591    2.000    0.500
       354  -9.7108    124.6306     90.7854   3.7018387838e+01   3.9664998476e+01    0.3825022    0.2771867 -71.60 0.0009678727    1.693    0.409
       355  -9.2776     35.1221     90.0596   6.9049884331e+01   5.6391043227e+01    0.4983959    0.2830317  75.69  0.001594051    2.800    0.643
       356  -9.5138      4.9732     91.8733   8.4664473475e+01   5.8572422780e+01    0.3440242    0.1620173  46.62  0.001023367    2.294    0.564
       357  -8.2000     47.1688     91.6150   6.3759774593e+01   5.4357576323e+01    0.2231958    0.1475575  14.71 0.0009565475    1.729    0.422
       358  -8.2952     23.3942     89.8578   7.4856732850e+01   5.7736359750e+01    0.3052408    0.1807495   4.91  0.001290288    1.925    0.480
       359  -9.7898     86.6902     86.6016   4.6643753526e+01   4.8518530409e+01    0.5056161    0.3419295  80.91   0.00126802    2.332    0.571
       360  -8.1272    164.3586     87.1220   2.8089469875e+01   3.2142223325e+01    0.2001558    0.1068919 -48.76 0.0006189279    1.755    0.430
       361  -8.1759    176.4737     92.9997   2.7561112221e+01   2.8853642671e+01    0.1968296    0.1127807 -42.16 0.0004107145    1.514    0.339
       362  -9.4885     48.8587     84.5386   6.1111645629e+01   5.5920876299e+01    0.5237557    0.3094959  65.64  0.001946504    2.635    0.620
       363  -8.1537    157.8294     83.7854   2.8358456741e+01   3.4007746156e+01    0.1865249    0.1431789 -60.44  0.000453605    1.293    0.226
       364  -9.5220    104.7855     82.9286   3.9933668586e+01   4.5489331551e+01    0.3925138     0.277369 -73.37 0.0008364791    1.829    0.453
       365  -9.0108    140.9325     82.2972   3.1110973333e+01   3.7782684810e+01    0.3484308    0.1757802 -49.99 0.0009730501    1.981    0.495
       366  -9.3747     24.6748     80.6479   7.2241213389e+01   6.0091504065e+01    0.4459602    0.2628338  67.10  0.001291021    2.331    0.571
       367  -9.2516     10.1209     81.0182   8.0322482443e+01   6.1246829928e+01    0.4107066     0.143184  44.37  0.001363395    3.289    0.696
       368  -8.3101    150.4775     80.4991   2.8808380203e+01   3.6079663205e+01    0.2501175    0.1118261 -48.99 0.0008802048    2.208    0.547
       369  -8.5287     74.7212     80.3810   4.8999984973e+01   5.2320492791e+01    0.2719805    0.1879776 -64.70 0.0007911332    1.677    0.404
       370  -8.5586    119.3506     80.0505   3.5246589602e+01   4.2874804769e+01    0.2641209    0.1995311  89.77 0.0007581766    1.627    0.385
       371  -8.1587    166.8030     79.3906   2.5775302376e+01   3.2918841064e+01    0.1821722    0.1430523 -49.69 0.0003959137    1.131    0.116
       372  -7.8774    184.4458     77.5551   2.2797028331e+01   2.9777069250e+01     0.128017    0.1067499 -52.19 0.0002371221    1.033    0.032
       373  -9.1524    127.9987     75.1836   3.1820564595e+01   4.1861564926e+01    0.2987105    0.1936523 -55.00 0.0005471407    1.589    0.371
       374  -8.3373    140.4865     75.0563   2.9207006935e+01   3.9140189216e+01     0.214285    0.1290427 -43.77 0.0006639935    1.559    0.359
       375  -9.8383     63.1328     73.6895   5.1462988334e+01   5.6082174205e+01      0.44741    0.3099426 -70.44 0.0009576854    1.811    0.448
       376  -9.4621     82.5101     72.5641   4.3639924128e+01   5.2425777176e+01    0.4301673    0.2883756 -75.27  0.001256066    2.179    0.541
       377  -8.3759    163.5028     73.0935   2.4693403387e+01   3.4585955674e+01    0.2058395    0.1183713 -40.84  0.001019605    1.559    0.358
       378  -7.8103    151.6511     73.3047   2.6683836659e+01   3.7030721167e+01    0.1438644   0.09891027 -71.70 0.0007041436    1.699    0.412
       379  -8.5447    115.6380     72.7983   3.3979411745e+01   4.5057566557e+01    0.2546348    0.1743285 -50.98  0.000505825    1.460    0.315
       380  -8.6162    105.8567     71.5761   3.6124652584e+01   4.7488349102e+01    0.2915973    0.1839293 -61.08 0.0007638128    1.882    0.469
       381  -8.9284     95.2203     71.1077   3.9024548561e+01   4.9957828778e+01    0.3614841    0.2147773 -59.72 0.0009846441    2.047    0.511
       382  -7.4892    179.3038     85.6291   2.5408302365e+01   2.9504193788e+01    0.1378198   0.08819625 -62.22 0.0007032584    1.753    0.430
       383  -9.2352     51.5156     69.6103   5.5303523315e+01   5.9125086605e+01    0.4306807    0.2655186 -76.05  0.001362556    2.473    0.596
       384  -8.7254     16.7618     69.8867   7.4239433801e+01   6.3699569423e+01    0.2680241    0.1952936  79.34 0.0008530421    1.648    0.393
       385  -8.6903    147.0395     68.0126   2.6040262666e+01   3.8881656509e+01    0.2166621    0.1862048 -63.06 0.0006892346    1.078    0.072
       386  -8.5953    138.7186     65.8819   2.6941310158e+01   4.1062790779e+01    0.2721615    0.1650574 -54.55 0.0007350222    1.675    0.403
       387  -8.5385    121.6874     65.8591   3.0419099292e+01   4.4921969821e+01    0.2604874     0.176956 -57.88 0.0007048933    1.545    0.353
       388  -8.7906    110.2006     63.5556   3.2402364306e+01   4.7966206319e+01    0.2771687    0.2096114 -69.28 0.0006813555    1.467    0.319
       389  -8.4278     37.3094     64.1340   6.0711042354e+01   6.2700207198e+01    0.2796228    0.1744772  54.86  0.001022778    1.988    0.497
       390  -7.9602    158.4010     61.5193   2.2430855560e+01   3.7432038470e+01    0.1335372    0.1158577 -58.64 6.015477e-05    1.020    0.020
       391  -8.9141     97.7357     60.4140   3.4665869960e+01   5.1407392203e+01    0.2749256    0.2179022 -88.42 0.0009442761    1.440    0.306
       392  -9.4366     73.3705     59.7339   4.2419020017e+01   5.6995677532e+01     0.355744    0.2502799 -55.70  0.001081466    1.558    0.358
       393  -8.1297    147.3739     59.1907   2.3511175890e+01   4.0187872962e+01    0.1975013    0.1110251 -47.49 0.0005435548    1.652    0.395
       394  -7.7608     89.4513     59.5009   3.6808438562e+01   5.3474200493e+01      0.14812    0.1391375  81.32 0.0001150939    1.039    0.038
       395  -8.5448    130.8256     57.5322   2.5956362999e+01   4.4193175523e+01    0.2800315    0.1613878 -55.18  0.000713455    1.825    0.452
       396  -9.3753      7.6380     57.1933   7.7055526150e+01   6.7705099312e+01    0.3183773    0.2139552  64.29  0.001009977    1.850    0.459
       397  -9.6867    249.0575     55.8362   1.2052350014e+01   2.1832815104e+01    0.1665575    0.1062384 -53.50 0.0006158961    1.263    0.208
       398  -8.2424    140.1622     56.1600   2.3845909918e+01   4.2267456091e+01    0.1953594    0.1435373 -61.39 0.0003843543    1.331    0.249
       399  -8.8317    119.2054     55.6383   2.7725125849e+01   4.7200679077e+01    0.2949858    0.1920824 -62.49 0.0007639182    1.720    0.419
       400  -8.5608     44.1858     55.6276   5.3939764184e+01   6.3558264708e+01    0.2467981    0.2017713 -67.99 0.0009203174    1.410    0.291
       401  -8.8884     62.9984     54.4929   4.4547044268e+01   6.0220303638e+01    0.2696735    0.2030846 -64.37 0.0005950005    1.576    0.366
       402  -8.7330     54.0694     53.6009   4.8191071495e+01   6.2185355565e+01    0.2819245    0.2072851 -67.57  0.001230637    1.701    0.412
       403  -8.4813    105.7926     53.0702   2.9964766500e+01   5.0785795769e+01    0.2289863    0.1825276 -71.59 0.0005844428    1.332    0.249
       404  -9.3286     92.5541     50.5681   3.2600484851e+01   5.4333107723e+01    0.3801315    0.2367187 -56.77 0.0009937637    1.847    0.459
       405  -8.2387    144.8815     48.8214   2.0922590867e+01   4.2271100043e+01    0.1923258    0.1407365 -64.56 0.0005002735    1.320    0.242
       406  -9.5971     23.5384     56.2933   6.6235861171e+01   6.6423922682e+01    0.5109625    0.3068572  73.54  0.002002674    2.896    0.655
       407  -8.3768    112.1734     46.8692   2.6318635464e+01   5.0242345739e+01    0.2261672    0.1750523 -72.71 0.0008181543    1.353    0.261
       408  -8.9618     82.2611     46.5705   3.4189941189e+01   5.7417642304e+01    0.2908227    0.2205272 -77.27 0.0007356869    1.611    0.379
       409  -8.2726     45.2941     44.8212   4.8870376048e+01   6.5627384694e+01    0.2114413    0.1789204 -75.27 0.0006289539    1.453    0.312
       410  -8.6219     16.8267     44.7374   6.6771339268e+01   6.9925585653e+01    0.2395711    0.1751844  73.20 0.0006408335    1.897    0.473
       411  -8.2476    132.6153     42.8224   2.1064164801e+01   4.5952976093e+01    0.1950557    0.1124713 -47.26 0.0003975634    1.650    0.394
       412  -8.5806     58.1596     42.2530   4.1468440375e+01   6.3554350396e+01    0.2713345    0.1871223 -70.80  0.001066116    2.129    0.530
       413  -9.5304      5.2039     41.7964   7.4657347646e+01   7.1680571054e+01    0.3053771    0.2059132  74.51  0.001478361    2.017    0.504
       414  -9.1760     69.7969     41.6003   3.6440694323e+01   6.1118881499e+01    0.3140827    0.2421224 -82.05 0.0008832487    1.654    0.395
       415  -8.4496    106.0202     41.0477   2.5624129052e+01   5.2594759546e+01    0.2266389    0.1573149 -69.55 0.0005287793    1.628    0.386
       416  -8.1198     36.8813     40.6160   5.1687428018e+01   6.7973844518e+01    0.1975117    0.1242469  46.02 0.0005135753    1.613    0.380
       417  -8.3159     95.6817     38.1065   2.6988797740e+01   5.5538929572e+01    0.2246206    0.1612137 -57.03 0.0005306997    1.486    0.327
       418  -8.2044     80.8218     36.8117   3.0619231417e+01   5.9317913837e+01    0.1983135    0.1619459 -79.05 0.0004195081    1.360    0.265
       419  -7.8495    133.5080     36.4561   1.8910678363e+01   4.6596684039e+01    0.1351372    0.1202038 -79.28 0.0001070293    1.015    0.015
       420  -9.2413     26.2893     35.4041   5.6034178491e+01   7.0739188498e+01    0.2815187    0.2371157  87.38 0.0009517439    1.603    0.376
       421  -8.0643    125.9909     35.3197   1.9745230707e+01   4.8539756819e+01    0.1885398      0.16233  83.46 0.0004420913    1.077    0.072
       422  -8.5922    111.7416     34.3943   2.2004150032e+01   5.2124162988e+01    0.2488766    0.1519907 -48.62 0.0005821661    1.645    0.392
       423  -7.7155     88.6914     34.3274   2.7302008283e+01   5.7784522418e+01    0.1466099    0.1047259 -73.94 0.0005286548    1.658    0.397
       424  -8.3763    119.3678     33.1703   2.0152212781e+01   5.0421537628e+01    0.1917497    0.1146778 -45.83 0.0006102098    1.633    0.387
       425  -8.5792     60.8292     32.3804   3.5708582107e+01   6.4641923699e+01    0.2308986    0.1882381 -52.70 0.0006194556    1.367    0.269
       426  -8.7869     48.6472     33.1029   4.1574092151e+01   6.7145503942e+01    0.2305456    0.1896695  59.93 0.0006181715    1.275    0.216
       427  -8.7210     72.3440     31.3036   3.0919851056e+01   6.2149711090e+01    0.2713087    0.1881247 -75.12 0.0007839068    1.948    0.487
       428  -8.6340     13.0660     30.5354   6.3822066129e+01   7.3511221409e+01    0.2390845    0.1936392 -83.08  0.001018529    1.629    0.386
       429  -7.4100    207.3219     29.7065   9.5255657587e+00   3.1726644770e+01    0.1217104   0.06436926 -58.52 0.0002507187    1.613    0.380
       430  -8.2992    101.4421     29.2103   2.2180112682e+01   5.5337743364e+01    0.1943945    0.1195881 -48.15 0.0006787732    1.673    0.402
       431  -8.9633     81.6889     27.3644   2.6256722939e+01   6.0448672662e+01    0.2997503    0.2039301 -69.62 0.0009645514    1.805    0.446
       432  -9.3158     91.5013     25.6338   2.2976734688e+01   5.8253581824e+01    0.4493564    0.1979606 -52.17  0.001737519    2.805    0.643
       433  -8.9624      3.8599     27.2147   7.0539938827e+01   7.5138848756e+01    0.1961245    0.1740454  39.30 0.0008872408    1.276    0.216
       434  -9.0518     63.6838     20.8636   2.8832052576e+01   6.5635266432e+01    0.3247501    0.2027287 -54.56  0.000979649    1.978    0.494
       435  -8.8526     48.4085     21.5079   3.5471092947e+01   6.9027775649e+01    0.2601535     0.219934 -79.64 0.0007986117    1.473    0.321
       436  -8.2385    120.9121     21.2057   1.5750415564e+01   5.1480439762e+01    0.2104824    0.1565569 -67.92 0.0008021991    1.276    0.216
       437  -9.0341     74.1000     19.3387   2.4714085620e+01   6.3316372734e+01    0.2585781    0.1903869 -49.42 0.0007452657    1.485    0.327
       438  -8.3646    191.4230    249.2779   5.3006361213e+01   2.0326885373e+00    0.1261918   0.09273127 -37.90 0.0009402498    1.660    0.398
       439  -7.8279    112.5696     16.5480   1.5337367157e+01   5.4042169503e+01    0.1348511    0.1155569 -82.39 0.0001324474    1.039    0.037
       440  -8.4355     97.3691     15.1446   1.7372061118e+01   5.7987658429e+01    0.1892866     0.112219 -43.60 0.0007211185    1.728    0.421
       441  -8.3003     87.9155     17.2309   2.0202839458e+01   6.0134445231e+01    0.2116042    0.1690316 -79.05 0.0006294098    1.264    0.209
       442  -7.9544     17.3044     13.6869   5.0494905146e+01   7.6193406019e+01    0.1223715    0.1027951  65.33   0.00024268    1.617    0.382
       443  -9.2173    175.5883    247.3660   5.5580030042e+01   3.6705821896e+00    0.2337676    0.2079422  77.48  0.001237483    2.507    0.601
       444  -8.5772    112.8965    248.4714   6.8394385525e+01   9.5151361796e+00    0.1973235    0.1617674  86.75   0.00102208    1.957    0.489
       445  -8.8215     93.8422    249.2076   7.2726490437e+01   1.1277840538e+01    0.2081973   0.09819219  49.70 0.0009550697    2.949    0.661
       446  -8.4584      6.8150    249.1790   9.3078607522e+01   1.8969948481e+01    0.1445501    0.1224819   6.75 0.0002916979    1.299    0.230
       447  -9.4046    218.6695    246.6292   4.8175422193e+01   1.4308997770e-01    0.3156544    0.1041253 -38.81  0.001772367    2.679    0.627
       448  -9.2900    155.9817    247.7589   5.9346057871e+01   5.4244082883e+00    0.1822009    0.1445095 -22.28 0.0006627615    1.266    0.210
       449  -9.3338    103.7956    246.8547   7.0247084854e+01   1.0691411898e+01    0.3103776    0.2121561  85.52  0.001732083    2.696    0.629
       450  -9.8315    224.3236    245.3471   4.7132042242e+01  -1.4149084395e-01    0.2283449      0.13298 -25.53 0.0009576954    1.330    0.248
