#   1 NUMBER                 Running object number                                     
#   2 MAG_AUTO               Kron-like elliptical aperture magnitude                    [mag]
#   3 X_IMAGE                Object position along x                                    [pixel]
#   4 Y_IMAGE                Object position along y                                    [pixel]
#   5 X_WORLD                Barycenter position along world x axis                     [deg]
#   6 Y_WORLD                Barycenter position along world y axis                     [deg]
#   7 A_WORLD                Profile RMS along major axis (world units)                 [deg]
#   8 B_WORLD                Profile RMS along minor axis (world units)                 [deg]
#   9 THETA_WORLD            Position angle (CCW/world-x)                               [deg]
#  10 FWHM_WORLD             FWHM assuming a gaussian core                              [deg]
#  11 ELONGATION             A_IMAGE/B_IMAGE                                           
#  12 ELLIPTICITY            1 - B_IMAGE/A_IMAGE                                       
         1 -10.5038    246.1793      9.3355   5.3398925072e+01   2.1973785588e+01     0.172853    0.1554227  -9.33  0.000735419    1.175    0.149
         2  -9.2892    243.6580      3.6749   5.2179144370e+01   2.3072195790e+01     0.132219   0.09187953  34.23  0.000705103    1.733    0.423
         3  -9.4511     61.3207    249.3482   1.3600410302e+02   1.9331240814e+01   0.08134905   0.07355361  10.89 0.0007048961    1.738    0.425
         4 -11.6186    217.2416    209.9437   1.0388882665e+02   2.6827055544e+00    0.7812385    0.3334868 -32.91  0.004041722    2.725    0.633
         5 -13.1776    227.8927    194.0915   9.9355891622e+01   2.8005779697e+00     3.991568    0.9651732 -26.20   0.01156415    7.468    0.866
         6 -12.3354    230.0590    235.4707   1.0557602359e+02  -1.8251685109e+00     1.322405      1.09182 -88.77  0.007493526    4.303    0.768
         7 -12.0066    228.0061    222.2789   1.0395623383e+02  -2.4940447602e-01    0.7951477    0.3768168 -33.07  0.004569062    2.560    0.609
         8 -12.4527    246.9029    241.4230   1.0370132414e+02  -4.6528923085e+00    0.7111833    0.6795126  -4.78  0.005726654    2.005    0.501
         9 -11.8226    236.0498    228.9065   1.0361561317e+02  -2.0510758387e+00    0.3750607    0.3032132 -10.90  0.001782878    1.475    0.322
        10 -12.2038    238.3059    219.2987   1.0175927530e+02  -1.4515849123e+00     0.642526    0.3532025 -19.13  0.003992539    1.934    0.483
        11 -13.2474    235.4252    197.7657   9.8685287075e+01   1.2036808598e+00     4.139289    0.6163332 -29.31   0.01050893   10.196    0.902
        12 -12.0831    248.7345    180.6147   9.3328830087e+01   9.9715357431e-01    0.9858615    0.2638096 -35.98  0.003695479    4.483    0.777
        13 -13.3347    244.8231    158.0557   8.9569072696e+01   4.2459289017e+00     2.641657    0.6224551 -34.92  0.009078789    4.371    0.771
        14 -13.4355    248.2790    124.5722   8.1763851299e+01   7.8017717647e+00     3.602247    0.1627577 -31.24  0.007209787   10.440    0.904
        15 -16.0007    245.1065     71.9021   6.9499885197e+01   1.5223522939e+01     8.020551     3.022472 -25.13    0.0308773    2.487    0.598
        16  -9.5489    152.3833    228.7622   1.1831121228e+02   1.0345019020e+01    0.1345875    0.1057221 -23.15 0.0009497146    1.681    0.405
        17  -9.7458    184.4052    227.3879   1.1232736321e+02   5.7153129644e+00    0.1776628      0.13974 -30.41  0.000852699    1.621    0.383
        18  -9.4915    138.5815    228.1971   1.2077857619e+02   1.2442455553e+01    0.1326499    0.1067118 -27.39 0.0009502875    1.686    0.407
        19 -10.2705    190.5584    225.3549   1.1094745694e+02   5.0225466182e+00    0.2670676    0.1743385 -20.38  0.001365377    1.888    0.470
        20 -10.2110    162.9786    226.4866   1.1609512623e+02   9.0606305345e+00    0.1989317    0.1523812  -4.22  0.001366741    1.625    0.384
        21 -11.0801    216.7966    222.7663   1.0595107536e+02   1.3561939928e+00    0.3143347    0.2252966 -27.49  0.001502463    1.712    0.416
        22 -10.6497    205.9185    224.6646   1.0812682058e+02   2.7801209458e+00    0.2587033    0.1770433 -23.14  0.001191889    1.713    0.416
        23  -9.3035    170.3783    224.7246   1.1451584491e+02   8.1664105253e+00    0.1369191    0.1051689 -15.52 0.0006162411    1.610    0.379
        24  -9.5179    129.3415    224.3163   1.2206389882e+02   1.4321339777e+01    0.1100327   0.08044287  15.24 0.0003725654    1.710    0.415
        25 -10.1193    180.5039    222.2139   1.1233106205e+02   6.9329225855e+00    0.2280074    0.1503257 -22.48   0.00119565    1.924    0.480
        26 -10.4279    148.1760    221.9067   1.1827070641e+02   1.1894437278e+01    0.2253144    0.1557248 -35.30  0.001475267    1.918    0.479
        27 -10.2712    185.8303    220.5929   1.1113637649e+02   6.3117754420e+00    0.2556768    0.1583417 -28.76  0.001356407    2.004    0.501
        28  -9.5872    174.3645    222.0019   1.1342559665e+02   7.9013239810e+00    0.1566668    0.1326095  18.21 0.0009765784    1.173    0.148
        29 -10.8832    202.3118    217.9144   1.0777451664e+02   4.0866034614e+00    0.3803234    0.2487424 -23.94  0.002451103    1.785    0.440
        30  -9.5540    204.4819    212.4972   1.0656534595e+02   4.3777848555e+00    0.1551676    0.1043852  -8.97 0.0008307162    1.656    0.396
        31 -10.8925    193.4271    217.8234   1.0936078318e+02   5.4705006057e+00     0.344139    0.2410287 -28.32  0.001944738    1.721    0.419
        32 -10.5800    210.7874    217.5098   1.0620788975e+02   2.8321792579e+00    0.3146952    0.1903516 -23.57  0.001414423    1.903    0.474
        33 -10.0520    210.1885    211.4307   1.0537655174e+02   3.6104956237e+00    0.2756794    0.1648986   8.59  0.001416715    1.856    0.461
        34  -9.4905    158.5727    218.7012   1.1592284415e+02   1.0756416809e+01     0.183928    0.1147936 -37.70  0.001127471    2.066    0.516
        35  -9.6515    179.1946    216.2990   1.1175082299e+02   7.8754643677e+00    0.1879706    0.1482617  -2.54 0.0009902236    1.408    0.290
        36 -10.1160    170.7025    215.7995   1.1326272459e+02   9.2667496600e+00    0.2624758    0.1566603 -31.67  0.001547663    2.157    0.536
        37  -9.3455    165.2928    215.5031   1.1423794343e+02   1.0149556194e+01    0.1734169    0.1093674 -41.74  0.001059677    2.017    0.504
        38  -9.3546    185.4979    214.9352   1.1039110080e+02   7.0601813075e+00    0.1501341    0.1165789 -25.82 0.0006716036    1.548    0.354
        39  -9.4683    154.5469    213.2326   1.1597438631e+02   1.2132015196e+01    0.1433677    0.1118195 -20.29 0.0009168413    1.634    0.388
        40  -9.4748    200.1362    210.2717   1.0700959195e+02   5.3246732051e+00    0.1921586    0.1417208  -4.56 0.0006608597    1.430    0.301
        41  -9.6329    186.2228    210.2751   1.0957298602e+02   7.5331225151e+00    0.1930026    0.1470338   0.16 0.0008299411    1.406    0.289
        42  -9.9879    176.8617    210.1179   1.1130392266e+02   9.0445891055e+00    0.2313214    0.1683779 -27.17  0.001495561    1.659    0.397
        43 -10.0713    192.9205    209.3021   1.0818451738e+02   6.5886265831e+00    0.2320733    0.1734766 -25.64  0.001244356    1.570    0.363
        44  -9.6307    160.7312    209.7314   1.1431991415e+02   1.1656746748e+01    0.1967772    0.1440735 -22.79  0.001246072    1.740    0.425
        45 -10.5675    205.9974    206.1498   1.0529682336e+02   4.8887170583e+00    0.4011729    0.1859473 -33.26  0.002095696    2.531    0.605
        46 -10.2051    197.7777    203.3206   1.0635429358e+02   6.5552835743e+00    0.3024902    0.1817736 -20.94  0.001545487    1.987    0.497
        47  -9.5356    186.5110    202.5854   1.0834910111e+02   8.4820490767e+00    0.2094119    0.1222071 -36.72 0.0009647893    2.067    0.516
        48  -9.2046    178.6349    203.2110   1.0994354128e+02   9.6826441193e+00    0.1548558    0.1109861 -19.18 0.0009454356    1.664    0.399
        49 -10.5447    210.2417    200.5401   1.0361401796e+02   4.8809839946e+00      0.29378    0.2118323 -36.16   0.00133907    1.778    0.438
        50  -9.2712    192.6501    201.7700   1.0706420378e+02   7.5861396547e+00    0.1432368    0.1160782 -38.48 0.0009351008    1.613    0.380
        51  -9.1588    164.3401    201.3305   1.1242903081e+02   1.2272278745e+01    0.1273575   0.08604941  13.22 0.0006467355    1.742    0.426
        52 -10.1595    215.2299    197.1186   1.0213645136e+02   4.4847632457e+00    0.2457532    0.1636958 -25.52  0.001000851    1.655    0.396
        53 -10.0614    202.1076    196.7236   1.0447682712e+02   6.6788402225e+00    0.2450071    0.1685977 -19.86  0.001408607    1.601    0.376
        54  -9.3370    184.1522    195.8469   1.0773498310e+02   9.7757086324e+00    0.1767047    0.1307033  10.53  0.001073307    1.363    0.266
        55  -9.9927    219.3798    194.1112   1.0087308046e+02   4.1699580197e+00    0.2182769     0.153771 -14.32 0.0009296835    1.450    0.311
        56  -9.9977    209.1779    193.9988   1.0270925231e+02   5.8543659608e+00     0.228567    0.1618204 -11.21 0.0008273947    1.474    0.321
        57  -9.2643    194.1400    194.1324   1.0554402159e+02   8.3376181383e+00    0.1562649    0.1433891  35.68 0.0008058793    1.334    0.250
        58 -10.5267    215.1181    189.8372   1.0089926141e+02   5.3864862979e+00    0.3722117    0.1682893 -26.49  0.001708948    2.531    0.605
        59  -9.6278    220.3167    187.3368   9.9511504732e+01   4.8305860022e+00    0.2154006    0.1682353 -18.71  0.000751425    1.375    0.273
        60  -9.8810    217.8656    182.7609   9.9129921667e+01   5.8053295032e+00    0.2766186    0.1577762 -16.49 0.0009175604    1.959    0.489
        61 -10.3358    219.0582    177.1250   9.7869056241e+01   6.3132194992e+00    0.3140922    0.1739586 -24.60  0.001188307    1.911    0.477
        62  -9.6799    198.9018    190.2822   1.0399255601e+02   8.0461330566e+00    0.2139545    0.1486387  -7.88  0.001156912    1.580    0.367
        63  -9.1472    185.3471    189.8471   1.0652244153e+02   1.0403974443e+01    0.1655266    0.1127153 -19.25 0.0008277692    1.713    0.416
        64  -9.6442    210.2381    188.5049   1.0156190902e+02   6.3668930070e+00    0.2134182    0.1597138 -18.00 0.0007788199    1.409    0.290
        65  -9.1856    178.6508    189.2130   1.0773022624e+02   1.1633899727e+01    0.1654468     0.115196 -22.27 0.0009465508    1.684    0.406
        66  -9.3703    193.2041    187.4044   1.0458745987e+02   9.4008590026e+00    0.1710773    0.1057391  43.16 0.0005765469    1.495    0.331
        67 -10.8334    225.3119    172.5614   9.5865377401e+01   5.8146647754e+00    0.3770743    0.2601932 -12.19   0.00136232    1.413    0.292
        68 -10.3564    223.8165    183.3182   9.8153382441e+01   4.7374969886e+00    0.2684937    0.1743854 -24.93 0.0009502645    1.620    0.383
        69 -10.2194    225.5206    179.0312   9.7054482989e+01   4.9755615916e+00    0.2725104     0.166592 -17.85 0.0008037566    1.677    0.404
        70  -9.8206    203.2112    182.8336   1.0187226042e+02   8.2988980234e+00    0.2497834    0.1810739 -24.62  0.001155794    1.499    0.333
        71  -8.6758    189.6439    184.6722   1.0480640135e+02   1.0391270650e+01    0.1386064   0.08769263  13.73 0.0007045094    1.779    0.438
        72 -10.4119    210.9413    181.5509   1.0018711140e+02   7.1382662344e+00    0.3239163    0.1795949 -22.89  0.001408259    2.004    0.501
        73  -9.3649    183.4858    182.4889   1.0563965937e+02   1.1771521473e+01    0.2100785    0.1195798 -23.64  0.001029957    2.224    0.550
        74  -9.0896    197.3453    181.8185   1.0281215034e+02   9.4517799669e+00    0.1692254    0.1132189 -17.46 0.0009349098    1.662    0.398
        75 -13.7879    244.5446    191.7173   9.6066783673e+01   4.4480207773e-01     2.126664    0.6607435 -33.35  0.009224639    3.512    0.715
        76  -9.2608    190.6416    178.7687   1.0357170004e+02   1.1052418274e+01    0.1644202    0.1231694 -41.29 0.0009503398    1.658    0.397
        77  -9.4976    205.1083    176.5971   1.0037573749e+02   8.8070750869e+00    0.2075211    0.1417261 -20.19  0.001060722    1.552    0.356
        78  -9.8013    215.2698    174.2021   9.8016307332e+01   7.3458831857e+00    0.4130215    0.1399262 -26.43  0.001502672    3.905    0.744
        79  -9.4869    197.5192    176.0365   1.0173160516e+02   1.0223383619e+01    0.1814973    0.1264894 -27.96 0.0008990078    1.567    0.362
        80 -10.1516    101.0037    176.0095   1.2212973059e+02   2.6451009231e+01    0.1756948    0.1527844  53.32            0    1.003    0.003
        81  -9.5504    210.4800    175.0055   9.9062560147e+01   8.0779530058e+00    0.1824935     0.122328 -23.54  0.001018665    1.568    0.362
        82  -9.4969    205.1767    168.8712   9.8902959844e+01   9.8554029390e+00    0.2540174    0.1783262 -41.13  0.001399727    1.783    0.439
        83  -9.2660    212.0000    168.9557   9.7621988679e+01   8.6198353044e+00    0.1948739   0.07276848 -33.37 0.0007930641    2.878    0.653
        84  -9.9121    229.1078    165.3720   9.3777997389e+01   6.0632165059e+00    0.2864017    0.2021188   4.12 0.0009153385    1.298    0.230
        85  -9.0930    225.7063    164.3149   9.4178918436e+01   6.7959574237e+00    0.2261911   0.09804138 -33.11  0.001014662    2.415    0.586
        86  -9.3552    191.4907    164.9995   1.0084079693e+02   1.2911237429e+01    0.1937465    0.1314366 -30.39  0.001007575    1.600    0.375
        87 -10.1017    212.9314    162.2610   9.6127944076e+01   9.3633701497e+00    0.3295145    0.1797511 -23.25  0.001536306    1.976    0.494
        88 -10.2606    218.7053    167.4225   9.6072893483e+01   7.6307570270e+00     0.332669    0.2148583 -17.41  0.001398268    1.580    0.367
        89  -9.6608    221.3421    161.4117   9.4391767919e+01   7.9540385017e+00    0.2401721    0.1491224 -27.59 0.0009062584    1.652    0.395
        90  -9.6199    205.3233    161.3407   9.7396805474e+01   1.0888528354e+01    0.2519249    0.1610113 -30.45  0.001322991    1.662    0.398
        91 -10.4126    226.4939    156.8748   9.2529000225e+01   7.6237325589e+00    0.3622235    0.1423908 -29.76  0.001344742    2.599    0.615
        92 -10.1990    228.5370    150.4412   9.0819678665e+01   8.1002998359e+00    0.4508508     0.170867 -24.30  0.001736264    3.007    0.667
        93 -12.7358    248.2088    229.1421   1.0166392185e+02  -3.7632001556e+00    0.7061884     0.402248 -30.27  0.004643631    2.197    0.545
        94  -9.5386    221.4568    152.0028   9.2433789851e+01   9.1977598786e+00    0.1964265    0.1606942  -1.23 0.0009261879    1.103    0.093
        95  -9.5779    216.2780    155.9935   9.4225441991e+01   9.6110134759e+00    0.1926909     0.155909 -12.44 0.0008376561    1.206    0.171
        96 -12.7951    247.7401    215.8690   9.9650017991e+01  -2.4744152417e+00    0.5889164    0.4075676 -19.66   0.00271438    1.580    0.367
        97  -9.6601    215.2571    148.5758   9.2861965463e+01   1.0836911589e+01      0.24496    0.1559655 -38.76  0.001234682    1.814    0.449
        98  -9.5649    222.0000    156.0130   9.3169200771e+01   8.5553719151e+00    0.2575348   0.09373772 -31.65   0.00102632    2.822    0.646
        99 -10.2543    223.2989    146.2342   9.0869943306e+01   9.6408966329e+00    0.2899477     0.176252 -20.60  0.001310479    1.643    0.391
       100 -10.8657    224.5538    249.5390   1.0843672725e+02  -2.3527750624e+00    0.2297733    0.1847643  21.92  0.001126581    1.316    0.240
       101  -8.5390    200.2998    145.6218   9.5121700453e+01   1.4156513359e+01    0.1303181    0.1149524 -77.04  0.000702513    1.762    0.432
       102 -11.5758    225.1561    242.7810   1.0741960721e+02  -1.8217680461e+00    0.3669678    0.2476837 -15.67  0.002710285    1.661    0.398
       103  -9.4637    138.6734    144.3224   1.0834057985e+02   2.6327832640e+01    0.1406987    0.1092269  72.77 0.0007048234    1.688    0.408
       104 -10.6231    230.0077    140.4898   8.8414186329e+01   9.1554333729e+00    0.3817831    0.1865586 -31.01   0.00155252    2.019    0.505
       105  -9.3757    214.1459    142.1720   9.1687936216e+01   1.1962745825e+01    0.1808469    0.1616118 -33.26  0.001051862    1.367    0.268
       106 -11.7025    209.7457    248.6081   1.1075224045e+02  -2.2919548582e-01    0.4043035    0.2640035  32.98  0.002152205    1.149    0.130
       107  -9.7589    224.3079    139.6763   8.9257209386e+01   1.0351263549e+01     0.256021    0.1581895 -22.78 0.0008833772    1.585    0.369
       108  -9.8944    218.4744    137.9889   8.9953234307e+01   1.1717523879e+01    0.2822087    0.1636324 -27.86    0.0013575    1.715    0.417
       109 -11.7308    191.5153    247.2419   1.1364472324e+02   2.4716063158e+00    0.4200732    0.3176247  21.28   0.00221394    1.149    0.130
       110  -9.0724    172.6695    138.3133   9.9308504361e+01   2.0844495686e+01    0.1382055    0.1169454  79.33 0.0007044361    1.676    0.403
       111  -9.2741    198.5302    136.9982   9.3582271296e+01   1.5832571061e+01    0.2122387    0.1369379 -30.08  0.001031967    1.593    0.372
       112 -11.2054    164.1465    247.2026   1.1833478443e+02   6.3668428116e+00    0.4107354    0.2996821  74.30    0.0027421    2.408    0.585
       113 -11.5812    140.7608    248.1839   1.2248499367e+02   9.5259690883e+00    0.3781262    0.2575624  12.05  0.002536426    2.017    0.504
       114 -10.1030    225.7235    133.2452   8.7565127386e+01   1.0968426382e+01    0.2991737    0.1657307 -26.18  0.001195056    1.763    0.433
       115 -10.7860    124.3344    248.6842   1.2536774098e+02   1.1696829209e+01    0.2000575    0.1769695  -3.16  0.001661025    1.564    0.361
       116 -10.1613    220.7887    128.6475   8.7408872985e+01   1.2591720239e+01    0.2621767    0.2206571 -29.74  0.001039833    1.305    0.234
       117  -9.2190    192.4003    129.2208   9.3054430874e+01   1.8320303398e+01     0.197487    0.1346987 -42.87 0.0009440783    1.684    0.406
       118 -10.9233    227.9108    125.2429   8.5342534812e+01   1.1649801772e+01    0.4711961    0.2201412 -35.73  0.002026587    2.177    0.541
       119 -10.8602    156.5591    247.1141   1.1963814749e+02   7.4500796371e+00    0.2284113    0.1843311   1.56  0.001106108    1.532    0.347
       120  -9.5350    179.5553    124.0226   9.4547024986e+01   2.1880560206e+01    0.2234648    0.1437655 -34.30  0.001033295    1.611    0.379
       121 -11.3183    224.4070    118.1673   8.4296818865e+01   1.3351848946e+01    0.7605119    0.2150524 -25.59  0.002190549    4.553    0.780
       122  -9.3977    212.5477    122.3106   8.7453592503e+01   1.5197335483e+01    0.2624517    0.1316927 -35.14  0.001119647    2.016    0.504
       123 -10.4254    132.7276    246.0346   1.2366862963e+02   1.0900784962e+01    0.2084026    0.1560379   1.34  0.001473216    1.989    0.497
       124  -9.2056    203.2713    121.6216   8.9073061399e+01   1.7244526918e+01    0.1386606    0.1156982 -60.43 0.0006996547    1.692    0.409
       125 -10.6163    113.0881    245.7586   1.2705103632e+02   1.3572997479e+01    0.1875223    0.1533737 -54.98  0.001528091    1.674    0.403
       126 -10.9986    219.5986    114.7933   8.4345434327e+01   1.4832530860e+01    0.3387724    0.1265882 -33.47  0.001213345    2.582    0.613
       127 -10.8075    151.2535    245.4706   1.2038421989e+02   8.3950634766e+00    0.1603679     0.153224   3.08 0.0009016827    1.372    0.271
       128  -9.0102    208.2859    113.6242   8.6157434378e+01   1.7406736078e+01    0.1415887    0.1156787 -59.72 0.0007016661    1.720    0.418
       129 -10.8114    201.6587    241.8640   1.1123478827e+02   1.5807604820e+00    0.2611232    0.2073797 -24.90  0.001319788    1.637    0.389
       130 -11.5122    204.9657    234.5876   1.0969232226e+02   1.8571856540e+00    0.3767487    0.3427453  34.05  0.002992222    1.505    0.336
       131 -10.6311    198.8549    226.3435   1.0961069391e+02   3.6561807009e+00    0.2683802    0.2014178 -29.06  0.001116497    1.674    0.403
       132 -10.5835    169.3515    241.6675   1.1679579575e+02   6.2635845695e+00    0.2675248    0.1983638   2.45  0.001336282    1.627    0.385
       133 -10.3582    104.0095    242.9522   1.2838889475e+02   1.5136487604e+01    0.1510376     0.120021  14.97  0.001141276    1.705    0.414
       134  -9.4896    154.6264    242.1549   1.1943527819e+02   8.3207069415e+00    0.1267655    0.1001818 -18.66 0.0007781453    1.703    0.413
       135 -10.9094    125.3401    241.0085   1.2448229574e+02   1.2568489917e+01      0.19557    0.1624542  -8.62  0.001495324    1.734    0.423
       136 -10.5456    219.6735    239.8711   1.0792652920e+02  -7.8255054748e-01    0.2078017    0.1737937 -21.41 0.0008999132    1.635    0.388
       137 -11.4974    216.1775    232.8732   1.0753326624e+02   4.0435252901e-01    0.3822075    0.2937098   7.42  0.001726786    1.227    0.185
       138  -9.9130    195.4706     97.0322   8.4396554263e+01   2.2841459961e+01    0.2333224    0.1451155 -28.91 0.0008720277    1.596    0.373
       139 -10.6179    211.6780    226.8288   1.0743665916e+02   1.6874548412e+00    0.2784967    0.1725145 -17.65  0.001173013    1.865    0.464
       140 -10.3739    214.0352    240.4628   1.0895277367e+02  -4.2977767278e-02      0.19782    0.1509073 -12.20 0.0009684101    1.498    0.332
       141 -10.8057    183.4202    238.9957   1.1401118677e+02   4.5262108663e+00    0.2918755    0.2376485 -15.92  0.001619671    1.508    0.337
       142  -9.9529    164.6103     93.8132   9.0148765594e+01   3.0500279534e+01    0.2197314     0.142787 -44.47 0.0009514699    1.678    0.404
       143 -10.0572    188.5547     92.3004   8.4511419456e+01   2.5200681167e+01    0.2840008    0.1423992 -36.07  0.001120416    1.994    0.499
       144 -11.0994    210.0099     90.5441   7.9913736082e+01   2.0509013436e+01    0.2827632    0.1989596 -40.95  0.001031267    1.531    0.347
       145 -10.2827    196.5963     91.2439   8.2618720670e+01   2.3496376832e+01    0.2156445    0.1409606 -16.29 0.0009490654    1.644    0.392
       146  -9.9415    157.9996     90.0210   9.0643523336e+01   3.2700162114e+01    0.1936353    0.1772852 -14.95 0.0007649764    1.079    0.073
       147 -11.0229    148.4226    239.4639   1.2023695946e+02   9.5406027353e+00    0.2221773    0.1884324 -13.45  0.001351258    1.548    0.354
       148  -9.6834    164.0000     85.9774   8.8073844360e+01   3.2032697289e+01    0.2552199   0.08792649 -35.32 0.0008016581    2.937    0.660
       149 -10.9374    205.9956     84.4827   7.9007847491e+01   2.2338640915e+01    0.2941143    0.2024564  -8.58  0.000943191    1.578    0.366
       150 -10.4439    134.8671    240.3358   1.2273214933e+02   1.1342222319e+01    0.1730102     0.163761 -13.69  0.001451246    1.410    0.291
       151 -10.5096    200.3357     83.0053   7.9644237989e+01   2.3891263663e+01     0.221033    0.1911194 -15.74   0.00095261    1.112    0.101
       152 -10.4498    193.1264     82.3806   8.0845116305e+01   2.5700451735e+01    0.2725181    0.2030074 -13.57 0.0007865952    1.380    0.276
       153  -9.7797    185.5961     82.7433   8.2447770254e+01   2.7443909327e+01    0.2157175     0.140432 -39.55 0.0007098228    1.602    0.376
       154 -10.4695    159.0922     81.3577   8.7872342076e+01   3.4001084991e+01    0.2825215    0.2135211 -18.81  0.001319969    1.390    0.280
       155 -10.1376    150.6283     79.1643   8.9266002896e+01   3.6374840133e+01     0.227479    0.1455112 -23.01 0.0009512614    1.737    0.424
       156 -10.1336    206.4612     77.9942   7.7139769045e+01   2.3187181775e+01    0.2950201    0.1353593 -32.76 0.0008294741    2.085    0.520
       157 -10.1975    206.4731     73.5395   7.5895755760e+01   2.3831184000e+01    0.2646264    0.1795714   0.34 0.0007346997    1.726    0.421
       158 -10.8006    201.1920     77.5652   7.7968402592e+01   2.4505524017e+01    0.2850465    0.2047904 -24.37 0.0008265094    1.360    0.265
       159 -10.0313    188.9920     77.9504   8.0394894022e+01   2.7385136078e+01    0.2512513    0.1780878  11.97 0.0008002609    1.647    0.393
       160 -11.0039    211.3313     75.8533   7.5701010479e+01   2.2344477453e+01    0.3678955    0.2187889 -19.29 0.0009999889    1.735    0.424
       161 -11.0228    210.6086     71.1862   7.4529668509e+01   2.3177938436e+01     0.420142    0.2076326 -44.88   0.00162377    2.348    0.574
       162 -10.6197    214.0388     69.6822   7.3542820122e+01   2.2571093936e+01    0.2907277    0.2122591  62.58 0.0008088791    1.527    0.345
       163 -10.0930    174.6116     77.2492   8.3150936959e+01   3.0986141339e+01     0.220824    0.1464441 -17.72 0.0009470124    1.652    0.395
       164 -11.1934    159.2181    237.5753   1.1810704623e+02   8.2215061682e+00    0.3012475     0.251586  -9.49  0.002091692    1.504    0.335
       165 -10.0489    157.4846     75.0287   8.6348466287e+01   3.5492562559e+01     0.240547    0.1532104 -30.69  0.001029873    1.589    0.371
       166  -9.3651    200.2908     72.3380   7.6652325388e+01   2.5495572449e+01     0.159147    0.1115868  16.08  0.000657221    1.642    0.391
       167  -9.9858    195.4547     72.4925   7.7582986447e+01   2.6648558231e+01    0.1539302    0.1415913   9.21 0.0002358901    1.021    0.020
       168  -9.6856    150.3768     71.7552   8.7052110093e+01   3.7757403233e+01    0.2220104    0.1468297 -21.82 0.0009473056    1.646    0.392
       169  -9.9239    203.4000     70.7445   7.5644748129e+01   2.4974197227e+01    0.2097171    0.1405909 -13.38 0.0007761803    1.588    0.370
       170 -10.1944    166.9829     77.0163   8.4757884915e+01   3.2870696450e+01    0.2572397    0.1844767  12.85 0.0007536422    1.656    0.396
       171 -10.0965    163.3754     70.7740   8.3673064664e+01   3.4795271835e+01    0.2876893    0.1999307 -19.24  0.001277269    1.535    0.348
       172 -10.0403    170.6034     70.1666   8.1883965583e+01   3.3123071162e+01    0.2253642    0.1472035 -15.57 0.0009475842    1.728    0.421
       173  -9.6555    157.2953     69.3218   8.4624481765e+01   3.6518576094e+01    0.1626068    0.1179691  13.92 0.0003802018    1.617    0.381
       174 -11.4393    203.3170     65.7680   7.4236492899e+01   2.5705580570e+01    0.3207139    0.2571883  -4.92  0.001089819    1.268    0.211
       175 -10.9800    197.1892     63.8326   7.4746703017e+01   2.7489899883e+01    0.2558467    0.1758312  19.24 0.0007331724    1.696    0.410
       176  -9.3988    152.6860     65.6762   8.4561434197e+01   3.8254002248e+01    0.1650724    0.1177433  15.37 0.0007041366    1.661    0.398
       177 -10.5827    208.1684     63.6786   7.2820313010e+01   2.4813570286e+01    0.2603098    0.1936418 -34.53 0.0007947853    1.332    0.249
       178  -9.9494    170.9987     63.2837   7.9666612084e+01   3.4121963799e+01    0.2265408    0.2025663  39.64 0.0006558785    1.088    0.081
       179 -11.4526    190.8902    234.1333   1.1207731629e+02   3.9731383542e+00    0.3973134    0.3070837 -33.35  0.002397674    1.718    0.418
       180  -9.2936    187.3160     62.3110   7.6102886179e+01   3.0173496406e+01    0.1622846    0.1129992  21.65 0.0004732251    1.637    0.389
       181 -10.6655    146.1389     65.7458   8.6189849187e+01   3.9815514540e+01    0.3122289    0.2038333  -2.00  0.001242758    2.114    0.527
       182 -10.2955    157.9596     60.9969   8.1810072041e+01   3.7736743860e+01    0.2652918    0.1844809  17.20  0.001138855    1.715    0.417
       183 -12.0107    206.8082     58.2678   7.1491435933e+01   2.5885817096e+01    0.4031892    0.2405698  -8.57   0.00143101    2.007    0.502
       184 -10.3861    164.8596     58.8444   7.9571327254e+01   3.6356057878e+01    0.2524881     0.205757  18.50 0.0009148138    1.264    0.209
       185  -9.7741    169.4258     54.7910   7.7291602350e+01   3.5819653170e+01    0.2209233    0.1482578 -10.86 0.0009457538    1.688    0.408
       186 -10.8460    176.8901    234.7445   1.1462520256e+02   5.9716600639e+00    0.3789647    0.2070666 -27.91  0.002024144    2.575    0.612
       187 -10.5542    138.9993    235.9767   1.2154511970e+02   1.1333751008e+01    0.2135078    0.1637114 -34.50   0.00156554    1.797    0.443
       188 -10.1633    129.4087    236.2229   1.2329139698e+02   1.2650951302e+01    0.1655378    0.1065408 -48.02   0.00112634    2.095    0.523
       189  -9.7077    163.4794     52.4890   7.7792725110e+01   3.7678592339e+01    0.1586965    0.1447122  19.81 0.0001082397    1.046    0.044
       190  -8.9726    172.6762     50.2923   7.5174223283e+01   3.5646902654e+01     0.153277    0.1216131 -68.13 0.0007016032    1.614    0.381
       191 -10.0382    170.5208    234.1448   1.1568348285e+02   6.9836710358e+00    0.2102284    0.1654037  -4.53  0.001028761    1.523    0.343
       192  -9.3838    165.4971    233.0737   1.1645141201e+02   7.8563369998e+00    0.1347917    0.1135401 -30.55 0.0007258835    1.548    0.354
       193 -10.3670    192.5701     54.2174   7.2693699775e+01   3.0002133623e+01    0.2131489    0.1443589  -8.92 0.0008923414    1.644    0.392
       194  -9.4082    152.5082    233.4995   1.1883986559e+02   9.7108194030e+00    0.1150816   0.08526776  36.05 0.0008105627    1.019    0.019
       195 -10.2596    144.9940    232.1139   1.2004279416e+02   1.0984373332e+01    0.1735648     0.161462  27.83  0.001392459    1.254    0.202
       196 -10.3154    133.2807    231.3988   1.2209518378e+02   1.2763625634e+01    0.1718244    0.1356001 -31.42  0.001247586    1.757    0.431
       197  -9.9182    122.8256    231.9889   1.2405690981e+02   1.4151045644e+01    0.1615658    0.1235771  -5.75  0.001090847    2.040    0.510
       198  -9.7002    158.0967    230.2815   1.1745052258e+02   9.3023175643e+00    0.1739056     0.146138  -1.46 0.0009913911    1.424    0.298
       199  -9.9838    174.0049    228.3943   1.1433228828e+02   7.1622576514e+00    0.1980447    0.1471724  -1.24  0.001352301    1.601    0.375
       200 -11.2663    176.3499    245.9868   1.1608881036e+02   4.7671522738e+00    0.3458893    0.2584362  -1.82  0.001728642    1.612    0.380
