#   1 NUMBER                 Running object number                                     
#   2 MAG_AUTO               Kron-like elliptical aperture magnitude                    [mag]
#   3 X_IMAGE                Object position along x                                    [pixel]
#   4 Y_IMAGE                Object position along y                                    [pixel]
#   5 X_WORLD                Barycenter position along world x axis                     [deg]
#   6 Y_WORLD                Barycenter position along world y axis                     [deg]
#   7 A_WORLD                Profile RMS along major axis (world units)                 [deg]
#   8 B_WORLD                Profile RMS along minor axis (world units)                 [deg]
#   9 THETA_WORLD            Position angle (CCW/world-x)                               [deg]
#  10 FWHM_WORLD             FWHM assuming a gaussian core                              [deg]
#  11 ELONGATION             A_IMAGE/B_IMAGE                                           
#  12 ELLIPTICITY            1 - B_IMAGE/A_IMAGE                                       
         1 -14.0402     22.1459     26.8166   8.3636296180e+01   6.8891878537e+01     2.089369     0.662865 -33.50  0.008393498    3.331    0.700
         2 -13.6932      4.1997     37.1257   9.7163927360e+01   6.8531268547e+01    0.9596105    0.8254829 -29.57  0.005327736    1.189    0.159
         3 -12.9862    233.7061     30.2707   3.3306554640e+01   2.4737712180e+01      0.69247    0.6027567 -60.54  0.002965816    1.166    0.142
         4 -13.2764     39.5222     21.1289   7.2359356459e+01   6.7612296084e+01    0.7383863    0.5598347 -24.44  0.004817157    1.307    0.235
         5 -12.9827    113.4322     15.7178   4.5761201515e+01   5.3850676060e+01    0.8937171    0.7072897  -8.39  0.005423058    1.464    0.317
         6 -13.3804    116.3940      4.0986   4.1178197925e+01   5.4175220698e+01     1.560031    0.5615652  66.08  0.006586333    2.424    0.587
         7 -12.6391    194.8875     18.1556   3.4327535453e+01   3.4482501609e+01    0.8190646     0.319452  63.44  0.003792858    2.269    0.559
         8 -13.2454    177.2702      8.6270   3.3890004884e+01   3.9487069806e+01    0.9035714    0.5842664 -60.86  0.005241054    1.545    0.353
         9 -11.7637    188.0277     11.9788   3.3575504726e+01   3.6686293581e+01    0.3037241    0.2762952  82.44  0.001557913    1.157    0.136
        10 -12.0747    184.0049      5.3607   3.2400433717e+01   3.8250507237e+01    0.6903813    0.2704379 -43.32  0.003303955    2.446    0.591
        11 -10.1157    221.9421      9.0242   2.9934715123e+01   2.9578774912e+01    0.3331833    0.1547867 -80.04  0.001661432    2.301    0.565
        12 -12.1549    192.8546      6.4328   3.1808644494e+01   3.6146091521e+01    0.5883952    0.2387829 -39.41  0.002915415    2.336    0.572
        13 -11.3336      2.4781      4.4471   8.4819971312e+01   7.4080356848e+01    0.4220539   0.09810559 -41.48  0.001836426    3.499    0.714
        14  -9.3725    246.2002      7.3806   2.7942129796e+01   2.4897015849e+01    0.1593802   0.08461216 -85.62 0.0009518416    1.733    0.423
        15 -13.7803    137.1899      6.6418   3.8497951637e+01   4.9098739784e+01     1.273851     0.722925  59.34  0.006854953    1.462    0.316
        16 -10.5421     63.3848    163.6374   1.0229767020e+02   3.3288105081e+01    0.2449393    0.2267984 -51.03 0.0003970875    1.117    0.105
        17 -12.3476     83.2640    248.1310   1.0784549115e+02   1.1315918635e+01    0.4842817    0.2990592  22.10  0.002583979    1.886    0.470
        18 -11.4874     59.8265    246.2897   1.1256617982e+02   1.4730875482e+01    0.2883088    0.1951454 -72.67 0.0006782748    1.574    0.365
        19 -13.0420     35.5470    249.2453   1.1765337009e+02   1.7015817719e+01    0.9862711    0.3310207  31.95  0.004523152    2.799    0.643
        20 -14.7905     22.6499    226.4857   1.1875304630e+02   2.3059583510e+01     3.029579     2.391502 -38.40   0.01976852    1.821    0.451
        21 -14.5041     10.0124    150.1314   1.1560551873e+02   4.2105572905e+01     2.992271     1.131756 -87.69   0.01136276    3.097    0.677
        22 -14.7046     46.2715    204.0609   1.1173052492e+02   2.5495716791e+01      3.08637     1.243057  70.63  0.009850902    4.725    0.788
        23 -14.4620     10.8315    130.9618   1.1325740612e+02   4.6832985997e+01     2.143211    0.8988445 -69.57  0.009726143    1.938    0.484
        24 -13.5003      8.6268    207.2445   1.2046483273e+02   2.8600259991e+01    0.5900024    0.4463708 -32.73  0.001101809    1.930    0.482
        25 -14.9113     15.5999    201.8683   1.1858514672e+02   2.9190787878e+01     1.165631     1.018904 -67.11  0.003234462    1.278    0.218
        26 -12.8780     48.4242    160.1395   1.0601464960e+02   3.6018557514e+01    0.5287662    0.3124169 -35.45  0.001511252    2.170    0.539
        27  -9.2362    133.1683    160.0818   8.2380881160e+01   2.2705310114e+01    0.2047267    0.1818681 -83.01  0.000402545    1.307    0.235
        28 -11.7343     72.0754    156.1946   9.8600141387e+01   3.4000526882e+01    0.6135913    0.4916006 -66.04  0.003200244    1.201    0.167
        29 -13.1050      3.6175    118.3537   1.1397324194e+02   5.0390105322e+01     1.694449    0.3250504 -68.35  0.005784099    3.517    0.716
        30 -12.0176     35.4782    145.0402   1.0765624419e+02   4.1253307778e+01    0.4642384    0.3724926  52.42  0.001654139    1.333    0.250
        31 -12.0478     67.8714    143.4667   9.7582151513e+01   3.7842394510e+01    0.7320459    0.4297984  59.78  0.002627821    2.276    0.561
        32  -9.9470     88.9573    143.9796   9.1322835056e+01   3.4539689817e+01    0.2364383    0.2293162 -42.24 0.0008226705    1.023    0.023
        33 -11.5337     76.3523    141.8303   9.4686136613e+01   3.7045707622e+01     0.307335    0.2675988 -43.75 0.0003653381    1.133    0.117
        34  -9.6894     92.5566    140.5028   8.9523399380e+01   3.4818538941e+01    0.1530406    0.1468891 -42.36 0.0001421182    1.021    0.020
        35 -11.2905     24.7665    126.8586   1.0833933970e+02   4.6838778275e+01    0.4018626    0.2693172   0.89  0.001956269    1.872    0.466
        36 -12.1764     24.4982    132.4413   1.0923101349e+02   4.5449741322e+01    0.6773875    0.2147846 -54.94  0.002635583    2.512    0.602
        37 -10.4023     28.4781    129.5268   1.0755254253e+02   4.5851303379e+01     0.254791    0.1618372 -78.55 0.0008611905    1.541    0.351
        38 -12.0319     89.6110    129.4230   8.7978643306e+01   3.8072046256e+01    0.6075894     0.353842 -46.26  0.001786368    1.667    0.400
        39 -10.4953    105.0131    131.4055   8.3780825055e+01   3.4876020966e+01    0.4101041    0.3213623   1.30  0.001880663    1.566    0.361
        40 -12.7873     82.8709    120.9023   8.8129957573e+01   4.1285430207e+01    0.6507798    0.5469261 -18.09  0.002689295    1.286    0.223
        41 -13.4736     27.6422    112.8445   1.0511877555e+02   5.0114036715e+01     1.068507     1.007923  58.67  0.006307328    1.213    0.176
        42 -11.6482     23.2245    103.8734   1.0507419471e+02   5.2678207200e+01    0.4628648    0.2890463  -2.88  0.002009894    1.948    0.487
        43 -12.2826     32.0886    101.3604   1.0135556222e+02   5.2548907178e+01    0.5554935    0.4910558 -45.89  0.002364569    1.025    0.024
        44 -10.2488    102.7237    119.4030   8.1552290385e+01   3.8183808749e+01     0.255665    0.2356985 -81.87 0.0004509899    1.213    0.176
        45 -12.0453     45.9064     94.4340   9.4645472248e+01   5.2802838994e+01    0.7731428    0.4952566 -65.64  0.003345661    1.678    0.404
        46 -11.9083     46.9511    106.6507   9.7083280951e+01   4.9751950315e+01    0.5890594    0.4893796 -86.92  0.002564554    1.410    0.291
        47 -11.6455     45.4743    101.7749   9.6530533679e+01   5.1101490047e+01    0.4610948    0.2928648  29.65  0.002269069    1.701    0.412
        48 -11.9593     84.1215    109.6565   8.4959600991e+01   4.3796740788e+01    0.3309397    0.3160793  55.61  0.001809462    1.152    0.132
        49 -13.0234     64.7615    101.3179   8.9452779060e+01   4.8771820958e+01    0.7699853    0.7031984   8.67  0.003990534    1.124    0.110
        50 -10.5545     85.5438     95.6244   8.0709640889e+01   4.6789614672e+01    0.3446813    0.2974026  44.00  0.001811547    1.249    0.199
        51 -10.9291     28.3525     91.8797   1.0076298427e+02   5.5145390112e+01    0.5828793    0.3108963  -9.59  0.002580762    2.525    0.604
        52 -12.6168     63.6986     87.4064   8.6108441672e+01   5.2122250635e+01    0.8692827    0.6255736 -71.86  0.004166878    1.892    0.472
        53 -12.0455     67.1828     78.3314   8.2134107580e+01   5.3568167640e+01    0.7613146    0.2987927  29.13  0.002776292    2.871    0.652
        54 -11.5856     50.7549     88.2126   9.1219268633e+01   5.3672981868e+01    0.4393558    0.3759558 -68.06  0.002490198    1.337    0.252
        55 -12.2071     79.6375     85.6665   7.9845041601e+01   4.9988225531e+01    0.6472787    0.6090997 -50.02  0.003658722    1.170    0.145
        56 -11.8902     25.5250     77.4234   9.8545467378e+01   5.8712623344e+01    0.5761853    0.4609053  10.99  0.002560125    1.345    0.257
        57 -10.8541      4.2156     75.3041   1.0696354871e+02   6.0583562850e+01    0.3774314     0.223196 -35.36  0.001834768    1.493    0.330
        58 -12.2692      4.2321     68.6723   1.0557452242e+02   6.2060007826e+01    0.6582417    0.2775764 -47.55  0.002533083    1.779    0.438
        59 -10.4743     21.7029     64.0115   9.6689678946e+01   6.1947581314e+01     0.253181     0.153613 -21.74  0.001358515    1.633    0.388
        60  -9.8580     14.2453     59.8636   9.8942043964e+01   6.3372668703e+01    0.2514307     0.126684 -22.43  0.001235323    2.089    0.521
        61 -11.4191    245.2974    249.1052   7.5069612897e+01  -1.1179195336e+01    0.2691295    0.1510894  19.05  0.001659202    1.568    0.362
        62 -11.6297    161.7223    247.6518   9.1062225822e+01   4.9222420733e-02    0.3245433    0.2621602   4.82  0.002042187    1.181    0.153
        63 -12.5960      2.6535     48.9021   1.0148404286e+02   6.6317549214e+01    0.8492216     0.179206 -58.00  0.003284222    3.370    0.703
        64 -13.2402      9.2079     49.6621   9.8469300964e+01   6.5792586402e+01    0.9786955    0.4612284 -28.40   0.00443987    1.992    0.498
        65 -11.4563     91.7210     46.2956   6.2559098929e+01   5.4923715445e+01    0.4158745    0.3133325  36.76  0.001670927    1.214    0.176
        66 -11.6406     34.7854     42.5814   8.3600805608e+01   6.4858505951e+01    0.6161755    0.3326766  22.99  0.003224671    1.833    0.454
        67 -12.4044    213.4176     35.3205   3.6309937041e+01   2.8363182618e+01    0.6315772    0.3365034  74.34  0.003279657    1.839    0.456
        68 -11.3905     76.2549     36.8775   6.4127354659e+01   5.9338828821e+01     0.388656    0.1565439  33.70  0.001493005    2.790    0.642
        69 -13.9544     86.3998    231.4463   1.0540473416e+02   1.4221292118e+01     1.084434    0.5584691  46.95  0.005256964    1.752    0.429
        70 -12.9482    207.9084     27.5119   3.5135729696e+01   3.0518681988e+01    0.7891291    0.3692903 -88.56  0.003453976    2.708    0.631
        71 -15.0550    101.6640    227.4062   1.0147540090e+02   1.2853780422e+01     2.803591    0.8462322  38.15   0.01044812    2.761    0.638
        72 -14.0602     67.2568    224.9705   1.0899972653e+02   1.8193634014e+01     1.440532    0.8316857 -75.68  0.007207701    1.864    0.464
        73 -10.0085     87.4306    211.8487   1.0281496309e+02   1.8294855964e+01    0.2631802    0.1835496  12.62  0.001019229    1.859    0.462
        74 -10.5763     73.7756    210.4983   1.0590482977e+02   2.0525235819e+01    0.2781665    0.2468473  27.60 0.0008694512    1.224    0.183
        75 -12.4355     77.9626    222.5380   1.0631272174e+02   1.7281877886e+01    0.6743677    0.3680609  38.81  0.002729484    1.628    0.386
        76 -10.2301     91.1106    208.1301   1.0144235607e+02   1.8589552168e+01    0.3548959    0.1825895  42.84   0.00159473    1.789    0.441
        77 -11.2793     59.0114    202.7556   1.0855589154e+02   2.4254187130e+01    0.3013235    0.2621787  26.17  0.001494298    1.290    0.225
        78 -10.9644     55.7485    200.5970   1.0910640817e+02   2.5168337397e+01    0.2926845     0.209361  50.88  0.001057209    1.307    0.235
        79 -11.3496     42.4649    180.2898   1.1016491120e+02   3.1629804376e+01    0.2822808    0.2508461 -36.53 0.0005583947    1.335    0.251
        80 -14.3643      3.6269    183.8802   1.2004461238e+02   3.4381476600e+01      2.78107    0.9128643 -79.87   0.01172137    2.677    0.626
        81 -11.5629     50.2933    173.7984   1.0732581780e+02   3.2349624194e+01    0.2751581    0.2485548 -53.82 0.0004590368    1.176    0.150
