#   1 NUMBER                 Running object number                                     
#   2 MAG_AUTO               Kron-like elliptical aperture magnitude                    [mag]
#   3 X_IMAGE                Object position along x                                    [pixel]
#   4 Y_IMAGE                Object position along y                                    [pixel]
#   5 X_WORLD                Barycenter position along world x axis                     [deg]
#   6 Y_WORLD                Barycenter position along world y axis                     [deg]
#   7 A_WORLD                Profile RMS along major axis (world units)                 [deg]
#   8 B_WORLD                Profile RMS along minor axis (world units)                 [deg]
#   9 THETA_WORLD            Position angle (CCW/world-x)                               [deg]
#  10 FWHM_WORLD             FWHM assuming a gaussian core                              [deg]
#  11 ELONGATION             A_IMAGE/B_IMAGE                                           
#  12 ELLIPTICITY            1 - B_IMAGE/A_IMAGE                                       
         1 -12.0368    199.1490     82.3634   4.8776944190e+01   2.4616307639e+01     1.763488    0.9606576 -28.60  0.005583277    2.247    0.555
         2 -13.3163    179.0958     78.2839   5.1087428334e+01   2.9816765387e+01     3.013225     1.861055 -55.39  0.001894486    1.689    0.408
         3 -11.9719    233.3367     32.3596   3.3516798946e+01   2.4745314872e+01     2.517891    0.8612781 -48.53   0.01035296    2.396    0.583
         4 -13.4452    226.6059     88.5629   4.6225652293e+01   1.7832910617e+01     8.285081     1.756165 -49.97   0.01899973    7.647    0.869
         5 -12.7487    249.9496     27.7707   3.1299925538e+01   2.2075389154e+01     2.114372    0.4037949 -33.80  0.006596147    6.359    0.843
         6 -13.3614    218.2381     76.0825   4.4566341670e+01   2.1577563823e+01     2.520427       1.4675 -58.99   0.01237509    1.739    0.425
         7 -11.3074    214.6219     23.8954   3.3392044282e+01   2.9667718412e+01    0.8298646    0.5621908  -4.37  0.004317997    2.865    0.651
         8 -12.1298    135.5237     39.0241   4.8146173347e+01   4.6089694111e+01    0.8027915    0.7079678 -29.72  0.004503309    1.247    0.198
         9  -9.8609    206.8841     23.8660   3.4106764480e+01   3.1340315774e+01    0.5274841    0.2226512 -28.31  0.002366164    2.913    0.657
        10 -10.3609    204.3578     16.7309   3.2754722504e+01   3.2707500640e+01    0.3762455     0.329788 -88.70  0.001100531    1.148    0.129
        11 -13.6353    247.2377     83.3026   4.2553919059e+01   1.4741958343e+01      5.08637     1.459061 -35.57  0.007903613    3.647    0.726
        12 -11.0042    219.1895     35.1256   3.5387704341e+01   2.7311020085e+01     3.527143    0.8309318 -43.08   0.01359794    3.259    0.693
        13 -11.1802    133.8329     21.9687   4.3149463968e+01   4.8485525838e+01    0.5600879    0.3446634 -47.31  0.002924623    1.819    0.450
        14  -9.8007    237.2798     23.2648   3.1377274948e+01   2.5078457860e+01    0.3827083    0.1715105 -41.03 0.0003736007    1.928    0.481
        15 -10.1874    244.1372     19.3482   3.0117112873e+01   2.4202417957e+01    0.4237933    0.2222603 -32.52 0.0005128213    2.120    0.528
        16 -11.6558    247.3220      7.8359   2.7756683195e+01   2.4902717671e+01     0.350353    0.3128159  11.09   0.00181345    1.956    0.489
        17 -10.2707    250.3921      1.8442   2.6492864234e+01   2.4972532997e+01    0.1619245    0.1352964 -70.33  0.001275066    1.227    0.185
        18  -9.5591    224.0757     18.8747   3.1527636083e+01   2.8269498501e+01    0.3238038    0.2764987  39.41  0.002212016    1.745    0.427
        19  -9.6566    142.0000     14.4821   3.9529226549e+01   4.7310956158e+01    0.3887813    0.1630089 -28.26  0.001281005    2.652    0.623
        20 -10.8175    143.2904      8.0547   3.7447707446e+01   4.7602682821e+01     1.002932    0.2727585 -24.66  0.003725564    4.290    0.767
        21  -9.6882    112.4943     19.4669   4.6472912155e+01   5.3708038938e+01    0.3855465    0.1309117 -25.80  0.001516436    3.364    0.703
        22  -9.7677    126.3284     13.9960   4.1949396720e+01   5.1040651504e+01     0.276345    0.1879061 -82.94  0.001485326    1.760    0.432
        23 -11.4576    119.0246      9.9066   4.1922253649e+01   5.3106944807e+01    0.6720124    0.4739236  49.76  0.002455852    1.263    0.208
        24  -7.7833    164.3485      9.5033   3.5142369892e+01   4.2534036058e+01    0.1201734    0.1059921  86.08 -0.000239525    1.062    0.058
        25  -9.2926    234.9098      3.5867   2.7726213238e+01   2.7766678868e+01    0.2068053    0.1712169  49.10 0.0009582077    1.787    0.440
        26  -8.1273    150.3561      4.8844   3.5597287922e+01   4.6224449897e+01    0.1595083    0.1523721  62.66  0.001110934    1.188    0.158
        27  -8.9464    112.5000      2.3836   4.0565799332e+01   5.5219591800e+01    0.2309072     0.124037 -21.35  0.001218159    2.192    0.544
        28  -7.9904    165.9576      2.2369   3.3071203578e+01   4.2827648592e+01    0.1628969      0.13509  82.76 0.0003970107    1.031    0.030
        29  -8.4857    194.0079    171.2466   7.0052865373e+01   8.5199770022e+00    0.2484757     0.162029 -76.66 0.0008946975    3.634    0.725
        30  -9.1955    237.0985    249.4415   7.6180054011e+01  -1.0779352400e+01    0.2402274     0.133278 -36.80  0.001441056    1.811    0.448
        31  -7.6686    228.6877    250.7117   7.7887587207e+01  -9.9697023610e+00    0.1200807   0.07296582  -2.35 0.0003206485    1.583    0.368
        32 -11.0433      2.6013    166.0268   1.1817410602e+02   3.8742717514e+01    0.7896293    0.2733585 -77.63  0.003317092    2.414    0.586
        33  -9.7023    230.6521    166.8701   6.2277600524e+01   3.1738631611e+00    0.3397812    0.2039026 -59.09  0.001416411    2.520    0.603
        34  -9.3155    240.9875    166.4885   6.0468328064e+01   1.6402239803e+00    0.1758412    0.1302402  37.92 0.0007875194    1.585    0.369
        35  -9.1944    249.6305    248.1164   7.3789544733e+01  -1.2005869765e+01    0.3193703   0.08882856 -36.34   0.00141568    3.227    0.690
        36 -12.5635    182.7558     91.0434   5.3685729293e+01   2.6725066876e+01     1.790445     1.008429 -42.96  0.007934008    1.669    0.401
        37  -8.7233     42.0337    247.0126   1.1554987598e+02   1.6218846987e+01    0.1461888    0.1163292  63.78 0.0003666764    1.002    0.002
        38  -8.4545    221.2439    243.2546   7.8040399611e+01  -8.0187986507e+00    0.1709466   0.09412379 -47.34 0.0008913051    2.426    0.588
        39  -9.5891    188.7931    238.5379   8.3537644480e+01  -2.9575430381e+00    0.2806128    0.2501114  69.36  0.001128499    1.748    0.428
        40  -8.1846    170.4902    235.9705   8.6880448135e+01   1.3458578293e-01    0.2555702    0.1543057  61.19  0.001044271    3.508    0.715
        41 -12.5014    246.0331     60.3440   3.8014397590e+01   1.8444932737e+01    0.5994825    0.3919839 -75.95  0.002308538    1.558    0.358
        42 -13.5195    243.4191     56.3131   3.7456461432e+01   1.9524319552e+01     2.386734    0.4892178  56.13  0.008212629    5.353    0.813
        43 -11.0058     66.0457    143.0941   9.7142940513e+01   3.8112586225e+01     2.337114    0.7918029  36.97  0.008112337    2.934    0.659
        44 -12.3424     43.1056    148.0770   1.0490514836e+02   3.9675656750e+01     1.173395    0.8211471  19.68  0.005626226    1.691    0.409
        45  -8.2785    206.0028    154.7143   6.4198792810e+01   9.6232567134e+00    0.1940479     0.181337 -17.13 0.0005991049    1.063    0.060
        46 -10.5887    249.3686    148.2573   5.5519791264e+01   3.4951160094e+00    0.5703644    0.2282993 -38.54  0.002515513    2.060    0.515
        47  -9.6595    175.9028    149.9533   6.9266516111e+01   1.6306357951e+01    0.2530799    0.2304622  34.04  0.001353834    1.152    0.132
        48  -8.6694    134.3110    147.9839   7.8715036642e+01   2.5051628076e+01    0.4930815    0.1460441 -53.32  0.001337833    3.874    0.742
        49  -8.1892    181.1734    147.0970   6.7494114693e+01   1.5869562079e+01    0.2274375    0.1976522  -7.86 0.0007160818    1.237    0.192
        50  -8.3723    119.4382    146.3249   8.2285766166e+01   2.8340870526e+01    0.2356924    0.2059731 -41.87 0.0004733591    1.134    0.118
        51  -9.9382     12.0977    152.0064   1.1435436252e+02   4.1553116997e+01    0.3045309    0.1788057 -39.12  0.001533863    2.024    0.506
        52  -7.8490    192.2310    143.9681   6.4518860668e+01   1.4346611550e+01    0.2084845    0.1805652 -39.42 0.0004908129    1.063    0.060
        53  -7.6610    143.6601    138.3012   7.4093734789e+01   2.5430556606e+01    0.1598348    0.1264626  84.91 0.0004583419    1.670    0.401
        54  -9.2486    210.1852    136.8096   5.9528358595e+01   1.2314373423e+01    0.2784207    0.2032971  34.14  0.001430329    1.588    0.370
        55  -7.5903    167.6380    130.2882   6.6510440873e+01   2.2202472386e+01    0.1560715    0.1227697 -89.22 0.0002923082    1.692    0.409
        56  -8.2166    161.6791    128.3227   6.7374407936e+01   2.3886450611e+01    0.1581054    0.1237755 -83.22  0.000533334    1.675    0.403
        57 -11.6195     33.2979    152.4308   1.0839670913e+02   3.9576544356e+01    0.6645862    0.4568129  47.36  0.001400824    1.544    0.352
        58 -10.8764    185.8298    122.1152   6.0735134691e+01   2.0067439342e+01    0.7493985    0.4279207 -37.50  0.003218337    1.701    0.412
        59  -9.0445    186.6325    110.8625   5.7870847684e+01   2.2125783334e+01    0.2263163    0.1851216 -48.07  0.001171369    1.138    0.122
        60  -8.0845    178.6579    118.2270   6.1237548953e+01   2.2373207039e+01    0.2110647     0.135239 -35.22 0.0003906719    1.574    0.365
        61 -10.3968    209.0073    232.6311   7.8583737217e+01  -4.8253701904e+00    0.2267771    0.1861777 -12.94  0.001479679    1.099    0.090
        62  -9.1168    134.6082    112.5274   6.9942247997e+01   3.3176787197e+01    0.4687528    0.1490885 -45.02  0.001413679    3.074    0.675
        63  -8.2653     68.6587    114.1114   9.0198215911e+01   4.5144446679e+01    0.2089259    0.1730203 -48.82  0.000314383    1.118    0.106
        64 -10.2818    206.3861    109.7900   5.4076785344e+01   1.8181300912e+01    0.5138371    0.2712849  44.16  0.002235868    2.217    0.549
        65  -9.7426    194.2092    106.4242   5.5398508167e+01   2.1355834156e+01     0.385458    0.2596705 -88.62  0.001669968    2.243    0.554
        66  -8.7239    150.0729    103.7232   6.3782386943e+01   3.1648702986e+01      0.27881    0.2252667 -32.78 0.0005242393    1.281    0.219
        67  -9.8866    161.1220     99.2729   6.0113795116e+01   3.0054657217e+01     0.507507    0.2604305  38.69  0.001920285    2.380    0.580
        68  -9.1512    135.7033     99.4519   6.6121082978e+01   3.5743405460e+01    0.2885987    0.2499373  85.28 0.0006996443    1.326    0.246
        69  -9.5823    120.4296     99.1444   7.0085156187e+01   3.9136646058e+01    0.3810254    0.1412892 -52.41  0.001145302    3.347    0.701
        70  -9.4136    168.3673     97.6846   5.8171798975e+01   2.8724371288e+01    0.3373006    0.2375681 -42.33  0.001595685    1.368    0.269
        71 -10.3208     86.9123     96.4538   7.9481124410e+01   4.6356397511e+01    0.2679662    0.2384712 -38.36 0.0003327933    1.077    0.072
        72  -7.8570     98.5085     96.4913   7.5777820291e+01   4.4186334396e+01    0.1509541    0.1474415 -30.13 0.0002055441    1.035    0.034
        73  -9.3115    143.8366     94.2061   6.2666083956e+01   3.4986351778e+01    0.3090832    0.2825376 -79.73 0.0006757296    1.158    0.136
        74 -10.5134    159.7296     90.5866   5.8096524724e+01   3.2054832447e+01    0.3577144    0.2954688 -22.86  0.000700909    1.370    0.270
        75  -9.6412    127.0364     91.0568   6.5987046415e+01   3.9387861616e+01    0.3601113    0.2655483 -65.70  0.001050427    1.664    0.399
        76  -9.5058    116.6861     91.9539   6.9067648288e+01   4.1452412099e+01    0.2858431    0.2023786  59.80 0.0009581654    1.634    0.388
        77 -10.1762    155.9061     77.2563   5.5248303022e+01   3.5385417240e+01    0.3729743     0.229866  48.17  0.001106406    1.651    0.394
        78  -7.8676     79.7774     77.0224   7.6054565730e+01   5.1799730323e+01    0.1885788     0.115468 -44.16 0.0003833414    1.602    0.376
        79  -7.5048    135.7711     75.9613   5.9363332209e+01   4.0305178453e+01    0.1832993    0.1236553 -37.99            0    1.513    0.339
        80  -9.2771    176.4899    232.4352   8.5065513141e+01  -1.4731155605e-01    0.2557097    0.2078074  39.30  0.001001382    1.324    0.245
        81 -10.9450    158.3018     80.9832   5.5782678031e+01   3.4161712969e+01    0.5443323    0.3481123  55.04  0.002449398    1.568    0.362
        82  -8.1317    153.7299     63.6736   5.1863375677e+01   3.8187686486e+01    0.1390181    0.1134259  16.74 0.0001878027    1.577    0.366
        83  -8.7399    195.0835     56.2739   4.3054002521e+01   2.9679056764e+01    0.3043556    0.2118266  46.47    0.0014086    1.718    0.418
        84  -7.6074    119.9923     52.9680   5.6056360342e+01   4.7761154055e+01    0.1660197    0.1587391  42.50 0.0003086692    1.016    0.015
        85  -8.6666    191.6888     44.3036   4.0587779961e+01   3.2147327140e+01    0.3952001    0.2181319 -52.81  0.001940569    1.760    0.432
        86  -8.5046    190.0000     50.0081   4.2214280601e+01   3.1740782897e+01    0.2964704    0.1650098 -43.25 0.0008750629    1.698    0.411
        87  -9.5137    188.5694     44.8200   4.1123411967e+01   3.2790032386e+01     0.504083    0.1686392 -39.74  0.001992124    2.722    0.633
        88 -11.2359    150.7896     46.8494   4.7581484717e+01   4.1408310458e+01    0.7368686    0.5050413 -77.68 0.0009335256    1.800    0.444
        89  -9.1143    177.9886    227.9108   8.4012647345e+01   4.1609898936e-01    0.2867956    0.1780853 -35.34  0.001504021    1.654    0.396
        90 -10.8849    140.6409     41.9475   4.8039509090e+01   4.4492885071e+01    0.4218467    0.3931881  19.12  0.001952981    1.207    0.171
        91 -12.6786    232.7428     70.2083   4.1483371895e+01   1.9553114212e+01     1.026687    0.8334591  41.85  0.004933996    1.668    0.401
        92  -8.6926    209.2652     43.5287   3.8287742648e+01   2.8333031540e+01    0.2619148    0.1455774 -38.31 0.0009443755    1.735    0.424
        93  -9.0348    163.3515     41.2071   4.3840867009e+01   3.9178397923e+01    0.3520632    0.2008612 -51.12  0.001330006    1.840    0.457
        94  -8.5328    163.0079     36.7065   4.2657810841e+01   3.9841257390e+01    0.2229696    0.1860592 -39.14 0.0008829539    1.285    0.222
        95  -8.0636    198.7876     41.9191   3.9130551783e+01   3.0864850379e+01    0.1786944    0.1432736 -51.29 0.0005515055    1.184    0.155
        96  -9.6882    120.0572     40.1990   5.1836622338e+01   4.9556438348e+01    0.3131841    0.2080975 -21.57  0.000704574    1.752    0.429
        97  -8.1569    190.0398     35.2565   3.8586834309e+01   3.3712038045e+01    0.1721434    0.1468769 -83.62 0.0002254881    1.019    0.019
        98  -9.1750    203.9947     31.3512   3.6086421704e+01   3.1069173344e+01    0.3172604    0.1576887 -40.25  0.001361806    1.883    0.469
        99  -8.8303    178.9581    223.0766   8.3000358293e+01   1.1247815728e+00    0.2010684    0.1700944  -1.29 0.0003630575    1.080    0.074
       100  -8.1632    247.3543    224.6967   7.0242406023e+01  -8.5341349040e+00   0.09876013   0.09651286 -35.33 0.0007039744    1.709    0.415
       101  -7.5245    189.2717    224.3017   8.1078368636e+01  -6.4615510969e-01    0.1314718   0.09157354  -6.44 0.0001694189    1.532    0.347
       102  -9.2346    113.4898     26.2788   4.8614262110e+01   5.2757790840e+01    0.2984509    0.1861398  25.98  0.001021624    1.995    0.499
       103  -7.2864    206.0248    220.7953   7.7125192876e+01  -2.4993510282e+00    0.1575954   0.09486094  30.75 0.0008293134    1.604    0.377
       104 -10.0660    145.7575    216.8401   8.9187142307e+01   7.5676357686e+00    0.2546383    0.2314793 -38.68 0.0004612077    1.170    0.145
       105  -8.1951     97.5221    211.7745   9.9661194007e+01   1.6346274949e+01    0.1832189    0.1366249 -62.84 0.0005666162    1.405    0.288
       106  -8.4171    239.6542     18.2499   3.0223435006e+01   2.5203406316e+01     0.193924    0.1551409  68.63 0.0007845701    1.475    0.322
       107  -9.8041    246.7793    209.2364   6.7604338038e+01  -6.1638685818e+00    0.3075639    0.2630023 -31.07  0.001607586    1.342    0.255
       108  -9.3503    247.5346    202.4632   6.6245789616e+01  -5.2137132366e+00      0.23019     0.183115 -11.25  0.001527387    1.055    0.052
       109  -8.7719    168.6588    202.8418   8.1653173717e+01   6.5898346530e+00    0.2219471    0.1783786  16.01 0.0004119111    1.223    0.182
       110  -8.7390    200.5965     23.9475   3.4743568707e+01   3.2713016005e+01     0.232112    0.1544197 -89.34  0.000745197    1.381    0.276
       111  -8.7381     92.1519     23.2446   5.2766628500e+01   5.7820611041e+01    0.2103767    0.1685131   3.51  0.000511553    1.336    0.252
       112  -9.4397    126.7297     22.5709   4.4642895033e+01   5.0092422949e+01     0.264757    0.1064088  58.08  0.001053174    2.085    0.520
       113 -10.4746    232.9388    195.6197   6.7489258222e+01  -2.1384807034e+00     1.026347    0.4174351  50.87  0.003321471    6.042    0.834
       114  -9.1411     29.7275    197.9609   1.1429124854e+02   2.8499258488e+01    0.2015938    0.1883757 -84.14 0.0003391243    1.190    0.159
       115  -8.7132    191.7644    192.8046   7.4832910317e+01   4.6985036838e+00    0.4388345    0.2144737 -59.03   0.00149129    3.955    0.747
       116  -9.2596    220.8322    186.3683   6.7900227861e+01   1.2361140755e+00    0.2925287    0.1637672  39.11  0.001445284    1.967    0.492
       117  -8.8016     32.3221    182.1451   1.1214283645e+02   3.2096775875e+01    0.1835117    0.1821188 -80.65 0.0003692277    1.229    0.186
       118  -8.4283    155.3638    178.8166   8.0084816871e+01   1.3949650802e+01    0.3352621    0.2150062  80.24  0.001125062    3.785    0.736
       119  -9.5694    221.2810    177.0012   6.5969931709e+01   2.8415263633e+00    0.1985553    0.1572952 -31.12 0.0009751191    1.101    0.092
       120  -7.6845    103.5753    176.8118   9.2660375231e+01   2.3654898386e+01    0.2139903    0.1436801 -74.94 0.0009345415    1.767    0.434
       121  -9.8372    237.5752    174.9137   6.2698121800e+01   6.9993671031e-01    0.2900262    0.2596775 -82.28  0.001646519    1.668    0.401
       122  -9.3120    228.5990    171.2550   6.3514496704e+01   2.7162768217e+00    0.2219196    0.1730153  51.06  0.001265377    1.666    0.400
