#   1 NUMBER                 Running object number                                     
#   2 MAG_AUTO               Kron-like elliptical aperture magnitude                    [mag]
#   3 X_IMAGE                Object position along x                                    [pixel]
#   4 Y_IMAGE                Object position along y                                    [pixel]
#   5 X_WORLD                Barycenter position along world x axis                     [deg]
#   6 Y_WORLD                Barycenter position along world y axis                     [deg]
#   7 A_WORLD                Profile RMS along major axis (world units)                 [deg]
#   8 B_WORLD                Profile RMS along minor axis (world units)                 [deg]
#   9 THETA_WORLD            Position angle (CCW/world-x)                               [deg]
#  10 FWHM_WORLD             FWHM assuming a gaussian core                              [deg]
#  11 ELONGATION             A_IMAGE/B_IMAGE                                           
#  12 ELLIPTICITY            1 - B_IMAGE/A_IMAGE                                       
         1 -10.7633     74.3039     20.2144   5.6830861579e+01   6.1817285773e+01    0.4052867    0.2506978  -8.06  0.002157125    1.892    0.472
         2 -10.4020     15.1729      8.7100   7.7185554045e+01   7.2450490639e+01    0.3101219    0.1500266  12.92  0.001324331    2.295    0.564
         3  -9.8863     20.1426     18.4158   7.9187499411e+01   7.0560293192e+01    0.3571678    0.1933787 -40.96    0.0017665    1.872    0.466
         4 -11.4186     13.5191     15.1469   8.1326247749e+01   7.1732478157e+01    0.3404142    0.2189943 -40.92  0.001022483    1.642    0.391
         5 -11.5935     83.6941     14.9063   5.1818812634e+01   6.0467778220e+01    0.4580704    0.2428192  19.71 0.0006381787    2.581    0.613
         6 -11.6634    234.8367     14.9949   2.9934563238e+01   2.6530431382e+01    0.2219465    0.1657313 -69.41 0.0003043451    1.030    0.029
         7 -10.9563    172.1090     11.9003   3.4870149381e+01   4.0497005057e+01    0.1890319    0.1561597 -84.11  0.000305228    1.057    0.054
         8 -11.6433     35.1008     12.5549   6.8717547923e+01   6.9426323518e+01    0.2782958    0.2434579  22.57 0.0008180219    1.335    0.251
         9 -11.7468     30.3295      7.3789   6.8406280445e+01   7.0712635366e+01      0.38453    0.2603017  14.00  0.002527313    1.245    0.197
        10 -11.1896    192.9751     11.2194   3.2558197144e+01   3.5814762341e+01    0.2035452    0.1646504 -53.55  0.000758903    1.224    0.183
        11 -10.7222    134.8717     11.3711   3.9696103470e+01   4.9282012834e+01     0.204896    0.1912131  61.33 0.0004530958    1.108    0.097
        12 -11.5729    128.5269     10.8511   4.0566306660e+01   5.0815648480e+01    0.4443605    0.2033455  59.53  0.002139212    1.794    0.442
        13 -11.5735    117.4030      8.9008   4.1883053014e+01   5.3567867152e+01    0.3897842    0.2736601 -79.99 0.0009748327    1.740    0.425
        14  -9.6440     70.3830     10.7160   5.4026980237e+01   6.3558830617e+01    0.2138239    0.1094735  27.20 0.0009479949    2.156    0.536
        15 -11.2257    216.6027     10.1772   3.0316083949e+01   3.0798306064e+01    0.1447358    0.1116187 -25.50 0.0001164156    1.698    0.411
        16 -10.4954     45.2757      9.9671   6.2885716480e+01   6.8156876509e+01     0.191891    0.1416138  27.29 0.0004050383    1.132    0.117
        17 -10.5489     22.4162      9.3706   7.3510249414e+01   7.1518555999e+01    0.2703368    0.1524234  12.47  0.001074634    1.750    0.428
        18 -10.5986      2.6507      6.8275   8.3779829117e+01   7.3933576991e+01    0.2399626    0.1616488  11.12 0.0009248556    1.326    0.246
        19 -10.2483    164.8768     12.2034   3.5791024416e+01   4.2149118072e+01    0.1846402    0.1469202 -82.00 0.0004837703    1.148    0.129
        20  -9.9857     40.7423      7.6113   6.3670042817e+01   6.9134854364e+01    0.2155971    0.1523547  40.56 0.0002178087    1.423    0.297
        21 -10.2644     37.5163      6.0296   6.4308195771e+01   6.9804429845e+01    0.1935254    0.1603694 -29.72 0.0009046806    1.540    0.350
        22 -10.1452    165.4626      7.4923   3.4486788755e+01   4.2464809459e+01    0.1245315    0.1051246  82.05 0.0001225071    1.035    0.034
        23  -9.7501     98.0488      7.2729   4.5234621921e+01   5.8073474998e+01    0.1749107    0.1356724  54.34 0.0003599438    1.093    0.085
        24 -10.1402     93.0035      6.7518   4.6194984906e+01   5.9220514691e+01    0.1716387    0.1470587  64.04  0.000335703    1.173    0.147
        25 -11.0520    150.6704      5.6947   3.5784013007e+01   4.6080106738e+01    0.2620873    0.1721137 -72.22 0.0007437414    1.622    0.384
        26  -9.9863     70.5008      6.0913   5.1968948758e+01   6.3955159636e+01    0.2123611    0.1381515  32.57  0.001138419    1.350    0.260
        27  -9.9471    235.4998      5.4968   2.8053427672e+01   2.7447152917e+01    0.1163955   0.08466133 -70.11 0.0008103563    1.040    0.039
        28 -10.7408    104.1246      3.9657   4.2725800091e+01   5.6989499399e+01    0.3112217    0.2331604 -85.15  0.001864253    1.614    0.380
        29  -8.5510      8.9339      6.0000   7.9455818309e+01   7.3464622291e+01    0.1708128   0.05474598  28.35 0.0008038016    2.952    0.661
        30  -9.9473     74.9594      3.7825   4.9655002020e+01   6.3256444443e+01    0.1968701    0.1287763  35.11 0.0007483564    1.329    0.247
        31 -10.2923     59.1949      3.1884   5.4310822892e+01   6.6375102861e+01    0.2659392    0.1873694  86.62  0.001386135    2.930    0.659
        32 -10.2907    199.5487      2.9877   3.0125790881e+01   3.5193509490e+01    0.1627486    0.1089864 -38.68 0.0004127773    1.564    0.360
        33 -11.7522     20.8923      2.1145   7.0481332292e+01   7.2578045837e+01    0.2835325    0.1539376  27.71 0.0004655939    1.600    0.375
        34 -10.4051    237.9103      2.0990   2.7260116371e+01   2.7333630586e+01    0.1740704    0.1118946 -68.66 0.0003504034    1.209    0.173
        35  -9.9601    162.6690      2.3362   3.3452968488e+01   4.3579033802e+01    0.1316241   0.07914813 -68.54 -0.0001871728    1.733    0.423
        36 -10.6911     80.2320      1.6598   4.7323562357e+01   6.2340932853e+01    0.2480628    0.1283609  51.92  0.001339067    1.553    0.356
        37  -9.4351      9.2883      9.6893   8.1132247723e+01   7.2926193305e+01   0.09267863   0.08616954   1.68 0.0002192223    1.580    0.367
        38  -9.9379    204.2327      1.3437   2.9398537226e+01   3.4339041866e+01    0.1634267   0.09031679  89.77  0.000305912    1.600    0.375
        39  -9.5114     10.9168      1.1534   7.5646462292e+01   7.3876193843e+01    0.1352094   0.06651474  28.66 0.0003286659    1.866    0.464
        40  -9.3589      7.4439    188.3982   1.1872622610e+02   3.2905864039e+01    0.1241806    0.1016769  86.06 0.0001362746    1.027    0.027
        41 -10.8711     27.7685    250.4241   1.1856670284e+02   1.7152506892e+01    0.2583524    0.1184955  37.48  0.001412599    1.904    0.475
        42 -11.8623     17.9573    249.0695   1.2035200686e+02   1.8471525381e+01    0.2979271    0.2481854 -44.74  0.002113106    1.784    0.439
        43 -11.3018      3.7177    248.4762   1.2295885889e+02   2.0014798009e+01    0.5498262    0.1976572  56.85  0.002852071    2.220    0.550
        44 -13.2721      8.0182    242.2471   1.2186540756e+02   2.0851630486e+01    0.9257816    0.4657451  61.86  0.005459677    1.623    0.384
        45  -9.2792     22.3450    180.2675   1.1446153558e+02   3.3557671988e+01    0.1247712   0.09379435 -42.60 0.0003607213    1.610    0.379
        46 -10.1545      4.4981    167.4949   1.1781495125e+02   3.8240044797e+01    0.1292523    0.1045395 -86.81 0.0008106707    1.004    0.004
        47  -9.3782    226.3584    163.8713   6.2413176646e+01   4.4021441376e+00    0.2018139    0.1100033 -31.63 0.0009354871    1.731    0.422
        48 -10.1617     29.1088    163.3412   1.1092749034e+02   3.7178355956e+01    0.2113074    0.1616734 -66.94 0.0003358933    1.172    0.147
        49  -9.7921     14.3364    164.2903   1.1498831354e+02   3.8266966027e+01    0.1302721    0.0886158 -45.88  0.000351976    1.637    0.389
        50  -9.7892     17.5272    163.5306   1.1406847666e+02   3.8190035370e+01    0.1343223     0.110888  89.50 -7.049525e-05    1.050    0.048
        51  -9.1618     21.3229    160.6963   1.1274948957e+02   3.8578828982e+01    0.1394697   0.08877036  67.03 0.0007030719    1.637    0.389
        52 -10.2441      4.1697    158.8114   1.1715493068e+02   4.0424093228e+01    0.1913692    0.1502441  78.61   0.00063827    1.163    0.140
        53 -10.9973      4.4073    153.6346   1.1662078899e+02   4.1703787670e+01    0.5262141    0.1577017  20.16  0.002046676    3.975    0.748
        54  -9.1016     27.2971    147.3094   1.0946547639e+02   4.1477678569e+01    0.1395141   0.09184746 -44.48 0.0004496342    1.594    0.373
        55  -9.4695     23.3300    147.3212   1.1062422483e+02   4.1830772282e+01    0.1418486   0.08965334 -43.49  0.000704887    1.693    0.409
        56  -9.2695      6.3194    145.2920   1.1527468148e+02   4.3673272291e+01    0.1315681   0.08344352 -47.59 0.0003583902    1.605    0.377
        57  -9.7878    236.1056    138.7072   5.5600331890e+01   7.3159134644e+00    0.1817587    0.1650212 -25.39 0.0007651987    1.107    0.096
        58 -11.3609      4.0369    134.7510   1.1481260116e+02   4.6483522504e+01    0.3814222    0.2912303 -30.25  0.002312948    1.530    0.346
        59 -10.1163    212.5018    133.9372   5.8484112026e+01   1.2425954446e+01    0.2374336    0.2007988  79.88 0.0005903267    1.487    0.327
        60  -9.9173     96.0172    133.7501   8.6118032687e+01   3.5776472178e+01    0.2132414    0.2102147  -4.87 0.0006063135    1.052    0.049
        61  -9.2424     61.5220    130.5358   9.6128332006e+01   4.1987923532e+01    0.1482418    0.1368147 -61.39 0.0001898112    1.012    0.012
        62  -9.4089     40.3304    130.3088   1.0289839348e+02   4.4596608232e+01    0.1487179   0.09741715 -36.61 0.0004040629    1.665    0.399
        63 -10.6488     12.2837    129.5979   1.1169202206e+02   4.7240724861e+01    0.2515452     0.145551 -83.90  0.001248938    1.662    0.398
        64 -10.9331     28.4851    128.1333   1.0635186179e+02   4.6318808902e+01    0.2198164    0.2164349  64.50 0.0003029288    1.158    0.136
        65 -10.0238     47.3340    127.0969   1.0005091743e+02   4.4650338016e+01    0.2181311    0.1939341  -4.22 0.0002900255    1.273    0.214
        66 -11.1636     24.0628    122.0154   1.0682513277e+02   4.8267257715e+01    0.2316108    0.2149293  16.21  0.001448096    1.256    0.204
        67 -11.4800      9.7844    120.9178   1.1133459006e+02   4.9603864460e+01    0.3731353    0.1953163 -60.93  0.001877312    1.521    0.343
        68 -10.4884     69.0736    117.0026   9.0738214728e+01   4.4363950658e+01    0.2252711    0.2070104 -46.45            0    1.012    0.012
        69  -9.0410     75.9821    121.0230   8.9408517000e+01   4.2309487975e+01    0.1755697    0.1653001 -48.05 -0.003769674    1.003    0.003
        70 -10.8313      1.9706    113.7484   1.1293169878e+02   5.1857256034e+01    0.2899992    0.1437802 -66.68 0.0006250985    1.576    0.365
        71 -11.5610      4.0063    108.7234   1.1155824391e+02   5.2986799547e+01    0.4215183    0.1998128  10.83  0.002024999    2.627    0.619
        72 -10.2905     22.2491    109.6247   1.0536785375e+02   5.1538644086e+01    0.1623379    0.1261125  -8.73 0.0002620667    1.486    0.327
        73 -10.7085     45.4047    110.7440   9.7433692898e+01   4.9025328028e+01     0.245044    0.2127386 -41.90 0.0002720985    1.073    0.068
        74 -10.7180     57.1833    107.6205   9.2595861507e+01   4.8352411544e+01    0.2010347    0.1393459   9.93 0.0007940803    1.736    0.424
        75 -10.2018      1.4305    104.3354   1.1181839171e+02   5.4198489768e+01     0.254305   0.09341892 -65.15 0.0009199956    2.034    0.508
        76  -9.8097    246.6681    101.7026   4.6404280793e+01   1.1868297753e+01     0.120127   0.09877959  -7.52 0.0003834774    1.643    0.391
        77  -9.5888    159.7071    100.9965   6.0876119530e+01   3.0032522641e+01    0.2120514    0.1837994 -47.20 0.0002200763    1.116    0.104
        78  -8.9743     91.7322     99.7756   7.8851517055e+01   4.4730091603e+01    0.1404158    0.1145698  -4.65 0.0006693185    1.409    0.290
        79  -9.0384     29.2943     99.2593   1.0082400608e+02   5.3497510388e+01    0.1361917   0.08983403 -34.35 0.0001525808    1.499    0.333
        80 -10.0058     20.3333     99.2961   1.0415928053e+02   5.4233027256e+01    0.1420636    0.0840126 -37.12 0.0003995707    1.643    0.391
        81 -12.0630      7.3182     91.8678   1.0766616769e+02   5.6889056312e+01    0.5028239    0.3455831 -32.69 0.0006435888    1.414    0.293
        82 -12.0910     20.2428     93.1238   1.0297021917e+02   5.5728909850e+01    0.4752602    0.2966451 -16.74 0.0006925373    1.856    0.461
        83 -11.9755    125.2435     93.3172   6.7114270820e+01   3.9320752853e+01    0.2702779    0.2665694  79.38 0.0002063915    1.040    0.038
        84 -11.2689     57.9259     91.5735   8.8262591280e+01   5.2078459885e+01    0.3525502    0.2291215 -26.41 0.0008754984    1.725    0.420
        85  -9.9193     44.8522     91.4858   9.3149418589e+01   5.3756986786e+01    0.2881951    0.1292236 -39.47  0.001156916    2.257    0.557
        86  -9.9691     28.7826     91.9957   9.9443213609e+01   5.5289403978e+01    0.2259297    0.1817104  12.36 0.0009560845    1.379    0.275
        87 -11.6115     11.3032     86.4668   1.0510069112e+02   5.7926653164e+01    0.5165139    0.2486696 -85.79   0.00202476    3.394    0.705
        88 -10.9261      7.0044     85.0287   1.0651836762e+02   5.8519195686e+01    0.3460693    0.1656894 -46.68 0.0009865016    1.685    0.407
        89 -11.3588     66.1515     91.6572   8.5283385336e+01   5.0874072173e+01     0.589295    0.3143412 -67.65  0.002059182    2.952    0.661
        90  -9.3210    124.4761     86.4835   6.5330771013e+01   4.0868961096e+01    0.1500106    0.1480566   6.68 0.0003178977    1.012    0.012
        91  -9.0186     29.9608     84.7586   9.7286314377e+01   5.6877478464e+01    0.1479924    0.1121306  11.11 0.0003812338    1.441    0.306
        92  -9.0119    146.2798     83.2893   5.9035409764e+01   3.6532639570e+01    0.1445307     0.119258  11.07 0.0002328702    1.524    0.344
        93  -9.4711     69.5162     83.4237   8.1680110257e+01   5.2182656554e+01    0.1445248    0.1322261 -16.78 -5.855833e-06    1.018    0.018
        94  -9.1996     15.6924     83.2690   1.0268203485e+02   5.8381151789e+01    0.1165293   0.09749395  67.95 0.0002190887    1.538    0.350
        95 -10.1948     89.8593     81.0432   7.3921692183e+01   4.9130610331e+01    0.2396258    0.2145998  61.77 0.0002641916    1.298    0.230
        96  -9.5903     86.4675     78.5906   7.4273933282e+01   5.0266219471e+01    0.2507363    0.1344198  40.15 0.0006119949    1.879    0.468
        97  -9.3613    250.3453     80.7202   4.1680216427e+01   1.4577876541e+01    0.1289323   0.08186492 -66.62 0.0007010188    1.635    0.388
        98  -9.2203    141.7050     79.7053   5.9060797245e+01   3.8253551389e+01    0.1467058    0.1185535  13.77 0.0002192087    1.561    0.359
        99  -9.4995    124.3696     79.2168   6.3191795416e+01   4.2296427136e+01    0.1957557     0.138905 -50.20 0.0003080731    1.491    0.329
       100  -9.4487     80.3705     79.2454   7.6551561912e+01   5.1239629895e+01    0.1977685    0.1353203 -53.06 0.0009314104    1.589    0.371
       101 -11.2798     48.6148     78.7950   8.8235516029e+01   5.6179535499e+01    0.4286448    0.2361701  10.52  0.001174868    2.412    0.585
       102 -11.9609     55.0546     75.0300   8.4571854425e+01   5.6135501183e+01    0.4066653    0.2957501  30.81  0.002176745    1.439    0.305
       103  -9.7232     31.1608     79.1040   9.5372455417e+01   5.8053165763e+01    0.1998926    0.1537622 -29.47 0.0005175436    1.187    0.158
       104 -10.1255    176.8205     76.8469   5.1118047115e+01   3.0586263736e+01    0.2136063    0.2056393  14.72  0.001076541    1.214    0.176
       105 -10.0952    159.5838     77.2094   5.4482751837e+01   3.4533224927e+01    0.2602442    0.1975277  56.65 0.0005436354    1.313    0.238
       106 -11.2162      7.2360     76.4770   1.0469069807e+02   6.0474229935e+01    0.2472125    0.1821367  58.03 0.0007891689    1.863    0.463
       107 -10.1536     22.1901     76.2198   9.8359011861e+01   5.9498106116e+01    0.1695977    0.1478191 -77.95  0.001052198    1.365    0.267
       108 -11.1852     15.4877     75.1739   1.0092816077e+02   6.0242444687e+01    0.2495312    0.2181952 -15.16  0.001467052    1.175    0.149
       109 -10.2600     36.7096     74.0633   9.1702372325e+01   5.8604410843e+01    0.3792336    0.1888387 -60.26  0.001686367    2.151    0.535
       110  -9.9232     41.4799     74.4716   8.9850475397e+01   5.7983865099e+01    0.2352449    0.1270075   9.09   0.00102362    2.409    0.585
       111  -9.5683     32.9591     73.4522   9.3096569424e+01   5.9128372251e+01     0.180345    0.1274511  19.22 0.0004433496    1.511    0.338
       112  -9.8713    174.9640     72.3383   5.0268709602e+01   3.1776699312e+01    0.1975193    0.1733377  74.84 0.0003952245    1.123    0.110
       113 -12.5014    105.8867     71.1239   6.5785663653e+01   4.7834373167e+01    0.3258334    0.2892264  75.90 0.0004932443    1.325    0.245
       114 -10.2703     45.5415     69.6199   8.6716593763e+01   5.8526101602e+01    0.2364328    0.1971971  12.70 0.0007967021    1.212    0.175
       115  -8.8766    120.2739     69.3001   6.1214291725e+01   4.5021312677e+01    0.1439606    0.1141989  11.01 0.0001905862    1.533    0.348
       116 -11.2766     15.1410     63.1436   9.8021333100e+01   6.2896785459e+01     1.625259    0.5538789   2.69  0.005008459    6.138    0.837
       117 -13.3467     20.8336     58.3759   9.4048450452e+01   6.3442457229e+01    0.5208052     0.309728 -27.80 0.0007323388    1.574    0.364
       118 -10.0999     80.9112     67.5015   7.2545047909e+01   5.3460831689e+01    0.2198817    0.1831475 -34.43 0.0005543793    1.187    0.157
       119 -10.1613     51.3234     66.4049   8.3323120761e+01   5.8429189688e+01    0.2831647    0.1748885 -23.67 0.0007451806    1.777    0.437
       120 -11.1781     11.8373     59.5791   9.8559866801e+01   6.3881603946e+01    0.4085091    0.2003432   5.05  0.001333626    2.354    0.575
       121 -10.0735    168.0910     65.8484   4.9762472330e+01   3.4445655011e+01    0.2066613    0.1778255 -77.07  0.001139096    1.155    0.135
       122 -11.6794     97.0495     63.8858   6.6055145143e+01   5.0977945372e+01    0.3558093    0.2351475  32.38 0.0003441093    1.573    0.364
       123  -9.4792    138.6125     63.1915   5.4894453521e+01   4.1834705841e+01    0.1882428    0.1404275 -21.69 0.0002672508    1.569    0.363
       124 -10.4272     63.3653     62.4717   7.7227302008e+01   5.7417258253e+01    0.3602234    0.3213358 -87.33  0.002065714    1.602    0.376
       125  -9.6636     38.8176     61.8004   8.7068337500e+01   6.0936805046e+01    0.2064039    0.1564692 -20.42 0.0006661001    1.211    0.174
       126  -9.0378     92.7162     61.2910   6.6524571242e+01   5.2311799553e+01    0.1321906    0.1148784 -85.47 0.0001867818    1.534    0.348
       127  -9.5183    145.4600     59.4844   5.2322241248e+01   4.0810841443e+01    0.1432741    0.1342983  87.61 -0.0001377158    1.047    0.045
       128  -9.8008     48.8091     58.4599   8.1683223355e+01   6.0328938834e+01     0.228002    0.1462534 -38.83  0.001198278    1.438    0.305
       129 -10.0321     71.7882     56.5949   7.1990302932e+01   5.7080501516e+01     0.221952    0.1732011 -34.85 0.0004696514    1.277    0.217
       130 -10.7457     32.8758     55.8433   8.7730262863e+01   6.2785267684e+01    0.2537092    0.1601485 -30.84  0.000501055    1.434    0.303
       131 -10.2323      6.1379     56.7660   1.0046166401e+02   6.4831719624e+01    0.3008299     0.151462 -19.15 0.0008859655    2.120    0.528
       132 -12.5057    114.4990     53.2730   5.7545926311e+01   4.8959233905e+01    0.2899428    0.2691403  27.38 0.0003042021    1.059    0.056
       133 -11.8649     86.9431     54.1038   6.5860621280e+01   5.4675051677e+01    0.4362009    0.3098334  21.99 0.0009482314    1.518    0.341
       134  -8.9454    156.7005     54.3132   4.8637944296e+01   3.8926919738e+01    0.1445272    0.1039694 -72.45 0.0003189675    1.607    0.378
       135 -12.1195     66.8506     52.8050   7.2443565763e+01   5.8589204757e+01     0.401206    0.2079861  35.92  0.001380068    1.890    0.471
       136 -10.1376    149.0971     52.2009   4.9458671032e+01   4.1048481143e+01    0.2515748    0.1814111  65.58 0.0006010722    1.338    0.253
       137 -11.9531    106.0326     50.4967   5.8867254346e+01   5.1259577786e+01    0.2714908    0.2383645  -5.59 0.0003132202    1.201    0.167
       138 -10.6739     78.1487     51.2955   6.7796367090e+01   5.6825070078e+01    0.4671835    0.3215143  73.60  0.001928256    2.815    0.645
       139 -10.0490    121.6944     50.7074   5.4905132922e+01   4.7709527566e+01    0.3113869    0.1727673 -15.69  0.001118331    2.780    0.640
       140 -10.8637    119.4859     48.0692   5.4574740082e+01   4.8601316721e+01    0.3812369    0.3224743  19.85  0.001514645    1.290    0.225
       141  -9.9422     38.0957     48.9709   8.2959324902e+01   6.3482021130e+01    0.2271342    0.1604825   8.62   0.00130859    1.393    0.282
       142 -11.0838      9.7014     48.1279   9.6240219800e+01   6.6355767984e+01    0.3355207    0.1978034  17.37  0.001957749    1.801    0.445
       143 -10.9669    137.5442     46.9920   5.0198047218e+01   4.4539268202e+01    0.3468855    0.2360929  56.13  0.001226019    1.364    0.267
       144 -10.0385     52.8804     48.0524   7.6197462271e+01   6.1634624933e+01    0.2523873    0.1675512  23.40   0.00136573    1.476    0.322
       145  -9.2263    154.7109     47.3385   4.7013521178e+01   4.0404837855e+01    0.1436855    0.1009304 -69.48 0.0007021714    1.640    0.390
       146 -10.5023     68.9438     46.8114   6.9413505518e+01   5.9221757311e+01    0.2462699    0.1558341  35.19 0.0007326525    1.504    0.335
       147 -10.4284     79.0723     45.7051   6.5398559145e+01   5.7535062333e+01    0.1987364    0.1814606 -33.62 0.0002670577    1.227    0.185
       148 -10.5349     18.0786     44.3407   9.0820279632e+01   6.6432793028e+01    0.4136895    0.3115101  36.91  0.002598937    1.725    0.420
       149  -9.8030     28.9776     46.4838   8.6277585502e+01   6.4980534185e+01    0.3147804    0.1924812  24.60  0.001107971    1.667    0.400
       150  -9.6295     25.3409     43.7014   8.7013463969e+01   6.5867851540e+01    0.2126401    0.1599944 -48.55  0.001019461    1.429    0.300
       151  -9.8315     22.3186     41.7029   8.7766178107e+01   6.6530037338e+01    0.2056551     0.136342  20.93 0.0007093108    1.535    0.348
       152  -9.1879    241.7072     45.2926   3.5393486667e+01   2.1390091980e+01    0.1258221   0.07383892 -64.55 0.0001816517    1.553    0.356
       153  -9.9497     93.3628     44.1029   6.0238448148e+01   5.4914079221e+01    0.4380418    0.1756186  32.69  0.001405765    3.973    0.748
       154 -10.9015     36.2203     41.2574   8.0901152709e+01   6.5075337145e+01    0.3793015    0.1699979 -43.25  0.001402153    2.107    0.525
       155 -10.0850     38.7538     35.4191   7.7377077027e+01   6.5715772428e+01    0.2803851    0.1550824  11.31 0.0009322714    2.172    0.540
       156 -11.3322     39.7983     31.8994   7.5417262242e+01   6.6123885306e+01    0.3006835    0.2208121  23.80 0.0007344567    1.278    0.217
       157  -9.4361    152.1186     44.5636   4.6678720069e+01   4.1405632667e+01    0.1918299    0.1270755  64.26 7.457286e-05    1.416    0.294
       158 -10.4363      2.9218     43.0698   9.8105247532e+01   6.7776191311e+01    0.3700539    0.1440375 -33.41   0.00177509    2.282    0.562
       159  -9.7186     69.2275     41.9924   6.7448906180e+01   5.9922664086e+01    0.1773357     0.157903  -2.47            0    1.067    0.063
       160  -9.9851    183.9249     41.3463   4.0876155758e+01   3.4327557644e+01    0.2241743    0.1506198 -80.56  0.001171223    1.570    0.363
       161 -10.3040    170.8149     40.5489   4.2518495478e+01   3.7497657539e+01    0.2414232    0.1777285  64.47 0.0007794225    1.278    0.218
       162 -10.1345     58.3804     41.4970   7.1405035192e+01   6.1853555590e+01    0.2731087    0.1206556  39.36  0.001218502    2.193    0.544
       163 -10.6648     43.8530     40.7235   7.7221756521e+01   6.4165443889e+01    0.2115058     0.172317  15.27 0.0002673338    1.151    0.131
       164  -9.4161    204.8424     39.8087   3.7934067070e+01   2.9799429377e+01    0.1760561    0.1268535 -69.47 0.0002960913    1.270    0.213
       165  -9.6509    139.0350     40.2772   4.7842269943e+01   4.5094480552e+01    0.1941664    0.1691727  68.78 0.0006329902    1.066    0.062
       166  -8.9045     99.3095     40.2940   5.7137746427e+01   5.4186989755e+01    0.1398129   0.09807464  23.42 0.0003822873    1.588    0.370
       167 -10.8825     22.1106     38.0334   8.6492831088e+01   6.7205041718e+01    0.3484788    0.2737315   0.12  0.001679237    1.155    0.134
       168  -9.7725    134.2120     39.4833   4.8551927753e+01   4.6340582448e+01    0.2787835    0.1141558  53.99   0.00113287    2.164    0.538
       169  -9.9308    128.1385     38.7197   4.9566550654e+01   4.7869312958e+01    0.1926328    0.1735457  82.21 0.0004377171    1.136    0.119
       170 -11.7478    121.1456     37.0608   5.0548803499e+01   4.9711314059e+01    0.4089106    0.3479742 -43.54  0.000960374    1.286    0.222
       171  -9.4285    212.6095     37.8013   3.6637261545e+01   2.8369070867e+01    0.1707881   0.09962514 -49.83 0.0002546829    1.519    0.342
       172  -9.0678    239.2708     37.3624   3.4017113731e+01   2.2921340428e+01    0.1026831   0.09512692   1.83 0.0006998529    1.654    0.395
       173  -9.9324    133.1867     34.9706   4.7342901307e+01   4.7153635419e+01    0.2019643    0.1439995  32.19 0.0003960801    1.623    0.384
       174 -10.8702     90.0715     32.0655   5.6726494682e+01   5.7225528225e+01    0.4961503    0.3909703 -67.42  0.002420256    1.827    0.453
       175 -11.1869     27.3577     34.6245   8.2518309382e+01   6.7236829611e+01    0.2742814    0.1691489 -13.63 0.0008581122    1.627    0.385
       176  -9.7757      6.8444     33.8577   9.2932316369e+01   6.9246374658e+01    0.2151899    0.1455211 -52.07 0.0009650236    1.512    0.339
       177 -10.0577     45.8807     33.5048   7.3365280324e+01   6.5017165471e+01    0.2109388    0.1971605  69.71  0.001376487    1.677    0.404
       178  -9.4847     49.5336     33.4767   7.1773669597e+01   6.4473753304e+01    0.1759521    0.1144793  42.15 0.0006378146    1.674    0.402
       179 -10.7125    127.1272     31.3066   4.7388924060e+01   4.9022126365e+01    0.3172686     0.259325 -21.50  0.001555509    1.387    0.279
       180 -12.2011     73.0760     31.7574   6.2000455380e+01   6.0660939920e+01    0.2927195    0.2687991  77.03 0.0003735564    1.478    0.324
       181  -9.7885     68.7761     26.1158   6.1167162904e+01   6.2188275321e+01    0.2079354    0.1697564  -7.35 0.0005689234    1.204    0.170
       182  -9.0750     55.3395     33.3436   6.9302256505e+01   6.3576135226e+01    0.1380087   0.08881963   5.23 0.0007048643    1.776    0.437
       183 -10.9724    144.1742     31.3014   4.4184787477e+01   4.4988901797e+01    0.2535415    0.1971212 -53.78 0.0006401071    1.370    0.270
       184 -10.3338     18.2563     32.0297   8.6123052416e+01   6.8614387400e+01    0.3437267    0.1457017   9.50  0.001133778    3.273    0.694
       185 -11.4751      9.7672     29.7673   8.9790394201e+01   6.9745359117e+01    0.3660576    0.2561389  43.34  0.001553503    2.225    0.551
       186 -10.4639      2.9884     26.9280   9.2484915329e+01   7.0737732962e+01    0.2089493    0.1541661  -9.73 0.0007088091    1.164    0.141
       187 -11.5301      1.9998     20.8214   9.0614133235e+01   7.1837508870e+01    0.2895281    0.1801492 -46.90 0.0009848571    1.553    0.356
       188  -8.4035      6.5085     20.5100   8.7828371204e+01   7.1546282683e+01    0.2987267    0.1708061 -30.14  0.001855446    1.423    0.297
       189 -10.4143    135.6938     29.3626   4.5113164100e+01   4.7229823565e+01     0.228253     0.195635  49.16 0.0004308488    1.138    0.122
       190 -10.7144      2.6270     34.6298   9.5500370356e+01   6.9388015504e+01    0.2956055    0.2387193  46.90  0.001968992    1.903    0.475
       191 -10.2455     94.4416     27.5475   5.3779653043e+01   5.6844398721e+01    0.2779189    0.1999048  81.92   0.00119292    1.978    0.494
       192  -9.7756    140.2058     27.1054   4.3612167956e+01   4.6417277242e+01     0.258117    0.1597758 -85.22   0.00121811    2.081    0.519
       193  -9.3800     59.6838     25.7403   6.4343367148e+01   6.3877266425e+01    0.1812784    0.1019433  54.49 0.0005716959    2.299    0.565
       194 -10.4827     77.5328     22.5467   5.6769030740e+01   6.0918832665e+01    0.1795465    0.1513915  31.47 3.540255e-05    1.021    0.021
       195  -9.6715    229.8165    247.8269   7.7218934854e+01  -9.7091278885e+00    0.1432056    0.1248281  -2.05 0.0004821423    1.317    0.241
       196 -10.8500     45.5925     21.3739   6.8152907412e+01   6.6758643761e+01    0.2336037    0.2180961 -50.83  0.001246802    1.626    0.385
       197 -10.5370    228.4526     21.6158   3.1737352404e+01   2.7050156023e+01     0.366152    0.1904963  69.30  0.001471008    1.872    0.466
       198  -9.2472    120.4045     22.5596   4.5880493673e+01   5.1568107181e+01    0.1296123    0.1154978  56.46  4.38332e-05    1.012    0.012
       199 -10.1213     98.9942     21.6747   5.0390275946e+01   5.6507109961e+01    0.5027997    0.1699613  51.70  0.001774389    2.415    0.586
       200  -9.8764     54.8446     21.9212   6.4553040021e+01   6.5188007598e+01    0.1876661    0.1384729  17.82 0.0006061273    1.199    0.166
       201  -9.1151     35.3215     22.3271   7.3277823736e+01   6.8129137883e+01    0.1282048   0.07988533  -0.41 0.0002433816    1.687    0.407
       202 -10.2940    225.0233    247.2523   7.7996193396e+01  -9.0525350593e+00    0.2098888    0.1465406 -23.12  0.001372463    1.289    0.224
       203  -9.6041    170.9664    246.9767   8.8472462919e+01  -1.7898276494e+00    0.2035048    0.1382874  -0.07 0.0009466029    1.655    0.396
       204 -11.1340     14.1752     21.1975   8.3749002629e+01   7.0760264640e+01    0.3589748    0.2286334  31.38  0.001635517    1.800    0.445
       205  -9.4729    115.9941    246.9075   1.0005869817e+02   6.3008038366e+00    0.1483715    0.1408092  48.95 0.0009838466    1.105    0.095
       206  -9.5075    132.0158     20.9693   4.3158911327e+01   4.9018305702e+01    0.1554898    0.1414075  66.77 0.0005761425    1.034    0.033
       207 -10.1560     84.5397     20.7193   5.3912484655e+01   5.9696300113e+01    0.2139475     0.125484 -16.63 0.0006585888    1.964    0.491
       208 -10.0521     30.4569     20.8978   7.4989528667e+01   6.8972635562e+01    0.2312426    0.1509677   3.92  0.001394411    1.455    0.313
       209 -10.2639     38.8733     19.2341   7.0170840392e+01   6.8044443905e+01    0.2595829    0.2047513  63.15   0.00152495    2.384    0.581
       210 -10.0434     60.8368     18.6680   6.0806352310e+01   6.4526769688e+01    0.2785935    0.1144544  37.93  0.001265231    2.225    0.551
       211 -10.2300    125.0623     17.2646   4.3235358952e+01   5.1022746055e+01    0.1798629    0.1491244  65.46 0.0002612063    1.065    0.061
       212  -9.9384     33.5431    247.4322   1.1725850524e+02   1.7111063247e+01    0.1188305   0.09328524  64.46 5.559698e-05    1.008    0.008
       213  -9.3296     89.5195     13.4554   4.9667486860e+01   5.9378999958e+01    0.1788934    0.1132914  65.15 0.0002205581    1.641    0.391
       214  -9.5933     26.5106     16.9563   7.5126089269e+01   7.0016388232e+01    0.1611107    0.1012187 -28.42 0.0004683927    1.468    0.319
       215  -9.1069     86.6318    245.2610   1.0615591738e+02   1.0827360637e+01    0.1355311   0.08066477  56.28 0.0006979383    1.647    0.393
       216 -10.9777    202.6198     16.0921   3.2771050999e+01   3.3158492654e+01    0.2107589    0.1420495 -83.11 0.0005945521    1.314    0.239
       217  -9.5034     49.2094     15.8155   6.4042375269e+01   6.6859839114e+01    0.1805295    0.1423959 -78.56 0.0009661513    2.927    0.658
       218  -9.9336    168.8642     14.8789   3.6013360162e+01   4.0950209781e+01    0.1789378    0.1543618  65.85 0.0002661913    1.172    0.147
       219  -9.5628     39.6315    243.3242   1.1576590098e+02   1.7252098293e+01    0.1361969   0.06895822  60.63 0.0007035626    1.803    0.445
       220 -11.0511     29.2339    241.2585   1.1770351439e+02   1.8853932285e+01    0.2728712   0.08421703  34.06  0.001201546    2.842    0.648
       221 -11.9583      4.2033    232.8350   1.2211752232e+02   2.3165490728e+01    0.3034187    0.1920126  58.96  0.001977949    1.270    0.213
       222 -11.0763    208.0272     13.0171   3.1615639095e+01   3.2318156769e+01    0.1839095    0.1471514 -77.13 0.0003733128    1.002    0.002
       223  -9.6304     72.3413     13.3278   5.4537425799e+01   6.2921898966e+01    0.1357316   0.07996242  26.22 0.0007051401    1.738    0.425
       224 -11.0592     24.9163    236.1527   1.1823336303e+02   2.0389007721e+01    0.1941924    0.1254316  62.28  0.000292838    1.279    0.218
       225  -9.3383     49.6993    235.6781   1.1309821593e+02   1.7651353339e+01    0.1124867   0.09576248 -36.81 0.0003213555    1.628    0.386
       226  -9.5872    249.2887    233.6092   7.1440045045e+01  -1.0020732012e+01    0.1470536   0.09328988  12.86 0.0005431917    1.459    0.315
       227 -11.6886      2.9500    225.7718   1.2199874915e+02   2.4783241527e+01    0.5113264    0.1471138  51.19  0.002299801    2.782    0.641
       228 -10.7207      2.3915    220.1635   1.2181277168e+02   2.6050297545e+01    0.2583251    0.1000265 -82.30  0.001254188    2.265    0.559
       229 -11.6870     10.9200    231.8393   1.2075552263e+02   2.2733725998e+01    0.2883601    0.1378912  51.76 0.0007089947    1.722    0.419
       230 -11.7217      9.6544    227.6511   1.2077097035e+02   2.3751088167e+01    0.2501662    0.2290602 -30.09   0.00181698    1.613    0.380
       231  -9.4582     47.8209    229.8533   1.1300688377e+02   1.9129812459e+01    0.1740683    0.1195127  62.98 -0.000430966    1.286    0.222
       232  -9.6877      3.6132     10.4950   8.4990957371e+01   7.3323399685e+01    0.1109846   0.08327053 -15.13 0.0001209267    1.055    0.052
       233  -9.9191     56.9843    229.7109   1.1101291871e+02   1.8026286096e+01    0.1769598    0.1427531  56.57 0.0003589765    1.071    0.067
       234  -9.7603    209.5087    229.5179   7.7959384121e+01  -4.4032096432e+00    0.1276678    0.1047764  -1.42 2.450281e-05    1.009    0.009
       235  -8.9048    205.2998    229.6825   7.8802077516e+01  -3.8482011425e+00    0.1094018    0.1035715  63.16 0.0002472592    1.617    0.381
       236 -10.8594    140.1432    228.0593   9.2200567946e+01   6.2446960277e+00    0.3156492    0.2047993 -67.36  0.001543874    2.118    0.528
       237  -9.8304    223.1801    226.8566   7.4920613474e+01  -5.8246321883e+00     0.174389    0.1217046  -6.88 0.0003564233    1.306    0.234
       238  -9.2378    167.3080    221.6653   8.5234605757e+01   3.1881092295e+00    0.1287468     0.107769  68.30  0.000704182    1.673    0.402
       239  -9.2363    114.4462    221.5141   9.7056844614e+01   1.1603902831e+01    0.1358171    0.1263149  35.16  0.000135835    1.040    0.039
       240  -9.5215     97.2679     10.4619   4.6610349222e+01   5.7972268265e+01    0.1685126    0.1129289  70.34 0.0009328987    1.554    0.356
       241  -9.7007    233.1360    218.8754   7.1708749990e+01  -5.8967166873e+00    0.1733679    0.1209374  -8.74 0.0004252237    1.289    0.224
       242 -10.9186      8.2848    218.1172   1.2049678087e+02   2.5962717920e+01    0.2099968    0.1870768  86.23 0.0009403951    1.216    0.178
       243  -8.8753     85.6902    215.2890   1.0292627701e+02   1.7318605063e+01     0.141804   0.09532264  63.26 0.0002101592    1.579    0.367
       244 -10.0902     15.8341    213.1612   1.1859593498e+02   2.6355543549e+01    0.1947866    0.1357021  67.13 0.0008755893    1.210    0.174
       245  -9.5522    205.4919    212.4840   7.5748540642e+01  -1.0181054267e+00    0.1333464    0.1127365  -5.76 0.0004036204    1.002    0.002
       246  -8.8160    124.2457    205.7550   9.2377455463e+01   1.3431513642e+01    0.1310306    0.1060495  65.40 -0.000430966    1.401    0.286
       247  -9.8312    193.7071    202.5603   7.6285639796e+01   2.5536760220e+00    0.1770793    0.1270886  41.66 0.0009029708    1.537    0.349
       248 -11.4327      3.8588    201.2825   1.2040619071e+02   3.0174181214e+01    0.3248295    0.1525944 -63.38  0.001679104    2.013    0.503
       249  -9.7985     22.0000    198.9721   1.1617468913e+02   2.9045843317e+01    0.2160812   0.06382403 -74.39 0.0008136202    3.020    0.669
       250  -9.2666     24.5155    195.5218   1.1530276094e+02   2.9619569578e+01    0.1312484    0.1073432  79.95 8.815226e-05    1.027    0.026
       251  -9.5940     13.9171    192.6192   1.1754055139e+02   3.1328064631e+01    0.1712762   0.09656603  47.16 0.0009186718    1.679    0.404
       252  -9.8538      5.9332    192.0714   1.1933504130e+02   3.2157056594e+01    0.1998561    0.1396617  73.67  0.001220322    1.224    0.183
       253  -9.4385      1.2465    191.4568   1.2035498878e+02   3.2688050749e+01    0.2055783   0.08775861 -80.51 0.0006287242    1.966    0.491
       254  -9.0563     14.7057    188.6657   1.1704562544e+02   3.2207613884e+01    0.1253409   0.08650604 -51.55 0.0004416682    1.642    0.391
