#   1 NUMBER                 Running object number                                     
#   2 MAG_AUTO               Kron-like elliptical aperture magnitude                    [mag]
#   3 X_IMAGE                Object position along x                                    [pixel]
#   4 Y_IMAGE                Object position along y                                    [pixel]
#   5 X_WORLD                Barycenter position along world x axis                     [deg]
#   6 Y_WORLD                Barycenter position along world y axis                     [deg]
#   7 A_WORLD                Profile RMS along major axis (world units)                 [deg]
#   8 B_WORLD                Profile RMS along minor axis (world units)                 [deg]
#   9 THETA_WORLD            Position angle (CCW/world-x)                               [deg]
#  10 FWHM_WORLD             FWHM assuming a gaussian core                              [deg]
#  11 ELONGATION             A_IMAGE/B_IMAGE                                           
#  12 ELLIPTICITY            1 - B_IMAGE/A_IMAGE                                       
         1 -10.0183     29.9796     14.0708   1.0784965552e+02   6.9557948808e+01    0.3612919    0.1863627 -44.22  0.000937893    1.911    0.477
         2 -11.6381     77.3770     10.3575   8.7241181009e+01   6.2827274028e+01    0.3122027    0.2778971  44.74 0.0006560769    1.283    0.221
         3  -8.1309     34.4780     10.4548   1.0399400932e+02   6.9561274490e+01     0.117864   0.09290611 -12.49 9.868074e-05    1.023    0.023
         4  -9.4706     17.0727      7.4151   1.1105277450e+02   7.1884206484e+01    0.2765754    0.1468162 -53.78  0.001461358    2.747    0.636
         5 -10.0471      2.9533      5.3746   1.1772925252e+02   7.3351946428e+01    0.4453925    0.2062808 -42.51  0.002725152    1.624    0.384
         6 -10.4828    129.3522      6.6158   7.2803279146e+01   5.1788130303e+01    0.4885767    0.2120471  52.23  0.001744194    1.965    0.491
         7 -10.2246    110.9857      5.0256   7.5921304643e+01   5.6269777556e+01    0.3248132    0.2531112 -48.39            0    1.565    0.361
         8  -8.8260     69.1136      6.2152   8.7986452062e+01   6.4806788911e+01    0.2177459    0.1801857  60.71   0.00137141    1.607    0.378
         9  -9.7987     60.9208      5.6732   9.0602583353e+01   6.6297761886e+01    0.2806663    0.2024326  36.25 0.0008858436    1.335    0.251
        10  -9.7229     50.8283      3.7129   9.3467964020e+01   6.8154411995e+01    0.2042296      0.16145  -4.74 0.0002441494    1.058    0.054
        11  -8.1489    153.4754      3.4586   6.7691937450e+01   4.6059714924e+01    0.1370899    0.1220562  59.06 6.851868e-05    1.028    0.027
        12  -8.4315    117.9335      8.7427   7.5904112692e+01   5.4319672452e+01    0.1884394    0.1621168  43.81 0.0004597887    1.045    0.043
        13  -9.1465     15.0086      2.0111   1.0941187785e+02   7.2871936511e+01    0.1659962    0.1217825 -18.34  0.001211127    1.011    0.011
        14  -8.3737    114.4965      3.5220   7.4556644729e+01   5.5591298441e+01    0.1336413    0.1177374  38.64 8.896262e-05    1.003    0.003
        15  -8.2575     55.5206      1.4486   9.0459983151e+01   6.7657092648e+01    0.1223076   0.09732433   7.48 6.017904e-05    1.016    0.016
        16  -8.6965    229.4381    234.9444   1.1133791181e+02  -5.8394026215e+00    0.2509918     0.129869 -31.14  0.001445001    2.158    0.537
        17 -10.5957    228.2779    245.4806   1.1315642472e+02  -6.8380730168e+00    0.7786155    0.7310647  46.56  0.006071352    1.593    0.372
        18 -12.3346    215.5432    235.1652   1.1374308024e+02  -3.7374149525e+00      2.48526    0.8688476 -29.92    0.0107305    3.865    0.741
        19 -13.5168    225.6840     89.4270   8.1614933716e+01   1.6477908328e+01     4.346494     1.736774 -28.66   0.01553178    2.690    0.628
        20  -7.9734    139.6626    234.6713   1.2730785399e+02   8.5969603683e+00    0.1159878   0.08906235  15.56 0.0007051915    1.731    0.422
        21  -8.2441    152.8675    233.1537   1.2468677668e+02   6.6856621236e+00    0.1595213    0.1303609  24.05 0.0004966354    1.314    0.239
        22  -8.9052    201.5739    220.6856   1.1392838152e+02   3.6495971088e-01    0.3149736    0.1414944 -33.92  0.001518003    2.636    0.621
        23  -8.9900    201.4526    231.2521   1.1560625219e+02  -1.0159988014e+00    0.2280511    0.1844604  -9.03  0.001309185    1.341    0.254
        24  -9.6672    198.9786    226.2201   1.1527142323e+02   4.8348161302e-02    0.3714597    0.2166546 -38.15  0.001756282    2.017    0.504
        25  -8.1995    158.1968    230.1183   1.2329844009e+02   6.2662227458e+00    0.2286264   0.09157354 -40.86  0.001018085    3.348    0.701
        26  -9.3189    211.6866    226.4297   1.1304551567e+02  -2.0471392627e+00    0.3072525    0.1832399 -20.96  0.001734624    2.012    0.503
        27  -9.6608    206.5732    224.0655   1.1357355014e+02  -9.1196031658e-01    0.3434376    0.2268198 -21.44   0.00204917    1.748    0.428
        28  -8.3978    130.1145    223.8318   1.2774363264e+02   1.1892483449e+01    0.1608097    0.1366367  29.08 0.0005349611    1.320    0.242
        29  -8.9122    185.9909    220.2599   1.1670796053e+02   3.0480317620e+00    0.3156951    0.1591154 -31.71  0.001541253    2.570    0.611
        30  -9.8127    192.9588    216.4904   1.1482424369e+02   2.4033376954e+00    0.4648627     0.232896 -41.10  0.002358264    2.325    0.570
        31  -9.1848    210.8139    217.4132   1.1173364110e+02  -7.2953568055e-01    0.3340293    0.1620465 -26.35  0.001607031    2.596    0.615
        32  -8.5357    205.5416    216.6277   1.1255063052e+02   2.5493332097e-01    0.2137485    0.1177781 -28.72  0.001117226    2.123    0.529
        33  -8.9089    179.2812    216.3540   1.1734815315e+02   4.7717422676e+00    0.2228401    0.1755392 -33.56  0.001393134    1.475    0.322
        34  -9.5007    176.1714    197.3790   1.1483603265e+02   8.3154958436e+00    0.3459755    0.1835452 -38.18  0.001648161    2.168    0.539
        35 -10.1575    172.8084    204.0454   1.1661242010e+02   7.8334470255e+00    0.4817728    0.2715157 -27.83  0.002249651    2.525    0.604
        36 -10.6326    176.5519    209.7066   1.1681102243e+02   6.2666854683e+00    0.4548173    0.3796094 -25.22  0.002292734    1.373    0.272
        37  -9.8365    178.8967    203.4126   1.1532805288e+02   6.8436867546e+00    0.2871639    0.2038094 -32.21  0.001621252    1.623    0.384
        38  -8.3802    200.6736    214.5706   1.1309484097e+02   1.3614369181e+00    0.1981962     0.115791 -38.00  0.001073849    1.954    0.488
        39  -8.5551    154.5247    213.2574   1.2160504991e+02   9.5492568936e+00    0.2221751     0.128683 -54.78  0.001152622    2.115    0.527
        40  -8.1382    132.5445    213.4340   1.2591774782e+02   1.3269587734e+01    0.1265021    0.1078277  48.39  5.48317e-05    1.050    0.047
        41  -8.1213    208.4875    212.0442   1.1125135936e+02   3.8813930716e-01    0.1708672    0.1213622 -31.29  0.001002662    1.554    0.356
        42  -8.5482    212.4392    210.5943   1.1029142615e+02  -7.9843983621e-02    0.2362195    0.1201741 -33.88  0.001197483    2.169    0.539
        43  -8.1954    212.8988    204.0657   1.0907118442e+02   7.4744579023e-01    0.4169644    0.1548765 -37.43  0.001786378    2.941    0.660
        44  -8.5836    180.5632    221.6390   1.1792521410e+02   3.7693722213e+00    0.2188338    0.1205831 -34.92  0.001142688    2.230    0.552
        45  -8.3353    186.6145    210.1277   1.1497015134e+02   4.4347379051e+00    0.1687552    0.1177279 -22.95 0.0009430195    1.725    0.420
        46  -8.6546    217.3849    204.0242   1.0825529459e+02  -1.4000887287e-02      0.29708    0.1436787 -32.46  0.001448003    2.245    0.555
        47  -8.6811    186.5550    202.5878   1.1371826408e+02   5.6009500288e+00     0.249681     0.129282 -42.41  0.001207929    2.194    0.544
        48  -9.2299    164.6772    200.9778   1.1770437400e+02   9.8034208125e+00    0.3268804    0.1663227 -24.37  0.001145519    4.507    0.778
        49 -10.8592      4.1184    195.5041   1.4903345557e+02   3.3670308301e+01    0.3712753    0.3498103 -34.82  0.003119427    1.742    0.426
        50  -9.0105    215.4700    197.0951   1.0735166265e+02   1.2918826728e+00    0.3019076    0.1241469 -35.87  0.001327507    2.605    0.616
        51  -8.1956    191.0000    197.9550   1.1206557800e+02   5.5238527774e+00    0.1970399   0.07540421 -40.92 0.0007977133    2.910    0.656
        52  -9.4014    170.0943    196.7792   1.1593188527e+02   9.5270012949e+00    0.3005968    0.2050478 -47.27  0.001459024    1.673    0.402
        53  -9.4038    184.6273    195.2784   1.1282017569e+02   7.1103331859e+00     0.319681    0.2173003 -26.48  0.001701569    1.730    0.422
        54  -8.8602    185.2672    189.9468   1.1174074076e+02   7.8618399473e+00    0.3301541    0.1702898 -24.32    0.0013235    3.052    0.672
        55  -9.8588    172.6134    189.9066   1.1423785337e+02   1.0230982168e+01    0.3389839    0.2036809 -32.96  0.001244181    1.996    0.499
        56  -8.2327    198.6240    190.1925   1.0921001258e+02   5.3492695125e+00    0.1806972    0.1226018 -24.56 0.0009503569    1.647    0.393
        57  -9.4766    179.4142    188.6839   1.1266417287e+02   9.1661780747e+00    0.4100478    0.2281541 -22.27  0.001702195    2.878    0.653
        58  -8.2497    193.5144    187.2598   1.0964383137e+02   6.7622835171e+00    0.1777702    0.1269497 -21.25 0.0008609433    1.592    0.372
        59  -8.3760     40.1555    187.2897   1.4154719313e+02   3.1740711040e+01    0.1533175    0.1471585  20.57   0.00114082    1.532    0.347
        60 -10.6833     12.7119    183.3317   1.4668689657e+02   3.5346025945e+01    0.5240927    0.1662136 -75.55  0.001806045    2.575    0.612
        61  -9.0123    166.7220    185.5263   1.1464777310e+02   1.2103595690e+01    0.2757273    0.1636998 -30.84  0.001272658    2.162    0.538
        62  -9.1887    183.7381    182.0365   1.1057845885e+02   9.4749913081e+00    0.3946289    0.1797712 -37.48  0.001660247    2.454    0.592
        63  -8.3733    203.4573    182.9760   1.0693101646e+02   5.5915306833e+00    0.2027744    0.1309201 -36.19   0.00104495    1.639    0.390
        64  -8.4432    210.7495    181.4802   1.0527270251e+02   4.4703285183e+00    0.2793524    0.1551135 -22.44  0.001268871    2.204    0.546
        65  -8.1450    197.3559    181.8260   1.0787489970e+02   6.9215638201e+00    0.1889466    0.1237994 -25.61  0.000946281    1.715    0.417
        66  -9.9631    176.8236    179.8958   1.1156055289e+02   1.1171252957e+01    0.3486641    0.1808647 -32.55  0.001492191    2.382    0.580
        67  -9.3125    190.7864    179.0952   1.0862559930e+02   8.6231556117e+00    0.3309125    0.1779406 -49.43  0.001474357    2.262    0.558
        68  -9.1703    223.2686    173.1948   1.0133438556e+02   3.4266693166e+00    0.3662457    0.1874217 -41.61  0.001207333    2.121    0.528
        69  -9.4027    229.0608    165.6589   9.8756566772e+01   3.4999174586e+00    0.3478971    0.3340023 -23.17   0.00220217    1.224    0.183
        70  -9.1711    227.4915    170.9931   1.0013236355e+02   2.9821940699e+00    0.3684582    0.1744113 -37.67  0.001157359    2.135    0.532
        71  -8.3822    225.7662    178.9457   1.0203769025e+02   2.1092699200e+00    0.2409404    0.1619886 -20.46 0.0007530195    1.522    0.343
        72  -8.3913    227.4882    175.5066   1.0104583357e+02   2.3075888818e+00    0.2093901     0.148316   1.28 0.0008095374    1.533    0.348
        73  -9.5048    226.4826    156.5208   9.7283572720e+01   5.4019758001e+00    0.6224678     0.198653 -37.61  0.002242035    3.043    0.671
        74  -9.4901    228.0000    151.9474   9.6027570829e+01   5.8296885407e+00    0.6324338    0.1938251 -30.72   0.00202157    3.820    0.738
        75  -8.5638    218.8466    176.9343   1.0288590504e+02   3.6729673821e+00    0.2765177    0.1604066 -29.59  0.001361238    1.777    0.437
        76  -8.5798    197.5690    176.2762   1.0675370130e+02   7.7907925677e+00    0.2455646    0.1326186 -42.50  0.001123948    2.002    0.500
        77  -8.7276    215.3794    173.8698   1.0290763072e+02   4.7913168073e+00    0.4075408    0.1274359 -32.67  0.001373243    3.742    0.733
        78  -9.1247    182.4988    175.4310   1.0956132743e+02   1.0853715720e+01    0.2746311    0.1383697 -40.86   0.00119912    2.126    0.530
        79  -9.7500    101.0050    175.9849   1.2717218830e+02   2.5783165738e+01    0.1905269    0.1676719  72.93            0    1.012    0.012
        80  -8.5280    210.5579    174.8981   1.0400901612e+02   5.5375560894e+00    0.2426825    0.1297595 -31.28  0.001112513    1.982    0.496
        81  -8.9746    192.5083    172.4583   1.0698378849e+02   9.4123405267e+00    0.2874063    0.1372347 -38.59  0.001222092    2.215    0.549
        82  -8.4694    187.5112    172.0031   1.0788305903e+02   1.0469800306e+01    0.2059224    0.1381233 -37.67  0.001027166    1.576    0.366
        83  -8.6730     15.4820    171.4492   1.4528580435e+02   3.7571257126e+01    0.1824013    0.1054744  70.13 0.0006856628    1.514    0.339
        84  -9.9070     13.5563    166.4894   1.4530627414e+02   3.8796359549e+01     0.358207    0.1731377 -64.40  0.001306185    1.861    0.463
        85  -9.4654    218.7114    167.6975   1.0103740147e+02   5.1295746501e+00    0.4231145    0.2394879 -32.84  0.002031039    1.778    0.437
        86  -9.9677    198.8545    165.0227   1.0422785177e+02   9.4285755187e+00    0.6455309    0.2778735 -33.14  0.002514176    2.613    0.617
        87  -9.3326    178.5885    168.7100   1.0902906440e+02   1.2818063484e+01    0.2660192    0.1372205 -37.04  0.001134189    2.128    0.530
        88  -7.7836    158.3262    169.3402   1.1339653710e+02   1.6714840553e+01    0.1448804    0.1117944   4.00 0.0007051397    1.731    0.422
        89  -8.3082    205.0000    167.9744   1.0365400196e+02   7.7247034298e+00    0.2235638   0.07792807 -38.36 0.0008047008    2.958    0.662
        90  -9.4726    191.9310    165.6349   1.0571422905e+02   1.0701591335e+01    0.4399146    0.2106081 -37.70  0.001846687    2.197    0.545
        91  -9.0313    212.6458    162.5626   1.0108642959e+02   7.1199294139e+00    0.3896074    0.1580679 -32.64  0.001499725    2.653    0.623
        92  -9.2094    221.2333    161.2152   9.9224358124e+01   5.6709000990e+00    0.3163214    0.1881827 -33.88  0.001335483    1.663    0.399
        93  -9.4196    205.2077    160.3411   1.0202071835e+02   8.9566566541e+00    0.4103875    0.2561212 -28.13  0.001882934    1.701    0.412
        94  -9.2664    197.3866    155.9574   1.0259754359e+02   1.1288136337e+01    0.4275541    0.2431184 -28.14  0.001864658    1.995    0.499
        95  -8.4853    176.6666    157.9874   1.0722534480e+02   1.5175515704e+01    0.2383272    0.1177397 -22.28 0.0007049473    4.464    0.776
        96  -8.6900    216.2017    155.6146   9.8946221160e+01   7.5551353769e+00    0.2944755    0.1794868 -27.05  0.001392669    1.702    0.412
        97  -8.4055    187.6091    155.3738   1.0442038710e+02   1.3401114597e+01    0.3494205    0.1385992 -35.50  0.001249367    2.822    0.646
        98  -9.0799    205.3707    153.9183   1.0060970534e+02   1.0012715732e+01    0.3820928    0.2472555   5.62  0.001641166    2.283    0.562
        99  -9.5461    208.0661    145.9537   9.8337819048e+01   1.0822696291e+01    0.7255566    0.2061516 -41.15  0.002310518    3.534    0.717
       100  -9.0640    225.5407    133.0965   9.2232912253e+01   9.3630465868e+00    0.3382193    0.2781846   4.67  0.001171137    1.272    0.214
       101 -10.4006    220.8821    129.1810   9.2138585832e+01   1.0983637562e+01    0.5525177    0.2738738 -38.25   0.00233071    1.929    0.481
       102  -9.4352    215.1861    148.2697   9.7525940788e+01   8.9716407637e+00    0.4428322    0.2732222 -32.46  0.001491016    1.601    0.375
       103  -9.4341    214.1612    142.0056   9.6310363498e+01   1.0232618281e+01      0.44134    0.2454858 -29.43  0.001151519    1.857    0.462
       104  -8.9767    218.5003    144.0006   9.5967522903e+01   9.0076417113e+00    0.3369191    0.2138824 -11.14  0.001078314    2.036    0.509
       105  -9.7864    218.5279    138.0036   9.4602835706e+01   1.0000733244e+01    0.5328031    0.2641629 -34.16  0.001773375    1.966    0.491
       106  -9.5115    216.9558    133.3558   9.3814192528e+01   1.1110266123e+01    0.5101511    0.3035128 -11.79   0.00206084    2.439    0.590
       107  -9.5105    223.3180    145.9331   9.5533448567e+01   7.7171864065e+00    0.5041962     0.292859 -23.26  0.002280412    1.880    0.468
       108  -9.0938    224.1382    139.6004   9.3965869593e+01   8.5846323193e+00    0.3128239    0.1911206 -27.72 0.0009752656    1.631    0.387
       109  -8.5235    202.4606    150.9680   1.0052286663e+02   1.1115751345e+01    0.3184443    0.1389519 -31.61  0.001192158    2.581    0.613
       110  -9.6899      7.1535    151.6122   1.4551143984e+02   4.2533395736e+01    0.2326606    0.1869953  62.44 0.0008696981    1.262    0.208
       111  -8.5006    196.7471    149.6105   1.0133706727e+02   1.2537576098e+01    0.2729629    0.1705315 -26.49   0.00122992    1.785    0.440
       112  -9.7810    234.4923    146.1845   9.3641306567e+01   5.4755522740e+00    0.4345801    0.2532212 -25.58  0.001601197    1.719    0.418
       113  -8.5624    192.4852    136.5185   9.9207081739e+01   1.5804413326e+01    0.6583041    0.2229291 -29.68  0.001711713    5.164    0.806
       114  -9.3978    191.0000    147.5334   1.0201858259e+02   1.4114601795e+01    0.3817102    0.2158391 -43.85  0.001666008    1.839    0.456
       115  -8.4184    189.5275    143.5001   1.0140816367e+02   1.5162511590e+01    0.2122144    0.1409668 -27.80 0.0009670057    1.642    0.391
       116  -8.3028    123.8837    146.4803   1.1668130288e+02   2.8125088365e+01     0.206086    0.1401013  44.17 0.0004008838    1.450    0.311
       117  -7.5354    200.3064    144.3352   9.9460703906e+01   1.2725542903e+01    0.1509946     0.111416   6.34 0.0007040561    1.670    0.401
       118  -9.5761    155.5591    142.7475   1.0850143313e+02   2.2549374573e+01    0.3688461    0.1459535 -47.04  0.001304958    2.621    0.618
       119  -9.6289    229.8647    140.3685   9.3140264371e+01   7.3059422900e+00    0.4602953    0.2115239 -34.99  0.001419544    2.065    0.516
       120  -9.2564    211.5425    152.4268   9.9117650588e+01   9.0144486613e+00    0.6365829    0.1399511 -36.03  0.001758543    4.841    0.793
       121  -8.8245    208.4159    137.7821   9.6413061771e+01   1.2158142212e+01    0.3486821    0.1394267 -34.77  0.001274794    2.531    0.605
       122  -8.3922    198.6423    136.1651   9.7908920137e+01   1.4534663916e+01    0.2191156    0.1359257 -26.96 0.0009569786    1.762    0.432
       123  -8.0549    163.3899    134.7906   1.0493705094e+02   2.2483323493e+01    0.2175275    0.1427555 -31.09 0.0007978623    1.720    0.419
       124  -8.8998    179.9802    130.8888   1.0043476272e+02   1.9602511429e+01    0.3720418    0.2166439 -28.14  0.001516618    2.022    0.506
       125  -8.2720    205.6505    130.4724   9.5224475125e+01   1.4026915806e+01    0.2533024    0.1351438 -36.20  0.001059861    1.837    0.456
       126  -8.2474    155.1682    129.8202   1.0561713742e+02   2.5275064400e+01    0.2090665    0.1831233  -4.77 0.0009113339    1.311    0.237
       127  -8.4296    212.1814    129.0452   9.3671386431e+01   1.2862406237e+01    0.2444506    0.1646567 -59.53  0.001082978    2.007    0.502
       128  -7.6911    186.2809    128.3537   9.8522281183e+01   1.8681390168e+01    0.1543728    0.1178176   2.18 0.0004440801    1.656    0.396
       129  -7.9058    160.3247    131.3289   1.0480658734e+02   2.3846483230e+01    0.1560454    0.1211656   4.61 0.0007049989    1.699    0.411
       130  -9.0240    221.4801    151.4991   9.7090438085e+01   7.1799693289e+00    0.2641242    0.1292948 -38.63  0.001134733    2.020    0.505
       131  -9.3239    179.7046    123.4870   9.8693998421e+01   2.1077829406e+01    0.4395214    0.2795112 -29.60  0.001905343    1.718    0.418
       132  -8.2693    187.6883    122.5636   9.6822637023e+01   1.9447175052e+01    0.2844957    0.1362052 -39.20  0.001090924    2.065    0.516
       133 -12.3194    239.9208    240.7159   1.1049893703e+02  -8.0179044049e+00      1.27272     1.087108 -32.34  0.009588875    1.643    0.391
       134 -12.0113    230.1797    193.2787   1.0402007681e+02  -7.1058908658e-01     4.316885    0.6985232 -33.33   0.01060234    8.501    0.882
       135 -13.8476    245.9390    144.0602   9.1271450665e+01   3.6192523587e+00     5.423513     1.166128 -34.80    0.0165797    4.236    0.764
       136  -8.9806    181.1928    115.1338   9.6288968058e+01   2.2325938876e+01    0.3125844    0.2088365 -25.60  0.001160279    1.684    0.406
       137  -8.7816    185.6174    114.6861   9.5268447197e+01   2.1389275854e+01    0.3035601    0.1467933 -33.77  0.001136867    2.164    0.538
       138 -14.3428    246.5490     49.8132   6.9025614055e+01   1.7572478871e+01      7.44728     1.578672 -33.82   0.02402672    3.698    0.730
       139  -8.3178    182.6884    108.4355   9.4254496975e+01   2.3236567643e+01    0.2800257     0.139287 -37.13  0.001072675    1.996    0.499
       140  -8.3010    205.5847    104.7386   8.8890560916e+01   1.8555734749e+01    0.2853142    0.1442445 -31.81  0.001122631    2.000    0.500
       141 -10.9238    239.3767    218.3652   1.0693411896e+02  -5.4199091252e+00    0.7681645    0.4801674 -17.41  0.004657612    1.642    0.391
       142 -12.9752    247.9723    211.8536   1.0436655651e+02  -5.9610380772e+00     2.588071    0.4299144 -32.31  0.007805756    6.782    0.853
       143 -13.0677    243.1773    185.6857   1.0033316861e+02  -1.8708073566e+00     2.063903    0.8971707 -34.68  0.009688614    2.284    0.562
       144  -8.2695    201.7052    250.4842   1.1836729161e+02  -3.4209965866e+00    0.1584184    0.0860227  31.50 0.0009124693    1.527    0.345
       145 -10.5715    193.8479    246.6486   1.1918517021e+02  -1.7502573741e+00    0.4940359    0.2972899 -38.88  0.003082487    2.074    0.518
       146  -9.3121     15.2081     96.5570   1.3722581414e+02   5.4280686663e+01    0.1412195    0.1112594 -20.48 0.0005049823    1.600    0.375
       147  -9.0630      8.3262     95.3093   1.3912607990e+02   5.5017008417e+01     0.121497   0.06992107 -47.04 0.0003894735    1.656    0.396
       148  -8.6114    196.8795     91.4878   8.7007314005e+01   2.2909247309e+01    0.2428872    0.1993922 -34.96  0.001218812    1.187    0.158
       149  -8.6851    236.3584     90.0085   8.0155247691e+01   1.3992237760e+01      0.21246    0.1655408 -34.14  0.001129958    1.179    0.152
       150  -8.3874    184.2690    250.6012   1.2138172378e+02  -7.4790815900e-01    0.1649273   0.08688936  34.49 0.0009399946    1.564    0.361
       151  -8.8194    175.4727     87.9788   9.0184288693e+01   2.8729068124e+01    0.2411644    0.1498261 -38.14   0.00102606    1.583    0.368
       152  -8.5883    197.5811     86.6536   8.5578223653e+01   2.3567968516e+01    0.3592275    0.1881556 -21.62    0.0013133    2.510    0.602
       153  -9.4856     17.1535     85.8522   1.3484211050e+02   5.6548034735e+01     0.170349    0.1177914 -47.36 0.0005829463    1.317    0.240
       154  -9.3420      9.4662     83.9986   1.3702302386e+02   5.7468050774e+01     0.159197    0.1444072 -59.87 0.0003476508    1.171    0.146
       155  -9.9000    168.1194    249.9521   1.2410953014e+02   1.8607355603e+00    0.3082223    0.1584669  31.77 0.0003524417    1.868    0.465
       156  -8.9838    201.0703     77.4266   8.2460015187e+01   2.4253340903e+01    0.3056862    0.2092557 -40.71  0.001131582    1.408    0.290
       157  -8.4530    183.7684     77.4638   8.5574233075e+01   2.8522657350e+01    0.2939357     0.174048 -44.75  0.001235287    1.703    0.413
       158 -10.2670    169.6405    242.0998   1.2282620253e+02   2.6761666786e+00    0.4105113    0.2862457 -51.10  0.002654358    1.868    0.465
       159  -8.2229    166.8327     77.0295   8.8812984030e+01   3.2800643088e+01    0.2574039    0.1840227   0.27  0.001090468    1.955    0.488
       160  -8.4800    151.0786    249.6790   1.2706621046e+02   4.5705094458e+00    0.1683162    0.1199516  41.72  0.000573964    1.102    0.092
       161  -8.9381     16.5483     75.5380   1.3310494420e+02   5.8872777210e+01    0.1214151   0.09479322 -57.86 0.0001385837    1.014    0.014
       162  -9.7814      3.7449     75.5821   1.3750783735e+02   5.9646457923e+01    0.1845513     0.114908   4.12  0.001150932    2.145    0.534
       163  -9.3399     11.5098     71.4858   1.3406382743e+02   6.0087859036e+01     0.119838   0.09268173 -58.18 -9.935055e-05    1.007    0.007
       164  -8.3748    163.3856     69.8541   8.7385837428e+01   3.4893998286e+01    0.2214719    0.1478542 -20.36 0.0009475027    1.749    0.428
       165  -7.8405    102.4536     70.3864   1.0286909535e+02   4.8651876824e+01    0.1406695    0.1372498 -29.71 9.146408e-05    1.062    0.059
       166 -10.7007      6.2391     61.3684   1.3391863117e+02   6.2566840609e+01    0.3143085    0.1366219 -69.11  0.001609452    2.026    0.506
       167  -8.8161    194.5136     66.9952   8.0681674100e+01   2.7549719806e+01    0.2326282    0.1472749 -30.59  0.001029195    1.594    0.373
       168  -8.9114     48.1642    249.9729   1.4468590494e+02   1.9083082891e+01    0.1815578    0.1171613  52.80 0.0006284274    1.225    0.184
       169  -8.4364    203.2585     65.9773   7.8961219748e+01   2.5530016424e+01    0.2146495    0.1910582 -40.26  0.001088654    1.092    0.084
       170  -8.3952    159.5314    234.9664   1.2370448513e+02   5.3256189382e+00    0.1530672    0.1020386 -14.95 0.0008097478    2.566    0.610
       171 -10.1404    217.3307     58.9264   7.4952371577e+01   2.3131789225e+01    0.5058581    0.2565361 -25.85  0.001728917    2.135    0.532
       172  -7.9541    201.1157     61.8467   7.8159610919e+01   2.6693947988e+01    0.2333558    0.1908321 -61.68  0.001058475    1.266    0.210
       173  -8.1982     30.9580     62.0059   1.2472906905e+02   6.0644503115e+01    0.1467312    0.1213613 -45.04 0.0009688284    1.022    0.022
       174  -8.6334     26.2896     60.0159   1.2597251055e+02   6.1466090924e+01    0.1717151    0.1284349 -52.90 0.0002500911    1.098    0.089
       175  -8.3266    206.4408     58.7480   7.6483753704e+01   2.5831754195e+01    0.2025771    0.1430143 -17.18 0.0009479214    1.640    0.390
       176  -8.4370     33.1004     58.0613   1.2282146124e+02   6.1267186682e+01     0.187026    0.1372794 -35.83            0    1.209    0.173
       177  -9.5564      3.1547     55.0542   1.3373829504e+02   6.4056211772e+01    0.1844694    0.1170992 -47.22 0.0007012567    1.249    0.199
       178  -8.6992    214.6593     47.0303   7.2151982052e+01   2.5465264609e+01    0.3671977     0.186316 -52.66  0.001513846    2.142    0.533
       179  -7.5681    100.6769     47.6692   9.5529079221e+01   5.3095542531e+01    0.1486307    0.1062932   8.02 0.0007049904    1.700    0.412
       180 -11.6489    234.7868    210.5422   1.0635740120e+02  -3.7440538196e+00     1.667303     0.919875   1.78  0.007930137    2.622    0.619
       181  -8.5988     47.1414     42.3384   1.1215730571e+02   6.2822743061e+01    0.2283667    0.1421528 -34.45 0.0005562775    1.405    0.288
       182  -8.7366    173.7268     38.5170   7.5776032535e+01   3.7007467207e+01    0.2487671    0.1981236 -27.15 0.0003692212    1.314    0.239
       183  -7.7892    185.4783     38.5117   7.3899185872e+01   3.3981198828e+01    0.1438613    0.1383548  80.74 0.0005499361    1.020    0.020
       184  -8.7880      1.7856     38.3938   1.3020291951e+02   6.7497596667e+01    0.1436933   0.09257209 -16.48 0.0006675714    1.676    0.403
       185  -8.2972     26.5491     33.9788   1.1774502961e+02   6.6567726902e+01    0.1723265   0.09620877 -46.42 1.218425e-05    1.470    0.320
       186 -10.2914      9.0109     31.7551   1.2493277253e+02   6.8355721171e+01    0.3595012    0.1546033 -42.53  0.001443509    1.767    0.434
       187  -8.4480    157.3228     30.3445   7.5999348744e+01   4.2264596486e+01    0.1551082    0.1046644  29.87 0.0006818895    1.734    0.423
       188  -8.1602     58.0000     27.0601   1.0172815395e+02   6.3922176049e+01    0.2100991   0.06461239 -38.14 0.0008071747    2.975    0.664
       189  -9.5580      3.2156     23.9631   1.2507123679e+02   7.0154182042e+01     0.182838    0.1741911 -35.00 0.0008451253    1.350    0.259
       190  -8.5403    156.7361     25.9984   7.4666853452e+01   4.2936364452e+01    0.1834559    0.1257526 -25.44  0.000892428    1.545    0.353
       191  -8.8513    136.8701     25.0111   7.8068146674e+01   4.8043337668e+01    0.2065907    0.1920443  28.67 0.0002698236    1.048    0.046
       192  -8.7878     68.0802     23.3215   9.6315268159e+01   6.2866137216e+01    0.1739788     0.147302  16.39 0.0004139343    1.113    0.102
       193  -8.8195     84.9551     21.9227   9.0029011117e+01   5.9993537655e+01    0.1990609    0.1796224   0.40  0.000624199    1.073    0.068
       194  -7.9831     97.4574     21.4050   8.6106650751e+01   5.7531192729e+01     0.135245    0.1183155  19.99 0.0001153591    1.027    0.026
       195  -7.9137     59.7396     21.0000   9.8370138473e+01   6.4548900441e+01    0.1514179   0.09714612 -29.01 0.0002370363    1.417    0.294
       196  -8.0520    147.8468     19.0873   7.3897200391e+01   4.5971329967e+01    0.1920137     0.154183  30.12 0.0004902196    1.299    0.230
       197  -9.8722    176.3937    245.2770   1.2205043165e+02   1.1716689120e+00    0.4402874    0.2670576 -24.43  0.002521719    2.430    0.588
       198  -8.3736     23.4985     15.8705   1.1179459122e+02   6.9958680589e+01    0.1598035    0.1272163  -4.55 0.0003577709    1.172    0.147
       199  -9.4098      2.4252     15.9397   1.2251748646e+02   7.1628421363e+01    0.1869169    0.1323872 -15.74 0.0006656609    1.317    0.241
       200  -8.2322    104.7810     13.9894   8.1073999714e+01   5.6794721952e+01    0.1689376    0.1065994 -20.54 0.0003627414    1.624    0.384
       201  -8.0226     45.9790     14.0272   1.0064859957e+02   6.7559420222e+01    0.1442529    0.1151287  -9.99 0.0003382457    1.015    0.015
       202  -8.1795    186.7619    246.9397   1.2045684068e+02  -6.7867030290e-01    0.1304328   0.09831567 -33.09 0.0008876233    1.643    0.392
       203  -9.3478     12.8339     13.1838   1.1594598202e+02   7.1350351884e+01    0.1659253    0.1005133 -26.19  0.001071692    1.376    0.273
       204  -7.7457     38.6933     10.7105   1.0220150257e+02   6.8995573732e+01    0.1201425   0.07702956  -3.81 0.0003259509    1.574    0.365
       205  -8.6409    157.0388    245.9160   1.2555772592e+02   4.1582047309e+00    0.1764212    0.1307591  14.76  0.001123757    1.704    0.413
       206  -8.6731    146.5605    245.6918   1.2739250705e+02   5.8462295993e+00    0.1919425    0.1133752 -43.29  0.001139656    2.237    0.553
       207  -7.7993     73.2803    250.3458   1.4058836147e+02   1.5867442772e+01   0.08674101   0.08585655  13.16  0.000266734    1.637    0.389
       208  -8.2361     94.4757    244.4358   1.3647644162e+02   1.3921755863e+01    0.1147885   0.08633429  58.31 8.879215e-05    1.010    0.010
       209  -9.1511    201.8744    241.2352   1.1702129429e+02  -2.3397326809e+00     0.289971    0.1886306 -33.04   0.00184985    1.840    0.457
       210  -7.7730    105.3653    240.3052   1.3416086398e+02   1.3012060667e+01     0.106059   0.08746655  18.70 0.0007036736    1.742    0.426
       211  -8.3654    148.5596    238.4256   1.2614831824e+02   6.5940316592e+00    0.1866907    0.1100936 -35.81  0.001028474    2.458    0.593
       212  -8.2125     69.7940    239.3467   1.4033513526e+02   1.8159869633e+01    0.1462526   0.09067619  38.01 0.0004339981    1.682    0.405
       213  -8.8819    140.6080    249.1917   1.2885219206e+02   6.2716664917e+00     0.135947    0.1100348 -36.28 0.0009514395    1.687    0.407
       214  -9.5051    206.4346    234.3870   1.1520661845e+02  -2.2112228586e+00    0.4334412     0.245924 -18.35  0.002345212    2.393    0.582
       215  -9.5595    189.4906    233.9199   1.1813580482e+02   5.7223161148e-01     0.478239    0.3547102 -42.16  0.002771433    1.680    0.405
       216  -9.0965    190.4550    225.4895   1.1669815591e+02   1.5584759677e+00    0.4253798    0.1900181 -32.66  0.001998298    2.931    0.659
