#   1 NUMBER                 Running object number                                     
#   2 MAG_AUTO               Kron-like elliptical aperture magnitude                    [mag]
#   3 X_IMAGE                Object position along x                                    [pixel]
#   4 Y_IMAGE                Object position along y                                    [pixel]
#   5 X_WORLD                Barycenter position along world x axis                     [deg]
#   6 Y_WORLD                Barycenter position along world y axis                     [deg]
#   7 A_WORLD                Profile RMS along major axis (world units)                 [deg]
#   8 B_WORLD                Profile RMS along minor axis (world units)                 [deg]
#   9 THETA_WORLD            Position angle (CCW/world-x)                               [deg]
#  10 FWHM_WORLD             FWHM assuming a gaussian core                              [deg]
#  11 ELONGATION             A_IMAGE/B_IMAGE                                           
#  12 ELLIPTICITY            1 - B_IMAGE/A_IMAGE                                       
         1 -11.9307     89.6666     27.9713   4.4640231780e+01   5.7595569381e+01    0.4187793    0.2433122 -29.35 0.0008623677    1.587    0.370
         2 -11.9501     78.4600     30.0417   4.9067947314e+01   5.9237998061e+01     0.487383    0.3922235 -50.22 0.0004639412    1.528    0.345
         3 -12.0390    245.3030     22.8005   1.3942442032e+01   2.0267497625e+01    0.6761894    0.2278079 -36.02  0.001449306    2.522    0.603
         4 -10.7214    133.5691     21.8164   3.0572896124e+01   4.9035009095e+01    0.4489114    0.2629866  55.89  0.001936431    1.666    0.400
         5 -12.2087    247.0401     11.5461   1.0917929874e+01   2.1081008065e+01    0.7999197    0.4931394  89.81  0.004004802    1.757    0.431
         6 -12.8739    237.1330     16.2253   1.3060324264e+01   2.2991018516e+01    0.9585615    0.5816011 -76.50  0.003498884    1.929    0.482
         7 -11.2640    227.2736     13.6081   1.3374115152e+01   2.5734670300e+01    0.4690237    0.2969734  11.38  0.001866311    2.223    0.550
         8 -11.6532    237.9320      3.6387   9.7243821251e+00   2.4099802591e+01     0.932792    0.2670196  48.47  0.002954233    4.474    0.776
         9 -10.8327    231.9532      2.6749   1.0010011994e+01   2.5671467040e+01    0.3518914    0.2520313 -30.84  0.001187087    1.387    0.279
        10 -11.9962     62.0521     16.7603   4.9134784808e+01   6.3838167702e+01    0.5058798    0.2358906  30.52 0.0003165017    2.459    0.593
        11 -11.0324     70.1066     11.9488   4.4082298482e+01   6.3251072166e+01    0.3407938    0.2205682 -41.18  0.001407406    1.759    0.432
        12  -9.8521     15.4603     17.5307   6.8584275091e+01   6.8887138755e+01    0.2692459    0.1154921 -36.75  0.001031845    1.902    0.474
        13 -11.6694      6.9303     16.2157   7.1922929401e+01   6.9699326005e+01    0.4926695    0.2965164  -6.65  0.003285062    1.927    0.481
        14 -10.6644    175.2432     12.5266   1.9593329925e+01   3.9451701845e+01    0.6160676    0.3932303  14.21  0.002770988    1.937    0.484
        15 -11.2985    132.9848     12.7385   2.7217587678e+01   5.0204935147e+01    0.2609361    0.2419172   1.55 0.0003206292    1.080    0.074
        16 -10.7683    125.3448     12.5001   2.8782587383e+01   5.2047923170e+01     0.334987    0.2549596 -55.21 0.0008529511    1.703    0.413
        17  -9.3984     89.9607     13.3323   3.8321675439e+01   5.9536961110e+01    0.2889735    0.2245081  10.75  0.001690798    1.181    0.153
        18  -9.7715     89.5659      9.7257   3.6831640302e+01   6.0046766038e+01    0.5370294    0.1920059  34.85  0.001934718    3.448    0.710
        19 -10.3241    144.9804     12.7039   2.4797053615e+01   4.7255888480e+01    0.3837248    0.1996652  61.62  0.001046296    1.855    0.461
        20 -10.0134    107.3618      5.7695   3.0244197913e+01   5.6817902918e+01    0.5889673    0.2540385 -22.35  0.002525704    2.270    0.559
        21  99.0000    105.2971     13.3394   3.4011404717e+01   5.6436248450e+01    0.7425433    0.3850391  71.00  0.002781274    3.626    0.724
        22  -9.5541    103.4770      7.4824   3.1974882010e+01   5.7474057186e+01    0.2789882     0.161023  -5.67 0.0005403613    1.869    0.465
        23 -10.1762     90.6298      1.4728   3.2759287017e+01   6.0738291599e+01    0.2772675    0.1652763  58.25  0.000715401    1.936    0.483
        24  -9.4028     95.0030      3.7553   3.2587784392e+01   5.9625544416e+01    0.1847762    0.1314086  49.37 0.0004541389    1.428    0.300
        25 -10.5274     97.2578     10.5580   3.4993905788e+01   5.8425639527e+01    0.4906335    0.2364534 -27.10  0.002260588    1.969    0.492
        26 -10.3230     98.0017      6.3120   3.2915540271e+01   5.8743504836e+01    0.2625481     0.205694  31.07 0.0007328023    1.160    0.138
        27  -9.8045     31.7942     12.5213   5.9342957457e+01   6.8288188151e+01      0.24019    0.1437742 -20.48 0.0006754853    1.577    0.366
        28  -9.5749    200.2345     11.8556   1.5960475064e+01   3.2913199739e+01    0.2160509    0.1873984 -53.48 0.0006729186    1.181    0.153
        29 -11.0595    195.6639      3.5805   1.4035591777e+01   3.4924449937e+01    0.4401086    0.2284034  60.92  0.000602008    1.741    0.425
        30  -9.9030    191.7901     10.5573   1.6643322475e+01   3.5273455202e+01    0.3575216    0.2628069  -4.29  0.001543928    1.545    0.353
        31  -9.8955    190.6738      6.6821   1.5593316147e+01   3.5948205087e+01    0.2240544    0.1956031  39.18 0.0006172234    1.163    0.140
        32  -9.7736     55.6105     10.1600   4.8516243950e+01   6.5717638702e+01    0.2993975    0.1755918 -52.34 0.0008876695    2.992    0.666
        33  -9.7189      3.1118      9.5430   7.1230652071e+01   7.1100712783e+01    0.2281345    0.1373682 -31.21  0.001165495    1.345    0.256
        34 -10.3747      7.7648      9.1640   6.8867987975e+01   7.0872923546e+01    0.1736861    0.1301581 -15.49 0.0005775011    1.285    0.222
        35 -11.6120    218.0321      3.3143   1.1512756066e+01   2.9127376721e+01    0.4642047    0.3745187  54.82  0.001288693    1.248    0.199
        36 -10.1847    213.8012      7.3951   1.3091807004e+01   2.9818776798e+01    0.2209404    0.1708846  54.95 0.0003827695    1.281    0.220
        37 -11.4996    207.4910      3.0414   1.2536340478e+01   3.1876908899e+01    0.6485139     0.339784 -70.56  0.002635443    2.488    0.598
        38 -11.9610    184.5271      4.5341   1.5715144481e+01   3.7774953900e+01    0.4425662    0.2972064 -64.22 -1.625274e-05    1.741    0.426
        39  -9.3674    138.4094      6.8678   2.3868414437e+01   4.9473525746e+01    0.2609227    0.2102123  70.62  0.000603098    1.335    0.251
        40 -10.2596    135.9707      2.6553   2.2721162672e+01   5.0464297664e+01    0.2986825    0.2126177 -28.86  0.001562065    1.488    0.328
        41  -9.7423     24.6345      7.0658   6.0078625779e+01   6.9856823825e+01    0.1645983     0.106268 -34.06 0.0004191058    1.185    0.156
        42  -9.3531    150.5582      5.1375   2.1012016922e+01   4.6586986137e+01     0.463017    0.2257213  52.47  0.002001773    1.801    0.445
        43  -9.4613     88.2289      6.1799   3.5617243726e+01   6.0709856809e+01    0.2190539    0.1514503  31.47  0.000688224    1.343    0.256
        44 -11.3046     79.2063      4.2258   3.7454535813e+01   6.2622290912e+01    0.2673668    0.2281327   1.33 0.0005928779    1.072    0.067
        45 -11.4089     75.5138      2.0000   3.7565808565e+01   6.3535508440e+01    0.4599018    0.1863901  46.77  0.002107463    2.425    0.588
        46  -9.3931     20.4162      5.8082   6.1451976922e+01   7.0441442401e+01    0.1598618    0.1357688  -9.25 0.0007353823    1.257    0.205
        47 -12.0490    160.0295      1.7924   1.8280623203e+01   4.4451318071e+01    0.3450193    0.3283388 -75.11  0.002044989    1.150    0.130
        48 -10.2679    156.2530      3.3590   1.9426219221e+01   4.5288969153e+01    0.2390576    0.1970774  22.56  0.001309718    1.220    0.180
        49 -10.4336     40.7804      2.5079   5.0754582601e+01   6.8753725529e+01    0.4270145    0.2143573   2.82  0.001843429    3.513    0.715
        50 -10.2852    115.8756      2.2602   2.6730524140e+01   5.5263304912e+01    0.2693666    0.2000695 -32.94   0.00102731    1.479    0.324
        51 -10.6150     30.6404      2.7485   5.5301976177e+01   6.9899053636e+01    0.2584334     0.202578 -50.08  0.001556617    1.813    0.449
        52 -10.1559     14.6904      4.0059   6.3347699762e+01   7.1211999816e+01    0.2301901    0.1403261  31.46  0.001140948    2.123    0.529
        53 -10.8797    249.7685      1.8014   8.2712775438e+00   2.1428033313e+01    0.2341943    0.2158945  55.25 0.0002010299    1.210    0.173
        54  -9.9069      5.2260      2.1784   6.7183176553e+01   7.2203933140e+01    0.2603611    0.1287374 -19.74  0.001070879    2.171    0.539
        55  -9.7779    141.9856      2.0751   2.1388120199e+01   4.9026122179e+01    0.2056077    0.1958457  43.11 0.0004403531    1.078    0.072
        56  -9.8627     46.2851      4.6348   4.9528737345e+01   6.7757861929e+01    0.2767187    0.1454161 -15.50   0.00140236    2.049    0.512
        57  -9.2555     23.7023      1.3799   5.7817493548e+01   7.0812168131e+01    0.1324729   0.09158627   2.05 0.0003207653    1.426    0.299
        58 -11.3343     21.2502    118.1706   8.8299210118e+01   4.7837243015e+01    0.4431742    0.3170912 -88.77  0.002406227    1.187    0.157
        59 -10.4151    201.6786    249.9426   7.0310924102e+01  -1.4177737972e+00    0.2337283    0.1620483  48.71   0.00107358    1.320    0.242
        60 -10.6104    197.7330    246.9844   7.0554435104e+01  -4.8428518015e-01    0.2387579    0.1485638  59.34  0.001466815    2.013    0.503
        61 -10.9510    115.8852    248.6035   8.3770888095e+01   1.1981829151e+01    0.2477993    0.1743535  72.61  0.001855127    1.367    0.269
        62  -9.7933      7.2530    120.9770   9.1859573528e+01   4.8299625175e+01    0.2209812   0.09393584  56.93  0.001187995    2.665    0.625
        63  -9.6077    221.4592    119.7366   4.2716278301e+01   1.2350683764e+01    0.2697535    0.1952552  46.17 0.0007827067    1.370    0.270
        64 -10.4653     28.4180    117.9338   8.6552592012e+01   4.7283172915e+01    0.2720007     0.161466 -85.10  0.001083801    1.536    0.349
        65  -8.5775     74.3115    119.3039   7.5425853595e+01   4.1876493661e+01    0.1247725   0.09673709 -33.71 0.0007019875    1.613    0.380
        66 -11.8567     37.0306    110.2814   8.3353209801e+01   4.8152667772e+01    0.2211514     0.171384 -78.11 0.0003211773    1.077    0.072
        67  -9.2634      4.8080    111.1233   9.1425400825e+01   5.0529559060e+01    0.1432586    0.1041066 -59.35 0.0003919799    1.327    0.246
        68 -10.4178     21.0548    109.5795   8.7281893591e+01   4.9690892564e+01    0.2221705    0.1396843 -64.16 7.095865e-05    1.277    0.217
        69 -10.5482     49.8799    105.6995   7.9274563694e+01   4.7849560883e+01     0.355154    0.2065906  53.77  0.001926777    2.027    0.507
        70 -10.5253     32.0958    106.0404   8.3984348404e+01   4.9528260317e+01      0.27215    0.1859649 -21.43  0.001617513    2.261    0.558
        71  -9.5119    100.8265    103.8684   6.5400391412e+01   4.1176544077e+01    0.2157636    0.1863551 -30.48 0.0006576182    1.265    0.209
        72 -10.3357     71.2135    103.0244   7.3069608677e+01   4.5858969091e+01    0.3444648    0.2338612 -71.20  0.001875048    1.474    0.322
        73  -8.8919    161.5101    103.6079   5.0566327645e+01   2.8951096258e+01    0.1495569    0.1459299  52.92 7.229672e-05    1.048    0.046
        74 -10.7537     56.1590    101.0105   7.6735067697e+01   4.8175208608e+01    0.3595959    0.2115681 -28.23  0.001691084    2.760    0.638
        75  -9.1830     27.9531    102.2858   8.4502819162e+01   5.0701450465e+01    0.1517076     0.130919 -76.87 0.0003247123    1.106    0.096
        76 -10.7387     51.8962     98.9495   7.7503979990e+01   4.9108159890e+01    0.4841857    0.2145272 -37.20  0.001910415    3.632    0.725
        77 -11.2832    245.0114     98.8049   3.3600101973e+01   1.0245369903e+01    0.4288563    0.3373578 -80.58  0.002161634    1.818    0.450
        78  -9.9510    117.8787     97.6617   5.9448667048e+01   3.9395184417e+01    0.2279132    0.1893386 -33.40 0.0004874569    1.233    0.189
        79  -9.6386    165.4559     95.8735   4.7607156043e+01   2.9484481969e+01    0.4595239    0.2871085   6.73  0.001618011    3.004    0.667
        80  -9.2988    126.1425     97.1560   5.7221265631e+01   3.7871723247e+01    0.2054576    0.1778358 -82.68  0.001075906    1.332    0.249
        81  -9.5592      7.1052     97.4058   8.9279628355e+01   5.3280673652e+01    0.1820606    0.1197708  50.65 0.0007134568    1.773    0.436
        82  -9.9424     86.8222     96.1890   6.7316272408e+01   4.5099935795e+01    0.1839004    0.1554195 -28.96  0.000410539    1.307    0.235
        83 -10.1885     42.1027     95.1611   7.9498661094e+01   5.0960023593e+01     0.181262    0.1398143 -53.93 0.0004520919    1.171    0.146
        84  -9.1896     31.6599     94.2873   8.2236673462e+01   5.2118957098e+01    0.1163993   0.08111562  77.40 0.0007019846    1.639    0.390
        85  -9.4043     47.4946     91.5152   7.7292361998e+01   5.1206269179e+01    0.2368054    0.1694412  84.26  0.001317423    1.664    0.399
        86 -10.5612     42.5365     90.2130   7.8448764225e+01   5.1995033181e+01    0.2718837    0.2330894 -32.20  0.001200246    1.340    0.254
        87  -9.2160     89.6698     91.3016   6.5340779026e+01   4.5701749549e+01    0.1365643    0.1061765  87.55 0.0004338523    1.648    0.393
        88 -10.6249     18.7681     91.0117   8.5269409968e+01   5.3855154535e+01    0.2885851    0.1556036  31.29 0.0009993797    2.287    0.563
        89  -9.3433     21.1078     87.4920   8.4059141026e+01   5.4438818424e+01     0.174304    0.1177454 -66.76 0.0002978467    1.140    0.123
        90  -9.7182     61.4637     90.4974   7.3100365106e+01   4.9842103291e+01    0.1764048    0.1186679  50.07 0.0007838866    1.750    0.428
        91  -9.1929     34.0032     90.7590   8.0971609173e+01   5.2678342887e+01    0.1296889    0.1034454  30.12 0.0007935388    1.568    0.362
        92 -10.4329     26.2415     87.4213   8.2589209202e+01   5.4056883467e+01     0.216654    0.1543528  76.41  0.000675432    1.622    0.383
        93 -10.5347      2.4060     85.8019   8.9034197208e+01   5.6016027250e+01    0.3782937    0.1358419 -61.86  0.002041868    1.925    0.481
        94 -11.2523     66.3815     84.6384   7.0336172783e+01   5.0490644897e+01    0.4290074    0.3809368  34.33  0.002710065    1.306    0.234
        95  -9.8572     66.3158     80.0371   6.9231303497e+01   5.1484029196e+01    0.2589861    0.1885156 -44.89 0.0005666629    1.228    0.185
        96 -10.0509    143.4618     84.1206   4.9322294370e+01   3.6747193534e+01    0.4719375    0.1361529 -42.86   0.00140169    3.438    0.709
        97 -10.2548    120.8464     85.8489   5.5475890310e+01   4.1222751666e+01    0.2646052    0.2061799  59.60   0.00132973    1.457    0.314
        98  -9.3843    117.2691     83.0629   5.5618375980e+01   4.2491417441e+01    0.2046954    0.1795376 -43.40 0.0002951307    1.091    0.083
        99  -9.6785    155.0112     85.0164   4.6879044880e+01   3.3934650369e+01    0.2263509    0.2108269   8.14 -0.005334738    1.092    0.085
       100  -9.9561     77.5592     83.7027   6.6849226000e+01   4.9160467498e+01    0.3450831    0.2025698 -50.34  0.001728487    1.499    0.333
       101 -10.3443     81.6107     82.3443   6.5324491995e+01   4.8850962831e+01    0.3220371    0.2078729 -41.46 0.0008161251    1.459    0.315
       102 -10.3107     51.3262     82.4537   7.4275652258e+01   5.2760405988e+01    0.2758725    0.1809244 -41.59  0.001577736    1.486    0.327
       103 -10.2953     73.3425     80.3505   6.7224051925e+01   5.0471119453e+01    0.3801409    0.1922088 -41.65  0.001382144    1.920    0.479
       104  -9.2696     91.6696     80.8801   6.2039959688e+01   4.7573913000e+01    0.1960193    0.1588447 -48.16 0.0003904563    1.128    0.113
       105 -10.3002     42.4220     80.1079   7.6429193660e+01   5.4192957395e+01    0.3727486    0.2081294 -29.74  0.001855263    2.484    0.597
       106  -9.2816    150.5740     79.7787   4.6361868522e+01   3.5931913801e+01    0.2472688    0.1823937   5.16  0.001092897    1.768    0.434
       107  -9.0146     19.4973     80.4995   8.3347317060e+01   5.6055208408e+01    0.1171432   0.08995738 -65.52 -0.0001705743    1.007    0.007
       108 -10.6431    166.9312     77.9624   4.2158745152e+01   3.2355768742e+01    0.2377964    0.2313284  -2.69            0    1.010    0.010
       109  -9.8964     51.7830     77.3905   7.2978065520e+01   5.3796672612e+01    0.2365242    0.1681094 -45.11 0.0005059728    1.255    0.203
       110  -9.7873    119.0661     76.4705   5.3205195707e+01   4.3435606080e+01    0.2672559      0.19574 -54.11 0.0003440674    1.466    0.318
       111  -9.4462    109.9342     77.0776   5.5843953786e+01   4.5106763124e+01     0.237664    0.1777576  -3.98  0.001140086    1.756    0.431
       112 -10.9101     88.8950     73.4457   6.0740366644e+01   4.9557820379e+01     0.505679    0.3309585 -28.43  0.002474435    1.718    0.418
       113 -10.5850     95.3680     71.8779   5.8392292005e+01   4.8788680573e+01    0.3388025     0.260519  35.42 0.0009518318    1.418    0.295
       114  -9.7281     63.0372     74.7546   6.8880856883e+01   5.3023766235e+01    0.2325597    0.1562703  44.56  0.001290574    1.766    0.434
       115  -9.8923     59.4445     72.8940   6.9508311739e+01   5.3861046527e+01    0.2285072     0.191954 -57.62  0.000349297    1.095    0.087
       116 -10.9735    166.5317     72.8242   4.0702630273e+01   3.3341052525e+01    0.4093918    0.3180343  82.20 0.0003509807    1.655    0.396
       117  -9.2572    166.5043     68.4751   3.9379904483e+01   3.4083580625e+01    0.2174882    0.1536151  65.18 0.0007302287    1.598    0.374
       118  -8.8009     78.2554     74.6113   6.4226678712e+01   5.0970278400e+01    0.1342434    0.1008208 -75.17  0.000381984    1.681    0.405
       119  -9.4709     68.7637     74.2204   6.6989403308e+01   5.2389895190e+01    0.1867577    0.1385603 -31.74  0.001053342    1.388    0.280
       120  -9.8507     18.6778     72.7747   8.2198421555e+01   5.7756947208e+01    0.3289217    0.1081906 -58.98  0.001587094    2.121    0.528
       121 -10.1650     28.9058     74.6975   7.9419384464e+01   5.6571125648e+01    0.2601688    0.1392235 -61.37 0.0009907631    1.460    0.315
       122  -9.2613    136.3334     72.0059   4.7409980739e+01   4.0607044079e+01    0.2077291    0.1881283 -30.40 0.0004342935    1.072    0.067
       123  -9.7685    143.4862     70.7866   4.5290697619e+01   3.9205748214e+01    0.5223802    0.1443634  42.22  0.001389424    4.458    0.776
       124 -11.1306     52.4082     69.1692   7.0757870440e+01   5.5466806980e+01    0.3602378    0.3170949 -66.25  0.002397868    1.170    0.145
       125  -9.6307     64.0610     69.5087   6.7168617578e+01   5.3991009090e+01    0.1983194    0.1744566 -70.90  0.001249223    1.243    0.195
       126  -9.2622    102.5391     69.2303   5.5529974879e+01   4.8036282350e+01     0.207753    0.1278053 -32.18 0.0007076269    1.663    0.399
       127 -10.5318     29.9184     67.9344   7.7665906396e+01   5.7920776213e+01     0.294728     0.237872 -38.93   0.00145643    1.229    0.187
       128 -10.5758     22.7202     67.9357   7.9972726219e+01   5.8487168187e+01    0.3095429    0.2310793 -88.67  0.001569592    1.515    0.340
       129 -10.8699      3.0503     67.2550   8.6059131741e+01   5.9874854077e+01     0.362857    0.2249189 -85.81  0.001581943    1.627    0.385
       130 -11.5211      6.3062     61.5875   8.4013508097e+01   6.0877019511e+01     0.349893    0.3079301 -80.36 0.0007286143    1.244    0.196
       131 -11.6790      8.1428     51.3254   8.1306826178e+01   6.2881558964e+01    0.6204252    0.2890157 -43.55  0.002229902    1.819    0.450
       132  -9.7388    147.5319     66.3531   4.2938469466e+01   3.9044841984e+01    0.2557203    0.2027777 -30.01 0.0003731585    1.244    0.196
       133  -9.1072    119.9789     67.7310   5.0258948048e+01   4.4918333914e+01    0.1896391    0.1292641  45.07 0.0008924069    1.527    0.345
       134 -10.9389     15.4958     64.6719   8.1629719103e+01   5.9678350906e+01    0.4532114    0.2211079 -21.38  0.001788622    3.384    0.704
       135 -10.5904     76.3001     65.1906   6.2106916729e+01   5.3184665695e+01    0.3350467    0.2188128 -31.61 0.0009275725    1.562    0.360
       136  -9.9486     77.6342     61.7236   6.0633173255e+01   5.3677248638e+01    0.2199248     0.172495  37.67 0.0006001168    1.438    0.305
       137 -10.4148    137.6601     65.3236   4.4969373646e+01   4.1513505817e+01    0.2643131    0.2089479  48.13 0.0007070633    1.292    0.226
       138 -10.0830    134.5523     63.5384   4.5158569346e+01   4.2531806587e+01    0.3001373    0.2176757 -32.24 0.0005667018    1.346    0.257
       139  -9.2133     97.7782     64.0054   5.5258461026e+01   4.9911895395e+01    0.2676043     0.170027 -51.04 0.0006903157    1.627    0.385
       140  -9.9154     95.6953     61.7043   5.5129856374e+01   5.0723362447e+01    0.1966483    0.1626283 -26.96 0.0005155407    1.138    0.122
       141  -9.9242     26.8842     63.0358   7.7552433995e+01   5.9194097267e+01    0.1748099    0.1379143 -70.20 0.0006392557    1.221    0.181
       142  -8.5322    193.5124     62.4948   3.2283372163e+01   2.8192083704e+01     0.152673    0.1492324   6.15 0.0003396219    1.002    0.002
       143  -9.5677    123.1384     61.7627   4.7491264680e+01   4.5349031920e+01     0.280212    0.1941898  62.45 0.0009794654    1.795    0.443
       144  -9.8101     71.5858     61.0188   6.2326703849e+01   5.4701459137e+01    0.2659894    0.1875212  47.48  0.001463583    1.730    0.422
       145 -10.4135     65.9242     61.8279   6.4385356537e+01   5.5318460695e+01    0.3056294    0.2284951  31.53  0.001069238    1.538    0.350
       146  -9.7628     61.9324     58.4278   6.4665801864e+01   5.6522897941e+01    0.1889309    0.1665359 -58.26 0.0008192106    1.207    0.172
       147 -11.0342     63.6387     54.0741   6.2751359944e+01   5.7160395272e+01     0.389496    0.3027182  78.94  0.001514076    2.070    0.517
       148  -9.0588     43.5212     61.5671   7.1664753952e+01   5.7997592822e+01      0.12499    0.1000104 -45.31 0.0008060205    1.046    0.044
       149  -9.4615     85.6900     57.5342   5.6788798275e+01   5.3224165847e+01    0.2066992    0.1542431 -59.63  0.000462746    1.582    0.368
       150 -12.0081     55.8373     56.8495   6.6216558828e+01   5.7595371646e+01     0.273876    0.2593682  20.61 0.0003897379    1.249    0.199
       151 -11.1853     25.0965     55.9223   7.6472885440e+01   6.0805469435e+01    0.3897214    0.1862572 -64.85  0.002045379    1.912    0.477
       152 -11.1376     20.4386     53.1674   7.7419782332e+01   6.1716360203e+01    0.3030129    0.2614131   9.34  0.001086512    1.452    0.311
       153  -9.4951    226.5216     57.0916   2.5413928561e+01   2.0585081476e+01    0.2103281    0.2032834  73.47 0.0006122784    1.079    0.073
       154  -9.8436    136.1121     56.0905   4.2310475427e+01   4.3458730313e+01    0.2235582    0.2108869  -3.30 0.0003975931    1.007    0.007
       155  -9.4790     82.5133     61.9186   5.9178010327e+01   5.2886920042e+01    0.1968754    0.1824282  -4.95  0.001210166    1.118    0.105
       156  -9.2132    163.5791     55.5421   3.5917835548e+01   3.6909704986e+01    0.1529544    0.1461105   8.88 7.590569e-05    1.017    0.017
       157  -9.3250     83.6506     54.4090   5.6384956153e+01   5.4148537412e+01    0.3660716    0.1981512 -16.88  0.001335703    3.474    0.712
       158  -9.9023     35.8298     53.3106   7.2061171337e+01   6.0427331500e+01    0.3158398    0.1302719 -49.14  0.001565795    1.859    0.462
       159  -9.5147     43.1751     53.5513   6.9569104893e+01   5.9664081556e+01    0.1981881    0.1559721 -66.67 0.0009231675    1.384    0.277
       160  -8.6003    129.9697     54.0000   4.3125216517e+01   4.5203422423e+01     0.231972   0.08451593  51.28 0.0007829186    2.809    0.644
       161  -9.9117    123.0414     52.0743   4.4238036350e+01   4.7055659560e+01    0.3217226    0.1922732 -37.64  0.001289237    1.621    0.383
       162 -10.2777     70.7432     52.2061   5.9791882106e+01   5.6540548571e+01     0.337617    0.2451477 -33.67  0.001472729    1.222    0.181
       163  -8.6772    183.6783     52.2812   3.0959572124e+01   3.2256211246e+01    0.1539664    0.1191076 -68.98  0.000699451    1.588    0.370
       164 -10.0054     30.2537     52.1019   7.3692617949e+01   6.1164879774e+01    0.3096772     0.167836  25.89  0.001778506    2.282    0.562
       165  -9.4038    155.2564     51.6541   3.6413974951e+01   3.9592670694e+01    0.2261684    0.1334563  46.83 0.0004239782    1.662    0.398
       166  -9.4236    200.4953     50.0732   2.7389507391e+01   2.8199149838e+01    0.2851926    0.2096333  81.75  0.001320969    1.598    0.374
       167  -9.7467    175.2193     48.9937   3.1497651064e+01   3.4926658676e+01    0.5274951    0.3328426  15.09  0.002099985    2.221    0.550
       168 -10.3557     87.4842     48.7822   5.3250490181e+01   5.4546797896e+01    0.3311429    0.2558215  13.02  0.001208847    1.435    0.303
       169 -10.0974    136.7977     49.3352   3.9839704732e+01   4.4403735670e+01    0.2027948    0.1810732 -37.12 0.0003284682    1.155    0.134
       170  -9.9750    128.4745     48.7412   4.1680787200e+01   4.6405193385e+01    0.2765755    0.2041792  49.76 0.0008251146    1.391    0.281
       171 -10.5294     79.8425     44.6603   5.4204044282e+01   5.6549490635e+01    0.5506047    0.2251708 -34.00  0.001790217    2.458    0.593
       172  -8.8522    234.9584     47.0459   2.1525156772e+01   1.9843680282e+01    0.1667696    0.1607346 -43.88 0.0003483288    1.012    0.012
       173 -10.1970     46.4007     46.8933   6.6420640627e+01   6.0637882353e+01    0.2959935     0.186141  28.52  0.001188884    1.885    0.469
       174  -9.5453     38.6009     47.3522   6.9361020395e+01   6.1352876483e+01    0.1856736    0.1460733   9.59 0.0005929497    1.499    0.333
       175  -9.5961     17.1437     46.5665   7.6950454497e+01   6.3280411306e+01    0.2143959    0.1271648 -56.23 0.0008198364    1.278    0.217
       176  -8.9940    140.9449     49.9661   3.9071936883e+01   4.3328856311e+01    0.1789619    0.1663122  30.24 0.0003662884    1.057    0.054
       177 -12.6068     61.7925     44.4784   6.0194769450e+01   5.9235139422e+01    0.3464573    0.2530486  29.41   0.00031722    1.550    0.355
       178  -8.9986     26.5492     46.5361   7.3502855953e+01   6.2586807685e+01    0.1188018   0.09175524 -48.00 0.0001518522    1.016    0.016
       179  -9.3252    122.7175     44.9877   4.1817806735e+01   4.8286683580e+01    0.2128763    0.1854437 -26.28  0.001154845    1.113    0.102
       180  -9.3599    115.2761     45.0835   4.3821116241e+01   4.9872718272e+01    0.2472247    0.1835013  34.97 0.0005703046    1.370    0.270
       181 -10.6127     13.3187     39.9044   7.6625333494e+01   6.4854253165e+01    0.5941694      0.16673 -46.95  0.002772314    2.501    0.600
       182  -9.9218    245.0602     44.4985   1.9594140545e+01   1.7718322874e+01    0.2075962    0.1386976  64.31 0.0005753417    1.567    0.362
       183  -9.8608    201.0612     43.2829   2.5273368414e+01   2.8979593317e+01    0.3206447    0.2282494  83.34  0.001472292    1.654    0.395
       184 -10.5412    105.8862     43.2543   4.5756993257e+01   5.2095547868e+01    0.4696385    0.3904084  64.38  0.001423996    1.524    0.344
       185 -10.0183    249.3117     43.1940   1.8756608289e+01   1.6871147752e+01    0.2212366    0.1758294  -7.55 0.0009889916    1.376    0.273
       186  -8.6510    157.2834     43.2985   3.3183562303e+01   4.0336343617e+01    0.1545169    0.1126868  21.62 0.0002208228    1.547    0.354
       187  -8.8334    149.1455     43.1595   3.4869548023e+01   4.2384121623e+01     0.202863    0.1789455 -70.79 0.0004746157    1.351    0.260
       188  -9.8580     91.6978     43.1552   4.9915318977e+01   5.4797089728e+01    0.2149508    0.1613673 -46.96   0.00105165    1.433    0.302
       189  -8.6875     87.0295     43.0180   5.1313286034e+01   5.5640861420e+01    0.1652187    0.1385602 -25.23 0.0003695465    1.058    0.055
       190  -9.7808     29.3933     42.1009   7.1164868245e+01   6.3223117822e+01      0.28864    0.1585186 -20.04  0.001196577    2.407    0.585
       191  -9.6929     73.5942     41.3936   5.5070039521e+01   5.8108456822e+01    0.2687635    0.1726008  -9.15 0.0009521047    2.016    0.504
       192 -10.6439     22.4889     41.5914   7.3613027413e+01   6.3880794447e+01    0.2206493    0.1569677 -42.97  0.000186029    1.104    0.094
       193  -8.9632     25.7517     37.6669   7.1196239561e+01   6.4384534557e+01    0.1878646   0.08863699 -49.01  0.000442548    1.588    0.370
       194  -9.0933     23.2530     36.3324   7.1752833742e+01   6.4840237477e+01     0.118733   0.09011227 -45.90   0.00019444    1.045    0.043
       195  -9.3400    145.1182     40.6734   3.4892832069e+01   4.3733304727e+01    0.2796904    0.1827083  11.51  0.001182278    1.992    0.498
       196 -10.3542    228.5634     39.5255   2.0302531784e+01   2.2396996553e+01    0.3066289     0.259753  46.41 0.0006419837    1.231    0.188
       197 -10.2842    124.5762     40.0347   3.9543252863e+01   4.8643330344e+01     0.292316     0.203989  47.73 0.0004513647    1.438    0.305
       198 -11.5333      6.6745     36.4471   7.8263394950e+01   6.5929699629e+01    0.5184982     0.310879 -82.52  0.002877577    2.369    0.578
       199 -10.4234      9.2622     31.5901   7.5886646348e+01   6.6716793966e+01     0.235863    0.1997338  27.94  0.001310017    1.582    0.368
       200 -12.0796    238.6029     37.7294   1.8580501016e+01   2.0130262106e+01    0.3186827    0.2797601 -54.24 0.0002554621    1.114    0.102
       201 -10.2986    242.5698     34.2793   1.7211624041e+01   1.9584914780e+01    0.2694647    0.2283258  -4.85 0.0009137192    1.297    0.229
       202  -9.3915    203.8133     38.8088   2.3519406424e+01   2.8847660439e+01    0.2059465    0.1717259 -67.12 0.0006189824    1.311    0.237
       203 -10.0798     86.0212     37.4897   4.9552775930e+01   5.6749701196e+01    0.3120898     0.169874 -24.79  0.001418329    1.942    0.485
       204  -9.2987     49.1737    249.5878   9.3854753145e+01   2.0552099074e+01    0.1236821   0.07755946  42.50 0.0009482548    1.713    0.416
       205 -10.6415    247.4751     36.6309   1.7273073470e+01   1.8118858341e+01    0.2636345     0.227902   3.29 0.0007887637    1.294    0.227
       206  -9.0697    153.9575     37.2572   3.1806201848e+01   4.2024319204e+01    0.2052506    0.1846768  49.22 0.0003313753    1.099    0.090
       207  -8.3345    134.6432     37.2361   3.6062277421e+01   4.6741349958e+01    0.1396635    0.1166164 -82.75 0.0003774707    1.580    0.367
       208 -10.8253    113.5119     34.7104   4.0434866748e+01   5.1858282592e+01    0.4879569    0.3380909  37.76  0.002015848    1.437    0.304
       209  -9.1633    130.3796     35.2093   3.6334461504e+01   4.8027861221e+01    0.2085453    0.1274737 -39.15 0.0003811797    1.699    0.411
       210 -10.6434     98.0333     34.8668   4.4859139842e+01   5.4973104635e+01    0.2928481    0.2292346   3.46 0.0003724958    1.297    0.229
       211  -9.8987     78.3297     35.0677   5.1103445040e+01   5.8445181630e+01    0.2436037    0.2277953   5.19 0.0007878528    1.170    0.146
       212  -9.4246     19.7065    249.0430   9.7928586646e+01   2.3811606737e+01    0.1455371    0.0450337  79.52 0.0007026777    4.128    0.758
       213 -10.4637     72.6097     30.3478   5.1157169267e+01   6.0133196970e+01    0.3709235    0.2060828 -45.27  0.001284446    1.888    0.470
       214 -10.2089     60.8283     34.3354   5.6847640689e+01   6.1190404884e+01    0.2297815    0.1506349 -35.25 0.0003378746    1.289    0.224
       215  -9.5667     44.8549     32.8482   6.2200866315e+01   6.3436619301e+01    0.3586466    0.2489394  65.74  0.001530561    3.121    0.680
       216  -9.9028     31.0155     33.7996   6.7895691797e+01   6.4663399239e+01    0.1821598    0.1552323  21.51 0.0007304139    1.443    0.307
       217  -9.4667    223.5160     33.5290   1.9286354483e+01   2.4417618032e+01    0.2745722      0.11068  53.32  0.001034503    2.414    0.586
       218  -9.8503    141.6511     31.3985   3.2349367264e+01   4.5866414168e+01    0.3971424    0.2159881  15.04  0.001411543    2.987    0.665
       219 -11.4343    106.9258     30.6316   4.0650136790e+01   5.3836072170e+01    0.5328854    0.3447311  -0.14  0.002487139    1.876    0.467
       220 -10.9290    248.4986     30.3561   1.5549347073e+01   1.8627084168e+01    0.4514085    0.2959316  20.57  0.001896458    2.132    0.531
       221  -9.0167    192.2997    248.6618   7.1635930629e+01   1.9524748943e-01    0.1029863   0.07640934  62.53 0.0003706803    1.662    0.398
       222 -10.4718    233.7901     30.6764   1.7259955903e+01   2.2175200473e+01    0.3462737     0.267532  48.20  0.001150676    1.368    0.269
       223  -9.7586     65.1236     31.8885   5.4371551956e+01   6.1006110342e+01     0.185096    0.1604452 -42.76 0.0004871183    1.295    0.228
       224  -9.9680     64.9962     28.0278   5.2873303700e+01   6.1663025915e+01    0.2446578    0.1811573 -15.85  0.001083307    1.237    0.192
       225  -9.0553    178.4012     30.8044   2.5064901828e+01   3.6550587307e+01    0.2152745    0.1440014  -6.20 0.0009532667    1.747    0.428
       226 -10.4514    119.6185     31.0207   3.7422817051e+01   5.1061644497e+01    0.2557018    0.1976947  40.93 0.0001128737    1.263    0.208
       227  -9.3775     24.2408     31.5534   6.9831570151e+01   6.5664843836e+01    0.1796248    0.1088737  29.41    0.0011204    2.049    0.512
       228 -10.4158     18.7342     28.3265   7.0999480621e+01   6.6694330816e+01    0.2861568    0.1893082 -64.08 0.0008242374    1.681    0.405
       229 -10.2589    146.3626     28.9460   3.0453948551e+01   4.5026133150e+01    0.2644906    0.2093446  54.93 0.0003201188    1.247    0.198
       230 -11.3527     36.7793     27.2893   6.3285180198e+01   6.5291776550e+01    0.3359876    0.2560752   5.38 0.0008734679    1.428    0.300
       231 -10.2855    222.2459     26.5453   1.7496645607e+01   2.5575145834e+01    0.2598103    0.2496935 -60.23 0.0004943906    1.013    0.013
       232 -10.2242     47.5902     26.3315   5.8657785849e+01   6.4259177439e+01    0.3518763    0.3057714  75.48 0.0008459408    1.946    0.486
       233 -10.4587     50.3041     22.2232   5.5931221947e+01   6.4608084762e+01    0.2706885    0.1771259 -23.60  0.000619855    1.351    0.260
       234 -10.5793      1.7804     25.2125   7.7107809237e+01   6.8343425923e+01     0.238202    0.1242189 -60.73  0.001172936    1.578    0.366
       235 -10.9016     62.3399     23.1389   5.1801477085e+01   6.2829740374e+01    0.3363335     0.214788 -19.89   0.00135871    1.485    0.326
       236  -9.4211    109.3571     23.8942   3.7299481730e+01   5.4261216937e+01    0.1927315    0.1855011  -3.71 0.0004118149    1.158    0.136
       237 -11.9474    105.0367     20.8311   3.7217856123e+01   5.5571241677e+01    0.2562814    0.2268649  -0.35 0.0003051229    1.033    0.032
       238  -9.3258    149.9760     23.2719   2.7678459999e+01   4.4821509134e+01      0.19774    0.1834015  24.05 0.0004473792    1.017    0.017
       239  -8.9879     76.3969    247.7938   8.9756018570e+01   1.7504595000e+01     0.228616    0.0655797  59.64 0.0009533938    4.260    0.765
       240 -10.6484     86.0850     22.1014   4.3312341333e+01   5.9100918959e+01    0.2597981    0.2188399  41.99 0.0004894573    1.338    0.253
       241 -10.1205     90.1416     20.8139   4.1511281290e+01   5.8529306880e+01     0.211331    0.1667214 -30.07 0.0003018067    1.262    0.208
       242  -9.3686     69.9668     22.8399   4.8961827012e+01   6.1724485442e+01    0.2047692     0.153516  -1.11  0.001210553    1.294    0.227
       243 -10.4675     26.3200     22.1145   6.5621276940e+01   6.7199965171e+01    0.2743495    0.1395196 -39.65   0.00158931    1.514    0.339
       244 -10.5744    221.7714     20.9818   1.6003396012e+01   2.6331833073e+01     0.369075    0.3021112  56.37  0.001039177    1.228    0.185
       245 -10.3024    217.3848     17.4014   1.5510040259e+01   2.7853451233e+01    0.2483379    0.2311583  28.90 0.0002710256    1.158    0.136
       246  -9.2168    212.1899     21.8215   1.7393361439e+01   2.8710492198e+01    0.1931696    0.1613174  36.96 0.0004167017    1.278    0.218
       247  -8.3650    177.3150     21.2885   2.2145404525e+01   3.7964504902e+01    0.1546998    0.1045306  33.83 0.0006904404    1.588    0.370
       248  -8.6287    144.6536     21.3012   2.8028935484e+01   4.6387471441e+01    0.1465804    0.1128215 -66.06 0.0003243735    1.685    0.406
       249  -9.5070    193.2293     20.1269   1.9397475919e+01   3.3882627906e+01     0.204364    0.1871331  33.41 0.0003306983    1.115    0.103
       250 -10.8027    182.2298     18.4948   2.0481368282e+01   3.6975060966e+01    0.3049286    0.2425307  30.00 0.0006422459    1.321    0.243
       251 -10.4842    166.1717     18.3365   2.2987611490e+01   4.1220276846e+01    0.3656903    0.2248704  38.24   0.00101076    1.672    0.402
       252  -9.8351    116.1633     22.6446   3.5024459014e+01   5.2947961623e+01    0.3692092    0.1606367  42.89  0.001488532    2.242    0.554
       253  -9.5152     36.5372     20.4929   6.0716796016e+01   6.6488829531e+01    0.1899903    0.1060179  12.52 0.0007820153    2.301    0.565
       254  -9.9993    239.4101    245.1984   6.3732114052e+01  -6.7909332863e+00    0.1249539    0.1009471 -28.77 0.0009564809    1.698    0.411
       255 -11.0355    248.8540    239.9350   6.1487479273e+01  -7.7421188310e+00    0.2056459    0.1839276  51.18  0.001467459    1.721    0.419
       256  -9.0364      1.6633    244.2788   1.0016122444e+02   2.6263342295e+01    0.0954141    0.0403944  64.56 0.0007003481    1.614    0.381
       257  -9.4015     44.8160    244.1448   9.4174160659e+01   2.1864930206e+01    0.2271264   0.05986643  39.46  0.001097429    3.881    0.742
       258  -9.7549    145.5008    242.4686   7.8438713316e+01   8.3456375561e+00      0.11198    0.0845879  48.23 0.0004315454    1.049    0.047
       259  -9.7571    198.6467     18.8466   1.8264556128e+01   3.2591909879e+01    0.2888514    0.2031344  76.33  0.001155773    1.451    0.311
       260 -10.4985    152.1762     18.2686   2.5458985614e+01   4.4839519418e+01    0.2625793    0.2214732 -51.12 0.0001737151    1.346    0.257
       261  -9.2618     79.9577     19.5197   4.4163549645e+01   6.0553853991e+01    0.1868776     0.124635  40.14  0.001023182    1.563    0.360
       262 -10.3322    201.6635    240.6877   6.9086552604e+01  -4.3283173655e-01    0.3007465    0.1302536  37.11  0.001619376    1.872    0.466
       263 -10.3968    188.7490    240.5627   7.1165868434e+01   1.6664562208e+00    0.2289873   0.08419944  41.59  0.001139952    2.077    0.519
       264 -11.4554    221.9189    237.2616   6.5339558660e+01  -3.3181430786e+00    0.3172022    0.1725834  37.32  0.001858541    1.383    0.277
       265  -9.4485     66.3705    234.6295   9.0345406270e+01   2.0768821805e+01    0.1680794   0.08759241  67.11  0.001108994    1.644    0.392
       266  -9.3926    178.2119    231.7958   7.1750209167e+01   4.4421381329e+00    0.1611482    0.1145675  30.34 0.0007945999    1.345    0.256
       267  -9.8884     46.0217     15.1381   5.4562436528e+01   6.6265399958e+01    0.2202494    0.1790393   0.68 0.0009833914    1.180    0.152
       268  -9.6433    195.0627     15.1127   1.7608769729e+01   3.3939756754e+01    0.2116571     0.199758  83.98 0.0003499513    1.044    0.042
       269  -9.5618     32.0008    232.0351   9.5377273627e+01   2.5155462598e+01    0.1181183   0.08012114  71.31 0.0004029531    1.008    0.008
       270  -9.3949    177.5458    237.5336   7.2608256899e+01   3.8445639656e+00    0.1152806   0.08767781  42.72 0.0001182897    1.004    0.004
       271  -9.4923    112.6727     13.8319   3.2321644352e+01   5.4784594620e+01    0.2238538    0.1532494   6.19  0.001128776    1.534    0.348
       272 -10.3360     11.3075    231.0466   9.8320302989e+01   2.7402001674e+01    0.1332701   0.08578187  74.79  0.000953345    1.047    0.045
       273  -9.3272    224.0983    225.6461   6.3245119774e+01  -2.4595715210e+00    0.1711195    0.1552246 -15.39 0.0009656053    1.394    0.283
       274  -9.5184    207.6703    226.5694   6.6096159330e+01   1.5677141179e-01    0.2330724   0.08794588  40.38   0.00112262    2.088    0.521
       275  -9.4938    235.4911    225.1539   6.1315586300e+01  -4.2585065805e+00    0.1713905    0.1360736  38.17  0.000496735    1.262    0.208
       276  -8.8596    125.5382    225.5071   7.9882569542e+01   1.3855581988e+01    0.1153674   0.08929067  57.59 0.0002087682    1.021    0.021
       277  -8.6025    109.3125    221.6964   8.2231261831e+01   1.6920093391e+01    0.1162098   0.07082377  67.77 0.0007020521    1.614    0.380
       278  -9.0344     89.1603    220.8614   8.5552101981e+01   1.9963208399e+01    0.1347416    0.1214645  57.87 0.0009540746    1.349    0.258
       279 -10.1091    248.5728    218.6414   5.8157672869e+01  -5.6955963542e+00    0.2548966    0.1685285  65.86   0.00125233    3.631    0.725
       280  -9.3915    179.8204    216.6510   6.9375748696e+01   6.1285554552e+00    0.1789664    0.1577692  -5.67 0.0008000584    1.359    0.264
       281  -9.5170    212.1866    215.4218   6.3627456529e+01   6.8963617027e-01    0.1644962   0.09804503  48.18 0.0004899208    1.548    0.354
       282  -9.2118    175.1193    217.8162   7.0359825423e+01   6.7822145574e+00    0.1573483    0.1265701  22.95  0.000464635    1.324    0.245
       283  -9.7181    233.1520    212.6523   5.9666870180e+01  -2.5518830852e+00    0.1631802    0.1409469  22.52  0.001158821    1.175    0.149
       284  -8.8319    117.7114    211.7061   7.9678411241e+01   1.7236545852e+01     0.101714   0.08926406  23.34 0.0002656628    1.548    0.354
       285 -10.1312      5.2343    199.9871   9.7785613550e+01   3.3141840995e+01    0.1950009    0.0593599 -82.10  0.001052108    2.788    0.641
       286  -8.9363     81.0014    198.7749   8.4834892577e+01   2.4869866215e+01     0.143397   0.08075567  46.41 0.0003847359    1.586    0.369
       287  -9.0958    184.4439     12.5249   1.8254260538e+01   3.7019108826e+01    0.1425942    0.1367664  64.12  8.57402e-05    1.014    0.014
       288  -9.0534    157.9878    197.5201   7.0461259216e+01   1.2752452845e+01    0.1892715    0.1069953  46.66 0.0005634508    1.496    0.332
       289  -9.1921      2.3175    189.7043   9.7730673470e+01   3.5217547559e+01     0.103855   0.05091062  68.63 0.0003826516    1.608    0.378
       290  -9.0568    249.5169    183.5376   5.1724229973e+01  -2.0500145320e+00    0.1265635    0.1037541  17.02 0.0001738287    1.040    0.039
       291  -9.3228    240.7158    181.5551   5.2809599293e+01  -2.5015829508e-01    0.1700323    0.1144086  48.92 0.0009457711    1.596    0.374
       292 -11.3876     39.7999    160.3462   8.8807436316e+01   3.7297721139e+01    0.5937564    0.2478505  69.73  0.002674451    3.225    0.690
       293 -12.0530     32.6638    156.2825   8.9846378988e+01   3.8848471561e+01    0.9445056    0.3288316  63.10  0.003813519    4.184    0.761
       294  -9.5434     24.0808    163.3446   9.2153570340e+01   3.8261209607e+01    0.1432074    0.1127429  71.28 0.0004616896    1.161    0.139
       295  -8.6471     67.7175    162.3030   8.3347951493e+01   3.3631694176e+01    0.1217297   0.07821124  75.90 0.0002307288    1.554    0.356
       296  -9.7513      2.1693    156.6610   9.5813109439e+01   4.1437151703e+01    0.2312659    0.1025355 -77.86  0.001441701    1.711    0.416
       297  -9.1471    249.3010    153.6789   4.5690959991e+01   1.6988165024e+00     0.120523    0.1071505 -59.11 0.0005111907    1.627    0.385
       298  -9.5008     58.3326    150.9862   8.3930377846e+01   3.7129449878e+01    0.1606083    0.1250694 -83.29 0.0002768788    1.084    0.077
       299 -10.1342     10.3043    147.3824   9.3555060473e+01   4.2644109286e+01     0.182261    0.1400947 -37.28  0.001265587    1.990    0.497
       300  -9.5796    236.8325    146.0944   4.6141127821e+01   5.1690668361e+00    0.1943161    0.1866541 -21.23  0.000517934    1.241    0.194
       301  -9.8553     13.3586    141.6611   9.2453822030e+01   4.3560638345e+01    0.2320206    0.1720765 -28.37  0.001055182    2.233    0.552
       302  -9.2095     24.5153    134.0201   8.9330894556e+01   4.4206833271e+01    0.1731209   0.07698648  84.94 0.0008099881    2.733    0.634
       303 -11.3783     35.0848    137.0473   8.7329571780e+01   4.2591258571e+01    0.1775148    0.1488437  84.05            0    1.107    0.096
       304  -9.8357    248.8522    132.2080   4.1000413592e+01   4.6826168435e+00    0.3248326    0.1809422 -35.29  0.001531055    1.782    0.439
       305  -8.9757    225.4868    133.5246   4.5277681213e+01   9.3541241013e+00    0.1418806    0.1319897   8.64 0.0008093368    1.059    0.055
       306  -9.5370      8.2470    132.9294   9.2759495662e+01   4.5747830536e+01    0.1784876   0.08948505 -55.75   0.00108238    1.997    0.499
       307  -8.9746     61.6665    132.0673   8.0602755262e+01   4.0737848052e+01    0.1777164   0.09289695 -55.19 0.0005805976    1.784    0.439
       308  -9.3549     41.7048    129.5868   8.4916148943e+01   4.3516583000e+01    0.1502874    0.1012574  53.58 0.0009417828    1.552    0.356
       309 -10.6627    241.3764    124.8044   4.0506726826e+01   7.2697757232e+00    0.3000486    0.2308721  47.21  0.001611445    1.354    0.262
       310 -10.8361      3.1024    123.6801   9.3047098252e+01   4.8022302733e+01    0.2863298     0.151259 -89.24 0.0006548236    1.580    0.367
       311  -9.8096     77.7478    122.7602   7.5199887703e+01   4.0648235389e+01     0.301441    0.1507067 -57.85  0.001445819    1.798    0.444
       312  -9.0188     50.9986    121.0610   8.1496646692e+01   4.4369082511e+01    0.1502788    0.1163235 -72.78 0.0003665868    1.078    0.073
