#   1 NUMBER                 Running object number                                     
#   2 MAG_AUTO               Kron-like elliptical aperture magnitude                    [mag]
#   3 X_IMAGE                Object position along x                                    [pixel]
#   4 Y_IMAGE                Object position along y                                    [pixel]
#   5 X_WORLD                Barycenter position along world x axis                     [deg]
#   6 Y_WORLD                Barycenter position along world y axis                     [deg]
#   7 A_WORLD                Profile RMS along major axis (world units)                 [deg]
#   8 B_WORLD                Profile RMS along minor axis (world units)                 [deg]
#   9 THETA_WORLD            Position angle (CCW/world-x)                               [deg]
#  10 FWHM_WORLD             FWHM assuming a gaussian core                              [deg]
#  11 ELONGATION             A_IMAGE/B_IMAGE                                           
#  12 ELLIPTICITY            1 - B_IMAGE/A_IMAGE                                       
         1 -17.3589     70.7693    199.8644   1.0837429802e+02   2.3875297904e+01     3.663303     2.351094  67.57   0.01898384    1.614    0.380
         2 -15.2168    121.8451     91.9167   7.2565761022e+01   4.0404124761e+01     2.088002     1.039321 -40.53  0.008098498    2.011    0.503
         3 -16.5890    143.2319    101.9935   6.9890942907e+01   3.3559796900e+01     3.217332      2.44831 -71.13   0.01463743    1.636    0.389
         4 -14.6217     70.7940     40.7671   7.1197310418e+01   5.9902969918e+01     1.231075    0.7873221 -43.70  0.006402319    1.753    0.430
         5 -14.7583    163.9881      5.6071   3.7727388729e+01   4.2938653130e+01     1.891442    0.8278286  86.63  0.007770238    2.723    0.633
         6 -14.5346    186.8426     12.2994   3.6941375879e+01   3.6814198584e+01     1.288162     0.437966  62.37  0.005423775    2.517    0.603
         7 -13.9262    193.8778      4.3550   3.4274872890e+01   3.5952116808e+01     1.336403    0.5587555  79.97  0.006079832    2.271    0.560
         8 -12.7685     13.7467      6.1389   8.1200055076e+01   7.2870236720e+01    0.5414958    0.2994182   4.59  0.003207545    1.879    0.468
         9 -11.8836     14.6828    236.0317   1.2304817120e+02   2.2844316231e+01    0.2883983    0.1904877 -80.66  0.001983415    1.413    0.292
        10 -12.7668    186.3966    249.0439   9.0476652925e+01  -3.3665775941e+00    0.3518079    0.2411397  34.12  0.002177239    1.263    0.208
        11 -12.7170     10.0224    228.9745   1.2352921558e+02   2.4718055069e+01    0.4811531    0.2482983  81.58  0.002448747    1.663    0.399
        12 -12.7544     15.8962    226.7452   1.2230294886e+02   2.4586330764e+01     0.497102    0.2247999  60.80  0.002621048    1.881    0.468
        13 -12.3826    206.4029    229.1010   8.3490687545e+01  -3.3835360050e+00    0.3275203    0.1579922  37.16  0.001633437    1.915    0.478
        14 -12.7749    147.9226    202.6759   9.1046187168e+01   1.0811826007e+01    0.4722228    0.3384443  57.70  0.002393316    1.604    0.376
        15 -16.2855     92.9886    189.6117   1.0174597586e+02   2.2928276370e+01     2.495643     1.647403  85.99   0.01178085    1.896    0.472
        16 -11.8313    123.8116    195.0003   9.5254196726e+01   1.6610812954e+01    0.3505462    0.2483154  53.00   0.00157558    1.421    0.297
        17 -12.8030     35.8276    192.5874   1.1562268584e+02   2.9917087622e+01    0.4734646     0.275109  21.17  0.002076999    2.320    0.569
        18 -12.1718    192.1673    191.5092   7.9537531558e+01   5.1399505507e+00    0.3856578    0.2986203 -83.29  0.001889095    2.260    0.558
        19 -12.4972     50.3782    226.1236   1.1545857118e+02   2.0840620648e+01    0.5894613    0.1643641  55.82  0.001985828    4.503    0.778
        20 -11.4299      7.9540    187.5324   1.2142163187e+02   3.3820064185e+01    0.2853157    0.1887488 -77.95  0.001049626    1.281    0.220
        21 -11.0181      9.5196    183.5115   1.2078851209e+02   3.4602479227e+01    0.2178045    0.1540991  86.48 0.0009267005    1.139    0.122
        22 -10.5786    128.7423    184.3885   9.2274078132e+01   1.8060232712e+01    0.2040525    0.1363519  29.32 0.0009419135    1.598    0.374
        23 -10.8350      3.0314    221.1239   1.2442526820e+02   2.6980742261e+01    0.2467488    0.1526595  11.70  0.001422289    2.874    0.652
        24 -11.4922     19.9154    179.3007   1.1808478946e+02   3.4640578770e+01    0.1680824     0.140803  71.52 0.0003099618    1.109    0.098
        25 -11.0878    120.3163    175.3297   9.2681304567e+01   2.1610511673e+01    0.1491537    0.1174254 -13.81 0.0007046051    1.681    0.405
        26 -12.7093    106.2071    170.8104   9.5399362819e+01   2.5147685795e+01    0.4158216    0.3584581  38.56  0.002234469    1.173    0.148
        27 -12.4452     38.4570    216.2478   1.1709804131e+02   2.4349758100e+01    0.4717422    0.1662992  35.71  0.002150518    2.607    0.616
        28 -12.1087    132.6646    168.6924   8.8381054638e+01   2.0850065014e+01    0.4166402    0.2188747  45.48  0.001387053    1.901    0.474
        29 -15.5223     71.1026    181.8629   1.0600014863e+02   2.8016779388e+01      1.30953    0.8578987  65.68  0.005927452    1.623    0.384
        30 -12.6100    152.4195    209.8481   9.1262359997e+01   8.6331518862e+00    0.4781761    0.3115619 -34.90  0.002395649    1.763    0.433
        31 -12.8788     66.3415    163.2598   1.0454794024e+02   3.3200486432e+01    0.3570365    0.2720742 -23.87  0.001823278    1.804    0.446
        32 -10.8848     13.6842    211.0757   1.2178577531e+02   2.8087861135e+01    0.2055568    0.1277495  57.61  0.001029103    1.359    0.264
        33 -12.8610     18.9443    153.3979   1.1583754836e+02   4.0936548870e+01    0.7497889    0.3255908 -74.73  0.003470813    1.961    0.490
        34 -12.6396     25.3182    153.5546   1.1417736920e+02   4.0328170667e+01     0.655765     0.408033  82.47  0.003475596    1.611    0.379
        35 -10.9549    173.4962    249.1695   9.2990382359e+01  -1.4750925874e+00    0.2669733    0.1401997  23.28  0.001324201    2.012    0.503
        36 -10.9893    113.5286    228.0098   1.0236963904e+02   1.1516207790e+01    0.2680729    0.1550735  49.51  0.001361692    1.595    0.373
        37 -13.4687    108.3651    147.6410   9.0345222592e+01   3.0319620529e+01    0.5078383    0.3979274  29.52  0.002483926    1.385    0.278
        38 -13.8956    106.0883    141.9666   8.9758778992e+01   3.2106399440e+01    0.8953927    0.6280863  36.61  0.004164293    1.481    0.325
        39 -11.2591    146.2527    209.1333   9.2491447303e+01   9.8278991965e+00    0.2685522    0.1651027  58.02 0.0007504062    2.059    0.514
        40 -10.7942     83.3158    141.3167   9.6023758279e+01   3.6154471713e+01    0.1504013     0.113907 -26.42 0.0003576834    1.650    0.394
        41 -11.3938     19.6300    233.0431   1.2196608131e+02   2.2928784779e+01    0.2694831    0.1673281  76.57  0.001186387    1.321    0.243
        42 -11.2037     17.0501    241.7537   1.2292509337e+02   2.1482347201e+01    0.3003566    0.1944745  11.39  0.001724244    2.987    0.665
        43 -12.5756     56.5223     96.9065   9.4631547755e+01   5.0891715573e+01    0.8006293    0.4071869 -69.80  0.003101616    2.710    0.631
        44 -13.8081     50.8584     99.1160   9.7139030581e+01   5.1082942572e+01     1.074544    0.5750317 -68.44  0.004631745    2.139    0.533
        45 -13.4756     33.4771    112.8472   1.0588403487e+02   4.9636797249e+01     1.070907    0.6483875  69.91  0.004985693    2.317    0.568
        46 -14.1030     44.1077    108.4194   1.0150104164e+02   4.9627058130e+01     1.297597    0.8301829 -62.74  0.006626182    1.403    0.287
        47 -13.3663    187.4307    108.9775   6.2077568650e+01   2.2085048196e+01    0.9115767    0.3796134  48.25  0.003341724    2.510    0.602
        48 -11.8170     54.1891    109.6807   9.8404509095e+01   4.8135945601e+01    0.5800152    0.2005296 -43.98  0.001994271    3.079    0.675
        49 -10.2878     75.6864    111.2980   9.1764524193e+01   4.4731260405e+01    0.1456002    0.1148393  78.00 0.0004055458    1.605    0.377
        50 -12.5397     18.8060     86.7267   1.0597849113e+02   5.7108195696e+01    0.5708003    0.3798039 -44.04  0.003313444    1.305    0.234
        51 -12.6256     20.4756     98.4327   1.0765197628e+02   5.4236611784e+01    0.5439525    0.4157019 -69.74  0.002886655    1.179    0.152
        52 -11.8946     20.0927     93.3525   1.0682858836e+02   5.5467302472e+01    0.3889551    0.2848161 -65.13   0.00216363    1.188    0.158
        53 -12.8140    191.1510    114.1597   6.2649073320e+01   2.0266804974e+01    0.5470867     0.319308  29.57  0.002132223    2.518    0.603
        54 -11.2641     58.1857     91.1057   9.2561329915e+01   5.2015578337e+01    0.2256482    0.1778029 -31.15  0.001186596    1.244    0.196
        55 -13.5123     22.3899     68.6056   1.0036270669e+02   6.0893174761e+01     1.529875    0.8120901 -24.80  0.007537277    2.152    0.535
        56 -10.7286     48.8454    122.8477   1.0279679785e+02   4.5536931174e+01    0.1990654     0.176504 -43.15 0.0006902065    1.145    0.126
        57 -10.2036     75.4688     75.5149   8.1904474163e+01   5.2813762265e+01    0.1429471    0.1313429 -20.05 0.0001064079    1.002    0.002
        58 -13.8170     48.8793     82.8676   9.3745032186e+01   5.5069497037e+01    0.9032115    0.7620336 -48.83  0.004248439    1.094    0.086
        59 -11.8473    125.4627     73.0263   6.5861093502e+01   4.3274333553e+01    0.2324516    0.2050641  47.28 0.0009535801    1.120    0.107
        60 -10.9686     41.4637     72.7604   9.3775262841e+01   5.8152782509e+01    0.2489124    0.1226645 -57.75  0.001123089    2.006    0.502
        61 -13.2488    101.1610     69.2788   7.1475314394e+01   4.9236915314e+01    0.7708848    0.3647025  49.10  0.003060602    2.209    0.547
        62 -13.5111    132.2441     67.9822   6.2568749123e+01   4.2606354732e+01    0.5756542     0.385565  22.86  0.002482484    2.028    0.507
        63 -10.7873    195.6779     67.7038   5.0069392252e+01   2.7443628512e+01    0.1379651    0.1119842  24.76 0.0004621213    1.619    0.382
        64 -12.1970    149.9233     59.1452   5.5856675712e+01   3.9839567715e+01    0.2322125    0.1996793 -80.48 0.0009194195    1.260    0.207
        65 -13.2476     52.6481     45.5701   8.0098797705e+01   6.2038311249e+01     1.141343    0.6009208  -0.34  0.004046191    4.188    0.761
        66 -10.7561      7.0871    241.8981   1.2470442916e+02   2.2460009777e+01    0.1711436    0.1070059  66.64 0.0006419983    1.194    0.162
        67 -12.7195     64.8851     51.8058   7.7632647340e+01   5.9080555493e+01    0.3772626    0.2227965  32.24  0.001877433    1.712    0.416
        68 -13.5022     82.6048     47.4189   6.9664576593e+01   5.6691148209e+01    0.5742113    0.4843817 -69.51  0.003194006    1.679    0.404
        69 -16.0868    152.6801    129.5185   7.4769707949e+01   2.5587354919e+01     3.098913     1.567059  53.99   0.01145761    2.299    0.565
        70 -10.6861    116.4534    239.1255   1.0314753662e+02   8.9671015022e+00    0.1609361    0.1263075 -63.44 0.0002867717    1.472    0.321
        71 -11.9326    201.1156    237.0603   8.5804470181e+01  -3.7804927134e+00    0.2960585    0.1581553 -27.78  0.001530454    2.090    0.522
        72 -11.2980     59.4792    237.9685   1.1462590527e+02   1.7294898832e+01    0.3249042    0.1635795  58.68  0.001717527    1.825    0.452
