#   1 NUMBER                 Running object number                                     
#   2 MAG_AUTO               Kron-like elliptical aperture magnitude                    [mag]
#   3 X_IMAGE                Object position along x                                    [pixel]
#   4 Y_IMAGE                Object position along y                                    [pixel]
#   5 X_WORLD                Barycenter position along world x axis                     [deg]
#   6 Y_WORLD                Barycenter position along world y axis                     [deg]
#   7 A_WORLD                Profile RMS along major axis (world units)                 [deg]
#   8 B_WORLD                Profile RMS along minor axis (world units)                 [deg]
#   9 THETA_WORLD            Position angle (CCW/world-x)                               [deg]
#  10 FWHM_WORLD             FWHM assuming a gaussian core                              [deg]
#  11 ELONGATION             A_IMAGE/B_IMAGE                                           
#  12 ELLIPTICITY            1 - B_IMAGE/A_IMAGE                                       
         1 -14.4233     69.1434    146.5637   6.6171043659e+01   3.6679914668e+01     4.538455     2.181945 -88.69  0.003945292    4.258    0.765
         2 -14.1389    230.4509     52.6766   7.3739464632e+00   2.1602858528e+01     2.097682     1.254937  43.19  0.009497527    2.356    0.576
         3 -13.8853    238.2454     47.8662   5.5738455404e+00   2.0673779943e+01     1.622279     1.029309  39.99   0.00158241    2.386    0.581
         4 -12.6769      6.5592     22.9924   6.4107217728e+01   7.3337897060e+01    0.6355239    0.4444097   8.18  0.002819692    1.429    0.300
         5 -12.8633      4.3861      7.1271   5.8282656171e+01   7.6497954491e+01     1.075049    0.5475783 -41.00  0.006065807    1.661    0.398
         6 -12.6153     11.8774     11.6383   5.4718407379e+01   7.5043164597e+01    0.7492896    0.2519915 -38.32  0.003216738    2.795    0.642
         7  -8.7723     60.4821     21.4616   3.1539384842e+01   6.6125627751e+01    0.1360687    0.1195581  20.64 0.0001454799    1.007    0.007
         8 -10.9549     28.9143    247.3138   8.5645043800e+01   1.9116166283e+01    0.3948978    0.2192623 -86.65  0.002022765    1.913    0.477
         9 -12.4311     42.1873    164.0913   7.6541969114e+01   3.5711615837e+01    0.6419601    0.4710954  -2.83  0.001382688    1.867    0.464
        10 -12.0249     49.3776    159.4384   7.3933925545e+01   3.6036730468e+01    0.3701283    0.3497942  31.87 0.0008586825    1.164    0.141
        11 -14.3641      9.1403    239.7578   8.9281027261e+01   2.2462885489e+01     3.782787     2.131859   3.55  0.006004634    3.613    0.723
        12 -13.6184      7.1875    185.2255   8.7472555458e+01   3.4020159094e+01    0.6757028    0.5056832 -46.52 0.0009084218    1.721    0.419
        13 -16.3123     19.4699    177.4238   8.3908456954e+01   3.4774079214e+01     7.681806     3.072594  84.21   0.03176856    2.766    0.638
        14 -11.3232    133.5737    230.3608   6.1797001438e+01   8.8253299054e+00    0.2758848     0.256797  86.87  0.001882453    1.393    0.282
        15 -10.4658    154.1575    228.8488   5.7228429984e+01   6.1073178702e+00    0.1795935    0.1332968   8.16  0.001086307    1.327    0.246
        16 -11.1919     99.6211    228.5250   6.9045923197e+01   1.3982065494e+01    0.3701252    0.1777145  48.69  0.001773063    1.988    0.497
        17 -10.2386     89.9830    224.7143   7.0812308036e+01   1.6031304877e+01    0.1911746    0.1442054  38.42 0.0009239941    1.097    0.088
        18 -11.0325     83.7692    201.4184   6.9708397826e+01   2.1627291372e+01    0.2876612    0.2287081  25.76  0.001655941    1.270    0.213
        19 -11.1068    104.6305    200.3556   6.4459468876e+01   1.8780371853e+01     0.416328    0.2083926  26.81  0.001570129    2.058    0.514
        20 -10.5201     82.5226    195.0263   6.9255803117e+01   2.3190922894e+01    0.2788176    0.1852169  75.20  0.001387559    1.809    0.447
        21 -10.9011     77.9796    193.9046   7.0270760956e+01   2.4081241560e+01    0.2869264    0.2186431 -60.91 0.0007505176    1.441    0.306
        22 -10.3152     79.6175    188.8683   6.9238891287e+01   2.4976565575e+01    0.2968189    0.1709456 -82.35  0.001027452    2.216    0.549
        23 -10.7234     71.3700    194.3760   7.2002720876e+01   2.4886838697e+01    0.3359566    0.2152278  12.68    0.0016058    2.072    0.517
        24 -11.3353    126.8158    230.7309   6.3304467994e+01   9.7336077887e+00    0.3408605    0.2633377  46.20  0.002126599    1.265    0.210
        25 -10.0724     99.1282    181.3043   6.3132543158e+01   2.3742580726e+01    0.3053674    0.2431261  28.11 0.0006686979    1.232    0.188
        26 -11.3486     66.3201    177.6578   7.1373861719e+01   2.9420276876e+01    0.5675487    0.2953816  86.77  0.002253035    2.768    0.639
        27  -9.3809    120.4223    180.2031   5.7515928799e+01   2.0497375193e+01    0.1864576    0.1418472 -71.94  0.000668566    1.613    0.380
        28 -12.3784    230.4931    166.2890   3.1814765655e+01   4.5279255265e+00    0.7390801    0.2923617 -32.28  0.003298427    2.335    0.572
        29 -13.2415    235.0304    158.1798   2.9512313176e+01   5.0611611547e+00    0.8440695    0.5580906 -32.40   0.00498641    1.313    0.238
        30 -10.9193    101.8794    171.5851   6.0887863505e+01   2.5501145509e+01    0.8329898    0.1788819  42.73  0.002281627    4.342    0.770
        31 -10.5832     72.6755    167.0134   6.8220882722e+01   3.1092844509e+01    0.4535657    0.2523047 -77.48 0.0008382032    2.116    0.527
        32 -12.4785     75.7101    133.5063   6.1808935016e+01   3.9010393533e+01    0.6689326    0.4367069 -69.86 0.0005504205    1.632    0.387
        33 -13.4443     47.1704    147.1255   7.3047466304e+01   3.9418721157e+01    0.6868183    0.4441366   9.99  0.001621429    2.005    0.501
        34  -8.6466    174.9712    149.4840   3.8729885133e+01   1.6835619524e+01    0.1874361     0.127807  67.07 0.0005916777    2.325    0.570
        35  -9.6114    133.3323    143.8213   4.7256179664e+01   2.6116458952e+01    0.3700631    0.1509898 -57.41  0.001162507    3.386    0.705
        36 -10.2744     56.1086    243.6062   7.9851894926e+01   1.6785943176e+01    0.2041655    0.1689685  88.92 0.0005670369    1.339    0.253
        37  -9.3149    110.7244    167.2017   5.7793680447e+01   2.5015022940e+01    0.2073884     0.189409  61.75 0.0004845336    1.117    0.105
        38  -9.7236     92.9994    133.7729   5.6453545628e+01   3.6071232695e+01     0.344126    0.2622314  -5.09  0.001560659    1.776    0.437
        39  -9.1021     76.1271    231.8578   7.4611995251e+01   1.6511462993e+01    0.1654458    0.1330794  21.69 0.0006224983    1.333    0.250
        40  -9.7372    105.4860    130.4723   5.1990106759e+01   3.4596122364e+01    0.3356864    0.2731073 -69.99  0.001508945    1.346    0.257
        41  -9.8028    103.8110    127.3870   5.1792129737e+01   3.5653970508e+01    0.3757532    0.2748654  19.48  0.001165316    1.629    0.386
        42 -11.2425     42.4992    130.2328   7.2203148995e+01   4.4325091986e+01     0.388338    0.2268809  60.32  0.001521172    1.940    0.485
        43 -10.5085     88.9823    136.0473   5.8148583663e+01   3.6202876533e+01    0.3435142    0.3213332  23.53 0.0008471912    1.118    0.105
        44 -14.2568      3.9683    218.7404   8.9611329198e+01   2.7044572836e+01     1.901343     0.665889  26.97  0.002486464    2.691    0.628
        45 -10.9985     89.4744    122.6434   5.5146383627e+01   3.9446080191e+01    0.3305362    0.2642116  38.06 0.0005301152    1.243    0.195
        46  -9.0266    112.1886    122.5795   4.8197562707e+01   3.5167492267e+01    0.2235009     0.149361  26.78 0.0009380993    1.720    0.419
        47 -10.1488     47.5656    119.6452   6.8757160990e+01   4.6500426475e+01    0.2763524    0.1770276  32.90 0.0008932747    1.594    0.373
        48 -12.0065    116.1401    230.4758   6.5604744936e+01   1.1303273602e+01    0.5675085    0.2125663  37.96  0.002512889    2.117    0.528
        49  -9.6572    102.4832    116.6041   4.9648647524e+01   3.8495336141e+01     0.248118    0.2456891  52.51   0.00016675    1.007    0.007
        50 -11.3220     28.6623    115.8210   7.4935999371e+01   4.9494726293e+01    0.4439867    0.2011267  55.54  0.001727847    2.745    0.636
        51 -10.0350    205.0018    110.6003   2.4225563532e+01   1.7975956622e+01    0.2972982    0.2532965  36.05  0.001105161    1.287    0.223
        52  -9.9349     38.9128    105.8042   6.9473864105e+01   5.1088067824e+01    0.2769896    0.1723748  76.08  0.001217884    2.070    0.517
        53  -9.3695    167.4863     89.5407   2.5758427518e+01   2.9829191687e+01    0.1474887    0.1444425 -52.89 0.0001170325    1.023    0.022
        54  -8.8498    141.3388     80.7044   2.8925657067e+01   3.7670919900e+01    0.2310826    0.1745097 -76.39 0.0005418434    1.667    0.400
        55  -9.0686    139.3257     77.6844   2.8498478180e+01   3.8722080224e+01    0.2868917    0.1918924 -62.10 0.0008909818    1.839    0.456
        56  -8.9886    184.4133     77.7247   1.9512336545e+01   2.7945894312e+01    0.1997358    0.1370036 -25.39 0.0009449529    1.618    0.382
        57 -10.4688     26.1172    239.1969   8.5834237711e+01   2.0913299164e+01     0.310326    0.1471046  89.63  0.001399478    2.233    0.552
        58  -9.9969     37.7519    233.3850   8.3096805838e+01   2.0798948042e+01      0.21504    0.1638728 -85.21 0.0005161056    1.404    0.288
        59 -10.7961     13.3322     60.4645   7.1484880469e+01   6.4646632251e+01    0.2884351    0.2006767 -51.11 0.0005119923    1.228    0.185
        60  -8.7760     70.6523     51.3287   4.0681516166e+01   5.9169710906e+01    0.1441819    0.1176034  84.57 0.0007049509    1.758    0.431
        61 -14.8002      9.8946    207.4675   8.7872790794e+01   2.8871944402e+01     2.592342      0.93668  29.92   0.01021857    2.423    0.587
        62 -11.5377     62.5468    151.6705   6.8971819120e+01   3.6310892721e+01    0.3549102    0.3205954  16.98 0.0007808878    1.234    0.190
        63 -10.2337     35.5309    227.8699   8.3254283425e+01   2.2122248414e+01    0.3429157    0.1749425  49.52  0.001512942    1.538    0.350
        64 -10.0360     41.8983    229.5643   8.1973147731e+01   2.1088774914e+01    0.4148102    0.1517188 -79.73  0.001873707    3.169    0.684
        65 -11.1621    142.4124    231.7228   6.0087654765e+01   7.3294188097e+00    0.2461266      0.14623  25.66  0.001340209    1.475    0.322
        66  -8.9480    189.4971     15.0604   2.1271293391e+00   3.5292620218e+01    0.1864523    0.1216471 -33.83  0.000530002    1.540    0.351
