#   1 NUMBER                 Running object number                                     
#   2 MAG_AUTO               Kron-like elliptical aperture magnitude                    [mag]
#   3 X_IMAGE                Object position along x                                    [pixel]
#   4 Y_IMAGE                Object position along y                                    [pixel]
#   5 X_WORLD                Barycenter position along world x axis                     [deg]
#   6 Y_WORLD                Barycenter position along world y axis                     [deg]
#   7 A_WORLD                Profile RMS along major axis (world units)                 [deg]
#   8 B_WORLD                Profile RMS along minor axis (world units)                 [deg]
#   9 THETA_WORLD            Position angle (CCW/world-x)                               [deg]
#  10 FWHM_WORLD             FWHM assuming a gaussian core                              [deg]
#  11 ELONGATION             A_IMAGE/B_IMAGE                                           
#  12 ELLIPTICITY            1 - B_IMAGE/A_IMAGE                                       
         1 -12.8399     74.4610     51.9170   5.5984907432e+01   5.6859335652e+01    0.9617412    0.4668443 -52.27  0.001962396    2.478    0.597
         2 -12.5800    119.8421     37.5429   3.7091627585e+01   5.0313830195e+01    0.8790726    0.5091217 -51.16  0.002854018    2.239    0.553
         3 -11.7690     60.4147     47.3849   5.9391075917e+01   5.9784541035e+01    0.9765256    0.4297059 -44.92   0.00445694    2.072    0.517
         4 -12.1257    126.1944     28.6340   3.2341576146e+01   5.0052458863e+01    0.5620358     0.497833  62.21  0.003239657    1.153    0.133
         5 -11.1338      4.9743     36.8710   7.8461167256e+01   6.7094275699e+01    0.5832309    0.2524107 -57.47  0.003265932    1.823    0.451
         6 -12.2516    105.9262     20.8898   3.4459597941e+01   5.5586154777e+01    0.3740485    0.3468804 -65.91 0.0007740404    1.337    0.252
         7 -12.1420     20.2233     21.8649   6.6513582386e+01   6.8718408007e+01    0.5314755     0.238157 -40.32  0.001511073    1.757    0.431
         8 -11.8591     36.2212     18.3804   5.7802477828e+01   6.7673993738e+01    0.7166913    0.3159622 -36.79  0.003764675    1.949    0.487
         9 -11.9393     48.4762     12.9518   5.0142510017e+01   6.6894170420e+01    0.5344912    0.2822293  38.54  0.002891458    1.980    0.495
        10 -11.9073     26.6926     28.0491   6.5951998260e+01   6.7098615956e+01    0.5434813    0.2994319 -43.81  0.002455704    1.503    0.335
        11 -10.4777     12.7044      8.6402   6.4666347955e+01   7.1452195239e+01    0.3714942    0.2359636 -63.44  0.001806403    3.083    0.676
        12 -12.2683     16.0550     14.1881   6.5388617444e+01   7.0315420467e+01    0.6833267    0.3179334 -24.21  0.003673699    2.256    0.557
        13 -11.7314     22.8047     11.2582   6.0835849188e+01   7.0160300940e+01    0.4332809    0.2493707  -5.03  0.001854619    1.920    0.479
        14 -10.4754     87.5236      7.3552   3.3977892604e+01   6.0901733704e+01    0.5175353    0.2749215  50.97  0.002023504    1.756    0.431
        15 -11.0728     90.7024     22.3602   3.9343136312e+01   5.8552226379e+01    0.4315878    0.2893474 -25.18  0.001614773    1.483    0.326
        16 -11.4164     85.9691     13.8565   3.7227415623e+01   6.0504369467e+01    0.4670958    0.2901047 -24.12  0.001580606    1.608    0.378
        17 -11.2530    121.4774     11.7650   2.7227167703e+01   5.3091417094e+01    0.4796429    0.3491615   6.00  0.002534168    1.541    0.351
        18 -11.1407    135.0856     22.1908   2.8096379337e+01   4.8713667555e+01    0.5253381    0.4349502  51.55  0.001657826    1.106    0.096
        19 -10.6729    127.1509     11.8665   2.6060342848e+01   5.1745451081e+01    0.3439616    0.2733927 -73.23  0.001868592    1.574    0.365
        20 -10.7036    134.3065     14.9355   2.5706310986e+01   4.9709174746e+01     1.043177    0.2292262  57.06  0.003372406    3.431    0.709
        21 -11.8669     68.0361     18.4355   4.5119211567e+01   6.3181830602e+01    0.4460038    0.3799064  14.95  0.001444005    1.087    0.080
        22 -12.6239    245.3098     17.1826   1.1597431797e+01   2.1826298832e+01    0.5997812    0.1987527 -36.96  0.002504102    2.567    0.610
        23 -12.3671    247.1978      6.5039   9.0725026186e+00   2.2645495068e+01    0.5938168    0.3888671 -12.61  0.002778608    2.290    0.563
        24 -11.3516    244.0329      2.3713   8.4092425628e+00   2.3822747235e+01    0.4485956    0.2276716  50.28  0.002147778    2.579    0.612
        25 -12.1690    164.6230     18.2451   2.1410609035e+01   4.1756072460e+01    0.6031755    0.2839076  41.84  0.002414909    2.453    0.592
        26 -12.4344    238.4464     16.0025   1.1936636753e+01   2.3551086231e+01    0.4682969    0.2625544  72.32  0.002407604    1.701    0.412
        27 -12.2706    227.5391     15.2214   1.2769471440e+01   2.6224310125e+01    0.5663224    0.3362019  86.74  0.001852585    1.650    0.394
        28 -12.2657    104.8586     12.6873   3.1495569773e+01   5.6742197809e+01    0.5343078    0.3569726 -24.44  0.002568929    1.561    0.359
        29 -11.4782    206.1203      2.8485   1.1808043524e+01   3.2826857712e+01    0.6567492     0.286745  80.86  0.002789124    2.279    0.561
        30 -11.1840    211.9571      9.6913   1.2954951604e+01   3.0654439423e+01    0.6595329    0.3774088  -4.77   0.00283624    3.041    0.671
        31 -10.0908    211.7157      3.3023   1.1377002285e+01   3.1396292800e+01     0.193876    0.1039888 -40.49 0.0001849176    1.799    0.444
        32 -11.2409    192.9452      8.0310   1.4585352505e+01   3.5602651501e+01    0.6264706    0.3685543  22.78  0.002354874    2.857    0.650
        33 -10.8949      5.9379     10.8917   6.9087227823e+01   7.1603375386e+01    0.3510635    0.2650444 -12.88   0.00271738    1.190    0.160
        34 -10.6822    169.8608      9.1959   1.7862634307e+01   4.1375977640e+01    0.3937399    0.1671642  54.51  0.001649655    2.099    0.524
        35 -10.4735    145.2571      9.7711   2.1891088560e+01   4.7542516896e+01    0.2419963    0.1981424  38.56 0.0003358847    1.214    0.176
        36 -10.1076     65.9744     10.3962   4.2262649741e+01   6.4528037528e+01    0.2961909    0.1591433  43.38  0.001589086    1.817    0.450
        37 -10.2100     62.5687      7.2189   4.2015079057e+01   6.5462578417e+01    0.2639321    0.1748122  -4.70  0.001327489    1.465    0.317
        38  -9.8734      1.2213      8.2801   7.0466438271e+01   7.2326522845e+01    0.2199142   0.05376935 -46.82  0.001040725    2.760    0.638
        39 -11.3256    232.5433      7.0604   1.0391809318e+01   2.5965939198e+01    0.3032536    0.2157165 -74.76 0.0009506432    1.250    0.200
        40 -12.2359    234.4959      3.4053   9.3890437523e+00   2.5909485207e+01    0.7049679    0.3293209 -70.13  0.003151469    2.343    0.573
        41  -9.8326    184.8746      7.3892   1.5368162995e+01   3.7721925257e+01    0.2284802    0.1751298  50.29   0.00127074    1.349    0.259
        42  -9.9822    183.5053      4.5170   1.4726813149e+01   3.8358006548e+01    0.2341554    0.1394697 -19.87  0.001036599    2.009    0.502
        43 -11.0574    122.0404      5.5899   2.4806529278e+01   5.3556995269e+01    0.2427371    0.1694827 -17.29 0.0008994433    1.564    0.361
        44  -9.7823     78.0419      7.5533   3.6927884223e+01   6.2707219890e+01    0.2248587    0.1645936  69.75  0.001103073    2.031    0.508
        45 -10.0519     76.8088      3.3935   3.5440462940e+01   6.3364859373e+01    0.2524369    0.1748702  18.71  0.001017067    1.345    0.257
        46 -10.8787     73.0169      3.4660   3.6680648438e+01   6.4055808967e+01    0.4963078    0.2219087  33.95  0.002352924    2.222    0.550
        47 -11.0079    176.9823      5.9028   1.5933203067e+01   3.9884527979e+01    0.3560102    0.1939182  78.88 0.0006821912    1.789    0.441
        48  -9.5611    163.1650      5.9133   1.7814931097e+01   4.3405272655e+01    0.1880233    0.1466841  40.99 0.0004265147    1.340    0.254
        49 -11.7337    225.2201      2.8749   1.0044773139e+01   2.8161322982e+01    0.5509862    0.2828762  85.19  0.001454189    1.878    0.468
        50 -10.9506    218.5428      3.8720   1.0877802885e+01   2.9666133489e+01    0.2830537     0.241645 -33.98  0.001008919    1.325    0.245
        51 -10.3290     41.5716      4.0437   4.8793370856e+01   6.8976675893e+01    0.2928891    0.1694746   1.36  0.001359019    1.939    0.484
        52 -11.6606    133.1985      2.5892   2.1558699511e+01   5.1168717050e+01    0.5554668    0.2857522  68.41  0.002576674    1.861    0.463
        53 -11.1357    105.7307      2.7906   2.7315195039e+01   5.7516390416e+01    0.3407006    0.2872608 -62.69  0.001618752    1.545    0.353
        54  -9.9597     22.0135      3.2500   5.7462557257e+01   7.1384189434e+01     0.197754    0.1357668 -33.99  0.001131009    1.357    0.263
        55  -9.3349    157.4823      3.5165   1.7895196451e+01   4.5068907757e+01    0.1360822    0.1209487  76.41  2.69873e-05    1.045    0.043
        56 -10.2685    141.4710      3.1756   2.0313208528e+01   4.9097408875e+01    0.2659537    0.1736136  63.92  0.001212897    1.354    0.262
        57 -11.4387    113.8212      2.4490   2.5352578762e+01   5.5735709730e+01    0.5078965    0.2461737  65.24   0.00207275    2.075    0.518
        58 -10.1022     13.1362      1.5701   6.1163486500e+01   7.2454932399e+01    0.1726122    0.1123538   5.87 0.0007690045    1.462    0.316
        59  -9.9529    152.2702      1.3676   1.7988006664e+01   4.6572438785e+01     0.235358    0.1112948  64.47 0.0003551895    1.806    0.446
        60 -10.9423      2.6033      1.9131   6.6966622807e+01   7.3224081423e+01    0.2590999    0.1471399  -6.56  0.001412666    1.756    0.430
        61 -10.8285     29.9140    133.1254   8.8424229849e+01   4.4356082273e+01    0.3236242    0.2224946 -47.95 0.0007965745    1.602    0.376
        62  -9.5870     89.8275    250.3911   8.8246574205e+01   1.2312120082e+01    0.1580845   0.09334645  38.28 0.0009466948    1.733    0.423
        63 -11.3362     50.3870    249.3271   9.4786214884e+01   1.7847310518e+01    0.3788055    0.1104701  50.45  0.001909961    2.445    0.591
        64 -10.7226     12.2597    136.3797   9.3161470172e+01   4.5131886172e+01    0.4146239    0.1821272 -56.18  0.002171303    2.091    0.522
        65  -9.5556     47.2366    134.9773   8.4242044742e+01   4.2125531077e+01    0.1752398   0.09423593 -68.24 0.0005629458    1.594    0.373
        66 -10.1569     73.1922    133.5226   7.7215945006e+01   3.9137846229e+01    0.2689795    0.1829392 -64.41  0.001401767    1.331    0.249
        67  -9.4212    103.9884    131.0206   6.8613475594e+01   3.4744747903e+01    0.2175785    0.1784807 -23.85 0.0006488116    1.563    0.360
        68  -9.7301     93.3008    129.8247   7.1178533583e+01   3.6881616735e+01    0.2393337    0.1790783 -80.66  0.001199594    1.436    0.304
        69 -10.6266     10.9677    126.6104   9.2443272176e+01   4.7438973141e+01    0.2815093    0.1400697 -72.26  0.001107565    1.547    0.353
        70  -9.5940     39.6747    133.4423   8.5971619615e+01   4.3310253767e+01    0.1395499    0.1280595   6.85 0.0006240318    1.457    0.314
        71  -9.1657     26.5566    127.4696   8.8558514376e+01   4.5971895612e+01    0.1244648    0.0989792 -75.90  6.47993e-05    1.024    0.024
        72  -9.5609     22.8913    126.9117   8.9436059295e+01   4.6421242972e+01    0.1695518    0.1323602 -66.94            0    1.135    0.119
        73  -9.6819      1.9713    125.9262   9.4616027258e+01   4.8218321884e+01    0.1899456    0.1095158  73.62  0.001128025    1.740    0.425
        74 -12.2314    103.8799    122.4601   6.6779753468e+01   3.6755297445e+01     0.343325    0.3326399  65.85 0.0005610983    1.080    0.074
        75  -9.9304     49.6375    123.0586   8.1744824408e+01   4.4653958933e+01    0.2341814     0.179453  -4.59  0.001316369    1.916    0.478
        76 -10.1214     48.9026    112.3317   8.0087758414e+01   4.7255300654e+01    0.4006144    0.1956847 -50.28  0.001895539    1.883    0.469
        77 -10.2731     44.7595    120.0139   8.2583612296e+01   4.5913118396e+01    0.2427742    0.1651304 -65.92 0.0006714323    1.237    0.192
        78 -10.2975     43.5520    116.4761   8.2333063934e+01   4.6871457602e+01    0.2491643    0.2142296 -59.92 0.0007460905    1.118    0.106
        79 -12.6156      2.8391    111.9200   9.2900538146e+01   5.1296939540e+01    0.4586211    0.2699909  77.14 0.0006272738    1.780    0.438
        80 -11.2536      4.7999    104.9752   9.1529508174e+01   5.2731459971e+01    0.3401305    0.2963046  11.59  0.002553797    1.536    0.349
        81 -10.1075     79.1981    114.7479   7.1889980787e+01   4.2682772725e+01    0.2822986    0.2189346 -62.36  0.001086262    1.183    0.155
        82 -10.1736     67.0741    110.9001   7.4552756112e+01   4.5332029188e+01    0.2919715    0.1985159  35.98  0.001147888    1.646    0.392
        83 -11.7210      7.0846     88.7796   8.8597942953e+01   5.6198707982e+01    0.5788348    0.3661967   9.22  0.003649669    2.134    0.531
        84 -12.3582     17.8359    100.5872   8.7174362784e+01   5.2845193972e+01     0.403597    0.3581221  53.81  0.002908789    1.339    0.253
        85 -11.4692     10.1815     97.0358   8.8901958252e+01   5.4171999747e+01    0.5739946    0.4431786 -18.40  0.001238468    1.664    0.399
        86 -11.7525     27.7267     85.0971   8.1381508195e+01   5.5556776050e+01    0.5893456    0.4964274 -20.98  0.003994242    1.362    0.266
        87 -10.7616     34.5918    103.7882   8.2742652353e+01   5.0715000869e+01    0.5755626    0.3002644   7.24  0.002590372    3.381    0.704
        88 -11.4358     25.5141    107.3374   8.5983285198e+01   5.0703409264e+01    0.6491157     0.362956 -47.77  0.003559843    1.725    0.420
        89 -10.7225     35.5882     92.7866   8.0390249115e+01   5.3135361743e+01    0.3776991    0.2165601 -73.61  0.001496559    1.748    0.428
        90 -11.7743     44.3634     85.0405   7.5921271511e+01   5.4002514015e+01    0.4352347    0.3495351  11.50  0.001747423    1.502    0.334
        91 -10.7044     37.2223     86.0343   7.8477757043e+01   5.4499461716e+01    0.3154968     0.213943   5.15  0.001747583    1.973    0.493
        92 -10.8288     21.6600    114.3724   8.8104777919e+01   4.9405787660e+01    0.5482974     0.274752   8.20  0.002597741    3.467    0.712
        93 -10.9714     28.0414    113.4915   8.6207149202e+01   4.9070321775e+01    0.3186904    0.2330722   5.70  0.001322147    1.923    0.480
        94 -11.2757     22.7708     94.5506   8.4705690855e+01   5.3836320686e+01    0.2579259    0.2228425  12.10   0.00095864    1.461    0.316
        95 -11.5277     18.1377     90.9282   8.5517827469e+01   5.4997640271e+01    0.4482866    0.2695303 -89.60  0.001627279    1.911    0.477
        96  -9.6366     93.7467    112.5750   6.7299232509e+01   4.0837015859e+01     0.254064    0.1773013 -77.85  0.001007312    1.742    0.426
        97  -9.7630    170.6909    110.3656   4.7238064500e+01   2.5081668569e+01    0.2618728     0.196221 -17.47 0.0007064717    1.675    0.403
        98  -9.2972    120.2648    109.3846   5.9259448793e+01   3.6579593070e+01    0.1551417    0.1196101 -18.29 0.0006983101    1.692    0.409
        99 -10.5510    103.1341    108.8007   6.3773196814e+01   4.0036457650e+01    0.4174488    0.2459126  25.42  0.001566405    2.413    0.586
       100 -11.3887     79.7895    108.2271   7.0280779504e+01   4.4113563741e+01    0.5099642    0.3138493  30.15  0.001109099    1.925    0.481
       101 -10.5224     16.2070    108.4304   8.8792126559e+01   5.1184796973e+01    0.2332357      0.18009 -47.61 0.0008932155    1.341    0.254
       102  -9.4386    143.4140    106.1970   5.2495520670e+01   3.2287504752e+01    0.2266551     0.145542 -55.50 0.0009435776    1.689    0.408
       103 -10.3934     85.7897    103.8393   6.7507525610e+01   4.4178274435e+01    0.2133397    0.1882377 -38.06 0.0006449767    1.161    0.139
       104  -9.5847     64.6522    102.1019   7.3381843474e+01   4.7704285543e+01    0.2643609    0.1397744 -49.41 0.0003920542    1.707    0.414
       105 -11.9801     68.6270     95.8800   7.0741760727e+01   4.8588303485e+01    0.3664456    0.3011658   5.32 0.0005133546    1.500    0.334
       106 -10.9104     52.0401     99.3727   7.6623968310e+01   4.9905711220e+01     0.635929    0.1873238 -50.19  0.001670734    2.899    0.655
       107  -9.5463     28.3915     99.7980   8.3901216845e+01   5.2185604064e+01     0.194304    0.1345081 -33.48 0.0006191162    1.673    0.402
       108 -10.3725     30.7206     96.1742   8.2548886295e+01   5.2808878498e+01    0.3909018     0.263821  84.21  0.002205978    1.765    0.433
       109 -10.9721     81.1267     98.0974   6.7483860303e+01   4.6232224629e+01    0.4993375    0.2518602  54.56  0.001970491    2.749    0.636
       110 -10.8409     83.0109     93.0860   6.5644978484e+01   4.7061254160e+01    0.4045794    0.2736008  68.02 0.0003115561    2.132    0.531
       111 -10.8292     79.2015     93.4014   6.6885816901e+01   4.7591640965e+01    0.4488606    0.3428572  57.23  0.002375257    1.531    0.347
       112 -11.9081    125.2454     94.7203   5.4016569088e+01   3.8735209551e+01    0.4321012    0.2898408  54.96  0.001928124    1.603    0.376
       113 -10.3561    120.4793     90.4907   5.4103909326e+01   4.0641091378e+01    0.2507142    0.2200199 -76.58 0.0006300938    1.267    0.211
       114 -10.5740     42.9524     94.4915   7.8422641944e+01   5.2021088608e+01    0.2818996    0.2621959  48.37  0.001151415    1.254    0.202
       115 -10.9629     98.6662     91.0809   6.0434142443e+01   4.4814080392e+01    0.3236063     0.244447  46.17 0.0006169621    1.404    0.288
       116 -11.4495     89.8852     89.7484   6.2678435711e+01   4.6659982121e+01    0.5913513    0.3317831 -35.60  0.002525259    2.007    0.502
       117 -10.5647     49.4641     91.4776   7.5723795227e+01   5.2001375444e+01    0.2679382    0.2267668  84.80  0.001644596    1.340    0.253
       118  -9.9192     65.9326     88.7676   6.9845244855e+01   5.0562470094e+01    0.3101927     0.189814 -17.65  0.001322992    2.714    0.632
       119  -9.0080    199.7025     88.2887   3.5553565175e+01   2.2254818806e+01    0.1542022    0.1170643 -72.18  0.000314024    1.555    0.357
       120 -10.5997    103.9747     87.1961   5.7797108626e+01   4.4658103105e+01    0.2706718    0.2064059 -45.59 0.0009225288    1.254    0.203
       121 -11.0381    143.1431     84.6930   4.6561374203e+01   3.6769082919e+01    0.2645402    0.2477846 -36.08 0.0002721749    1.075    0.069
       122  -9.6355    133.1062     84.7880   4.9109443917e+01   3.9058873462e+01    0.2264291    0.1996118 -87.81 0.0003680979    1.285    0.222
       123 -10.7836     80.1938     83.9466   6.4067205981e+01   4.9521863012e+01    0.4102088    0.3656884 -86.24  0.002225025    1.294    0.227
       124 -10.9468     76.2978     79.1380   6.3958579523e+01   5.1164019394e+01    0.6060601    0.2798637 -49.93   0.00258101    1.980    0.495
       125 -10.3762     72.6095     77.8336   6.4781839698e+01   5.1999522294e+01    0.3521805    0.2393669 -53.06  0.001829112    1.381    0.276
       126 -10.8722    113.0482     82.4533   5.3821461341e+01   4.3855683829e+01    0.3061195    0.2797516 -82.40            0    1.221    0.181
       127 -10.4237     66.5850     81.6494   6.7793505785e+01   5.2042265470e+01    0.3936113    0.2757883  26.30  0.002106432    1.642    0.391
       128  -9.5147     46.8705     75.4887   7.2773778809e+01   5.5827858433e+01    0.2342942    0.1990584 -41.70  0.001118395    1.055    0.052
       129 -11.3791     58.4366     77.7898   6.9453507646e+01   5.3960947605e+01    0.5212618    0.2799749 -57.92  0.001021567    1.770    0.435
       130 -11.4461     53.4744     76.4484   7.0770500757e+01   5.4862431647e+01    0.5416762    0.3495859 -59.38   0.00266943    1.461    0.316
       131  -9.4128      1.4554     80.1104   8.9016635187e+01   5.8405450614e+01    0.1787406   0.08576474 -66.14  0.001009709    1.544    0.352
       132 -11.8179     13.3338     74.3643   8.4064648408e+01   5.8966979476e+01    0.4908893     0.346143 -70.31  0.002556844    1.250    0.200
       133 -10.1613     14.4955     67.6729   8.2296412923e+01   6.0323995896e+01    0.3823182    0.1977844  12.98  0.002132756    2.504    0.601
       134 -11.1960     95.0040     76.6379   5.7362967064e+01   4.8543749353e+01    0.7491359    0.2866908  41.26  0.002758889    2.762    0.638
       135 -10.2803     92.0763     71.9335   5.6822442347e+01   5.0029496556e+01     0.232263    0.2216029 -25.12 0.0004510309    1.027    0.026
       136 -10.7227     78.6225     67.9075   5.9862295613e+01   5.3127155551e+01    0.6359628    0.3737335  54.75  0.002850331    2.365    0.577
       137 -11.1301     83.4270     73.8816   6.0138433549e+01   5.1126921958e+01    0.4426263    0.3514397  35.59   0.00243229    1.348    0.258
       138 -10.8965     87.9904     73.0005   5.8426492584e+01   5.0533737716e+01     0.450341    0.2635528 -52.78  0.001802715    1.766    0.434
       139  -9.8776    103.9155     74.7903   5.4130782828e+01   4.7237163405e+01    0.2701771    0.2063475  64.02  0.001327952    1.613    0.380
       140 -11.0158      1.9534     71.7990   8.7465382419e+01   6.0167359378e+01     0.350839     0.129979 -62.37  0.001667955    1.898    0.473
       141 -11.1685    186.8981     71.3678   3.3298461878e+01   2.8408862475e+01     0.609235    0.3614125 -38.46  0.001941198    1.662    0.398
       142 -10.0461     24.4499     73.8959   8.0143099049e+01   5.8277760074e+01    0.2122064     0.166975 -44.52 0.0005666882    1.127    0.113
       143 -10.3214     41.1544     72.8751   7.4086767024e+01   5.6995603818e+01    0.2800758     0.187652 -34.33 0.0009012226    1.475    0.322
       144 -11.2033     39.7518     69.3172   7.3670058946e+01   5.7895547674e+01    0.2622772    0.2275249   5.38  0.001121075    1.310    0.236
       145  -9.2286    153.7647     72.4394   4.0409685363e+01   3.6538123289e+01    0.2245978    0.1402238  41.89 0.0009408225    1.691    0.409
       146 -11.4905     34.9337     71.8608   7.6012163825e+01   5.7818943337e+01    0.4469525     0.248856  31.69  0.002439744    2.099    0.524
       147 -11.3428    122.9619     68.8975   4.6915410640e+01   4.4411338545e+01    0.4764333    0.3021092  43.66  0.001351697    1.591    0.371
       148 -10.5401    219.9418     66.9125   2.6628613126e+01   2.0911394229e+01    0.4582051    0.2171298  66.63  0.001799591    2.342    0.573
       149 -11.8079     10.0148     62.5340   8.2811835331e+01   6.1684398997e+01    0.4394012     0.232703 -59.24 0.0007888356    1.436    0.303
       150 -12.1527      4.5740     61.8289   8.4650980786e+01   6.2135550737e+01     0.417141    0.3213577 -69.12  0.001758356    1.197    0.164
       151 -10.3375     91.6869     57.2940   5.2175879389e+01   5.2914135848e+01     0.323821     0.236619  57.80 0.0008614805    1.701    0.412
       152 -11.2387     91.6450     62.6596   5.3989175887e+01   5.1921949211e+01    0.5244787    0.3478527  57.98  0.002483836    1.962    0.490
       153 -10.0299    105.9306     64.0404   5.0114183989e+01   4.8919759065e+01    0.2419734    0.1775908   4.99  0.001139452    1.767    0.434
       154 -11.0855     60.4942     62.7903   6.4443954897e+01   5.6823627498e+01     0.584137    0.3603657  15.24  0.002305005    2.105    0.525
       155 -12.4198     43.2786     45.6003   6.5298609280e+01   6.2265704107e+01    0.7259521    0.5987959 -64.23   0.00053642    1.525    0.344
       156 -10.4443     51.7521     48.2222   6.2919162364e+01   6.0774022398e+01    0.2397163    0.2060192 -16.25 0.0007106561    1.076    0.071
       157 -10.2206     51.2395     56.4960   6.5820724065e+01   5.9252489025e+01    0.2759876     0.173481 -41.58 0.0006761283    1.368    0.269
       158 -11.5028     40.8402     57.1004   6.9881526544e+01   6.0303666145e+01    0.4076746     0.254293  40.57  0.001557948    1.988    0.497
       159 -11.2929     43.4073     62.4639   7.0488649124e+01   5.8945681357e+01      0.25528    0.1967638 -44.79 0.0004924241    1.088    0.081
       160 -10.3975     50.8003     61.3004   6.7456420285e+01   5.8347765134e+01     0.264401    0.2304929  25.14  0.001068737    1.299    0.230
       161 -11.1716     46.2010     59.1515   6.8495409725e+01   5.9311898150e+01    0.2850848    0.2231911 -61.72  0.001070966    1.380    0.276
       162  -9.7107    157.3591     63.3930   3.6866225020e+01   3.7236689801e+01    0.4002334    0.1200975  49.11  0.001190837    3.220    0.689
       163 -10.9544    235.2299     60.9673   2.3021780219e+01   1.8194791494e+01     0.412771    0.3126869  70.54  0.002211882    1.367    0.269
       164  -9.8644     84.2347     61.5632   5.5992943760e+01   5.3440327927e+01    0.2522431     0.166648 -52.82  0.000935339    1.644    0.392
       165  -9.1860    113.3132    249.3548   8.4043884722e+01   8.9529592759e+00    0.1048894    0.0898883  15.88 0.0007044848    1.735    0.424
       166 -10.3775    121.9829     60.5282   4.4465194405e+01   4.6149735207e+01    0.3770264       0.2383  32.90  0.001659437    1.800    0.445
       167 -10.2384     34.3578     52.1130   7.0870386136e+01   6.1941641970e+01    0.3247524    0.2091534 -10.29  0.001851125    1.864    0.464
       168 -11.5879     25.7853     57.7603   7.5767571252e+01   6.1566307285e+01    0.6204899    0.5978599 -43.93  0.004637958    1.222    0.181
       169  -9.8610     20.4860     55.4715   7.7193406909e+01   6.2443895406e+01     0.192102    0.1389015  -6.41  0.001254295    1.581    0.368
       170 -10.7925    106.1990     58.5304   4.8199303227e+01   4.9873014216e+01     0.325073    0.2511631 -85.61  0.001347244    1.965    0.491
       171 -10.2026    157.4790     55.9665   3.4550159685e+01   3.8436162934e+01    0.3964807    0.3362789 -27.32 0.0009340682    1.243    0.196
       172 -10.8484    109.9652     40.8217   4.0898074691e+01   5.2013626159e+01    0.6444904    0.4237502 -26.10  0.003177424    1.570    0.363
       173  -9.9226    174.7402    246.3499   7.2641572532e+01  -5.2685896538e-01    0.2297423    0.1317163  35.17   0.00130546    1.492    0.330
       174 -11.3642    114.2743     49.4645   4.2793355089e+01   4.9724126516e+01    0.7934241    0.3580773  32.41  0.002697747    3.309    0.698
       175 -11.7152    117.4981     43.9889   3.9999145333e+01   4.9883311813e+01     0.508115    0.4807938  84.75  0.001775963    1.211    0.175
       176  -9.6990     67.1138     54.9301   5.9575597888e+01   5.7427816656e+01    0.1959956     0.174737 -53.65 0.0008247358    1.264    0.209
       177  -9.3274     11.3153    244.2988   1.0068089636e+02   2.3203070691e+01   0.08361774   0.07159728 -82.47 0.0002935034    1.610    0.379
       178 -10.1383     59.7266     23.7322   5.0465838219e+01   6.3765169288e+01      0.26772     0.147374 -32.71 0.0007945324    1.673    0.402
       179 -11.0629     60.8726     36.5677   5.5230656255e+01   6.1598673300e+01    0.4098227    0.2670021 -29.88  0.001725867    1.394    0.283
       180 -10.4304     67.5597     32.1664   5.1036073771e+01   6.1290698967e+01    0.4546396    0.3772989  46.00  0.002826731    1.466    0.318
       181 -11.7968     57.5574     30.9206   5.4265831599e+01   6.2990461426e+01    0.4538681    0.2954339 -29.18  0.001298167    1.379    0.275
       182 -11.6013     48.6287     30.4191   5.7577493396e+01   6.4280048488e+01    0.5918859    0.2713909  27.89  0.002767315    2.450    0.592
       183 -11.2978     43.0074     28.0535   5.8932576531e+01   6.5361928740e+01    0.1967933    0.1515268 -22.72 0.0002907332    1.071    0.066
       184 -10.7026     87.6233     56.8519   5.3316706753e+01   5.3731241955e+01    0.4910281    0.1893472 -37.03     0.001848    2.625    0.619
       185  -9.5669    101.6411     51.8446   4.7237976810e+01   5.1964767251e+01    0.1931549    0.1260134 -46.48 9.860325e-05    1.644    0.392
       186 -11.8920    126.5948    241.8492   8.0849985248e+01   8.0659052414e+00    0.3334269    0.2347581  62.51  0.001636289    1.301    0.231
       187 -10.2478    240.8223     50.1833   1.9726633898e+01   1.8489307026e+01    0.1800657    0.1674778  20.19  0.001072865    1.359    0.264
       188  -9.4374      1.7368     49.0249   8.2933213506e+01   6.4893275937e+01     0.160606    0.1165335 -52.87 0.0008517382    1.037    0.036
       189  -9.9098    146.3136     47.2279   3.4162265433e+01   4.2590129228e+01    0.2574426    0.1840372 -26.09  0.000977114    1.501    0.334
       190 -10.8827     20.7314     46.0705   7.4501234118e+01   6.4293690485e+01    0.3061603    0.1876771 -39.21  0.000586718    1.332    0.249
       191  -9.0624    222.5168     47.5123   2.1322255487e+01   2.3223888649e+01    0.1441473    0.1278772 -69.63 8.216648e-05    1.025    0.025
       192  -9.9957     13.1007     46.9515   7.7851517794e+01   6.4659438582e+01     0.202668    0.1022056 -35.96  0.001147067    1.780    0.438
       193  -9.9199    201.0567     45.1172   2.3653219144e+01   2.8925030818e+01    0.4018295    0.1778065  76.90  0.001270263    3.069    0.674
       194 -10.0868    138.6540     44.2432   3.4885865215e+01   4.4914425001e+01    0.4037776    0.2154269  28.50  0.001199525    2.879    0.653
       195  -9.9199    134.0402     46.0000   3.6550244951e+01   4.5758532474e+01    0.2903742    0.1510803  60.59 0.0007645331    2.052    0.513
       196  -9.3370    161.0905     43.6398   2.9973864155e+01   3.9406624660e+01    0.3029151    0.1422126  69.47  0.001091293    2.552    0.608
       197 -10.2441    155.9045     42.2296   3.0546560590e+01   4.0927313417e+01     0.275286    0.2228158 -17.07  0.001026629    1.379    0.275
       198 -10.8561     83.0614     46.9726   5.1322479598e+01   5.6290926932e+01    0.5682994    0.3295536 -18.82   0.00208045    2.227    0.551
       199 -10.3402     26.7541     42.6683   7.0993545637e+01   6.4455927779e+01    0.2375748    0.1450863 -31.66  0.001423693    1.468    0.319
       200 -10.5068     92.5913     41.6454   4.6301095038e+01   5.5421194547e+01    0.3894861    0.2361559  42.15  0.001467278    1.642    0.391
       201  -9.6347     17.0674     42.0034   7.4812738505e+01   6.5349163964e+01    0.1962537    0.1033903 -33.07 0.0009893615    1.740    0.425
       202 -11.2308    147.0007    238.0240   7.6629007726e+01   5.3191021013e+00    0.4060642    0.2630838  56.46  0.002386426    1.441    0.306
       203 -10.3697     11.0057     30.6947   7.3912555762e+01   6.7875475927e+01     0.283416    0.1664114 -25.90  0.001358214    1.583    0.368
       204 -10.2257      7.0022     30.4932   7.5652673755e+01   6.8165018000e+01    0.2446775    0.1176661 -17.75  0.001326842    2.493    0.599
       205 -10.4263     88.6344     29.3647   4.2801857272e+01   5.8016349908e+01    0.5854264    0.2441087  37.62  0.001942408    2.538    0.606
       206 -10.5350     79.5272     39.0086   4.9534254086e+01   5.8227566778e+01    0.4491673    0.3163068  74.35   0.00207622    2.833    0.647
       207 -10.8466     77.7876     34.3937   4.8334059664e+01   5.9253420994e+01    0.3781904    0.2735625  34.52  0.001563109    1.374    0.272
       208 -10.4664     82.3752     32.7082   4.6136334751e+01   5.8697085112e+01    0.3102852    0.2555043 -88.59   0.00113385    1.996    0.499
       209 -10.3572     22.9541     37.6108   7.0950040821e+01   6.5721930387e+01    0.3548135    0.2467788  46.97  0.002209007    2.153    0.535
       210  -9.1373    194.5000     38.0409   2.2666556393e+01   3.1591724439e+01    0.1829884    0.1267197  12.67 0.0006443191    2.223    0.550
       211  -9.9619    176.7664     35.8610   2.4796521999e+01   3.6459901992e+01    0.3226002    0.2093055 -52.10  0.001172419    1.650    0.394
       212 -10.7022    117.5928     55.6535   4.4016626801e+01   4.7965875456e+01    0.6053094    0.3391981 -55.25  0.002406672    2.472    0.595
       213  -9.5632     12.9544     37.0485   7.5063650927e+01   6.6573166229e+01    0.1462201   0.09448709 -49.07  0.000642626    1.221    0.181
       214  -9.3190    227.2926     36.3156   1.7934349127e+01   2.3624653849e+01     0.130388    0.1075182  30.63 0.0002174866    1.598    0.374
       215  -9.6429     94.0841     36.0222   4.3717037270e+01   5.5998221878e+01     0.196793    0.1691418 -73.86 0.0007053039    1.628    0.386
       216  -9.7558    167.6041    238.2555   7.2843920576e+01   1.8191186897e+00    0.1476588    0.1174489 -27.37 0.0008548911    1.613    0.380
       217 -11.6143    107.2747     31.5191   3.8186224376e+01   5.3932019543e+01    0.6535469    0.3666259   8.32  0.002483997    3.170    0.685
       218 -12.0122    113.9003     24.9858   3.3976001860e+01   5.3332913492e+01    0.6883039    0.2849053  51.39  0.001874107    2.183    0.542
       219 -10.4688    239.9803     32.5373   1.5637434249e+01   2.1118428976e+01    0.2747816    0.2087608  49.16  0.001537274    1.583    0.368
       220 -12.3302    160.0240     29.9177   2.5850028869e+01   4.1542922977e+01    0.4286979     0.388854 -25.47 0.0005162321    1.193    0.161
       221 -12.4318    164.4895     27.7462   2.4386220273e+01   4.0671749505e+01    0.3482652    0.2708997  65.87 0.0005408702    1.196    0.164
       222 -10.9144     74.2141    238.5167   8.9948839299e+01   1.6584744644e+01    0.3762282    0.1818103  53.23  0.002153543    1.623    0.384
       223 -11.5803     67.3426    240.6739   9.1321913130e+01   1.7146529019e+01    0.3938845    0.1801621  45.11  0.002097789    1.795    0.443
       224  -9.5551     15.2799    233.9723   9.9570622984e+01   2.4623381687e+01    0.1508756    0.1019567  80.78  0.001155675    1.112    0.101
       225 -11.0160     32.5103     30.9469   6.4503313247e+01   6.6037818591e+01    0.2583114    0.1765895 -44.66 0.0009707136    1.338    0.253
       226  -9.8634     75.2198    224.2309   8.8505856207e+01   1.9064779051e+01    0.1736635    0.1113699  69.10 0.0008783148    1.344    0.256
       227  -9.4947    234.2750    223.3538   5.8445071791e+01  -7.1711825056e+00    0.1238916   0.08048742   6.76 0.0006031595    1.644    0.392
       228 -10.2188    246.7895    230.6233   5.7522128808e+01  -9.9574163423e+00    0.1592697   0.09606593  42.22 0.0006986909    1.682    0.405
       229 -10.2082    164.5981    211.9160   6.9557010329e+01   6.5224855353e+00    0.2466244    0.1694081  48.29 0.0005893377    1.288    0.224
       230  -9.6225    230.0930     30.5043   1.6197068328e+01   2.3720402400e+01    0.2042297     0.163992  57.71 0.0004554818    1.364    0.267
       231 -10.7975    188.8603     28.0235   2.0668108407e+01   3.4354532880e+01    0.3506619    0.3021474 -10.40  0.001259122    1.387    0.279
       232 -10.3290     98.2557     29.1097   3.9801905133e+01   5.6149201775e+01      0.38532    0.2203781 -54.76  0.001613568    2.896    0.655
       233 -10.0991    197.5913     29.0560   1.9748362395e+01   3.1984566014e+01    0.3602543    0.1896234  64.23  0.001334578    1.764    0.433
       234  -9.3010    150.4809     27.4844   2.6828418661e+01   4.4267900561e+01    0.1434739    0.1324518  53.98 -1.71232e-05    1.021    0.020
       235 -10.5606    182.8258     25.5223   2.0821457496e+01   3.6219261864e+01    0.3295782    0.2432084  61.55  0.001020146    1.265    0.210
       236 -11.0502    145.3831     24.1129   2.6687216904e+01   4.5953303762e+01     0.760361    0.2102476  47.29  0.002396491    3.550    0.718
       237 -10.6109    152.7917    206.8542   7.1122112330e+01   9.5529913090e+00    0.3426493     0.244333 -88.08   0.00176395    1.997    0.499
       238  -9.4526    202.6758    206.3281   6.1246265053e+01   5.2252521299e-01    0.1241986    0.1033611  73.93 0.0007049582    1.696    0.410
       239  -9.1720     61.5170    206.5051   8.9446101387e+01   2.4431589719e+01    0.1240024   0.09517919  73.55 -5.54151e-06    1.021    0.021
       240 -10.2289     89.5003     16.4899   3.7279487568e+01   5.9507748027e+01    0.2333837    0.1810352  32.32 0.0009510492    1.166    0.143
       241  -9.2998    213.8169     24.6054   1.6545634363e+01   2.8448759700e+01    0.2025344    0.1216033  86.53  0.000949965    1.730    0.422
       242 -10.8558    139.1319    198.6243   7.2641355317e+01   1.3573994824e+01    0.2975299     0.210103  80.85  0.001515973    1.800    0.444
       243  -9.1498    131.3146    198.3521   7.4227970920e+01   1.5042087334e+01    0.1295866    0.1083042  -0.95 0.0007046246    1.732    0.423
       244 -10.7177    233.9378    196.5275   5.3710322306e+01  -3.5106059825e+00    0.2557583    0.1856989 -27.19  0.001230576    1.383    0.277
       245  -9.8895    171.9921    190.4968   6.4480021646e+01   8.8964639534e+00    0.1982864    0.1146922  23.66 0.0008096208    2.467    0.595
       246 -10.6581    127.4885     16.3609   2.7621023869e+01   5.1194310386e+01     0.361281    0.2018221  47.58  0.001169762    1.616    0.381
       247  -8.9645     13.3753     23.2844   7.0252775289e+01   6.9020920483e+01    0.1188509   0.06534769 -24.61 0.0007015347    1.715    0.417
       248  -9.7834    223.0464     22.0372   1.4880010668e+01   2.6493503845e+01    0.2238285    0.1387434 -67.55 0.0005565887    1.636    0.389
       249 -10.9932    179.2810     20.4958   1.9873087069e+01   3.7731474130e+01     0.539672    0.2379789  41.99   0.00201265    2.898    0.655
       250  -9.6459      5.6800     22.0473   7.3454572716e+01   6.9752871596e+01    0.1545585    0.1071978 -41.87 0.0005064607    1.107    0.097
       251 -11.4963      4.9972    185.9104   9.8667551540e+01   3.4970341513e+01    0.3249541    0.2463752  64.25   0.00205593    1.229    0.187
       252 -10.2623     74.6661     19.5376   4.3290213052e+01   6.1904121054e+01    0.2346315    0.1750486  13.28 0.0005385332    1.277    0.217
       253  -9.4429     86.3032    185.5504   8.2013054501e+01   2.5269170671e+01    0.1704086    0.1248767  34.73 0.0009459707    1.581    0.368
       254  -9.6722    175.6412    179.7981   6.1753923628e+01   1.0144970572e+01    0.1917623    0.1346463 -54.58 0.0009456363    1.643    0.391
       255 -10.1436    250.3942    176.7971   4.7014624663e+01  -3.4762270956e+00    0.1861286    0.1117388 -21.53 0.0009529621    1.674    0.403
       256  -9.6441    113.6218    175.7314   7.4535335994e+01   2.2871277105e+01    0.2008027    0.1666176 -17.95  0.001062626    1.768    0.434
       257  -9.8067    156.4076     20.4948   2.3480714064e+01   4.3598582998e+01    0.3114668    0.1282835  63.23  0.001219905    2.199    0.545
       258 -10.0449     80.3773     19.5766   4.1412493931e+01   6.0872153826e+01    0.3051689    0.1758823  37.29  0.001587901    1.649    0.393
       259 -10.1321     47.0020     19.4855   5.3681296092e+01   6.6179847736e+01     0.242588     0.176928 -18.91  0.001566077    1.165    0.142
       260  -9.0362      1.5092     20.4731   7.4915163046e+01   7.0270878352e+01    0.1118584   0.07778248 -35.77 2.341209e-05    1.062    0.059
       261  -8.7795     28.3082    175.7021   9.3300422528e+01   3.4907502982e+01    0.1239829   0.07076011  70.72 0.0005271047    1.593    0.372
       262  -9.4526     51.5440    173.5307   8.8131371325e+01   3.2752539367e+01    0.1274528    0.1021541  84.19 0.0001527026    1.010    0.010
       263 -10.5070    186.8893     15.0358   1.7266056610e+01   3.6394656789e+01    0.2294993    0.1842081  77.47 0.0003404689    1.127    0.113
       264  -9.6500    207.0135    172.5125   5.4011186578e+01   5.2131656866e+00    0.2149452    0.1317103  42.59  0.000928363    1.560    0.359
       265  -9.1607    170.3351    172.2898   6.1416953421e+01   1.2633756556e+01     0.145419    0.1126449  11.56 0.0004366664    1.634    0.388
       266  -9.4739    198.2029    167.8153   5.4777962324e+01   7.7963949132e+00    0.1999166    0.1644078   9.59 0.0006568596    1.321    0.243
       267  -9.6138    187.5088    167.9747   5.6970223451e+01   9.9459455133e+00    0.1981074    0.1261894 -14.79 0.0005807774    2.418    0.587
       268 -10.7381      9.3288    166.9628   9.6512138305e+01   3.8598833351e+01    0.1851244    0.1644173  60.00 0.0008830727    1.353    0.261
       269  -9.6197     74.7635     13.5949   4.0674163139e+01   6.2625642300e+01    0.1641577    0.1176804  54.07  0.000943387    1.659    0.397
       270 -10.5246    205.0268    163.3048   5.2490891321e+01   7.2164371739e+00     0.261884    0.2096381 -42.20 0.0007027047    1.310    0.237
       271 -10.1912    148.6095     15.8266   2.3322125693e+01   4.6082932320e+01    0.3256936    0.1806174  40.18  0.001225788    1.917    0.478
       272  -9.6159     28.6798    160.6845   9.1818969839e+01   3.8186303100e+01    0.1148981   0.08284009 -51.53 0.0007040215    1.657    0.396
       273  -9.8933    198.7671    159.2481   5.2865674686e+01   9.2314741081e+00    0.2449702    0.1106664  36.41 0.0009031391    2.483    0.597
       274  -9.8364     14.0339    159.2886   9.4899469451e+01   3.9867375127e+01    0.1585725    0.1242475  77.97 0.0004594366    1.115    0.103
       275  -9.7799    215.4901    157.0416   4.9143517340e+01   6.1939396541e+00    0.2123326     0.137269 -35.26 0.0004992005    1.540    0.351
       276  -9.7825      9.4363    155.3144   9.5560082654e+01   4.1131742167e+01    0.2211202   0.08481244 -71.87  0.001124305    2.004    0.501
       277 -10.3423    104.4931    154.5868   7.3072411563e+01   2.9197666580e+01    0.2880343    0.2681033 -25.00  0.001647922    1.340    0.254
       278 -10.3422    141.8154    152.4740   6.3768646794e+01   2.2550424439e+01    0.3912588    0.2297332  54.19  0.001509918    1.766    0.434
       279  -9.6950      4.2290    153.4363   9.6537173002e+01   4.1958545347e+01    0.1520756   0.08757252  51.77 0.0009519028    1.726    0.421
       280  -9.9463     30.7252    152.0033   9.0451670360e+01   3.9941704865e+01     0.184861    0.1661422  -7.16   0.00127004    1.634    0.388
       281 -12.2531     23.1426    148.8309   9.1873535556e+01   4.1389359992e+01    0.4038209    0.2506594 -48.14  0.001634969    1.922    0.480
       282 -10.1025     66.0816    149.4690   8.1640301475e+01   3.6374983753e+01     0.335539    0.2071888  12.02  0.001251164    3.130    0.681
       283 -10.8099     46.6314    147.0272   8.6067078437e+01   3.9380610063e+01    0.4692038    0.2833057 -43.90   0.00242746    2.098    0.523
       284 -10.8256     16.3939    147.9515   9.3341765450e+01   4.2186828038e+01    0.2234866    0.1807308  62.87  0.001581569    1.267    0.211
       285  -9.9763    104.7528    148.0485   7.1810113448e+01   3.0654570232e+01    0.2060411    0.1846404 -78.26 0.0006587404    1.054    0.052
       286  -9.8488      3.4544    147.6911   9.6240080024e+01   4.3279393302e+01    0.1566078   0.08232745 -69.01 0.0006939604    1.520    0.342
       287  -9.6281    239.5149    146.5347   4.2528202864e+01   3.1929366133e+00    0.1385704    0.1261153 -11.38 0.0002160528    1.003    0.003
       288  -9.6465     74.0209    146.0534   7.9134321364e+01   3.6063230355e+01    0.1987147     0.158575 -37.21 0.0004908706    1.586    0.370
       289 -11.1461     33.1916    144.4798   8.9010862992e+01   4.1416085752e+01    0.2672462    0.2023721 -88.97 0.0007208245    1.106    0.096
       290 -10.7793      5.9225    142.0509   9.5195325364e+01   4.4344395974e+01    0.2393235    0.1674662  77.38 0.0002882678    1.258    0.205
       291 -11.1432      1.9815    140.2072   9.5937698012e+01   4.5039511013e+01    0.3257772     0.141476 -77.32 0.0008258356    1.762    0.432
       292  -9.9629     16.0178    141.2519   9.2763022521e+01   4.3728204489e+01    0.1604298    0.1315986 -87.98 0.0004292501    1.078    0.072
       293  -9.8423    217.1982    138.8442   4.4782402884e+01   9.0456270996e+00    0.2173969    0.2006804 -62.26 0.0005668429    1.215    0.177
       294 -10.2626     79.3790    137.8677   7.6373311025e+01   3.7200690875e+01    0.2763303    0.2318132 -84.23   0.00128932    1.109    0.098
       295 -10.2327     40.3731    137.8189   8.6393165140e+01   4.2215840858e+01    0.2320829    0.1638043  76.68 0.0005170159    1.402    0.287
       296  -9.8221     31.8422    137.4691   8.8487266108e+01   4.3166742316e+01    0.2615626    0.1797443  46.65  0.001435992    1.569    0.363
       297 -10.9551     22.7724    135.9002   9.0548283545e+01   4.4368377247e+01    0.5049083    0.2708831  46.57  0.002836148    1.983    0.496
