#   1 NUMBER                 Running object number                                     
#   2 MAG_AUTO               Kron-like elliptical aperture magnitude                    [mag]
#   3 X_IMAGE                Object position along x                                    [pixel]
#   4 Y_IMAGE                Object position along y                                    [pixel]
#   5 X_WORLD                Barycenter position along world x axis                     [deg]
#   6 Y_WORLD                Barycenter position along world y axis                     [deg]
#   7 A_WORLD                Profile RMS along major axis (world units)                 [deg]
#   8 B_WORLD                Profile RMS along minor axis (world units)                 [deg]
#   9 THETA_WORLD            Position angle (CCW/world-x)                               [deg]
#  10 FWHM_WORLD             FWHM assuming a gaussian core                              [deg]
#  11 ELONGATION             A_IMAGE/B_IMAGE                                           
#  12 ELLIPTICITY            1 - B_IMAGE/A_IMAGE                                       
         1 -14.6186    193.8263     16.1620   7.0026965690e+01   3.4616358439e+01     2.874638     1.672776  24.83   0.01277221    2.209    0.547
         2 -11.4185     32.6444     10.1498   1.1114042123e+02   7.1929231901e+01    0.4424672    0.1025978 -43.75  0.001501321    3.691    0.729
         3  -9.5026    128.0895     23.7853   8.2883419121e+01   5.0535633229e+01     0.213815     0.198704 -55.22 0.0004846259    1.193    0.162
         4 -10.9424    163.2622    248.9131   1.2692148803e+02   7.6909881170e+00    0.2232673    0.1716281  30.80  0.001069106    1.112    0.101
         5 -12.1524    139.1625    248.8532   1.3103532619e+02   1.0699788659e+01    0.3951963    0.2798488 -57.70  0.003038642    2.030    0.507
         6 -12.1264    125.9330    249.4196   1.3337665360e+02   1.2250487892e+01    0.4670524    0.3058954  -9.69  0.003026645    2.610    0.617
         7 -13.5669     33.1445    246.2656   1.4916583269e+02   2.2745041143e+01     1.394549    0.4414753  34.11  0.008284948    2.370    0.578
         8 -15.6276     12.3207    237.4796   1.5235184002e+02   2.5879586714e+01     6.273927    0.9313208 -68.68   0.02791851    6.244    0.840
         9 -13.4351     51.5935    230.9800   1.4523686201e+02   2.3280902922e+01    0.6083431    0.3738999  78.04  0.001109142    1.676    0.403
        10 -15.5383     59.0942    217.4662   1.4301650214e+02   2.4667995570e+01     7.211243    0.3970635  38.98   0.02695487    4.545    0.780
        11 -11.7806     80.6049    247.6038   1.4112021308e+02   1.7758090882e+01    0.4987097    0.2183283  55.89   0.00297158    2.295    0.564
        12 -10.8574     88.9706    249.2997   1.3978550816e+02   1.6596126811e+01    0.2373757    0.2315272 -14.66  0.001798753    1.407    0.289
        13 -12.1064     83.8351    244.7996   1.4036370695e+02   1.7792554506e+01    0.5310763    0.2382728  60.67  0.003015183    2.747    0.636
        14 -11.4858     60.4294    246.7275   1.4455565669e+02   2.0026246638e+01    0.4463593    0.1707302 -56.74    0.0026552    3.497    0.714
        15 -11.0065     67.4726    250.3599   1.4355494445e+02   1.8781682275e+01    0.2352372    0.1694961  41.38 0.0009547959    1.103    0.093
        16 -10.9693     38.7984    231.6383   1.4756184275e+02   2.4431705434e+01    0.2920544    0.1325399  36.84 0.0009560778    1.711    0.415
        17 -10.1456    229.0672    228.8203   1.1350589675e+02   1.4426672894e+00    0.2309418    0.1403475 -38.06  0.001228927    2.414    0.586
        18  -9.7805     33.6314    228.7236   1.4834768179e+02   2.5375415966e+01    0.1694968    0.1038762  72.54  0.001277725    1.480    0.324
        19 -11.4245    173.9122    222.2688   1.2185418742e+02   9.4145992276e+00    0.3324375    0.1858365  38.10  0.001647103    1.482    0.325
        20 -10.2084     63.7033    250.6917   1.4421613730e+02   1.9126967130e+01     0.203669    0.1317403  32.68 0.0004632076    1.376    0.273
        21 -12.1804     67.4978    243.9651   1.4317080256e+02   1.9687252729e+01    0.4557069    0.2243913  41.61  0.002720623    1.468    0.319
        22  -9.2751    152.7137    212.9743   1.2450945797e+02   1.3556144557e+01    0.1477002    0.1271858  22.18  0.000309736    1.093    0.085
        23 -11.7451     34.6072    206.3339   1.4707182640e+02   2.9013419693e+01    0.3837867    0.1796126  46.26  0.002043266    1.646    0.392
        24 -10.6724    193.1661    195.0497   1.1439449899e+02   1.0071903235e+01    0.6290697    0.3463162 -57.97  0.002289913    6.556    0.847
        25 -10.3629     74.7011    249.7136   1.4227731381e+02   1.8105617988e+01     0.201044    0.1735399   0.47  0.001729004    1.645    0.392
        26 -11.7172     73.5076    196.2687   1.3847322430e+02   2.6695573547e+01    0.3273206    0.2189282 -40.94   0.00203194    2.079    0.519
        27 -11.7835     77.9914    189.0281   1.3683263570e+02   2.7468137458e+01    0.2523436    0.2123959 -43.92 0.0007195201    1.474    0.322
        28  -8.6797    110.4186    197.4615   1.3091365740e+02   2.1799243275e+01    0.1168862   0.09802157  45.19 0.0001476779    1.054    0.051
        29  -8.3797     66.2992    195.2971   1.3989535107e+02   2.7701686908e+01   0.09903219   0.08647946 -16.11 0.0004221362    1.574    0.365
        30 -11.0865     85.9956    176.9398   1.3375842883e+02   2.8718836839e+01    0.2141688    0.2047948  83.33 0.0003799367    1.121    0.108
        31 -13.3326     73.9224    174.4993   1.3622180334e+02   3.0709580614e+01    0.4225451    0.2633316 -39.43   0.00158302    2.221    0.550
        32 -13.7285     10.0348    207.2802   1.5180710987e+02   3.0983279457e+01    0.7902735    0.6949421 -10.35  0.002902523    1.741    0.426
        33 -13.5111     50.4483    129.9647   1.3686693704e+02   4.2890506791e+01      1.23014    0.3297293  36.84  0.003036243    3.246    0.692
        34 -13.1382     90.1865    166.8518   1.3154274189e+02   3.0111911284e+01      3.18735    0.5880926  44.73  0.009296968    5.514    0.819
        35 -13.5685     67.4973    144.2733   1.3414728241e+02   3.7734460630e+01     1.466198    0.6915019  61.76  0.006040411    3.008    0.668
        36 -14.3062      2.4959     19.2234   1.3466090854e+02   7.2731565328e+01     5.026263    0.8227473 -66.01   0.01579558    4.813    0.792
        37 -10.2850    103.5893    151.1180   1.2602590169e+02   3.1325799932e+01    0.3095255    0.2535535 -33.17 0.0007672419    1.397    0.284
        38  -9.3968    106.1466    147.0156   1.2471515941e+02   3.1763394900e+01    0.2924578      0.17072 -31.16  0.001304029    2.483    0.597
        39 -12.2533     92.5034    150.8087   1.2871097425e+02   3.3017356803e+01    0.2595527    0.2342076   3.07  0.000520627    1.277    0.217
        40 -15.3843      2.9871    139.9430   1.5048535770e+02   4.4660355238e+01     9.544172     1.008143 -78.80   0.02762958    6.906    0.855
        41  -9.4623    134.0000    144.5026   1.1755406354e+02   2.7685562667e+01    0.2887226   0.07756039 -47.56 0.0009346228    3.934    0.746
        42  -8.6909    192.3435    144.1898   1.0510939137e+02   1.7291100871e+01    0.1697819    0.1180749 -38.38 0.0003701843    1.556    0.357
        43 -10.5674    132.5027    173.5002   1.2295005857e+02   2.2673704812e+01    0.2388748    0.1126476  27.71  0.001039031    2.410    0.585
        44 -10.0987    112.9865    136.5318   1.2111322171e+02   3.2804244657e+01    0.3128972    0.2283124   0.88   0.00106234    1.894    0.472
        45 -10.6937    100.7557    133.9569   1.2376789418e+02   3.5306231104e+01    0.2643267    0.2150093 -29.75 0.0007485963    1.404    0.288
        46 -10.9757     70.1802    134.9381   1.3211027338e+02   3.9447827094e+01    0.4486176    0.1664323  37.23  0.001877022    2.528    0.604
        47  -9.3059    118.4394    129.0516   1.1824243786e+02   3.3409893623e+01     0.199582    0.1145317 -27.76 0.0008072666    2.539    0.606
        48 -11.1890     32.1810    127.5180   1.4171987504e+02   4.5239980291e+01    0.2141789    0.1507726  76.53  0.001288169    1.352    0.260
        49  -9.6255    109.1869    123.7932   1.1954553215e+02   3.6081896194e+01    0.1932534    0.1819178  63.18 0.0003588455    1.103    0.094
        50 -11.0110    168.3868    113.4834   1.0289719130e+02   2.6825022326e+01     0.378478    0.3118395 -72.20  0.001426097    1.734    0.423
        51 -13.3945     58.4161    132.2809   1.3495651930e+02   4.1474799431e+01     1.849757    0.6578113 -79.03  0.005575087    5.368    0.814
        52  -9.3709    135.0000    112.9661   1.1044240754e+02   3.3593377974e+01    0.2415421   0.08157215 -43.71 0.0008068756    2.973    0.664
        53 -11.0499    249.0125    245.2235   1.1277681265e+02  -2.3637514466e+00    0.2603966    0.1631417 -38.90  0.001801601    2.982    0.665
        54 -11.4492    237.4977    248.3280   1.1491343851e+02  -1.3032567490e+00    0.2449686    0.1015377  32.87  0.001563863    1.818    0.450
