#   1 NUMBER                 Running object number                                     
#   2 MAG_AUTO               Kron-like elliptical aperture magnitude                    [mag]
#   3 X_IMAGE                Object position along x                                    [pixel]
#   4 Y_IMAGE                Object position along y                                    [pixel]
#   5 X_WORLD                Barycenter position along world x axis                     [deg]
#   6 Y_WORLD                Barycenter position along world y axis                     [deg]
#   7 A_WORLD                Profile RMS along major axis (world units)                 [deg]
#   8 B_WORLD                Profile RMS along minor axis (world units)                 [deg]
#   9 THETA_WORLD            Position angle (CCW/world-x)                               [deg]
#  10 FWHM_WORLD             FWHM assuming a gaussian core                              [deg]
#  11 ELONGATION             A_IMAGE/B_IMAGE                                           
#  12 ELLIPTICITY            1 - B_IMAGE/A_IMAGE                                       
         1 -16.2798    201.1834     71.4418   7.1072050084e+01   2.5894013974e+01       2.6318     2.468511  25.91   0.01561209    1.374    0.272
         2 -19.2950    196.5159    119.9186   8.3356515268e+01   1.8060324500e+01     9.177636     8.589655  79.71   0.05057748    1.087    0.080
         3 -11.4789    247.9413     17.9078   5.4581987686e+01   2.3211123029e+01    0.3112674    0.1199207 -46.85  0.001367065    2.173    0.540
         4 -10.8880    179.9235     13.3488   6.0215753475e+01   3.8625823514e+01    0.2156754    0.1495512 -61.46 0.0003521759    1.463    0.317
         5 -10.4040     13.5888     13.8551   1.0449406571e+02   7.0031859982e+01    0.2099872   0.09985212 -23.70  0.001041729    1.940    0.484
         6 -13.2326    235.8692      9.5677   5.3986097272e+01   2.6659792135e+01    0.4357466    0.2392206  89.38  0.002563448    1.580    0.367
         7 -10.6071    145.1687     11.0634   6.4396505801e+01   4.6884013039e+01     0.184414    0.1565634  73.66 0.0004842732    1.052    0.049
         8  -9.9397     64.1665     11.1228   8.2966375258e+01   6.3572315077e+01    0.1389398    0.1283703  22.26 0.0002336708    1.288    0.223
         9 -10.8000    194.8252      8.9936   5.7558749703e+01   3.5663312774e+01    0.3284583    0.1452504 -50.53  0.001328801    2.275    0.560
        10 -11.7848    248.8911      4.8651   5.2181848697e+01   2.4539616351e+01    0.3035842    0.1670214 -54.51  0.001916955    1.514    0.340
        11  -9.8447     19.3135      7.6423   9.9094126118e+01   7.0205756191e+01    0.0887017   0.08326927  -8.34 0.0005333532    1.744    0.427
        12 -11.2688    214.0067      5.5519   5.5011693152e+01   3.1756114569e+01    0.2260536    0.1318378 -59.19  0.000778723    1.571    0.364
        13 -11.0081    224.2091      4.8087   5.4009043871e+01   2.9636165595e+01    0.1470564    0.1225054  75.85 0.0003501043    1.306    0.234
        14 -11.4615    206.8394      2.8001   5.5084849573e+01   3.3609179545e+01    0.4039281    0.1642666  45.34  0.001547539    4.788    0.791
        15  -9.4436     78.2387      4.6438   7.6224909006e+01   6.1621077627e+01   0.09917682   0.08880805 -54.50 0.0004436107    1.583    0.368
        16 -10.0938    144.1757      2.8053   6.2278006331e+01   4.7823722305e+01    0.1748551    0.1195744  50.86 0.0005655703    1.341    0.254
        17 -11.0646    227.7349      1.9708   5.3190147395e+01   2.9190938679e+01    0.1634869    0.1226236 -75.63 0.0004993734    1.063    0.059
        18 -11.0482    217.3763      1.8059   5.3981136552e+01   3.1414423049e+01     0.205057    0.1347781  76.74 0.0004686389    1.284    0.221
        19 -10.0281     82.7923      1.3225   7.3769077934e+01   6.1014739810e+01    0.1634296   0.08173667  47.50 0.0002807178    1.562    0.360
        20  -9.5965     25.9862      1.2369   9.3158204320e+01   7.0119430762e+01    0.1278466     0.073319  30.25            0    1.515    0.340
        21 -10.5447     69.1936    230.0588   1.3338926027e+02   1.7385396928e+01    0.2127065    0.1664275  55.02 0.0003578819    1.155    0.135
        22 -11.9741    222.9309    250.2180   1.0452719930e+02  -1.1143548280e+01    0.4805248    0.1842563  33.63  0.001410826    2.413    0.586
        23 -13.4897    233.3432    243.9851   1.0152556962e+02  -1.1696178482e+01    0.6872708    0.3705505  16.60  0.003444379    2.114    0.527
        24 -13.3783    236.0253    249.2168   1.0192258610e+02  -1.2816813414e+01      1.05074    0.4537866  26.65  0.005033634    2.374    0.579
        25 -13.1154    248.4232    242.8815   9.8596110832e+01  -1.3568894881e+01    0.8164735    0.5873649 -25.83  0.005371351    1.273    0.215
        26 -11.7783    212.6948    249.1594   1.0630143396e+02  -9.4999436320e+00    0.2531975     0.218316  18.71 0.0004654949    1.116    0.104
        27 -11.5623    190.0045    249.8016   1.1085616937e+02  -6.1240271911e+00    0.3770714    0.1759317  23.33  0.001548552    2.800    0.643
        28  -9.5079    125.2946    250.3036   1.2415690000e+02   4.4168003029e+00    0.1214446    0.1017397   3.78 0.0003382941    1.578    0.366
        29 -10.9727    149.3323    227.4282   1.1572578318e+02   4.7575629188e+00    0.2649339    0.2308683  51.29 0.0008054591    1.104    0.094
        30 -10.8614    197.9286    226.5257   1.0533584618e+02  -3.4843826816e+00    0.3006505    0.2200157  71.02  0.001469355    2.368    0.578
        31 -11.4747    202.9036    225.5036   1.0415172888e+02  -4.1270193018e+00    0.3542871    0.2314914  29.76 0.0009544753    1.460    0.315
        32 -11.2379    245.6156    226.1041   9.6135727660e+01  -1.0724757675e+01    0.1973932    0.1632381  27.98 0.0006038994    1.320    0.242
        33 -11.5355    220.5223    225.6487   1.0071699878e+02  -6.9629790818e+00    0.3808276    0.2204209  15.33 0.0009886015    2.142    0.533
        34 -11.4375    168.6101    224.3915   1.1106955081e+02   1.9443145108e+00    0.5361421    0.2068751  46.53  0.001506489    2.686    0.628
        35 -13.3375    176.7593    221.9290   1.0891027514e+02   9.7887329415e-01    0.7556797    0.3958393  44.38  0.001716504    1.865    0.464
        36 -10.5344    171.0065    217.7837   1.0940835608e+02   2.7995386945e+00    0.2618307    0.1949384  38.69 0.0009121716    1.262    0.208
        37 -10.4807    105.8289    222.8654   1.2460207851e+02   1.3254463467e+01    0.1897311    0.1857339  73.69 0.0003351862    1.165    0.141
        38  -9.6820     15.3319    223.7200   1.4359654871e+02   2.5497619128e+01    0.1255096   0.06832778  66.97 0.0004761065    1.607    0.378
        39 -11.2570    233.1555    220.9192   9.7467496451e+01  -8.1115775878e+00    0.4086003     0.206163  34.54  0.001702864    1.984    0.496
        40 -12.8306    235.7204    214.5657   9.5819473042e+01  -7.4583821861e+00    0.3426879    0.2744313   1.53 0.0008910542    1.165    0.141
        41 -10.1127     41.4226    221.4690   1.3826090274e+02   2.3013470797e+01    0.1284606    0.1008055  79.53 -3.133131e-05    1.025    0.024
        42 -11.2654    130.6185    218.3640   1.1840324442e+02   9.9506268181e+00    0.2604195    0.1759708 -53.12 0.0007208597    1.581    0.367
        43 -10.3493    120.7277    217.3501   1.2046621688e+02   1.1913770842e+01    0.2347575    0.1980759  87.47 0.0005248868    1.244    0.196
        44 -12.1629    124.5205    215.5149   1.1932530882e+02   1.1647567774e+01    0.3556391    0.2916804  58.77 0.0009297831    1.168    0.144
        45 -11.2984     59.4685    216.1124   1.3392500707e+02   2.1871830764e+01    0.3629748     0.256794 -60.38  0.002058898    1.483    0.325
        46 -12.1817    142.8692    215.4489   1.1518570253e+02   8.3701190113e+00    0.3225134    0.2741348 -73.87   0.00059784    1.309    0.236
        47 -10.6389     17.7010    217.1044   1.4264348868e+02   2.6699680223e+01    0.1899092    0.1324852  64.37 0.0002566489    1.235    0.191
        48 -10.1553     30.3089    249.1801   1.4265160178e+02   1.8457798946e+01    0.1671396     0.124076 -76.87 0.0004191857    1.357    0.263
        49 -15.1267    167.5643     80.2624   7.9175820526e+01   3.2325427878e+01     1.053812     1.014727  -7.50  0.002988239    1.198    0.165
        50 -16.9377    199.4182    162.3691   9.2373563222e+01   8.7061877586e+00     3.798375     2.487221 -24.05   0.01663375    1.897    0.473
        51 -16.1659    177.2337    150.3190   9.4385615278e+01   1.5873956610e+01     2.347934     1.635749 -24.88   0.01021264    1.790    0.441
        52 -15.8106    235.2989    124.4608   7.7633280261e+01   9.0408465482e+00     1.975218    0.9967277  51.76  0.008840191    2.223    0.550
        53 -16.4236    214.2537    100.3864   7.5700917928e+01   1.7896266718e+01     3.088222     1.346875  49.98   0.01230489    2.491    0.598
        54 -16.8738    175.3283    140.2964   9.2500284827e+01   1.8473027495e+01     4.718957     1.573937  40.51   0.01398922    3.580    0.721
        55 -15.4024    222.0582    140.1492   8.3231002983e+01   8.6572456232e+00    0.8757337    0.7073855  13.86  0.002529467    1.604    0.377
        56 -10.1402    132.1980    246.2802   1.2218671118e+02   4.0341168505e+00    0.1851506     0.136246  58.85 0.0004848207    1.355    0.262
        57 -11.8937     91.9310    214.3206   1.2652545928e+02   1.7440093871e+01    0.3769386    0.3056016  11.84  0.001863367    1.721    0.419
        58 -11.8656    233.5372    171.7309   8.7843857668e+01   4.6014126404e-01    0.2365632    0.2343135  24.14 0.0006320855    1.164    0.141
        59 -10.1164    225.2805    210.1496   9.6944120822e+01  -5.0936698625e+00    0.2759743    0.1398153  37.43 0.0008416562    2.007    0.502
        60 -12.7371    164.9501    208.6112   1.0908292324e+02   5.7430756775e+00    0.5228512     0.370151  62.09  0.002394011    1.752    0.429
        61 -10.3272      1.4803    214.9163   1.4561249908e+02   2.8784565790e+01    0.1719968   0.09084674 -80.26 0.0004924444    1.509    0.337
        62 -10.6084    220.6290    207.1951   9.7273541802e+01  -3.8252112819e+00    0.2219724    0.1952689 -41.39  0.001269529    1.243    0.195
        63 -11.8042    250.4468    158.2979   8.2238520510e+01   2.6148094185e-02    0.2299755    0.1707902 -40.62 0.0002484063    1.158    0.137
        64 -10.4474     11.4103    208.2190   1.4320193710e+02   2.9320733684e+01     0.176887    0.1538632  17.01 0.0006246534    1.697    0.411
        65 -10.4356     41.9711    158.1956   1.3075171555e+02   3.8056743733e+01    0.2539946    0.1784184 -71.75  0.001358037    1.238    0.192
        66  -9.8577     23.4589    157.4667   1.3545053324e+02   4.0134259342e+01    0.1308241    0.1068385 -74.00 0.0001635555    1.027    0.026
        67  -9.8291    242.4955    207.5917   9.3279930473e+01  -7.3237645732e+00    0.1277117    0.1102199 -11.63 0.0001197794    1.030    0.029
        68 -11.0439     98.9727    153.2880   1.1448758068e+02   3.1039986439e+01    0.2581592    0.2076647 -60.62  0.001285098    1.192    0.161
        69 -12.0691     90.6079    150.4278   1.1618479719e+02   3.3188226249e+01      0.54996    0.2121457 -48.53  0.001650849    2.535    0.606
        70 -10.7518     88.4198    209.3823   1.2664330136e+02   1.9135883862e+01    0.3922274    0.1976414  69.11  0.001435852    3.091    0.676
        71  -9.7832     33.9952    150.0413   1.3168530087e+02   4.0922164240e+01    0.1609506    0.1326227 -71.82  0.000299269    1.022    0.022
        72 -11.4081     12.0652    143.8363   1.3669321178e+02   4.4384965915e+01    0.3518945    0.1534063 -73.75  0.001650294    1.960    0.490
        73 -10.1141     45.6694    145.2978   1.2775191616e+02   4.0826698923e+01     0.138937   0.09838118  73.04 0.0004439025    1.641    0.391
        74 -12.2118     80.2778    148.3933   1.1863567236e+02   3.5368157636e+01     0.350743    0.2513192 -61.38 0.0003731998    1.307    0.235
        75 -11.3188    114.8460    204.6837   1.1982327799e+02   1.5782283236e+01     0.243934    0.2227829 -85.78 0.0002424766    1.081    0.075
        76 -10.5550     67.0471    140.0090   1.2073677105e+02   3.9413260249e+01    0.2114336    0.1922764 -73.27  0.001202949    1.047    0.045
        77 -13.2653    107.8777    133.1763   1.0763159169e+02   3.4323967053e+01    0.8400553    0.5508533  31.80   0.00368577    1.703    0.413
        78  -9.5535     32.6886    135.7316   1.2985442776e+02   4.4543927118e+01    0.1302556   0.08984743 -39.12 0.0001869718    1.545    0.353
        79 -10.9578     18.9602    133.4520   1.3340086028e+02   4.6318468724e+01    0.2277644     0.153638 -67.04 0.0002928584    1.209    0.173
        80 -10.4286    249.5249    129.8280   7.6575865334e+01   5.3610800281e+00    0.2969794    0.2540991   3.48   0.00174449    1.523    0.343
        81 -11.6497     87.1159    129.1388   1.1260913989e+02   3.8993420644e+01    0.3335316    0.2583548 -32.75  0.001010964    1.402    0.287
        82 -10.7887     99.6711    128.6837   1.0888235274e+02   3.6917928423e+01    0.2267703    0.1962063  36.62 0.0005418523    1.212    0.175
        83 -12.6871    102.3991    126.6726   1.0762767993e+02   3.6895368300e+01    0.5340869    0.4269252  64.27  0.001897056    1.436    0.303
        84 -11.1697     65.5658    128.4325   1.1882908573e+02   4.2452932778e+01    0.2720956     0.225235 -86.46 0.0006529529    1.337    0.252
        85 -15.1259    190.8653     93.3623   7.8059087295e+01   2.4476383243e+01    0.7675798    0.6511003 -15.21  0.002322346    1.506    0.336
        86 -12.1620     74.0648    201.1168   1.2882416317e+02   2.3288939671e+01    0.2860079    0.2543906  76.54 0.0003757253    1.042    0.040
        87 -11.9562     93.5255    125.7077   1.0994711244e+02   3.8720309920e+01    0.4171213    0.3229671 -24.60  0.002020663    1.514    0.340
        88 -11.1993      6.9768    201.4815   1.4357353432e+02   3.1261898635e+01    0.2346769    0.1426094 -83.22 0.0006591837    1.306    0.234
        89 -10.2453     23.9877    123.5128   1.3039162042e+02   4.8261833396e+01    0.1941129    0.1449671 -63.10 0.0002864699    1.109    0.099
        90 -10.3903     77.3456    118.9418   1.1315976847e+02   4.2990567961e+01    0.2065317    0.1783884 -52.90 0.0005361333    1.084    0.078
        91 -13.2361    249.3937    114.5959   7.3462296585e+01   8.1272821583e+00    0.3903993    0.2833349 -35.25  0.001329217    1.379    0.275
        92 -11.2725     68.4869    116.4576   1.1529944559e+02   4.4894610321e+01    0.3344342    0.2459075  61.19  0.001096876    1.726    0.421
        93 -10.0623     77.7671    111.9280   1.1134324443e+02   4.4553192642e+01    0.1949221     0.178135 -49.24 0.0003558281    1.043    0.041
        94 -11.8848     90.7326    110.6237   1.0705854413e+02   4.2705003226e+01     0.333564    0.2611292 -68.95  0.001034825    1.468    0.319
        95 -10.9253    232.0993    200.8090   9.3882121472e+01  -4.5613193008e+00    0.2200734    0.1705115 -29.86 0.0002948998    1.171    0.146
        96 -11.6365     78.9894    104.4094   1.0906383065e+02   4.6056530856e+01    0.3774838    0.3078631 -67.71  0.002001978    1.383    0.277
        97 -12.1847     84.5963    103.9110   1.0718733517e+02   4.5250252573e+01    0.5055631    0.2879269  58.19   0.00153482    2.697    0.629
        98 -10.5506     31.8950     98.6115   1.2311587302e+02   5.3287885513e+01    0.2249096    0.1463426 -47.11 0.0004729244    1.288    0.223
        99 -11.1716     72.6692     97.0656   1.0914657335e+02   4.8647427349e+01    0.2040449     0.170009 -38.99  0.000550198    1.112    0.100
       100 -12.3632     98.1183     93.4292   1.0020001763e+02   4.5083715230e+01    0.5117697    0.2636368 -26.11  0.001789848    3.128    0.680
       101 -10.8417     86.1833     94.8417   1.0424225504e+02   4.6933702762e+01    0.2062035    0.1965678 -70.05 0.0004702284    1.177    0.150
       102 -11.6204    103.5058     92.5389   9.8356387014e+01   4.4237360503e+01    0.3605523    0.2475557  18.15 0.0006336518    1.869    0.465
       103 -10.2675     75.1767     93.3931   1.0734106577e+02   4.9043679463e+01    0.1977205    0.1280013  47.27 0.0006961009    1.792    0.442
       104  -9.7341      7.9981     92.9893   1.3004045538e+02   5.6355883460e+01     0.140448     0.115309 -47.15            0    1.054    0.052
       105 -11.7723     88.2563     89.0932   1.0197328408e+02   4.7759675797e+01    0.3192298     0.310444 -42.05   0.00188573    1.107    0.097
       106 -10.2180     64.9415     89.6531   1.0968669910e+02   5.1356608543e+01    0.1821076    0.1687161  11.42 0.0003688445    1.123    0.110
       107  -9.5672     40.3325     90.6646   1.1838143595e+02   5.4186389414e+01    0.1246376     0.101281  77.72 0.0007052187    1.735    0.424
       108 -10.8556    110.8525     87.8698   9.4909504051e+01   4.3705734183e+01    0.3141143    0.2013649 -45.89 0.0009104228    1.592    0.372
       109  -9.9592     52.0096     89.2917   1.1398810541e+02   5.3146426878e+01    0.1791656    0.1614799 -22.22 0.0002732096    1.052    0.050
       110 -11.7167    106.2513     87.5198   9.6119174293e+01   4.4699590549e+01    0.2631462    0.2570919 -22.09 0.0004288701    1.042    0.041
       111 -11.7886    250.2284     86.7351   6.7662642002e+01   1.2781450547e+01    0.2596971    0.1935037 -77.97 0.0002166084    1.327    0.246
       112  -9.8319     81.4989     97.5390   1.0645262930e+02   4.7148525295e+01    0.1433522    0.1327515 -23.13  0.000103305    1.022    0.022
       113 -11.3363    106.9710     82.9998   9.4590951884e+01   4.5428220683e+01    0.2523236    0.2057564  21.70 0.0003507116    1.300    0.231
       114 -11.9702    213.2992    211.7956   9.9570730320e+01  -3.4322386675e+00    0.3318613    0.2466575  29.36   0.00115263    1.316    0.240
       115 -11.1760     52.5453     81.0247   1.1155869035e+02   5.4785331950e+01    0.2215642    0.1853458  11.08 0.0003342051    1.225    0.184
       116 -10.2503     46.2647    201.5929   1.3521349959e+02   2.6978925494e+01    0.2376561    0.1133159  40.54 0.0009138751    2.060    0.515
       117 -11.0409    183.9664    211.2534   1.0546226876e+02   1.7463528118e+00    0.2859608    0.2066728 -64.47  0.001235353    1.840    0.457
       118 -12.8104    109.9393     76.7049   9.1876342296e+01   4.5992426627e+01    0.5226882    0.4037658  60.09  0.002684346    1.460    0.315
       119 -11.4969     94.9043     77.6777   9.6555127367e+01   4.8769778009e+01    0.2705543    0.2046894 -47.15 0.0007858719    1.395    0.283
       120 -10.0940    250.5831     76.4823   6.5559577172e+01   1.4388783130e+01    0.1529213    0.1214362  61.72 0.0001155117    1.452    0.311
       121  -9.8469     16.4860    198.0242   1.4132376711e+02   3.1142351977e+01    0.1827805    0.1003568 -76.99 0.0003922942    1.497    0.332
       122 -11.2935     85.6645     75.2419   9.8676803066e+01   5.0900026129e+01      0.37308    0.1225322 -40.43  0.001309354    3.069    0.674
       123 -11.7212     98.5131     74.6544   9.4550351092e+01   4.8637534481e+01     0.277228    0.2183112  71.42  0.001094211    1.727    0.421
       124 -11.1887    233.9365    192.4180   9.1912431217e+01  -3.3790958689e+00    0.2874154    0.2159634 -30.46 0.0009517316    1.202    0.168
       125 -10.1656    240.8931     72.4943   6.5896227885e+01   1.6991454325e+01     0.184904    0.1225178  73.64  0.001011186    1.552    0.356
       126 -11.7076    109.0040     70.3417   9.0205646676e+01   4.7306340084e+01    0.3150635    0.2408873  19.24 0.0008889152    1.465    0.317
       127 -11.9359    102.7211     69.4501   9.1712057740e+01   4.8730928972e+01    0.3211332    0.2492638 -19.42 0.0009616634    1.388    0.280
       128 -11.2738     82.8609     67.8777   9.7272425344e+01   5.2716405785e+01    0.2509395    0.2187674 -68.80  0.001442223    1.525    0.344
       129 -10.6919     44.6819     67.8022   1.1057543091e+02   5.8309068246e+01    0.2463222    0.1532102  -7.43  0.001271622    1.935    0.483
       130 -12.3184    243.0055     65.7351   6.4270456846e+01   1.7619716911e+01    0.5281395    0.2843197 -83.33  0.001777945    2.453    0.592
       131 -10.4510    249.8522     65.0552   6.3371909989e+01   1.6332360905e+01    0.2136254    0.1675225  53.14 0.0008182505    1.637    0.389
       132 -11.2248     31.8989     67.1475   1.1521878280e+02   5.9801127943e+01    0.2027979    0.1630072 -21.58 0.0002522087    1.077    0.071
       133 -11.3913    234.5584     62.1685   6.4517743146e+01   1.9936093548e+01    0.4443902    0.3421055  42.15  0.002375054    1.845    0.458
       134 -10.5366    239.3892     57.0993   6.2928356729e+01   1.9684609833e+01    0.3766974    0.2108939  64.38  0.001994934    1.809    0.447
       135 -10.1967     62.9714     64.2698   1.0282244101e+02   5.6543102346e+01    0.1783163    0.1530616   4.70 0.0002149861    1.079    0.073
       136 -11.9146    230.5987     47.1256   6.1857928903e+01   2.3003230644e+01     0.413344    0.2653366 -44.36 0.0005105687    1.503    0.335
       137 -11.9644    227.0062     55.0391   6.3915262980e+01   2.2634500089e+01    0.6530537    0.2576397 -48.45   0.00243433    2.289    0.563
       138 -12.3056    223.0111     51.9869   6.3740270179e+01   2.3957018926e+01    0.7894811    0.3847785 -56.89   0.00368576    2.029    0.507
       139 -10.7304    226.5052     50.4614   6.3009723406e+01   2.3412803138e+01    0.3155291    0.1843934 -62.36  0.001016449    1.633    0.388
       140 -11.5519    236.7662     46.5396   6.1079959600e+01   2.1771078604e+01    0.3361578    0.2217241 -51.04  0.001971057    1.353    0.261
       141 -11.6509    233.7440     42.9853   6.0678823000e+01   2.2909765293e+01    0.3836471    0.2119584 -60.25  0.001694582    1.663    0.399
       142 -10.7139     10.9698     65.9710   1.2301462479e+02   6.1736298119e+01    0.1780277    0.1351588 -36.36            0    1.033    0.032
       143 -10.0328    156.9993    215.7578   1.1210190113e+02   5.7370182756e+00    0.1897999    0.1795265  37.01 0.0003795263    1.010    0.010
       144 -11.3139    227.6419    191.4836   9.2891950760e+01  -2.1701246633e+00    0.3496802     0.266086 -26.41  0.001095351    1.230    0.187
       145  -9.8021     13.3404    193.2994   1.4157866808e+02   3.2539829260e+01    0.1170387   0.08414371 -50.62 0.0007035483    1.667    0.400
       146  -9.4561     16.2537     58.6980   1.1896760216e+02   6.2740039628e+01   0.09811193   0.08931725 -71.72 0.0002053898    1.504    0.335
       147  -9.8560     11.0707     57.9839   1.2086622142e+02   6.3246025590e+01     0.140487     0.108212 -33.51 0.0005090801    1.005    0.005
       148 -12.0020    128.7459     55.3969   8.0568636601e+01   4.5420779902e+01    0.3275389    0.2927972 -11.66  0.001041203    1.233    0.189
       149 -12.6441    134.4904     52.5579   7.8410337816e+01   4.4528896298e+01    0.4497436    0.3137957  86.64  0.001589987    1.948    0.487
       150 -12.0925    249.4760     53.2686   6.1103385907e+01   1.8175693236e+01    0.2481139    0.1734652 -62.47 0.0005417588    1.179    0.152
       151 -10.8395    116.1582     54.8104   8.3468170938e+01   4.8282807454e+01    0.2896915     0.191975 -40.07 0.0009106994    1.628    0.386
       152 -10.2288     86.8394     54.8231   9.1756432437e+01   5.4157160184e+01    0.1644043    0.1577397  63.41 0.0003320718    1.289    0.224
       153 -11.9167    121.4714     53.2134   8.1643705547e+01   4.7359728054e+01    0.3554233     0.250541  70.73 0.0008275004    1.697    0.411
       154 -12.5613    150.9113     44.6634   7.2767878305e+01   4.1795381200e+01    0.5355604    0.2701821  57.44  0.002382871    1.759    0.431
       155 -12.0070    156.3258     44.4752   7.1715182608e+01   4.0541287713e+01     0.306554    0.2910495 -45.07 0.0008399577    1.175    0.149
       156 -12.0924    101.2937     51.4070   8.6355158921e+01   5.1883807592e+01    0.3511342    0.2287203  51.39 0.0003348836    1.516    0.340
       157 -11.3920    106.0040     48.4802   8.4106612384e+01   5.1340076506e+01     0.359386    0.2345415  31.70  0.001192362    1.578    0.366
       158 -10.6254     93.9181     51.8479   8.8621243313e+01   5.3274147598e+01    0.2205797    0.1856446 -18.04 0.0004497166    1.206    0.171
       159 -13.3206    140.3715     48.3959   7.5923223853e+01   4.3757086603e+01    0.6288754    0.4477031 -60.51  0.003247011    1.694    0.410
       160 -10.5216     18.0300     49.6726   1.1555799438e+02   6.4221308188e+01     0.158347    0.1240926 -15.26 0.0004366145    1.096    0.088
       161 -11.4911    245.5264     46.7975   6.0240081511e+01   1.9910911121e+01    0.3931819    0.3229306  59.15  0.002090868    1.531    0.347
       162 -10.7190     30.7714     51.1322   1.1076618960e+02   6.2807015811e+01    0.2474804     0.178876 -43.09 0.0008574888    1.348    0.258
       163 -11.5433     64.0068     45.5520   9.6123591757e+01   5.9428915135e+01    0.2857173    0.1735612 -33.46            0    1.618    0.382
       164 -12.3278    124.5838     43.7516   7.7984390056e+01   4.7976918797e+01     0.425261    0.2325134 -34.08  0.002034677    1.996    0.499
       165 -11.7472    119.1334     42.5357   7.8878357772e+01   4.9340967004e+01    0.3161359    0.2032938  41.54  0.001636452    1.462    0.316
       166 -12.7061    220.9294     30.6591   5.9484162564e+01   2.7325603808e+01    0.6857799     0.265062 -46.20  0.002605505    2.340    0.573
       167 -12.2320    213.9960     34.6021   6.1058883327e+01   2.8356439355e+01    0.3975575    0.2313718 -41.41 0.0002183569    1.734    0.423
       168 -10.8138    216.9995     38.0131   6.1452861769e+01   2.7237358071e+01     0.217481    0.1733918  71.90 0.0004855889    1.236    0.191
       169 -11.5326    218.9613     35.4769   6.0698990008e+01   2.7136992403e+01    0.3418429    0.1922919 -82.13  0.001457589    1.891    0.471
       170 -12.6344    207.9051     35.6460   6.1981749873e+01   2.9593766425e+01    0.4550443    0.3424522 -78.47  0.001808061    1.176    0.150
       171 -12.1973    200.0610     33.2271   6.2378408416e+01   3.1695747164e+01    0.4266425    0.2053534  66.34  0.001784263    1.849    0.459
       172 -10.4463     86.0471     38.7099   8.6474122902e+01   5.6594121920e+01    0.1780628    0.1481695  28.50 0.0003612545    1.056    0.053
       173 -11.8994    233.9079     35.8268   5.9226475545e+01   2.3846633459e+01    0.3924496    0.2148483  77.01  0.002125719    1.712    0.416
       174 -10.0054      9.4675    193.5573   1.4242151398e+02   3.2841820594e+01    0.1225651   0.09555057 -88.15 3.175822e-05    1.033    0.032
       175 -10.7860    147.5166     35.4741   7.0821496456e+01   4.3758311456e+01    0.2655126    0.2004154  82.01  0.001483206    1.371    0.270
       176 -10.0683    144.6902     34.6852   7.1120324659e+01   4.4512944003e+01    0.2329891    0.1679019   1.57 0.0008291292    1.956    0.489
       177 -10.9522    144.5116     31.5409   7.0258167015e+01   4.4924307287e+01    0.2265923    0.1776937 -62.24 0.0005642656    1.445    0.308
       178 -12.2140    187.4813     32.5050   6.3807676343e+01   3.4703509730e+01    0.4378046    0.2320314  81.37  0.001739541    1.984    0.496
       179 -13.0356    188.4901     27.7051   6.2542820099e+01   3.5050209159e+01    0.7282343    0.2623536  55.06   0.00273716    2.622    0.619
       180 -12.0931    118.1715    190.6368   1.1666691912e+02   1.8457423637e+01    0.4375122      0.32371 -70.33  0.001093668    1.436    0.304
       181 -10.2845     67.6605    201.5284   1.3035869876e+02   2.4125500281e+01    0.2325944    0.1188303 -66.60  0.001055939    1.849    0.459
       182 -10.3271    177.4440     30.5055   6.4692967554e+01   3.7301420554e+01    0.2239401   0.09926939  55.93 0.0005733175    2.046    0.511
       183 -11.4144    178.3050     26.4762   6.3583562429e+01   3.7572980774e+01    0.2642149    0.2370029 -46.38 0.0007402377    1.275    0.216
       184 -12.3330    202.6475     27.7507   6.0847329234e+01   3.1783135042e+01    0.3742138    0.2270073 -71.86  0.002001244    1.670    0.401
       185 -10.8061    147.0894     28.5377   6.8947630442e+01   4.4666307418e+01    0.2032298    0.1153697  64.33 0.0009633398    1.553    0.356
       186 -11.1665    110.7181    190.5035   1.1844907620e+02   1.9831298183e+01    0.3703929    0.2322532  62.96  0.001253882    1.881    0.468
       187 -12.2481    210.1814     25.7778   5.9584392994e+01   3.0319316834e+01    0.3717059     0.212326  57.90  0.001957774    1.786    0.440
       188 -11.1289    162.0526     27.0878   6.6089840472e+01   4.1323137612e+01    0.1982004    0.1691311  74.43 0.0003964443    1.003    0.003
       189 -11.0055     89.7037    190.9454   1.2363070276e+02   2.3303807765e+01    0.4412812    0.2083969  25.35  0.001155327    3.282    0.695
       190 -10.7700    118.6143     26.1426   7.3814634112e+01   5.1392978807e+01    0.1628682    0.1208324  -1.64  0.000438391    1.638    0.390
       191 -12.0817    221.2726     24.2874   5.8139016601e+01   2.8044427037e+01    0.2828873    0.2601084   1.88  0.001338754    1.691    0.409
       192 -12.4865    227.2069     23.5580   5.7424961340e+01   2.6846890529e+01    0.4706976    0.1599759  70.18  0.002078388    2.648    0.622
       193 -11.5335    125.9641     22.1998   7.1048799690e+01   5.0175385132e+01    0.2847553    0.2148676 -39.38 0.0009792076    1.530    0.347
       194 -11.3618    239.0432    187.7040   9.0063119695e+01  -3.3713606010e+00    0.3111272    0.2349839  63.77 0.0003184535    1.977    0.494
       195 -13.8596    248.2624    184.3331   8.7787644677e+01  -4.2490775119e+00    0.3429809    0.3147123   4.81  0.001395209    1.148    0.129
       196 -10.2860    168.6123     21.1021   6.3582932368e+01   4.0443564009e+01    0.2146486    0.1547108  82.88 0.0005485081    1.263    0.208
       197 -10.2233    120.0825     20.8210   7.1822189440e+01   5.1619331889e+01    0.1794821    0.1610858  74.49 0.0005095498    1.176    0.150
       198 -11.0921     51.5400    245.4268   1.3841182988e+02   1.6555762219e+01    0.2036345    0.1635556  74.15 0.0001463786    1.044    0.042
       199 -10.7978     18.9931     16.2199   1.0295418101e+02   6.9203289114e+01    0.1748488    0.1255265 -18.26 0.0003402221    1.154    0.133
       200 -11.2653    111.4479    184.3407   1.1719258587e+02   2.1177990311e+01     0.295031    0.2568698  85.41 0.0006775651    1.155    0.134
       201 -10.2470    182.8053     16.5891   6.0633195558e+01   3.7621401896e+01    0.1999067    0.1075012  70.09 0.0006226504    1.572    0.364
       202 -12.2652    214.0490    243.5013   1.0509122248e+02  -8.8345424648e+00    0.2644954    0.2215554  38.07  0.001621196    1.333    0.250
       203 -11.0213    239.3081    181.7362   8.8834180651e+01  -2.3488704557e+00    0.2399893    0.2330883   2.24 0.0009413762    1.170    0.145
       204  -9.8568    128.0340     15.3001   6.8551357520e+01   5.0384211939e+01    0.1754746    0.1462373  62.00 0.0004377531    1.047    0.045
       205 -10.5376    120.6313    242.2503   1.2406032919e+02   6.7454649181e+00    0.3644563    0.2266687 -82.56  0.001731678    2.275    0.560
       206 -10.8008     32.0947    179.9391   1.3602634733e+02   3.3812425538e+01    0.3052336    0.1537602 -62.52  0.001151939    1.714    0.417
       207 -11.2311     90.9869    177.2781   1.2107877902e+02   2.6441164648e+01    0.2035535    0.1875839  78.63 0.0003894716    1.034    0.033
       208 -10.5485     32.8648    242.8030   1.4171755352e+02   1.9459476068e+01     0.169754    0.1463196  86.60 0.0007905829    1.244    0.196
       209 -10.6051     21.6322    243.0972   1.4379106248e+02   2.0708465758e+01     0.190071     0.123127  60.89 0.0003151137    1.252    0.201
       210 -10.7740      2.3503    242.5351   1.4714368937e+02   2.2882133506e+01     0.192811    0.1430404  88.57 0.0006236825    1.155    0.134
       211 -10.2335    201.5061    242.5053   1.0737453370e+02  -6.7545125953e+00    0.1298513    0.1109106  12.23 0.0001813009    1.015    0.015
       212  -9.8093     51.6536    185.2285   1.3201936581e+02   3.0229062695e+01    0.1895169    0.1085876 -60.41 0.0003764511    1.604    0.377
       213 -11.1480    189.8080    241.7305   1.0958297947e+02  -4.7647633997e+00    0.2465407    0.1437055  32.85  0.001259059    1.560    0.359
       214  -9.9192     56.6836    241.7009   1.3708300142e+02   1.6642053221e+01    0.1076601   0.09851475 -39.77 0.0006103573    1.613    0.380
       215 -12.2026    234.0271    234.7695   9.9795810761e+01  -1.0416170496e+01    0.2938222     0.259844  88.96   0.00183447    2.003    0.501
       216 -11.9626     87.4425    173.6091   1.2135339016e+02   2.7929962537e+01    0.5596735    0.2459555 -49.96  0.002008024    2.296    0.564
       217 -10.2189    101.8080    234.7831   1.2706554625e+02   1.1363238961e+01    0.1888807    0.1421911  70.48 0.0007510936    1.305    0.233
       218 -11.5974    237.9689    173.8585   8.7490510244e+01  -6.9501391155e-01    0.3854493     0.315325  -1.85  0.001144823    1.331    0.248
       219 -12.1815    192.5944    232.5643   1.0747258381e+02  -3.6553721104e+00    0.3077619    0.2735063  25.05 0.0002707469    1.070    0.066
       220 -10.0412     96.5215    176.5189   1.1954252150e+02   2.5701939986e+01    0.1498929    0.1387455  89.44 0.0001257517    1.005    0.005
       221 -10.3826     31.3408    233.9361   1.4132004686e+02   2.1508235808e+01    0.2307431    0.1281255  63.14 0.0009371832    1.566    0.361
       222 -10.2087     22.0908    175.9110   1.3793167469e+02   3.5805998948e+01    0.1957633    0.1439118  76.78 0.0004300333    1.265    0.209
       223 -11.8176    248.6281    232.6049   9.6760391191e+01  -1.2113498773e+01    0.3844336    0.1824577  26.54  0.001923206    2.217    0.549
       224 -11.3759    178.2538    231.9575   1.1031995934e+02  -1.1401844766e+00    0.2396818    0.1809085  41.54 0.0005119264    1.261    0.207
       225 -11.5346    175.5072    228.5016   1.1030925557e+02  -3.5552880755e-02    0.3536953     0.196568  50.80  0.001595419    2.036    0.509
       226 -10.7370    144.4553    230.9489   1.1733738791e+02   4.9151974933e+00    0.2479973    0.1725866  52.58 0.0004880505    1.420    0.296
