#   1 NUMBER                 Running object number                                     
#   2 MAG_AUTO               Kron-like elliptical aperture magnitude                    [mag]
#   3 X_IMAGE                Object position along x                                    [pixel]
#   4 Y_IMAGE                Object position along y                                    [pixel]
#   5 X_WORLD                Barycenter position along world x axis                     [deg]
#   6 Y_WORLD                Barycenter position along world y axis                     [deg]
#   7 A_WORLD                Profile RMS along major axis (world units)                 [deg]
#   8 B_WORLD                Profile RMS along minor axis (world units)                 [deg]
#   9 THETA_WORLD            Position angle (CCW/world-x)                               [deg]
#  10 FWHM_WORLD             FWHM assuming a gaussian core                              [deg]
#  11 ELONGATION             A_IMAGE/B_IMAGE                                           
#  12 ELLIPTICITY            1 - B_IMAGE/A_IMAGE                                       
         1  -8.7339     38.5344     16.8152   7.6701520434e+01   6.8753308608e+01    0.3852686    0.1057932 -37.39   0.00153205    3.448    0.710
         2  -8.0051    120.4083     12.2170   4.7934317764e+01   5.3424685234e+01    0.1818745     0.115641 -38.74  0.000945145    1.791    0.442
         3  -8.5453     55.8942     10.3968   6.5877474123e+01   6.6931880594e+01    0.2007216    0.1608278 -35.08 0.0008218928    1.571    0.364
         4  -8.2267     47.5481     10.0533   6.9202840501e+01   6.8318167163e+01    0.1498093   0.09902779 -47.66 0.0008076552    2.456    0.593
         5  -8.3170     90.9587      8.9921   5.3586641538e+01   6.0338622146e+01    0.1831607    0.1544604 -65.74 0.0005930312    1.645    0.392
         6  -7.7164    101.3747      8.1500   5.0586280543e+01   5.8146030666e+01     0.165189    0.1148526 -33.85   0.00037197    1.652    0.394
         7  -8.2967      6.3034      8.6551   9.0268136599e+01   7.3343097004e+01   0.09125293   0.08836184 -31.25 0.0007040262    1.687    0.407
         8  -8.7267     33.5244      5.1172   7.3180123964e+01   7.0933754529e+01    0.2698362    0.1709761 -47.02   0.00150149    2.632    0.620
         9  -8.0113    115.4540      2.9544   4.5526761171e+01   5.5368483364e+01    0.1800364   0.09068873 -46.87 0.0008088533    2.639    0.621
        10  -7.9646     15.7483      3.0398   8.1702910747e+01   7.3308444710e+01    0.1405989   0.08015455 -32.81 0.0005033676    1.546    0.353
        11  -8.1804     62.2818      1.4042   5.8995000900e+01   6.6712473055e+01    0.1540039    0.1087759  54.39 0.0004787031    1.582    0.368
        12  -8.4275     79.1630      4.2209   5.4842148673e+01   6.3209884944e+01    0.2047524    0.1459671 -45.89 0.0007776398    1.935    0.483
        13  -8.7336     68.0944    245.6380   1.1523299551e+02   1.5131783862e+01    0.3697111    0.1734992  76.79  0.001687612    3.049    0.672
        14  -9.0216    232.9334    247.2915   8.3294272219e+01  -8.8629546146e+00    0.4103282    0.1764414 -36.20  0.002167673    2.452    0.592
        15  -8.4090    191.3338    249.8300   9.1384646748e+01  -3.4636725633e+00    0.1567259    0.1527914  59.40 0.0008580482    1.491    0.329
        16  -8.5234    184.1151    250.1497   9.2817804461e+01  -2.4583639659e+00    0.2309406    0.1417115  35.57  0.001351676    1.377    0.274
        17  -9.2576    147.6770    246.8963   9.9542818995e+01   3.5014719860e+00    0.4431938     0.272967  74.60   0.00192065    3.703    0.730
        18  -8.3449     93.8681    249.6392   1.1058039552e+02   1.0945448508e+01    0.2232109    0.1298874  70.60  0.001193871    2.097    0.523
        19  -8.4982    139.5821    244.7904   1.0089702909e+02   5.0792267127e+00    0.1520124    0.1209929 -78.89  0.000836846    1.681    0.405
        20  -8.2181     58.7893    245.1919   1.1697875733e+02   1.6387427592e+01    0.2105014   0.08579771  63.13  0.000949365    2.811    0.644
        21  -7.7891     50.3166    244.9714   1.1856273679e+02   1.7456494938e+01    0.1856814   0.07249212  80.79 0.0007048401    4.333    0.769
        22  -8.9453      9.6678    243.8582   1.2582356929e+02   2.2040417350e+01    0.2736157   0.07569396  89.01  0.001087645    4.490    0.777
        23  -8.9436    201.9233    243.4211   8.8390718483e+01  -4.0945405283e+00    0.1946526    0.1693903 -48.43   0.00073243    1.645    0.392
        24  -9.4065    196.7798    243.1199   8.9326040180e+01  -3.3053746934e+00     0.247364    0.1698105  29.64 0.0003880223    1.229    0.186
        25  -8.5008    193.9787    239.7126   8.9336816838e+01  -2.4001488575e+00    0.1790061    0.1681574   1.21 0.0003882327    1.276    0.216
        26  -8.7559    168.9850    243.4314   9.4809015945e+01   8.0620911154e-01    0.1914221    0.1772754 -79.70 0.0006361814    1.490    0.329
        27  -9.2163     77.7336    243.1481   1.1314061681e+02   1.4335092796e+01     0.252683    0.1437217  80.77  0.001345595    2.148    0.535
        28  -7.6873     34.3254    244.3102   1.2147600984e+02   1.9413132857e+01   0.09450141   0.08606665 -45.19 0.0007039182    1.657    0.396
        29  -8.5542    213.7650    242.5914   8.6031969750e+01  -5.6644240881e+00    0.2598166    0.1775717  38.79  0.001547998    1.548    0.354
        30  -9.7129    160.3023    240.7892   9.6169917075e+01   2.5561920222e+00    0.3561783    0.2550552 -85.95  0.001830243    2.634    0.620
        31  -9.2812    183.2263    240.3215   9.1530284701e+01  -8.7919292144e-01    0.3938576    0.2518517  59.42  0.001937755    2.711    0.631
        32  -8.1841    153.4198    242.2138   9.7758322297e+01   3.3856968632e+00    0.1546528    0.1236198 -70.85 0.0009437376    1.725    0.420
        33  -8.3577     88.0851    242.2685   1.1100490875e+02   1.3091441579e+01    0.1701106    0.1336597  56.84 0.0004913398    1.069    0.064
        34  -8.5844    240.6143    240.0650   8.0759663116e+01  -8.9523374149e+00    0.2378068    0.1001262 -33.92  0.001229356    2.352    0.575
        35  -8.4159    146.2478    240.0616   9.8920141372e+01   4.8496963312e+00    0.2342491    0.1405387  55.21 0.0009062655    1.975    0.494
        36  -7.6910    111.6894    240.3455   1.0602700850e+02   1.0057860685e+01    0.1300532   0.08469746  63.56 0.0007045487    1.705    0.414
        37  -9.1396    230.9825    237.2631   8.2008684971e+01  -7.3218455604e+00    0.2641364     0.230261 -65.24  0.001551504    2.250    0.556
        38  -8.4211    209.0841    238.6823   8.6283173129e+01  -4.4613626053e+00    0.1869943    0.1592941 -26.90 0.0007308251    1.366    0.268
        39  -9.3787    135.8194    239.1523   1.0093331410e+02   6.6160330220e+00    0.2663172    0.1479898  47.74  0.001035194    1.685    0.406
        40  -8.7684    128.8100    238.7571   1.0232308559e+02   7.7618625727e+00    0.1779118    0.1325139  56.34  0.001060487    1.358    0.264
        41  -8.1303     25.7471    237.2356   1.2262736564e+02   2.1687943928e+01    0.2372135   0.07762602  62.70  0.001033075    3.188    0.686
        42  -9.2926    216.7066    235.3983   8.4317584177e+01  -5.0926467059e+00    0.2226817    0.2099396 -50.76 0.0008595547    1.656    0.396
        43  -9.3055    213.6652    231.6964   8.4274208532e+01  -4.1345401207e+00      0.26997    0.2452913 -74.92  0.001018095    1.909    0.476
        44  -8.9282    203.0672    234.8177   8.6804332683e+01  -3.0320706402e+00    0.2543615      0.17388 -49.55  0.001149857    2.025    0.506
        45  -9.9040    175.8357    233.7117   9.1989206903e+01   1.2818203443e+00    0.4530545    0.2509668 -56.34  0.002178889    2.713    0.631
        46  -8.1393    170.1914    236.1140   9.3491937209e+01   1.7761664710e+00    0.1639877    0.1441256  53.93 0.0005758267    1.367    0.268
        47  -9.1283    109.2512    234.6885   1.0587260465e+02   1.1461876210e+01    0.5482824    0.2174001  50.67  0.001778894    2.600    0.615
        48  -9.0485    247.8670    234.6769   7.8595031609e+01  -9.2029685441e+00     0.224278     0.151972  -6.89 0.0008063225    1.240    0.193
        49  -8.3337     99.6845    234.6089   1.0784700821e+02   1.2885356445e+01    0.2585941    0.1500949  65.76  0.001013703    2.061    0.515
        50  -9.2146     78.7961    234.6356   1.1213462901e+02   1.5815832764e+01    0.2696204     0.163763  68.05 0.0009988358    1.715    0.417
        51  -8.5362    122.8581    234.1445   1.0297236450e+02   9.5031630098e+00    0.1988523    0.1563548  61.53  0.000668694    1.313    0.239
        52  -9.5996     68.1474    231.7263   1.1402283818e+02   1.7799856005e+01     0.539336    0.2705956  80.80  0.002525175    2.672    0.626
        53  -8.6922    194.4861    233.0566   8.8182768034e+01  -1.4863899090e+00    0.1917932    0.1609643  39.71 0.0007719488    1.346    0.257
        54  -8.7458    144.9995    233.5005   9.8273676948e+01   6.1684884697e+00    0.2981896     0.155926  62.36  0.001111547    3.935    0.746
        55  -8.5776    140.3766    230.3461   9.8797464016e+01   7.4558608562e+00    0.2762469    0.1788745  58.28 0.0008661068    1.842    0.457
        56  -8.5597    132.7546    232.9344   1.0074792570e+02   8.1902973838e+00    0.1977637    0.1413861  76.70 0.0008477094    1.948    0.487
        57  -9.3538    186.4427    230.6647   8.9385964580e+01   1.1453962033e-01    0.3154372    0.2473829 -74.99   0.00127352    2.272    0.560
        58  -8.6208    157.6547    232.3114   9.5483737809e+01   4.3726567479e+00    0.1911726    0.1458581  63.22   0.00108616    1.701    0.412
        59  -8.4077     92.5326    231.8208   1.0902469686e+02   1.4451180786e+01    0.2422612    0.1270364  61.51  0.001050552    2.188    0.543
        60  -8.8935    236.0963    230.7665   7.9998360508e+01  -7.1515387405e+00      0.20759     0.176799 -23.76 0.0005634095    1.401    0.286
        61 -10.1162    149.7814    226.4610   9.6260415010e+01   6.6463943264e+00    0.6331274    0.3923316 -86.66  0.002436489    4.261    0.765
        62  -8.8846      1.9593    230.9985   1.2659993051e+02   2.5212316582e+01    0.2317582    0.1077862  63.40  0.001026302    1.709    0.415
        63  -9.1603    246.4082    229.0144   7.7881789213e+01  -8.2895779794e+00    0.3052465    0.1645957 -33.90  0.001144708    1.824    0.452
        64  -8.9910    161.8615    227.7430   9.3928196936e+01   4.4798724326e+00    0.2717808    0.2095736  51.91  0.001020244    1.431    0.301
        65  -8.8853    127.9598    227.3624   1.0101136369e+02   9.9631710811e+00      0.30274    0.2026055  64.06 0.0009869235    1.827    0.453
        66  -8.2218    120.0309    227.9689   1.0277752533e+02   1.1087402355e+01     0.207653    0.1438353  67.65 0.0008654998    1.724    0.420
        67  -7.9967    223.4702    227.0299   8.1653940256e+01  -4.8839871312e+00     0.174707    0.1113666 -30.47 0.0004640122    1.554    0.357
        68  -8.0434     49.0172    226.9149   1.1746714228e+02   2.1143463222e+01    0.2006806    0.1114336  66.39  0.000932041    1.695    0.410
        69  -8.9067    206.0391    225.9259   8.4759482187e+01  -2.1601460286e+00    0.2085922    0.1703159 -23.53 0.0007017449    1.263    0.208
        70  -8.0266    200.1714    226.2434   8.5951903324e+01  -1.3164812006e+00    0.1563731    0.1508748  31.83 0.0008064646    1.378    0.274
        71  -9.0062     94.1458    224.5282   1.0787552991e+02   1.5654934815e+01    0.4193537      0.21167  64.11  0.001812543    2.651    0.623
        72  -8.1321     38.8848    225.3848   1.1936424860e+02   2.2621495152e+01    0.2636732   0.09734333  67.27  0.001051328    3.540    0.717
        73  -9.1203    216.4219    223.6204   8.2383917938e+01  -3.3688271741e+00    0.2808892    0.2139965 -45.85  0.001057459    1.735    0.424
        74  -8.6795    180.6313    224.5048   8.9559256044e+01   2.0162271455e+00    0.2599728    0.2016367  56.17  0.001183528    1.675    0.403
        75  -8.8734    104.6916    223.7901   1.0553023445e+02   1.4241387281e+01    0.3065288    0.2013388  73.50   0.00159771    1.874    0.466
        76  -7.5973     85.2978    225.3306   1.0984253509e+02   1.6758600475e+01    0.1155453   0.09914554 -20.69 0.0007028929    1.641    0.391
        77  -8.5759    173.0974    223.1770   9.0886129653e+01   3.4467952748e+00    0.2093371    0.1723111  89.48 0.0005639609    1.915    0.478
        78  -8.5509    113.8437    224.1006   1.0360148798e+02   1.2785858861e+01    0.2027618    0.1580254  62.12 0.0007982208    1.290    0.225
        79  -8.2323    229.8012    228.9968   8.0830158466e+01  -6.0499020313e+00    0.1643031    0.1425809 -55.46 0.0007664933    1.942    0.485
        80  -9.2241    225.5415    221.9736   8.0395778300e+01  -4.4614305035e+00    0.2378405    0.2142947  33.77  0.001079975    1.466    0.318
        81  -9.3080    192.4745    221.5256   8.6677887920e+01   6.1884258029e-01    0.2904138     0.253286  86.94  0.001082404    1.856    0.461
        82  -8.4326    163.4428    223.2137   9.2896678145e+01   5.0055195541e+00    0.2072143     0.156085  62.23  0.001129404    1.759    0.431
        83  -8.8898    159.1881    221.0060   9.3443508125e+01   6.0877968962e+00    0.3157938    0.2159451  55.76   0.00112595    1.765    0.433
        84  -8.7398    140.4737    222.6563   9.7677501493e+01   8.8403487994e+00     0.247012    0.1732453  74.88 0.0008624525    2.126    0.530
        85  -7.8068     59.3705    223.6914   1.1509663688e+02   2.0540875170e+01    0.1357227   0.07390516  62.01 0.0006721482    1.765    0.433
        86  -9.1559    238.9525    221.7386   7.7925230206e+01  -6.3180152088e+00    0.2172023    0.1833479 -28.63 0.0008779003    1.424    0.298
        87  -8.4815    202.6301    220.3599   8.4471352410e+01  -7.8675907796e-01    0.2285178    0.1483418 -32.07 0.0006256925    1.577    0.366
        88  -8.6860     82.7397    220.5119   1.0986692487e+02   1.8096856730e+01    0.3158743    0.1780083  71.21  0.001232848    2.185    0.542
        89  -7.9658     73.1871    220.7787   1.1193212890e+02   1.9350557191e+01    0.2204729    0.1042688  65.95 0.0009377236    2.741    0.635
        90  -7.9845     27.5367    221.5020   1.2132615553e+02   2.4641494479e+01    0.1153718    0.0922991  74.61 0.0008090515    1.049    0.047
        91  -8.6945      7.6747    221.8321   1.2513289804e+02   2.6512724403e+01    0.2940216   0.03186249  34.97   0.00113083    4.665    0.786
        92  -9.1284    120.3621    219.2469   1.0154566222e+02   1.2716421969e+01    0.4149506    0.2260025  61.04  0.001804724    2.493    0.599
        93  -8.2992    210.0769    219.2659   8.2836738051e+01  -1.7638392225e+00    0.1784297    0.1462154  17.69 0.0004748231    1.087    0.080
        94  -8.7114    248.2646    217.6947   7.5575634309e+01  -7.0303040762e+00    0.2745154    0.1894397  56.68  0.001420798    3.137    0.681
        95  -9.3187    132.8280    216.0080   9.8358082465e+01   1.1344039587e+01    0.4642755    0.2941531  77.37  0.002019345    2.796    0.642
        96  -8.2832    112.1673    217.9160   1.0315924060e+02   1.4266555938e+01    0.2154194    0.1414465  76.40  0.001057268    2.049    0.512
        97  -8.4988     62.1759    217.4418   1.1393894502e+02   2.1485460812e+01    0.3482544     0.146081  57.41  0.001527696    2.535    0.605
        98  -8.7318     51.5172    217.3567   1.1616969667e+02   2.2820696067e+01    0.2253235    0.1436519  74.12 0.0006582769    1.478    0.323
        99  -8.7122    169.2375    216.2268   9.0554318901e+01   5.2774042414e+00    0.2693826    0.2213897 -89.18  0.000896624    1.849    0.459
       100  -8.6785    143.0325    216.6128   9.6222650843e+01   9.5528447782e+00    0.2665715    0.2020021  76.80   0.00132539    1.820    0.451
       101  -8.6406     18.6040    216.3617   1.2274718593e+02   2.6603434750e+01     0.218713   0.09336406 -85.80  0.001123689    2.168    0.539
       102  -8.1558    224.5512    212.4961   7.8893068391e+01  -2.9262624455e+00    0.2215925    0.1778261 -49.42  0.001110444    1.754    0.430
       103  -9.8847    228.2179    215.5781   7.8770590130e+01  -3.9235075392e+00    0.2277128    0.1862086  -2.85 0.0002814433    1.044    0.043
       104  -8.8221    232.3861    215.1298   7.7929130170e+01  -4.4625836986e+00    0.2949948    0.1918357 -42.50  0.001056315    1.837    0.456
       105  -8.3920    185.5451    214.2682   8.6838608316e+01   2.9273138752e+00    0.2207497    0.1303751 -46.53   0.00060928    1.940    0.485
       106  -8.3216    154.4677    215.0829   9.3510741915e+01   7.9408726137e+00    0.1864626    0.1357262 -51.30 0.0006357012    1.568    0.362
       107  -7.8422     41.4210    215.2376   1.1808674968e+02   2.4443387886e+01    0.1752968   0.09703768  86.27 0.0009456017    1.782    0.439
       108  -9.3985    213.9669    212.2651   8.0848316106e+01  -1.2829245175e+00    0.3353084     0.291458  57.49  0.001934605    1.701    0.412
       109  -8.7762     92.9334    213.9639   1.0689388403e+02   1.7991942821e+01    0.2757422    0.1730952  65.83   0.00104266    1.768    0.435
       110  -9.4028     73.4417    212.2982   1.1099376009e+02   2.1098039080e+01    0.6303889    0.2275638  57.47  0.002189749    3.922    0.745
       111  -8.9492    197.9351    212.1815   8.3968549657e+01   1.2616717008e+00    0.2358513    0.1773876 -22.29  0.000568562    1.322    0.244
       112  -8.6790    161.5672    212.3673   9.1543588516e+01   7.2510075019e+00    0.2133006    0.1916744  82.93 0.0005756012    1.429    0.300
       113  -8.3130    106.4349    213.1870   1.0379974947e+02   1.6116326313e+01    0.1751048    0.1254385 -82.83 0.0006367782    1.645    0.392
       114  -7.5040    242.6846    212.2583   7.5570071064e+01  -5.5133296353e+00    0.1020284    0.0972655  23.27 0.0002877265    1.535    0.349
       115  -9.1677    204.2452    210.8508   8.2480757276e+01   4.6689216424e-01    0.2713436    0.2158379 -47.38 0.0006549573    1.576    0.365
       116  -9.4163    175.5947    210.1897   8.8196761566e+01   5.2836890767e+00    0.3915268    0.2730304  65.81  0.001455651    2.357    0.576
       117  -9.1280    116.5338    210.6670   1.0119842059e+02   1.5046213335e+01    0.3789002    0.2030376  60.68  0.001057668    2.527    0.604
       118  -9.3534      7.0628    209.9832   1.2462809885e+02   2.9005840132e+01    0.4200091    0.1327334  72.57  0.001631693    3.978    0.749
       119  -8.8264    147.9793    210.6434   9.4208221581e+01   9.8628806990e+00    0.2896771    0.2106718  67.08  0.001368503    1.842    0.457
       120  -8.1796     32.5877    210.7912   1.1956570310e+02   2.6356864661e+01     0.259833    0.1097736  75.20  0.001138216    2.825    0.646
       121  -9.1078    236.7469    208.7995   7.5992562384e+01  -4.1724327795e+00     0.278665    0.2458042 -77.40  0.001449556    2.148    0.534
       122  -8.4092     85.2610    209.2367   1.0803039786e+02   2.0107246942e+01    0.2835443    0.1544456  68.15  0.001259929    2.369    0.578
       123  -9.7681    124.3427    206.3190   9.8803400218e+01   1.4670332564e+01     0.337996    0.2260595  70.62  0.001609146    2.025    0.506
       124  -7.9900     46.2999    209.6476   1.1660196366e+02   2.5080549397e+01       0.1338   0.07623157  67.35 0.0007037348    1.696    0.410
       125  -9.2436    246.4470    207.3763   7.4020073533e+01  -5.3467699415e+00    0.2522529    0.1822753 -29.08  0.000621351    1.322    0.243
       126  -9.4796    250.0907    201.9004   7.2376884107e+01  -5.0742142957e+00    0.4982647    0.1937279 -39.81  0.002135701    2.558    0.609
       127  -9.5472    245.4760    193.4536   7.1572573289e+01  -3.1727633509e+00    0.2639531    0.2245172 -56.92  0.001315902    1.829    0.453
       128  -8.5117    139.0122    207.8560   9.5745297328e+01   1.1915550199e+01    0.2265399    0.1801396 -82.32 0.0006153326    1.619    0.382
       129  -9.2719    192.5524    197.4703   8.2372102236e+01   4.6556826018e+00    0.3548461    0.2555949 -50.09 0.0009104351    1.661    0.398
       130  -8.2344    198.3057    206.6749   8.2905591038e+01   2.1124916761e+00    0.2094019    0.1904697 -36.30 0.0007014978    1.299    0.230
       131  -9.4746    194.8949    203.3680   8.2989365057e+01   3.2358687658e+00    0.3848034    0.2559885 -32.60  0.001228433    1.522    0.343
       132  -9.2509     99.3050    206.1179   1.0446622568e+02   1.8695829170e+01    0.3759332    0.2381299  80.03  0.001399058    2.106    0.525
       133  -8.4042    192.3095    210.6842   8.4833900074e+01   2.4233020838e+00    0.2231715    0.1616494 -50.79 0.0008949714    1.732    0.423
       134  -8.5907     56.4087    205.5866   1.1404171153e+02   2.4756186719e+01    0.3304452    0.1559417  60.05  0.001520936    2.252    0.556
       135  -8.7528    131.1492    204.0080   9.6905408458e+01   1.4011267759e+01    0.3139369    0.2258047  76.25  0.001047014    1.898    0.473
       136  -8.2672    108.9440    205.1528   1.0213591829e+02   1.7402436094e+01    0.2098237    0.1705226  68.30  0.000627895    1.263    0.208
       137  -8.1688    225.9531    203.7660   7.7028427906e+01  -1.8108861028e+00    0.1876843     0.150107  10.82  0.001156632    1.100    0.091
       138  -8.8750    183.5226    203.8888   8.5423461553e+01   5.0608391267e+00    0.2383573    0.2064984  58.85 0.0007059571    1.468    0.319
       139  -9.6116    163.8394    203.1119   8.9478737729e+01   8.5834077532e+00     0.427323    0.2687164  56.80 0.0009544909    2.101    0.524
       140  -8.5395    211.0603    202.1628   7.9555826486e+01   7.8347796406e-01    0.2196867    0.1772145 -65.79 0.0007442434    2.017    0.504
       141  -9.1224    243.0787    201.0005   7.3421749892e+01  -3.9447022690e+00     0.282321    0.1649587 -36.22 0.0008944403    1.648    0.393
       142  -9.0214    140.5635    200.9887   9.4284990342e+01   1.3024315291e+01    0.3842185    0.2571646  72.62   0.00171502    2.346    0.574
       143  -8.5078     79.6724    201.1768   1.0832614748e+02   2.2657972712e+01    0.3484303    0.1917538  67.63  0.001564187    2.258    0.557
       144  -7.6319     73.3210    202.6422   1.0994878113e+02   2.3212694080e+01    0.1433246   0.08753768  67.74 0.0007044745    1.764    0.433
       145  -9.2554    237.0398    198.7637   7.4068207497e+01  -2.7228397195e+00    0.3175197    0.1645251 -40.63  0.001173371    1.986    0.497
       146  -9.4391    149.3874    198.5502   9.1882091461e+01   1.1984117467e+01    0.3958316    0.2751065 -78.88  0.001057785    2.284    0.562
       147  -8.9442    123.8069    199.1397   9.7820517847e+01   1.6253059299e+01    0.3240138    0.2363987  86.66   0.00127424    1.825    0.452
       148  -9.3505    112.9743    198.6151   1.0025371034e+02   1.8152388307e+01    0.4619249    0.2763661  66.70  0.001739371    2.316    0.568
       149  -9.2778     88.5769    198.4767   1.0592577120e+02   2.1973158154e+01    0.3962659    0.2410312 -89.68  0.001346463    2.115    0.527
       150  -8.5719    176.8721    198.7609   8.5893019213e+01   7.1312744066e+00    0.2551535    0.1957682 -55.52  0.000706473    1.599    0.375
       151  -8.3000    202.3226    197.8031   8.0456766961e+01   2.9451623898e+00    0.2325476    0.2083433 -71.26  0.001039551    1.622    0.383
       152  -9.1336     61.5776    197.1420   1.1201036033e+02   2.5988377501e+01    0.4358144    0.2208284  66.27  0.001529068    2.355    0.575
       153  -7.8832     22.6842    198.6646   1.2074204664e+02   2.9997046166e+01    0.1135254   0.08398874 -50.89 0.0007047529    1.693    0.409
       154  -9.2831     12.9802    197.6423   1.2270657221e+02   3.1123824635e+01    0.3253167    0.1350706  73.15  0.001530067    2.503    0.601
       155  -8.2789     29.3886    197.2912   1.1920310359e+02   2.9636453824e+01      0.17611   0.09692178  88.60 0.0009438804    1.692    0.409
       156  -8.6425    215.8839    195.6592   7.7393966542e+01   1.0670146856e+00    0.2414048    0.1713907 -52.52 0.0009450907    1.912    0.477
       157  -9.0107    185.2223    194.8192   8.3394290092e+01   6.3970452305e+00    0.2907444    0.2332469 -55.65 0.0007463484    1.552    0.356
       158  -7.9672    133.0235    196.0034   9.5182457362e+01   1.5347048411e+01     0.216357    0.1659243  72.19 0.0006537552    1.617    0.382
       159  -7.8247     35.6957    196.3776   1.1775219436e+02   2.9184601233e+01    0.1367851   0.07557962  68.35 0.0007027268    1.772    0.436
       160  -8.8411    224.2864    193.9130   7.5469145193e+01  -8.7671335030e-05    0.3187692    0.1544219 -42.14  0.001219767    2.144    0.534
       161  -7.6904    209.3131    195.6608   7.8667174516e+01   2.1441163877e+00    0.1228946    0.1113634 -87.93 0.0007046619    1.696    0.410
       162  -9.0596    160.6651    194.2079   8.8590852898e+01   1.0854082665e+01    0.2883584    0.2352689 -88.91 0.0008704154    1.729    0.422
       163  -8.9162     43.7634    193.4904   1.1569210068e+02   2.8953092573e+01    0.3940187    0.1893876  78.29  0.001736243    2.550    0.608
       164  -7.9625    230.7858    194.5812   7.4399141855e+01  -1.1267014545e+00    0.1634949    0.1203584  41.85 0.0006302731    1.589    0.371
       165  -8.5675     76.9649    194.0052   1.0807031301e+02   2.4645666289e+01    0.2487599    0.1844802  73.51 0.0007468486    1.352    0.260
       166  -8.5750    172.7382    192.1280   8.5553152616e+01   9.1039916812e+00    0.2867324    0.1991885 -66.82  0.001172466    2.177    0.541
       167  -8.4453    198.9774    191.8214   7.9985888955e+01   4.5479773216e+00    0.2315893    0.1887891 -32.39 0.0005261267    1.235    0.190
       168  -8.2042    178.9935    191.7484   8.4133186426e+01   8.0616008661e+00    0.2326884    0.1845897 -59.97 0.0006506836    1.607    0.378
       169  -9.2771    139.5724    190.7349   9.2766019417e+01   1.5308453791e+01    0.3778512    0.2785878  86.00  0.001124533    1.973    0.493
       170  -7.8304    205.4650    191.5578   7.8634970514e+01   3.4860604979e+00    0.1376611    0.1200376   1.62 2.079995e-05    1.004    0.004
       171 -10.4256     92.1053    188.7726   1.0375583911e+02   2.3629756651e+01    0.9632451    0.2786741  47.71  0.003039501    3.852    0.740
       172  -8.7036    148.4645    189.4716   9.0487971111e+01   1.3987927405e+01    0.2894108    0.2065137  76.56 0.0007571341    2.174    0.540
       173  -8.9270    129.3287    188.7081   9.4815934186e+01   1.7536930642e+01    0.3189832    0.2301221  77.92 0.0008610275    1.905    0.475
       174  -8.1670    237.1155    188.6030   7.2100605800e+01  -1.1700472978e+00    0.2136955    0.1563639 -34.69 0.0005660493    1.341    0.254
       175  -9.0042    216.6161    188.1154   7.5788618530e+01   2.1986033359e+00    0.2975778    0.2115386 -45.04 0.0008073426    1.587    0.370
       176  -8.9889    191.5602    187.7536   8.0714697805e+01   6.5704470647e+00    0.3225459    0.2514064 -69.59  0.001099502    1.963    0.490
       177  -8.6327    187.7072    187.0228   8.1375650434e+01   7.3893778271e+00    0.2280123    0.2020754 -23.16  0.000427622    1.116    0.104
       178  -9.4196    155.9316    187.5749   8.8435081841e+01   1.3029175278e+01    0.3683048    0.2457616 -63.23 0.0009501573    1.956    0.489
       179  -9.7269    120.8587    186.6565   9.6486344642e+01   1.9446736509e+01    0.5540522    0.3115463 -76.29  0.002110393    2.958    0.662
       180  -8.7745     34.3048    188.2485   1.1735000087e+02   3.1173639064e+01    0.3198594    0.1455067  67.71  0.001299047    2.531    0.605
       181  -7.8872    156.4846    207.9904   9.1914029482e+01   8.9256211986e+00    0.1750855     0.124586 -82.49 0.0006066729    2.390    0.582
       182  -9.0603     54.7429    187.1545   1.1250338761e+02   2.9125249295e+01     0.381897    0.1960254  66.98  0.001710207    2.306    0.566
       183  -8.2356    230.6609    187.1971   7.2986237156e+01   6.4372750047e-02    0.1968431    0.1532175 -39.87 0.0007683336    1.405    0.288
       184  -8.7070    164.7059    186.7129   8.6298004782e+01   1.1607267685e+01    0.2644648    0.2235891 -74.76 0.0008482435    1.534    0.348
       185  -9.1941    109.5569    186.1857   9.9136411689e+01   2.1450265227e+01    0.3797848    0.2611966  74.96  0.001200613    1.873    0.466
       186  -8.7163    249.2761    185.8111   6.9444702837e+01  -2.5812657979e+00    0.2171788      0.17932 -42.90 0.0009024273    1.499    0.333
       187  -8.6499    182.9590    185.2630   8.2035042826e+01   8.5711245263e+00    0.2293523    0.1952073 -50.58 0.0006137086    1.346    0.257
       188  -8.3406     12.2005    185.3617   1.2204439479e+02   3.3920741662e+01    0.2751436    0.1006585  77.71  0.001016435    3.441    0.709
       189  -8.6628    210.1470    184.3631   7.6296919337e+01   3.9307566239e+00    0.2475338    0.1842835 -39.34 0.0005502264    1.377    0.274
       190  -8.6973    202.9536    184.8416   7.7816564516e+01   5.0913973195e+00    0.2521036    0.2061576 -88.32 0.0009038195    2.081    0.520
       191  -9.0454     66.4238    184.5870   1.0940913695e+02   2.8247479525e+01    0.3490905    0.1967294  66.21  0.001129313    2.064    0.515
       192  -8.3486    224.1239    183.7084   7.3498587870e+01   1.6911916856e+00    0.2207444    0.1664105 -37.36 0.0004707224    1.343    0.255
       193  -8.1684    197.1817    183.9508   7.8807035048e+01   6.2659871771e+00     0.213049    0.1641003 -68.64  0.000938097    2.019    0.505
       194  -9.1007    174.1204    183.4907   8.3595824082e+01   1.0520638569e+01    0.3006957    0.2308509 -52.49 0.0007537924    1.478    0.323
       195  -8.0419      1.7840    183.7859   1.2418997848e+02   3.5118924964e+01    0.1658541    0.1052221  66.87 0.0008278166    1.360    0.265
       196  -8.8605     44.3581    182.2574   1.1443541047e+02   3.1478055470e+01    0.3737158    0.2075571  79.51  0.001211417    1.976    0.494
       197  -9.3037    147.6488    180.7671   8.9065833583e+01   1.5953376479e+01     0.389777    0.2900305 -88.65   0.00117609    2.011    0.503
       198  -9.6277     25.6213    179.0982   1.1853043258e+02   3.4149067886e+01    0.6768994    0.2584549  76.55  0.002396422    4.094    0.756
       199  -7.7838     19.0000    181.9885   1.2028459244e+02   3.4092513038e+01    0.2045922   0.05892904 -75.04 0.0008068632    2.973    0.664
       200  -8.1430    235.3782    181.2483   7.0958531676e+01   2.6899110958e-01    0.1864589    0.1130279 -42.24 0.0009493211    1.706    0.414
       201  -8.2114    240.3820    180.1796   6.9863547051e+01  -3.5139662107e-01    0.1822387    0.1110424 -41.58 0.0009429266    1.672    0.402
       202  -8.6859    137.7152    179.5358   9.1183214048e+01   1.8032958896e+01    0.2847045    0.2170302  83.42 0.0009926425    1.792    0.442
       203  -9.3262    191.5086    178.4620   7.8873973113e+01   8.2968194154e+00    0.2795669    0.2491156  62.98 0.0005764836    1.424    0.298
       204  -7.9186    169.3873    179.1390   8.3781981248e+01   1.2255216724e+01    0.2002394    0.1384189 -56.03 0.0008289968    1.712    0.416
       205  -9.1435     35.9459    176.9678   1.1589908206e+02   3.3626076646e+01    0.5392965    0.2153716  81.22  0.001806421    4.343    0.770
       206  -9.4033    248.4810    176.4325   6.7729243958e+01  -1.0188806434e+00     0.416812    0.2346485 -44.59  0.001981618    1.939    0.484
       207  -8.6518    250.5177    172.8912   6.6680767234e+01  -7.7925107520e-01    0.2409131    0.1577786 -35.35 0.0004483711    1.373    0.271
       208  -8.6782    231.1639    177.1758   7.0895776693e+01   1.6132097193e+00    0.2790126     0.168863 -39.11 0.0009998468    1.585    0.369
       209  -8.7637    204.9953    177.5162   7.5931982448e+01   6.0385096863e+00    0.2547387    0.1912267 -50.89 0.0005685508    1.580    0.367
       210  -8.7172    129.1420    177.4033   9.2857431062e+01   2.0048628127e+01    0.2985999     0.218147  81.40 0.0009121838    1.896    0.473
       211  -8.2881     97.2971    177.8068   1.0081725053e+02   2.5357664881e+01    0.2553474    0.1884761  -2.81  0.001193447    2.033    0.508
       212  -8.4574    217.4414    177.1409   7.3431956892e+01   3.9262170679e+00    0.1955548    0.1929848 -36.27 0.0006848535    1.300    0.231
       213  -9.0713    183.1461    176.2267   8.0187101228e+01   1.0263369675e+01    0.2809086    0.2279956 -52.48 0.0004567945    1.406    0.289
       214  -8.6725     89.0340    176.8376   1.0274117550e+02   2.6868344479e+01    0.2846294    0.2121748  80.97 0.0009184028    1.487    0.328
       215  -9.9762     57.3357    173.2966   1.1023636838e+02   3.2082906851e+01    0.8348381    0.3769719  79.81  0.002649185    4.573    0.781
       216  -9.0264     12.5613    176.5485   1.2132048720e+02   3.5898729402e+01    0.2826139    0.1246535  64.06 0.0009027317    2.350    0.574
       217  -9.1658    158.7798    175.1392   8.5386911777e+01   1.5061619655e+01     0.366493    0.2719144  81.75  0.001128925    2.127    0.530
       218  -9.3695    104.3980    174.8943   9.8554100890e+01   2.4890117904e+01     0.529668    0.2797935  60.30  0.001720252    2.651    0.623
       219 -10.7567     75.9152    170.0688   1.0506121345e+02   3.0408907338e+01     1.315788    0.4992816 -74.99  0.003939279    4.482    0.777
       220  -8.1424     79.2247    158.5617   1.0238237538e+02   3.2737994741e+01    0.2754805    0.1996933  18.52  0.001362083    1.707    0.414
       221  -9.4037     81.6146    154.9780   1.0112752051e+02   3.3267878259e+01     0.479296    0.3020287  76.60  0.001543883    2.199    0.545
       222  -8.4677    224.4840    174.4930   7.1569576372e+01   3.1759773521e+00    0.2253448    0.1205725 -46.35 0.0007437469    2.080    0.519
       223  -9.3047    175.8088    172.4992   8.1015842945e+01   1.2373889407e+01    0.3293956    0.2627307 -55.41  0.001015129    1.441    0.306
       224  -8.4506    142.9091    172.5427   8.8604263279e+01   1.8599325994e+01    0.2847022    0.1993752 -70.33 0.0008495863    1.881    0.468
       225  -8.5832    134.8194    172.0736   9.0471349161e+01   2.0203823516e+01    0.2289536    0.2017467  76.76  0.000645692    1.277    0.217
       226  -9.6689    121.3645    170.5667   9.3515358733e+01   2.2982420806e+01     0.415201    0.2853249 -73.30   0.00096916    1.806    0.446
       227  -9.0406     44.9764    170.8289   1.1303360150e+02   3.4120969761e+01    0.3851628    0.1948694 -86.03  0.001395325    2.161    0.537
       228  -8.4140    205.8742    170.7030   7.4348834764e+01   7.1115189456e+00     0.246819     0.181993 -63.65 0.0006910316    2.010    0.503
       229  -8.5427    198.6176    170.4254   7.5749176846e+01   8.4919500803e+00    0.2674167    0.2137216 -64.22 0.0009108257    1.703    0.413
       230  -8.4353    237.1382    169.7006   6.8310719556e+01   1.8617020242e+00    0.2234119    0.1639119 -38.79  0.000544652    1.341    0.254
       231  -8.6298    230.3537    170.1107   6.9597807930e+01   2.9229803076e+00    0.2238525    0.1746762  11.91 0.0007224775    1.288    0.223
       232  -9.1851    167.1405    168.7086   8.2165565235e+01   1.4799932242e+01    0.3751123    0.2729162  78.09   0.00115835    2.257    0.557
       233  -8.5788    149.8188    169.5566   8.6360379113e+01   1.7943818001e+01    0.2787137    0.2026214 -70.90 0.0007451503    1.827    0.453
       234  -8.0139    244.3926    169.2944   6.6979839353e+01   7.5137476459e-01    0.1745017    0.1112337 -40.08 0.0004073999    1.508    0.337
       235  -8.1175     88.6763    168.5924   1.0153003520e+02   2.8887015107e+01     0.237094    0.1659568 -89.80 0.0007357767    1.684    0.406
       236  -8.3469    218.8027    168.2159   7.1329146823e+01   5.2402174982e+00    0.1995237    0.1827392 -40.12 0.0006411655    1.244    0.196
       237  -8.1687    211.1908    168.1656   7.2773411537e+01   6.6075296507e+00    0.1889842    0.1676357 -56.12  0.000728883    1.393    0.282
       238  -9.1765    191.8803    166.3738   7.6282712889e+01   1.0519598464e+01    0.4035104    0.1938675 -44.56 0.0008677484    2.104    0.525
       239  -8.6373    111.4813    167.4659   9.5446848149e+01   2.5434054287e+01      0.32939    0.2109479  73.98  0.001055175    2.358    0.576
       240  -8.9310    184.9248    166.5706   7.7795037090e+01   1.1807609677e+01    0.2821516    0.1902174 -58.48 0.0007547344    1.926    0.481
       241  -9.9508     95.1361    162.8510   9.8869457137e+01   2.9256891596e+01    0.9210171    0.5204398  80.92  0.003143212    3.554    0.719
       242  -9.0809     20.8845    166.6609   1.1854056021e+02   3.7501135485e+01    0.3264036    0.1418994  55.42   0.00128481    2.428    0.588
       243  -8.2805     13.2255    167.2599   1.2043119124e+02   3.8002724086e+01    0.2014607   0.08276343 -88.43 0.0008856708    2.408    0.585
       244  -7.3238    229.3253    166.6369   6.9062165536e+01   3.6837819150e+00    0.1316658    0.1084181 -66.63 0.0007040372    1.791    0.442
       245  -9.8047    136.7150    164.5130   8.8514238271e+01   2.1541120230e+01    0.6221431    0.3000329  55.28  0.002105352    2.918    0.657
       246  -8.6523    233.9198    165.1551   6.7935496753e+01   3.1524761632e+00     0.195079    0.1730015 -38.14 0.0004961739    1.247    0.198
       247  -8.6856    159.2713    164.3804   8.3067456843e+01   1.7230554170e+01     0.269675    0.2412142 -74.48 0.0005498587    1.314    0.239
       248  -9.6728     33.6132    163.5842   1.1507804581e+02   3.7056333278e+01    0.5574236    0.2197739  53.27  0.002301633    2.872    0.652
       249  -8.2006    239.9980    164.0590   6.6652223162e+01   2.3177823475e+00    0.1927578    0.1642998 -65.40 0.0008193653    1.685    0.407
       250  -8.4706    213.0130    163.5543   7.1444659647e+01   7.1060625568e+00     0.256221    0.1824106 -48.47 0.0007113282    1.555    0.357
       251  -8.4493     57.1979    163.9024   1.0904459097e+02   3.4376493474e+01    0.3114294    0.1919644   5.98  0.001380002    2.696    0.629
       252  -8.9161    246.0124    163.0351   6.5425210262e+01   1.4996593610e+00    0.1988333    0.1677694 -24.85 0.0004822014    1.081    0.075
       253  -8.4861    204.7923    162.8888   7.2907218879e+01   8.7444645888e+00    0.2455118    0.1934865 -54.63  0.000533393    1.517    0.341
       254  -9.3613      3.3204    162.4188   1.2239673825e+02   3.9883482095e+01    0.3760118    0.1639735  55.84  0.001751851    2.328    0.570
       255  -9.1401    177.6019    160.9499   7.8177466472e+01   1.4348275651e+01    0.3376946    0.2656521 -82.06  0.001053558    1.893    0.472
       256  -8.9459    151.5741    161.0215   8.4175016699e+01   1.9455756275e+01    0.3387403    0.2555368 -81.12 0.0009581149    1.892    0.472
       257  -8.5983     60.4964    160.1734   1.0765484291e+02   3.4881626052e+01    0.3254031    0.1973567  81.07  0.001089669    2.027    0.507
       258  -8.3127    242.3764    160.1801   6.5442248245e+01   2.5616682406e+00    0.1712373    0.1551334 -46.78 0.0003243495    1.331    0.249
       259  -9.8346    250.1810    157.8605   6.3672603909e+01   1.6597577193e+00    0.3428031    0.1758219 -36.45 0.0008056245    1.682    0.406
       260  -9.2812    246.7206    155.6753   6.3781282534e+01   2.5800800273e+00    0.1997484    0.1663215 -10.43 0.0003853876    1.103    0.094
       261  -8.6475    227.4443    159.1242   6.7817324706e+01   5.2975413912e+00    0.3027115    0.2011394 -54.27  0.001196736    1.946    0.486
       262  -9.7463    105.8249    157.8303   9.5120002250e+01   2.8692299582e+01    0.5166387    0.3636559 -81.64  0.001575235    1.780    0.438
       263  -8.3751    237.3506    159.1644   6.6084593447e+01   3.5745420430e+00    0.1991451    0.1114263 -43.75 0.0009431352    1.777    0.437
       264  -7.8790    137.3018    159.3431   8.7307563389e+01   2.2594287103e+01    0.1562311    0.1196853 -11.93 0.0005382043    1.678    0.404
       265  -8.2342    128.0421    158.9887   8.9566848432e+01   2.4428690530e+01    0.2400862    0.1849358  78.64 0.0005990146    1.678    0.404
       266  -8.2893    196.4970    157.9497   7.3507690417e+01   1.1250586358e+01    0.2187272    0.1385375 -40.72 0.0005362052    1.529    0.346
       267  -8.3597    188.2721    157.8184   7.5190455524e+01   1.2877379719e+01    0.2617063     0.172086 -42.87 0.0006861991    1.504    0.335
       268  -9.1244    167.5636    157.3316   7.9637923198e+01   1.7081449199e+01    0.3376493    0.2765027 -81.51  0.001022693    1.646    0.393
       269  -8.1770    218.1672    156.9120   6.9041359350e+01   7.3554687924e+00     0.212933    0.1780224 -51.40 0.0009931949    1.376    0.273
       270  -9.0375    157.7789    156.3093   8.1685431788e+01   1.9251003501e+01    0.3383828    0.2066568 -62.26  0.000912775    2.215    0.549
       271  -8.9528    145.1009    155.6315   8.4590688180e+01   2.1912573566e+01    0.3902999     0.283216  77.94  0.001517271    2.059    0.514
       272  -9.3669    119.5704    155.3740   9.1013969558e+01   2.6838765253e+01    0.4060087    0.2877817 -86.32  0.001393039    1.982    0.495
       273  -9.3664     49.7209    155.4070   1.0987157649e+02   3.7347298378e+01     0.417346     0.227444  64.58  0.001455972    2.266    0.559
       274  -8.4167     22.5367    156.9342   1.1719175273e+02   3.9683658166e+01    0.1865629   0.07379173 -53.12   0.00080814    2.489    0.598
       275  -9.0977    242.7347    155.0288   6.4303559650e+01   3.3517213470e+00    0.1984708    0.1666934 -38.95 0.0003929285    1.218    0.179
       276  -9.1258    239.7676    153.0745   6.4386964962e+01   4.1816995389e+00    0.1992558    0.1712964 -46.23 0.0004109931    1.300    0.231
       277  -7.9211    204.8052    155.5835   7.1317345120e+01   1.0101311256e+01    0.1851184    0.1398263  54.09 0.0005343478    1.583    0.368
       278  -9.6745    132.8761    153.0155   8.7086026531e+01   2.4885732791e+01    0.4966597    0.3522769  75.53    0.0012896    2.058    0.514
       279  -9.3992    133.7096    148.0380   8.5791312511e+01   2.5867077297e+01    0.3339698    0.2815169 -27.04  0.001185293    1.279    0.218
       280  -9.3687     68.0506    153.7744   1.0464266245e+02   3.5481656382e+01    0.4412419    0.2737689  76.95  0.001445401    2.103    0.524
       281  -8.1743    232.9583    154.0151   6.5751731561e+01   5.2051245965e+00    0.2048268    0.1644557 -61.86 0.0005464925    1.675    0.403
       282  -8.6076    151.6024    152.8006   8.2388772111e+01   2.1248321518e+01    0.2167851    0.1457667 -57.80 0.0006072966    1.687    0.407
       283  -9.6239     29.3054    150.6395   1.1474290042e+02   4.0612753780e+01     0.488805    0.2242985  70.20  0.001955246    3.067    0.674
       284  -8.9275     19.8094    152.2461   1.1741518142e+02   4.1044638692e+01    0.2117141    0.1338212  78.78 0.0009462741    1.547    0.354
       285  -9.5905    248.8029    149.5459   6.2159463387e+01   3.2355026894e+00    0.3421399    0.1861233 -37.17 0.0009454917    1.586    0.369
       286  -9.9435    242.6791    149.9519   6.3239172999e+01   4.2042410224e+00    0.3002154    0.2767477  88.48  0.001624817    1.492    0.330
       287  -8.7803    189.3957    150.4869   7.3320696648e+01   1.4098546350e+01    0.2933378    0.2401911 -63.81 0.0008087821    1.503    0.335
       288  -7.9522    182.4991    151.4746   7.5012958359e+01   1.5286947011e+01    0.1479126    0.1442451 -28.77 0.0001412305    1.086    0.079
       289  -8.0704    162.7494    150.9260   7.9324910018e+01   1.9404669490e+01     0.241225    0.1778079 -73.53  0.001052845    1.925    0.481
       290  -8.8256     98.3006    150.6672   9.5767526533e+01   3.1695290506e+01    0.3078676    0.2295568  80.46 0.0007746508    1.661    0.398
       291  -8.3792    212.8654    150.0273   6.8530608645e+01   9.5920841334e+00    0.2101812    0.1880427 -49.21 0.0005100301    1.237    0.192
       292  -8.5597    198.9358    148.9983   7.1022320052e+01   1.2489168462e+01    0.2250342    0.2076318 -38.74 0.0006610145    1.117    0.105
       293 -10.0629     89.0845    146.1688   9.7451195361e+01   3.4294481130e+01    0.6745949    0.3949124  89.67  0.002437748    3.047    0.672
       294  -9.8457     39.5351    147.6624   1.1160142395e+02   4.0359416477e+01    0.5267068    0.2645514  66.54  0.001954966    2.692    0.628
       295  -9.9119    233.4184    147.3094   6.4227773689e+01   6.2736187129e+00    0.3180297    0.1867414 -28.72  0.001385418    1.617    0.382
       296 -10.3298    106.8370    144.2703   9.2129370964e+01   3.1782207998e+01    0.8282714    0.5357088  83.29  0.002447934    2.621    0.618
       297  -8.8612     78.4424    147.4343   1.0067720504e+02   3.5600451687e+01    0.3229508    0.1993448  72.54 0.0008893509    2.304    0.566
       298 -10.4509     54.7473    144.3241   1.0686249588e+02   3.9515572970e+01    0.9172166    0.4930514  83.86  0.003207509    2.825    0.646
       299  -9.0372     57.2572    135.3857   1.0466804235e+02   4.1448538780e+01    0.2918614    0.2044518  21.07  0.001494404    1.697    0.411
       300  -8.2673    223.4660    146.9382   6.5891963907e+01   8.1547469113e+00    0.2133585    0.1272309 -37.95 0.0004564923    1.525    0.344
       301 -10.3587    148.9037    144.8787   8.1263014442e+01   2.3542394203e+01    0.5943416    0.4123922 -79.97  0.001490144    2.335    0.572
       302  -8.7341    150.4433    136.5885   7.8944036141e+01   2.5058514186e+01    0.4851507    0.2966362  13.75  0.001685208    2.967    0.663
       303 -10.1879    139.1090    145.0210   8.3740067570e+01   2.5488795889e+01    0.5506667    0.3549549 -72.10  0.001424222    2.357    0.576
       304  -9.2230     13.3550    146.2984   1.1850001184e+02   4.2984438531e+01    0.3511313    0.1631651  56.49  0.001135131    2.416    0.586
       305 -10.8160    241.7348    142.3529   6.1766925135e+01   5.6400554946e+00    0.8045684    0.3636047 -29.78   0.00336558    2.223    0.550
       306  -8.3672    175.4733    146.1665   7.5343316613e+01   1.7799237470e+01    0.2375031    0.2130147  75.94 0.0006980763    1.338    0.253
       307  -9.9062    124.9685    142.5831   8.6858516027e+01   2.8829570988e+01    0.5680553    0.3863675 -86.64  0.001585432    2.391    0.582
       308  -8.8041    247.0033    143.8621   6.1243108094e+01   4.4740801671e+00    0.2338843    0.1657083 -34.17 0.0005118488    1.213    0.175
       309  -8.9765    165.5557    144.1175   7.7116769919e+01   2.0277649089e+01    0.3064753    0.2241501  53.06 0.0007549413    1.498    0.332
       310  -7.8707    194.2730    143.6825   7.0758639532e+01   1.4450154981e+01    0.1431179    0.1181889 -70.96 0.0002160546    1.564    0.361
       311 -10.6985     69.4839    141.1114   1.0209736421e+02   3.8440355110e+01    0.8770932    0.5251752  71.08  0.003651244    2.416    0.586
       312 -10.0797      2.6334    141.2215   1.2083389759e+02   4.4931189318e+01    0.5292606    0.2245985  87.72  0.002399509    2.419    0.587
       313  -8.0214    206.7849    146.5753   6.8924691418e+01   1.1404543028e+01    0.1843904     0.142308  56.45 0.0004747396    1.555    0.357
       314  -8.3722    182.0184    141.9856   7.2940704420e+01   1.7301110580e+01    0.2324734    0.1891564 -80.13 0.0005985007    1.668    0.401
       315  -8.4289    250.4706    140.9793   6.0085113955e+01   4.3564262865e+00    0.2048566    0.1137852 -36.49 0.0006823342    1.534    0.348
       316  -9.8834     23.3947    138.1607   1.1487801405e+02   4.4183695124e+01    0.5302948    0.2665647  70.01  0.001996395    2.568    0.611
       317  -8.5987    172.0680    138.0778   7.4211907440e+01   2.0184906283e+01    0.3188448    0.2035279 -64.83 0.0008102686    2.305    0.566
       318  -7.8083    218.5437    138.5292   6.4901775876e+01   1.0596303447e+01    0.1434573    0.1299383 -31.54 0.0001135766    1.056    0.053
       319  -8.2797    207.6568    138.1055   6.6827915053e+01   1.2817918488e+01    0.2341455    0.1701252 -52.65  0.001012211    1.516    0.340
       320  -8.7049    197.6059    137.6245   6.8680069812e+01   1.4945647402e+01    0.2877204    0.2100988 -53.04 0.0005988705    1.504    0.335
       321  -8.4095    162.6422    136.5363   7.6006005216e+01   2.2502126064e+01    0.2564342    0.1869064 -63.72 0.0006716803    1.694    0.410
       322  -7.4970    110.2983    137.3333   8.9670673895e+01   3.2830673401e+01    0.1566983    0.1197288 -19.21 0.0004913217    1.648    0.393
       323 -10.3949     83.5772    132.9833   9.6405929991e+01   3.8414186188e+01    0.6544285    0.3780892 -64.50  0.001914443    1.793    0.442
       324  -8.6511     85.0824    122.7747   9.3748667693e+01   4.0690247770e+01    0.5203373    0.3244783  -7.28  0.001927945    2.987    0.665
       325  -9.4204     39.0326    136.1154   1.1013640224e+02   4.3275441174e+01    0.3106484    0.1958936  87.45 0.0009937881    1.752    0.429
       326  -8.7258    250.7132    130.1856   5.7738953842e+01   6.0853830422e+00    0.4053366    0.1104966 -35.82  0.001377617    3.259    0.693
       327  -9.1513    248.3792    135.1947   5.9171924356e+01   5.6686543197e+00    0.2787366     0.198688 -42.07 0.0007633467    1.286    0.222
       328  -8.7220    246.8606    130.5500   5.8401860732e+01   6.7058456023e+00    0.3140613    0.1711751 -45.45 0.0006807924    1.746    0.427
       329 -10.0432    192.4767    132.9856   6.8622255474e+01   1.6910622048e+01    0.5137651    0.2395456 -37.44  0.001130479    2.088    0.521
       330  -7.9563    125.3417    136.2972   8.5325977996e+01   3.0226663569e+01    0.1586835    0.1235712  -6.16 0.0004996873    1.665    0.399
       331  -9.2833    113.0468    133.3894   8.8012716665e+01   3.3266209247e+01    0.3803105    0.2805494 -86.50 0.0009637392    1.857    0.462
       332  -8.6496    237.4565    133.7286   6.0581878950e+01   7.8706926741e+00    0.2643635    0.1181646 -40.68 0.0009567181    1.980    0.495
       333  -8.6025    179.6544    134.1099   7.1587585602e+01   1.9394839042e+01    0.2431628    0.2174459  69.05 0.0006783333    1.290    0.225
       334 -10.4688    132.2795    130.8708   8.2193101062e+01   3.0097134752e+01    0.7396351     0.448225 -64.34  0.001580451    2.196    0.545
       335  -8.0165    231.5105    133.5756   6.1529002536e+01   9.0008118615e+00    0.1401629    0.1233503 -20.90 0.0008051738    1.050    0.048
       336 -10.5395     98.3189    129.2820   9.1273577164e+01   3.6906551100e+01     1.127394    0.3385431 -51.94  0.003510066    3.115    0.679
       337  -9.1963    142.9865    131.6306   7.9608361087e+01   2.7717852261e+01    0.3448671    0.2519528 -65.30 0.0008477723    1.655    0.396
       338 -10.0703     12.9511    129.3438   1.1679201265e+02   4.7121585333e+01     0.469652    0.2437085  74.84  0.002011807    2.318    0.569
       339  -8.0592    220.5890    130.1755   6.2633958758e+01   1.1703044276e+01     0.200418    0.1274168 -27.87 0.0007865079    1.569    0.363
       340  -8.2252    211.7614    129.4614   6.4055223895e+01   1.3597088382e+01     0.268732    0.1794706 -66.56  0.001099765    2.269    0.559
       341  -8.3115    204.6764    130.3904   6.5600054621e+01   1.4871774233e+01    0.2161565    0.1741886 -74.79 0.0006269156    1.641    0.390
       342  -9.3031    153.0100    128.9415   7.6455319249e+01   2.6190676340e+01    0.4506895    0.2430701 -54.69   0.00090579    2.157    0.536
       343  -9.9892     73.2360    129.0381   9.8690234144e+01   4.0927937365e+01    0.4534374    0.2762908 -75.49  0.001452396    1.961    0.490
       344 -10.9394     59.9619    124.1774   1.0180000732e+02   4.3913210541e+01     1.102857    0.5590375 -76.80  0.003597685    2.643    0.622
       345  -8.0527      1.6467    130.3447   1.2008283438e+02   4.7587986556e+01    0.1906812    0.1180233  69.59  0.001088008    1.685    0.407
       346 -10.7470     45.1278    123.9098   1.0636148350e+02   4.5690721590e+01     1.063209    0.5477305  74.89  0.003801031    3.722    0.731
       347  -9.9678    118.1765    125.6188   8.4738919497e+01   3.4123285247e+01    0.5890839    0.3708866  69.74   0.00185115    2.673    0.626
       348 -10.2613     28.6494    122.6381   1.1124454556e+02   4.7569932125e+01    0.7236292    0.3619218  69.31  0.002931307    3.119    0.679
       349  -7.9182    228.2206    125.4308   6.0243094017e+01   1.1051166808e+01    0.1748146    0.1391346  68.64 0.0004334874    1.604    0.377
       350  -8.7751    179.2169    124.7959   6.9409576321e+01   2.1375152739e+01    0.2662391    0.2219242 -69.46 0.0005455582    1.427    0.299
       351  -7.4800    244.2810    124.6592   5.7509515795e+01   8.1526950407e+00    0.1357924   0.09770907 -57.85 0.0003486655    1.628    0.386
       352  -8.0599    188.3897    124.1362   6.7319433652e+01   1.9515555314e+01    0.2214368    0.1355842 -49.79  0.000805652    1.711    0.415
       353  -9.2742    168.3294    129.5306   7.2990748015e+01   2.2766414187e+01    0.3153077    0.2512028 -67.61 0.0008108074    1.524    0.344
       354  -9.6830    158.7246    121.6205   7.3240882533e+01   2.6524037714e+01    0.4438076    0.3084882 -63.34  0.001383905    1.813    0.449
       355  -7.8177    203.1896    122.0435   6.3894421921e+01   1.6751745070e+01    0.2029581    0.1090158 -37.96  0.000409768    1.745    0.427
       356  -7.9171    195.1626    122.2471   6.5494117457e+01   1.8423211893e+01    0.2040852    0.1718513 -62.06   0.00039484    1.329    0.247
       357  -8.6310    172.0192    121.5744   7.0177534413e+01   2.3606873699e+01     0.289488    0.2101145 -56.83 0.0005364206    1.542    0.351
       358  -9.6497     71.2273    119.7063   9.7360794184e+01   4.3521600511e+01    0.4974849    0.3022996 -73.13  0.001718571    1.956    0.489
       359  -9.9354    141.5573    118.6358   7.6705449738e+01   3.0903792572e+01    0.4611283    0.2995127 -63.44  0.001049023    2.005    0.501
       360  -9.8906    130.6638    118.4114   7.9504916702e+01   3.3260091166e+01    0.4982915    0.3491452 -81.29  0.001219961    2.265    0.558
       361  -9.9475      3.0253    117.4081   1.1832420193e+02   5.0609618356e+01    0.5054962    0.2465624  71.26  0.002362367    2.616    0.618
       362  -8.0219    231.4796    117.5283   5.7909065318e+01   1.1788107909e+01    0.1413788    0.1242714 -42.17 0.0003257458    1.067    0.063
       363  -8.0900    185.5536    116.0183   6.5883257107e+01   2.1724945881e+01    0.2344641    0.1446239 -40.31 0.0004597001    1.550    0.355
       364 -10.0364    109.3119    114.2626   8.4418397910e+01   3.8482081704e+01    0.5124583    0.3629726 -74.77  0.001191839    1.929    0.482
       365  -8.8091    250.3174    115.0080   5.4504092151e+01   8.6430409357e+00    0.1945353    0.1536061 -36.31 0.0007439386    1.076    0.071
       366  -8.1387    193.0281    115.3028   6.4202773144e+01   2.0216413894e+01    0.2026884    0.1954776 -53.01 0.0004719036    1.063    0.060
       367 -10.1480     92.7828    112.5248   8.8944819695e+01   4.1890183530e+01    0.5633443     0.373617 -70.67  0.001314005    1.926    0.481
       368  -8.9698     93.1578    105.2127   8.6946920979e+01   4.3542847647e+01    0.5197099    0.2942323  13.06  0.001791996    3.266    0.694
       369  -9.9718     79.1056    112.7435   9.3288677722e+01   4.4061802885e+01    0.5857696    0.3922728  85.70  0.001660114    2.430    0.589
       370  -9.0344     78.5438    105.2607   9.1640054046e+01   4.5939218999e+01    0.4307395    0.2956564  -9.26  0.001915101    2.040    0.510
       371  -8.2911    167.2122    114.3491   6.9403705530e+01   2.6152317857e+01     0.216331    0.1926567 -26.78 0.0004277237    1.126    0.112
       372  -9.1035     27.7617    113.5764   1.1011532104e+02   4.9870520945e+01    0.3470803    0.1828486  24.72  0.001726791    2.202    0.546
       373 -10.3105    133.7748    109.3635   7.6278946763e+01   3.4606477291e+01    0.7114247    0.3267688 -49.72  0.002541646    2.288    0.563
       374  -9.8705    121.8560    112.5262   8.0376574909e+01   3.6402378456e+01     0.346224    0.2915762  86.33 0.0007909613    1.475    0.322
       375  -9.9099     14.1280    111.4645   1.1415228509e+02   5.1383001421e+01    0.3723181    0.2268564  73.58  0.001432018    1.985    0.496
       376  -8.2890    174.8733    112.0924   6.7127585747e+01   2.4884294960e+01    0.2348847    0.2052435 -68.98 0.0005104704    1.278    0.218
       377  -8.7169    159.1475    111.6581   7.0552944038e+01   2.8516372533e+01    0.2941801    0.2200478 -37.89 0.0006308437    1.318    0.242
       378 -10.1646     66.3942    110.1397   9.6790149350e+01   4.6530858607e+01    0.5618086     0.347614 -63.88  0.002035426    1.621    0.383
       379  -7.8783    149.6530    110.1847   7.2440324850e+01   3.0949858866e+01    0.2231736    0.1443123 -33.18 0.0005078614    1.636    0.389
       380  -9.1514     42.7354    109.6147   1.0451024208e+02   4.9468061597e+01    0.3098805     0.172847   3.39  0.001351249    2.686    0.628
       381  -9.8147    248.7911    108.6248   5.3319693987e+01   9.9647671023e+00    0.2896601     0.254009 -72.13  0.001199141    1.298    0.229
       382 -11.1682    249.3235    102.8403   5.1972088074e+01   1.0800889211e+01    0.4962391    0.3727206 -31.06  0.002851545    1.221    0.181
       383 -10.8383    108.8730     98.8592   8.0383277017e+01   4.2061203032e+01    0.9109973    0.5702839  73.51  0.001158047    3.337    0.700
       384  -8.9883    107.6642     92.8063   7.9002235872e+01   4.3619352155e+01    0.5028273    0.3127472  21.22  0.002027552    2.175    0.540
       385  -9.7595    139.8975    104.9586   7.3473059744e+01   3.4219010331e+01    0.4626157      0.26671 -55.07  0.001271317    2.031    0.508
       386  -9.1583    110.1751    107.0369   8.2258461249e+01   3.9975223534e+01    0.2886637    0.2042121  22.49  0.001281218    1.678    0.404
       387 -10.6068     45.6832    102.4718   1.0205965783e+02   5.0897398653e+01    0.7931945    0.4660721  75.65  0.003126472    3.122    0.680
       388  -8.9967     46.6172     92.6862   9.9534012808e+01   5.3128581843e+01    0.4048384    0.2281955   5.77  0.001797993    2.496    0.599
       389 -10.6438     22.7918    102.6646   1.0993855883e+02   5.2908141709e+01    0.7296926    0.3967889  78.80  0.002527918    2.849    0.649
       390  -8.5473    166.8773    104.4340   6.6861021387e+01   2.8223856293e+01    0.2935454    0.2073462 -56.70 0.0007076932    1.588    0.370
       391  -9.4839    150.5404    103.2069   7.0326785474e+01   3.2201793386e+01    0.4474436    0.2949743 -65.42  0.001270512    2.109    0.526
       392  -9.5614      6.5975    103.0901   1.1540633205e+02   5.3838915529e+01    0.2942034    0.1794022  78.21  0.001146357    1.927    0.481
       393  -9.9063    128.3539    102.1464   7.5748658847e+01   3.7331877934e+01    0.3817235    0.2753228 -60.86 0.0009458292    1.629    0.386
       394  -8.6006    130.5511     97.2575   7.3767153880e+01   3.7894359539e+01    0.3007402    0.1938258  32.89  0.001267609    1.733    0.423
       395  -7.9096    175.6296    101.8509   6.4278682562e+01   2.6716873881e+01    0.2213502    0.1372617 -48.27  0.000517362    1.642    0.391
       396  -8.3733    159.8327    101.0926   6.7548429490e+01   3.0506444135e+01    0.2393931    0.2072216 -64.02 0.0005229312    1.259    0.206
       397  -9.3935     82.0994     99.9507   8.9101889706e+01   4.6623551937e+01    0.3868642    0.2547836 -69.90 0.0009861013    1.976    0.494
       398 -10.2610     63.8293     95.9830   9.4246527840e+01   5.0257284087e+01     0.750437    0.4008484 -70.30  0.002213735    2.681    0.627
       399  -9.3052     64.7415     87.8463   9.1774462063e+01   5.2007981233e+01    0.7114846    0.3279352  14.42  0.002305379    4.241    0.764
       400  -9.6678    235.5690     98.7144   5.2972961880e+01   1.4154047146e+01    0.2958242    0.1883919  78.55  0.001374035    2.301    0.565
       401  -9.2695     94.9692     97.0957   8.4164491422e+01   4.5077401001e+01    0.3206619    0.2487711 -62.35 0.0005301248    1.441    0.306
       402  -8.7153    151.4833     95.2583   6.7881599198e+01   3.3590182696e+01    0.3678771     0.225149  17.32  0.001272136    2.996    0.666
       403  -8.3427    189.3802    107.8380   6.3039705407e+01   2.2445544717e+01    0.2901871    0.1357065 -42.73  0.000876665    2.041    0.510
       404  -8.2338    164.8945     94.1137   6.4486830546e+01   3.0694984062e+01    0.2378133    0.2026909 -66.98 0.0005123221    1.299    0.230
       405 -10.2373    118.9336    106.0081   7.9443754586e+01   3.8459081305e+01    0.4822919     0.365687 -53.44  0.001697435    1.359    0.264
       406  -8.1366    176.3997     93.1791   6.1792696647e+01   2.8178343478e+01    0.2216303    0.1355264 -49.21 0.0005470198    1.692    0.409
       407  -9.2359    138.8120     92.0568   7.0095207284e+01   3.7125322043e+01    0.3792284    0.2750776 -66.22 0.0008026108    1.785    0.440
       408 -10.4893    124.0052     91.4860   7.3876758362e+01   4.0514941419e+01    0.6081472    0.4531555  37.23  0.001777769    1.374    0.272
       409  -9.6588      4.8810     91.7362   1.1432371604e+02   5.6607362698e+01    0.3746361    0.2074915  81.16  0.001388942    2.361    0.576
       410  -8.0744    157.6519     91.7991   6.5462216063e+01   3.2832964498e+01    0.2256281    0.1382479 -47.70 0.0006360067    1.681    0.405
       411  -9.5816     34.8793     89.9802   1.0318477513e+02   5.4936026906e+01    0.4451015    0.2585566 -89.02  0.001537954    2.823    0.646
       412  -8.2624    150.9191     89.2012   6.6286008266e+01   3.4904896609e+01    0.2368697    0.2087827 -75.97 0.0005200872    1.285    0.222
       413 -10.3822     86.8941     85.7525   8.3502822278e+01   4.9009889910e+01    0.8250742    0.5139695 -42.80   0.00198373    1.521    0.342
       414  -9.0607    239.2417     86.7476   4.9724136106e+01   1.5350765676e+01    0.2175079    0.1073629 -26.27 0.0008913602    2.429    0.588
       415  -7.4275    188.2996     87.2999   5.7899124283e+01   2.6460195264e+01    0.1464622    0.1179104  12.76 0.0002397794    1.580    0.367
       416  -9.9086     48.4445     84.1602   9.6747931396e+01   5.4899884430e+01     0.550811     0.364199 -86.29   0.00189812    2.449    0.592
       417  -8.5294    196.6729     85.9100   5.6028207202e+01   2.4759683867e+01    0.2377916    0.1861102 -14.00  0.001175162    1.528    0.346
       418  -9.9699     99.8215     85.8537   7.9343286476e+01   4.6628347176e+01    0.2525176    0.2355404  -9.52  0.000252619    1.038    0.036
       419  -7.3165    179.2955     85.6593   5.9171562605e+01   2.8866559515e+01     0.156556    0.1151429 -68.84 0.0005890578    1.658    0.397
       420  -9.8555    104.7062     83.1788   7.7003589957e+01   4.6233387042e+01     0.459148    0.3209047 -65.45  0.000943081    1.966    0.491
       421  -8.9730    105.2257     77.1739   7.4955177572e+01   4.7341268034e+01    0.3501106    0.2305428   6.36  0.001380206    2.319    0.569
       422  -8.6425    158.0346     83.9196   6.3125524303e+01   3.4227993166e+01    0.2667595    0.2150258 -42.10 0.0005081746    1.233    0.189
       423  -9.1542    140.8881     83.2040   6.6957174388e+01   3.8382582979e+01    0.3215103     0.210061 -54.44 0.0006027104    1.769    0.435
       424  -9.3784    250.3222     82.1460   4.7283346459e+01   1.3865240484e+01    0.3646902    0.0663671 -42.71  0.001097751    4.270    0.766
       425  -8.9692     22.6932     90.1773   1.0768352996e+02   5.5887784223e+01    0.2759503    0.1908343 -28.17 0.0009155339    1.517    0.341
       426  -7.5715    185.3119     82.6405   5.7208531190e+01   2.7977086344e+01    0.1588818    0.1123454 -68.22   0.00070424    1.744    0.427
       427  -8.4680     63.7770     82.1936   9.0535392693e+01   5.3408412107e+01    0.2179272    0.1719879 -68.20 0.0006789743    1.502    0.334
       428  -9.6983     24.5090     80.4701   1.0497335425e+02   5.8004667113e+01    0.4329675    0.2701869  85.61  0.001417788    2.492    0.599
       429  -9.4486      9.7335     80.8845   1.1071198446e+02   5.8870560068e+01     0.311715    0.2060061  65.47   0.00141939    2.091    0.522
       430  -8.5502    150.1953     80.6754   6.3963973466e+01   3.6680747141e+01     0.323884    0.2317092 -65.48  0.001082575    1.792    0.442
       431  -8.6469    119.1133     80.4479   7.1897966127e+01   4.3793894752e+01    0.2870473    0.2061595 -55.55 0.0008172349    1.607    0.378
       432  -8.9099     74.5527     80.3830   8.6126519178e+01   5.2209357014e+01    0.3325084    0.2241384 -63.50  0.001010903    1.861    0.463
       433  -8.2016    166.8995     79.5366   5.9960828234e+01   3.2906349259e+01    0.2326691    0.1932485 -36.98 0.0004340983    1.200    0.167
       434  -7.8571    184.4428     78.4928   5.6248411985e+01   2.8896119884e+01     0.148137     0.140099 -62.36 0.0001189031    1.028    0.027
       435  -9.4958    128.2045     75.4306   6.7830351902e+01   4.2744868930e+01    0.4353408    0.2612378 -56.20 0.0009528428    2.163    0.538
       436  -8.1748    157.0294     76.5137   6.1190873377e+01   3.5805910000e+01    0.1993832    0.1350917  86.17 0.0005426942    2.217    0.549
       437  -8.6968    140.3925     75.4920   6.4741054088e+01   3.9931673150e+01    0.2667594    0.2338722 -51.21 0.0005871088    1.195    0.163
       438 -10.0787     63.1404     73.6089   8.8214095114e+01   5.5357936525e+01    0.4899233    0.2800694 -58.61  0.001071693    2.028    0.507
       439  -9.6600     82.3910     72.8005   8.0995335363e+01   5.2502839123e+01    0.3873494    0.2974994 -68.62  0.001199055    1.794    0.443
       440  -8.1720    163.4699     73.0530   5.8805783298e+01   3.4858934072e+01    0.2296685    0.1446801 -39.78 0.0008223052    1.577    0.366
       441  -8.5188    115.7568     73.0990   7.0519842880e+01   4.5928242453e+01    0.2235965    0.2051871 -58.13 0.0005212887    1.214    0.176
       442  -9.3403    105.9710     71.9599   7.3037897150e+01   4.8202051492e+01    0.3334885    0.2102356 -50.32 0.0008867988    1.774    0.436
       443  -9.3704     95.2116     71.4005   7.6233200301e+01   5.0445066632e+01    0.3835189    0.2313682 -52.02 0.0009650804    1.908    0.476
       444  -8.5323     42.5973     72.9223   9.5963471870e+01   5.8052289716e+01    0.2459284    0.1585273 -66.62  0.000945366    1.807    0.447
       445  -9.4380     51.3976     69.6055   9.1505020655e+01   5.7756855033e+01    0.4565294    0.2707166 -68.02  0.001454801    2.485    0.598
       446  -7.8899    151.4949     73.4728   6.1517687420e+01   3.7665296959e+01     0.149856    0.1466317 -86.88 4.607634e-05    1.045    0.043
       447  -8.9569     28.9300     70.5546   1.0082896289e+02   5.9877390286e+01    0.3326102    0.1806503 -24.36  0.001386665    2.101    0.524
       448  -9.2707     16.7098     69.5194   1.0557862817e+02   6.1018527209e+01    0.4684734    0.1901944 -69.84  0.001948072    2.771    0.639
       449  -7.7263    157.0000     69.9479   5.9253415596e+01   3.6949440739e+01    0.2371259   0.08532188 -35.57 0.0003976783    2.810    0.644
       450  -8.7054    147.0096     68.1058   6.0903454947e+01   3.9663848960e+01    0.3692869    0.1940888 -41.66  0.001016675    1.931    0.482
       451  -9.0088    121.6231     66.1131   6.6599661568e+01   4.5909749693e+01     0.316255    0.2393298 -63.45 0.0007438009    1.708    0.415
       452  -8.7926    138.1478     65.7240   6.2238799029e+01   4.2173127712e+01    0.2982827    0.1991059 -52.77  0.001107096    1.731    0.422
       453  -8.2615    175.4086     72.7308   5.6345049456e+01   3.2031377700e+01    0.2004659    0.1439925 -22.58 0.0005098564    1.587    0.370
       454  -8.9670     64.7591     63.3662   8.4286966525e+01   5.7223165282e+01    0.4697002    0.2714946  -4.29  0.001870724    2.898    0.655
       455  -8.9743     37.3559     64.4990   9.5664805621e+01   6.0406061690e+01    0.2577813    0.1998014  66.04 0.0009634114    2.000    0.500
       456  -8.7850    110.2020     63.7034   6.9015370617e+01   4.8832648187e+01    0.2778898    0.2180634 -62.37 0.0007068218    1.636    0.389
       457  -8.0399    158.1868     62.0908   5.6652927961e+01   3.7952808301e+01    0.1983779    0.1675962 -65.21 0.0003477416    1.287    0.223
       458  -8.8314    146.8183     60.1574   5.8480112115e+01   4.1019324581e+01    0.4010753    0.1583328 -33.66  0.001436381    2.626    0.619
       459  -9.3574     97.6176     60.6782   7.1808176644e+01   5.1970218818e+01    0.3193001    0.2589477  55.00 0.0009306358    1.411    0.291
       460  -9.7192     73.3846     59.6338   7.9752095052e+01   5.6591796822e+01    0.3903742    0.2645378 -55.52  0.001122733    1.846    0.458
       461  -8.2870     88.9866     59.9318   7.4362897631e+01   5.3779111985e+01    0.2069953    0.1790924 -79.46 0.0005997668    1.626    0.385
       462  -9.9101     23.4816     56.5860   9.9297924430e+01   6.3310335250e+01    0.4281442    0.2907836  88.92  0.002164562    2.688    0.628
       463  -8.2564    130.9261     57.9526   6.1490277884e+01   4.5152306672e+01    0.2262871    0.1788456 -74.00 0.0005790524    1.649    0.393
       464  -9.5633      7.4416     57.2624   1.0659292249e+02   6.4220546063e+01    0.2775085    0.2112089  86.30  0.001040125    1.792    0.442
       465  -9.4514    119.2054     56.1204   6.3897275263e+01   4.8139268919e+01    0.3242417    0.2252852 -50.00 0.0008740631    1.667    0.400
       466  -8.1783    139.9233     56.1271   5.8752774834e+01   4.3311767294e+01     0.220689    0.1962148 -76.35 0.0004890778    1.271    0.213
       467  -9.1641     54.1571     55.1599   8.5645470628e+01   6.0320864109e+01    0.2990336    0.2151913 -59.70  0.000993724    1.795    0.443
       468  -8.7961     44.1937     55.5576   8.9942102123e+01   6.1494033925e+01    0.2783014    0.1982173 -62.12  0.001101735    1.776    0.437
       469  -8.5874    249.0023     55.4926   4.1600762636e+01   1.8035182157e+01    0.1709098   0.09776619  41.78 0.0008106151    2.638    0.621
       470  -8.5678    105.8964     53.3817   6.6687998584e+01   5.1501205063e+01    0.2593499    0.1960085 -50.69 0.0006692461    1.561    0.359
       471  -9.6326     92.3853     50.7280   6.9904159899e+01   5.4709083915e+01    0.4113596    0.2307909 -45.53  0.001099783    2.023    0.506
       472  -8.3576     74.6732     51.6619   7.6379197635e+01   5.7821293776e+01    0.2184811    0.1504678   1.33  0.001002941    1.704    0.413
       473  -8.8505    144.7044     49.2057   5.5472599391e+01   4.3198806572e+01    0.2205537    0.1732936 -49.34  0.000579817    1.372    0.271
       474  -8.3114    129.8608     49.1491   5.8812586737e+01   4.6761042711e+01    0.2136181    0.1979956 -78.66 0.0005036478    1.217    0.179
       475  -8.9574    120.9654     47.7060   6.0526376099e+01   4.9042551020e+01    0.2381749    0.2031014 -25.82 0.0005628116    1.214    0.176
       476  -9.1898     82.1389     46.5730   7.1778822434e+01   5.7347791510e+01    0.3075804     0.228442 -46.66 0.0006203492    1.572    0.364
       477  -8.5105    112.1713     46.7563   6.2525727592e+01   5.1168753595e+01    0.2376454    0.1888891 -43.16 0.0006621802    1.386    0.279
       478  -8.4717     45.0261     44.7971   8.5729458807e+01   6.3433001490e+01    0.2227035      0.16251 -37.42 0.0005611204    1.248    0.199
       479  -8.9961     16.5093     44.8349   9.8928227563e+01   6.6213832131e+01     0.195705    0.1824185 -73.18 0.0006228718    1.441    0.306
       480  -9.0296    132.7545     43.6441   5.6278192342e+01   4.6864939211e+01    0.2680747    0.2237594 -58.06 0.0007068124    1.373    0.272
       481  -9.1638     58.2834     42.8229   7.9334096518e+01   6.1967966532e+01    0.2716074      0.19985 -56.87 0.0009924819    1.926    0.481
       482  -8.6594     92.8885     42.8406   6.6769088055e+01   5.5848504562e+01    0.2252814    0.1758616  12.23 0.0007737715    1.301    0.231
       483  -9.4569     69.7038     41.6415   7.4360782055e+01   6.0346314020e+01    0.3688573    0.2582779 -54.40  0.001304404    2.024    0.506
       484  -9.6405      5.2022     42.1261   1.0358248284e+02   6.7452615744e+01    0.2928963      0.19084 -75.85  0.001246527    2.033    0.508
       485  -8.7426    105.9239     41.3172   6.2280770394e+01   5.3334859365e+01    0.2264807    0.1873174 -38.34 0.0004755771    1.320    0.243
       486  -8.8558     36.7645     40.8969   8.7965741245e+01   6.5111035953e+01    0.2118478    0.1667439 -53.65 0.0007160841    1.549    0.355
       487  -8.5580     95.5890     37.8848   6.4015808919e+01   5.6016862327e+01    0.2476244    0.2031774 -58.83 0.0008345994    1.633    0.388
       488  -8.2636     80.9063     36.9386   6.8408824184e+01   5.9062526293e+01    0.1910166    0.1703033 -76.08  0.000527847    1.648    0.393
       489  -9.5056     26.3371     35.4700   9.0852175775e+01   6.7163794898e+01    0.3305745    0.1965197 -51.25   0.00118388    1.729    0.422
       490  -7.8540    133.4787     36.4382   5.3680955984e+01   4.7653130561e+01     0.140224    0.1299715  51.41 0.0002250361    1.017    0.017
       491  -7.8525    125.8186     35.6071   5.5109730058e+01   4.9581369248e+01    0.1777265    0.1299518  66.15 0.0002083169    1.424    0.298
       492  -8.5974    112.0054     34.7664   5.8195285536e+01   5.2877715853e+01     0.237681    0.1877652 -57.82 0.0006830887    1.611    0.379
       493  -7.9205     88.4526     34.2641   6.4819510156e+01   5.7973912619e+01    0.1834699    0.1241475 -40.79 0.0009451897    1.676    0.403
       494  -9.0495     48.4902     33.3533   7.9617692320e+01   6.4936139995e+01    0.2476971    0.2088119 -39.14 0.0007301873    1.395    0.283
       495  -8.7832     60.4169     32.5515   7.4239618121e+01   6.3284584414e+01    0.2350629    0.2089474 -45.13 0.0008234566    1.485    0.327
       496  -8.9287     72.2472     31.2311   6.9122458463e+01   6.1471799635e+01    0.2160871    0.2064585 -50.25 0.0005885827    1.418    0.295
       497  -7.9669    139.3465     31.2399   5.0718748800e+01   4.6879218992e+01    0.1861329    0.1246479 -38.66 0.0004861273    1.600    0.375
       498  -8.9124     12.9799     30.4985   9.5759451957e+01   6.9181108517e+01    0.2365282    0.1590852 -63.53   0.00117332    1.958    0.489
       499  -8.6783    101.6500     29.5385   5.8997078223e+01   5.5832024479e+01    0.2144062    0.1585003 -48.48 0.0006798116    1.687    0.407
       500  -8.6978    119.2074     33.0146   5.5749478288e+01   5.1454001608e+01    0.2375357    0.1553049 -37.91 0.0005361525    1.660    0.398
       501  -9.1306    128.2166     27.2580   5.1657402620e+01   5.0024277836e+01    0.2556961    0.2347232  87.81   0.00106715    1.193    0.162
       502  -8.8816     81.4603     27.5635   6.4351048472e+01   6.0243595044e+01    0.2514463    0.2166127 -59.83 0.0007557832    1.647    0.393
       503  -8.8382      3.7154     27.6493   9.9676499016e+01   7.0300222639e+01    0.2344086    0.1520788 -66.36  0.001428467    1.969    0.492
       504  -9.0425     91.7515     26.3105   6.0573012160e+01   5.8330968150e+01    0.2887813    0.1990301 -42.55  0.001033168    1.744    0.427
       505  -8.4362    104.4986     23.0276   5.5692059274e+01   5.5972866499e+01    0.1899083    0.1305921 -25.29 0.0005398066    1.550    0.355
       506  -8.0906     34.6726     23.3201   8.1633840248e+01   6.8293898280e+01    0.1565754    0.1510392  79.36 0.0009427022    1.777    0.437
       507  -8.9479     63.7113     21.2682   6.7952180521e+01   6.4304967100e+01    0.2664429    0.1848242 -40.94 0.0008689059    1.769    0.435
       508  -8.9395     48.4067     21.6635   7.4461393705e+01   6.6699342176e+01    0.2080698    0.1961742 -47.90 0.0006677599    1.611    0.379
       509  -8.4987    120.4657     21.2577   5.1202739194e+01   5.2517291923e+01    0.1783927    0.1240796 -39.85 0.0009401407    1.621    0.383
       510  -7.7353     19.5300     21.5142   8.8616581787e+01   7.0190171389e+01    0.1177199   0.09245295 -18.53 8.318102e-05    1.059    0.056
       511  -9.0179     73.9506     19.3652   6.3352555507e+01   6.2688424567e+01    0.2508173    0.1704515 -40.61 0.0008624617    1.808    0.447
       512  -8.5438    233.4950     18.9636   3.5086343280e+01   2.5938127598e+01    0.1738149    0.1115466 -36.37 0.0005408739    1.529    0.346
       513  -8.3935     87.8650     17.3579   5.8012058913e+01   6.0159801224e+01    0.2099002     0.169765 -27.94 0.0005070529    1.369    0.269
       514  -9.8369    248.7086    243.4009   7.9903767939e+01  -1.0385481113e+01    0.5697861    0.1756136 -38.25  0.002062572    3.503    0.715
       515  -7.6144    112.9859     16.9640   5.1292891061e+01   5.4695471322e+01    0.1571798    0.1399502  38.58 0.0003476465    1.024    0.023
       516  -8.2266     30.3866     16.2210   8.0449438067e+01   6.9861630988e+01    0.1543468    0.1012994 -39.70 0.0006427249    1.629    0.386
       517  -8.2355     96.9644     14.9837   5.4466634585e+01   5.8476421613e+01    0.1906505    0.1584587 -68.13 0.0005841078    1.657    0.397
       518  -7.9189      7.5262     15.5061   9.2699901051e+01   7.2163398479e+01    0.1127201    0.0872535 -22.73 0.0001226511    1.086    0.079
       519  -8.1644     17.1914     14.1942   8.6553813424e+01   7.1564119708e+01    0.1427023    0.1256948 -16.47 0.0005332649    1.351    0.260
       520  -7.8484    245.5006     12.5548   3.2809548276e+01   2.4132658831e+01    0.1172401   0.09697407 -70.35 4.642834e-05    1.059    0.055
       521  -8.6332    218.6083    247.9593   8.5987046169e+01  -7.0446075777e+00    0.2880416    0.1310781 -36.99  0.001102879    2.381    0.580
       522  -9.1256    175.6246    247.8331   9.4132435708e+01  -8.6452700711e-01    0.2783683    0.2234859  70.18  0.001275875    1.951    0.487
       523  -8.6567    156.2504    248.3567   9.8027140875e+01   1.9691624133e+00    0.2501648    0.1583537  53.32 0.0007873961    1.825    0.452
       524  -8.9203    132.4619    248.3785   1.0277741338e+02   5.5551637916e+00    0.3006244    0.1632219  59.95 0.0008236275    2.562    0.610
       525  -8.3102    113.1357    248.6998   1.0667490388e+02   8.3622986180e+00    0.2070236    0.1355892 -84.73 0.0008752495    2.105    0.525
       526  -9.3479    103.7795    246.7789   1.0833167933e+02   1.0054336668e+01    0.4262227    0.2301476 -83.28  0.001823889    2.963    0.662
       527  -9.3416    243.2474    245.9517   8.1264026264e+01  -1.0014318580e+01    0.3838172    0.1703014 -23.68  0.002003219    2.358    0.576
       528 -10.0858    223.9439    244.2038   8.4416546663e+01  -7.2794939580e+00    0.4233807    0.2375594 -45.55  0.002321328    2.517    0.603
       529  -8.9422    210.9841    246.5942   8.7181296297e+01  -5.8149137919e+00    0.1914608    0.1651011 -41.87 0.0007876926    1.634    0.388
       530  -9.4577    120.2606    245.6660   1.0490406244e+02   7.8405603382e+00    0.3483007    0.2389655  84.49  0.001679898    2.043    0.510
