#   1 NUMBER                 Running object number                                     
#   2 MAG_AUTO               Kron-like elliptical aperture magnitude                    [mag]
#   3 X_IMAGE                Object position along x                                    [pixel]
#   4 Y_IMAGE                Object position along y                                    [pixel]
#   5 X_WORLD                Barycenter position along world x axis                     [deg]
#   6 Y_WORLD                Barycenter position along world y axis                     [deg]
#   7 A_WORLD                Profile RMS along major axis (world units)                 [deg]
#   8 B_WORLD                Profile RMS along minor axis (world units)                 [deg]
#   9 THETA_WORLD            Position angle (CCW/world-x)                               [deg]
#  10 FWHM_WORLD             FWHM assuming a gaussian core                              [deg]
#  11 ELONGATION             A_IMAGE/B_IMAGE                                           
#  12 ELLIPTICITY            1 - B_IMAGE/A_IMAGE                                       
         1 -11.6619    234.1001     25.3293   1.0407472156e+01   2.5325300121e+01    0.7660809    0.4019032  64.95  0.004345506    1.859    0.462
         2 -11.6268    233.4810     18.8378   9.2251283520e+00   2.6231708517e+01    0.7084619    0.3442348  68.44  0.003965868    1.891    0.471
         3 -10.2074     32.8068      5.1207   4.5575917424e+01   6.9337645192e+01    0.3436198   0.07845079 -29.97  0.001377532    4.522    0.779
         4 -10.8621    102.8313    239.4866   8.1316723975e+01   9.8181315191e+00    0.6314562    0.1925683 -51.32  0.002272419    3.676    0.728
         5 -10.4273     75.6884    246.4538   8.7925748975e+01   1.2454958205e+01    0.5616965    0.1792896 -61.62  0.002271641    3.193    0.687
         6 -16.0420     55.9466    233.5204   9.0765557634e+01   1.7943440598e+01     22.51467     7.144879 -78.11   0.07150319    4.977    0.799
         7  -8.6573     76.6596    200.8435   8.2256113262e+01   2.2623144609e+01    0.1996747    0.1259986 -77.94 0.0004775377    1.676    0.403
         8 -10.9244    126.7300    197.2287   6.9320645758e+01   1.5167633728e+01    0.3856445    0.2208477  25.97  0.001551363    2.097    0.523
         9  -8.5104     77.9875    185.0019   7.9608513211e+01   2.6336973215e+01    0.2783525    0.1368994 -41.87  0.001046996    2.651    0.623
        10 -10.0332     99.1077    180.8898   7.3429640176e+01   2.3991052352e+01    0.3290577    0.2917542  74.94 0.0008111576    1.140    0.123
        11  -9.3036    172.5431    177.2981   5.4423051326e+01   1.0982896374e+01    0.2756318    0.1487457 -49.77 0.0009123216    1.898    0.473
        12  -9.1704     69.1749    172.8109   8.0014632684e+01   3.0707245108e+01    0.1891956    0.1686263 -32.60 0.0005151968    1.292    0.226
        13  -9.6103    178.9852    167.4828   5.0867930290e+01   1.1856599825e+01    0.2584394    0.2035944 -43.06   0.00084069    1.233    0.189
        14 -15.8287      8.4886    207.7297   9.8499351154e+01   2.9133840361e+01     3.210976     1.886774 -30.93   0.01567436    3.340    0.701
        15  -9.0988    110.4659    166.9944   6.7801855447e+01   2.5469925714e+01    0.2422486    0.1507362 -54.17  0.000724108    1.579    0.367
        16 -10.0066     83.4672    165.5053   7.4881867233e+01   3.0438378723e+01    0.3368452     0.224268   0.52  0.001368977    2.467    0.595
        17 -12.9101     69.1351    144.6584   7.5075061217e+01   3.7909779275e+01     1.253765     0.789595  86.76  0.003383786    2.379    0.580
        18 -10.7598     73.4889    159.0042   7.6492284421e+01   3.3616950533e+01    0.3989256    0.2801677 -35.50  0.001086554    1.656    0.396
        19 -15.3704      2.5409    244.0412   1.0192707976e+02   2.1823447931e+01     1.046833    0.4016021  64.09  0.005313786    2.344    0.573
        20  -9.7711     60.4164    159.0809   8.0185004220e+01   3.5413946448e+01    0.3162771    0.1848779  42.79 0.0009967183    1.805    0.446
        21 -11.2664     31.9011    154.9288   8.7496838661e+01   3.9735993604e+01    0.4434786    0.3467645 -80.92  0.001900201    1.156    0.135
        22 -11.1496     25.1676    149.0183   8.8552576046e+01   4.1846102265e+01    0.5582452    0.2679102  42.91   0.00179451    2.323    0.570
        23 -11.1972     23.1533    154.8714   8.9874813632e+01   4.0564311768e+01    0.4758487     0.277752 -85.11  0.001610303    1.700    0.412
        24 -10.8266     61.9444    154.8161   7.9030056481e+01   3.6303712399e+01    0.5728777    0.2839871  21.88  0.002271871    2.632    0.620
        25 -10.5686     81.6340    151.1326   7.2684120663e+01   3.4395564956e+01    0.4577051     0.320754  74.80 0.0009486653    1.875    0.467
        26  -9.8544    134.3353    148.2774   5.7392448755e+01   2.5441801461e+01    0.4530358    0.1931877 -59.53  0.001356223    3.288    0.696
        27 -10.3460     54.1585    147.5715   8.0023983040e+01   3.9150331330e+01    0.3035622    0.2638368  15.20  0.001713401    1.333    0.250
        28 -17.2041      5.3161    228.4422   1.0051944793e+02   2.4831668256e+01     8.338656     1.721766 -74.44    0.0113528    3.910    0.744
        29 -10.7797     88.0353    146.6537   6.9919750795e+01   3.4505349744e+01    0.5696956     0.399677 -12.74  0.001465485    2.074    0.518
        30 -11.4688     69.4292    162.8017   7.8294350148e+01   3.3229348269e+01    0.5701119    0.4181376 -22.03  0.002722015    1.827    0.453
        31 -11.3307     25.9437    138.0114   8.6759296753e+01   4.4518681518e+01    0.4097758    0.3177024  71.45  0.001513833    1.443    0.307
        32 -11.6829     58.2177    131.8087   7.5857147719e+01   4.2621808911e+01    0.6585249    0.3572552 -66.92   0.00282521    1.905    0.475
        33 -10.0367     43.6287    129.8505   8.0027406908e+01   4.4828326117e+01     0.227475    0.1902133  -7.73 0.0008298627    1.378    0.274
        34 -10.6026     67.4161    127.5121   7.2081294079e+01   4.2455581635e+01    0.5382452    0.2980297 -68.55  0.002204261    2.118    0.528
        35 -10.4745     90.1385    132.9466   6.6300750288e+01   3.7582865955e+01    0.2988151    0.2673695 -26.77 0.0004246348    1.157    0.136
        36  -9.4259     39.9590    127.2705   8.0700595540e+01   4.5853589537e+01     0.184324    0.1744265 -38.00  0.000457096    1.111    0.100
        37 -10.8291     89.2605    225.7217   8.2592996929e+01   1.4906261359e+01    0.3547098    0.2248549  51.71  0.001793885    1.467    0.318
        38  -9.2264     98.8683    121.9490   6.1040237972e+01   3.8709384835e+01    0.2533498    0.2201727  17.52 0.0007813693    1.227    0.185
        39 -10.4008    104.7678    132.1344   6.1779111884e+01   3.5174564950e+01    0.6591781    0.3880202 -24.97  0.002304615    2.659    0.624
        40  -8.1957    107.6170    116.5328   5.7054565192e+01   3.8326001999e+01    0.1536445    0.1463356 -36.59 0.0001650281    1.026    0.026
        41  -8.5031    205.5174    110.4581   3.2483010810e+01   1.8132940754e+01    0.1461276    0.1349495 -60.11 8.514397e-05    1.010    0.010
        42  -9.9345    115.3151    105.6872   5.1919691316e+01   3.9211767468e+01    0.2277659    0.1310764 -43.62 0.0009311225    1.732    0.423
        43  -9.3321    127.3599    213.4151   7.1930930658e+01   1.1369014459e+01    0.2414383    0.1815272 -88.33 0.0008064809    1.704    0.413
        44 -10.2223     32.8696    108.7051   7.9419120403e+01   5.1025433605e+01    0.2304719    0.2140571 -56.72   0.00146671    1.116    0.104
        45  -9.6474     32.9775     99.6701   7.7461439633e+01   5.3112074183e+01    0.2914968     0.173045 -67.17  0.001035824    1.766    0.434
        46 -11.5463     17.4953     96.8214   8.2350406665e+01   5.5017734488e+01    0.4190858    0.2859116 -33.83  0.002470315    1.356    0.263
        47 -11.7157    134.8843    233.3738   7.3338620872e+01   5.8374274242e+00    0.5093491    0.3439332 -73.84  0.002478915    2.014    0.504
        48  -8.7125     89.6043    234.7970   8.3642247854e+01   1.2863389243e+01    0.1763719    0.1229389 -83.96 0.0004227471    1.576    0.366
        49 -11.2504    187.1393     61.7109   2.3969424957e+01   3.0779861802e+01    0.3800068     0.341257 -39.74 0.0008480347    1.245    0.197
        50 -12.6808    203.2620     50.2294   1.8936726783e+01   2.8746407751e+01     1.104091    0.8386342  49.38  0.005261772    1.545    0.353
        51 -11.6921    209.7116     44.8466   1.6926013725e+01   2.8043427295e+01    0.5432002    0.4314462  70.04  0.001460865    1.231    0.187
        52 -10.7397     57.7452    194.9644   8.6092329299e+01   2.6707525065e+01     0.910938    0.3974169 -88.81  0.002858503    4.296    0.767
        53 -11.8635    127.1046    229.5387   7.4515089954e+01   7.9361630631e+00    0.5606236    0.3446003 -48.01  0.002723092    1.796    0.443
        54 -12.6867    112.2776    228.9654   7.7799461125e+01   1.0525278910e+01    0.8217509    0.6228745  41.09  0.004486076    1.205    0.170
        55  -9.9832    147.8716    227.3532   6.9473366013e+01   4.8482143236e+00    0.3864577     0.190314 -59.44  0.001564747    2.647    0.622
        56  -9.2975    115.3376    248.8016   7.9789748341e+01   5.9549846457e+00    0.2424989    0.1652867 -87.64  0.001248467    1.966    0.491
        57  -8.1459    164.5072    247.4841   6.9027534029e+01  -1.7343164058e+00    0.1348971    0.1154963  20.05 0.0008100351    1.044    0.043
        58 -10.7307     97.8636    224.6364   8.0490928689e+01   1.3802444499e+01    0.3057318    0.2291099 -51.34  0.001119184    1.482    0.325
        59  -8.2927     60.2716     21.0157   4.1513144025e+01   6.3540920135e+01    0.1409772   0.09778709 -18.25 0.0005148713    1.454    0.312
