#   1 NUMBER                 Running object number                                     
#   2 MAG_AUTO               Kron-like elliptical aperture magnitude                    [mag]
#   3 X_IMAGE                Object position along x                                    [pixel]
#   4 Y_IMAGE                Object position along y                                    [pixel]
#   5 X_WORLD                Barycenter position along world x axis                     [deg]
#   6 Y_WORLD                Barycenter position along world y axis                     [deg]
#   7 A_WORLD                Profile RMS along major axis (world units)                 [deg]
#   8 B_WORLD                Profile RMS along minor axis (world units)                 [deg]
#   9 THETA_WORLD            Position angle (CCW/world-x)                               [deg]
#  10 FWHM_WORLD             FWHM assuming a gaussian core                              [deg]
#  11 ELONGATION             A_IMAGE/B_IMAGE                                           
#  12 ELLIPTICITY            1 - B_IMAGE/A_IMAGE                                       
         1 -11.2660     20.7387     20.7320   3.8470700413e+01   7.3940249750e+01    0.4624034    0.2709033 -23.19  0.001595371    2.055    0.513
         2 -11.6696     35.7129     18.4826   2.7080486648e+01   7.1945170774e+01    0.6159279    0.4907663 -26.89  0.003423293    1.275    0.216
         3 -11.7595     23.0494     10.6505   3.0302926689e+01   7.5302927246e+01    0.4265812    0.2749137  20.23  0.001629815    1.637    0.389
         4 -12.0480     15.7455     12.3900   3.7202444555e+01   7.6094009702e+01    0.6574265     0.400411 -47.75  0.002827064    1.764    0.433
         5 -11.9411    164.5371     18.0964   3.5426514894e+02   4.1563935298e+01    0.4064388     0.286318  40.50  0.002227708    1.911    0.477
         6 -11.1638    127.4894     11.4855   3.5632954923e+02   5.1279517723e+01    0.2477573    0.2169535 -77.29 0.0009830677    1.035    0.034
         7 -11.7703    127.5841     15.8958   3.5788410657e+02   5.0808250337e+01    0.4425495    0.2756654  56.11  0.001269542    1.602    0.376
         8 -10.9799    132.7302     15.2316   3.5694934124e+02   4.9590652270e+01    0.3438325    0.2261022  57.31  0.001515742    1.532    0.347
         9 -10.7486    136.8599     14.3756   3.5613133811e+02   4.8652053763e+01    0.3010734    0.2115339  71.01  0.001088834    1.329    0.248
        10 -10.9925     88.6648      8.0000   1.4443943769e+00   6.1379158031e+01    0.3418375    0.2908724  81.02   0.00117953    1.107    0.097
        11 -11.5132     85.7984     14.5459   5.1656323798e+00   6.1432044909e+01    0.4718782    0.3017517 -13.47  0.001624952    1.914    0.478
        12 -10.1951     84.7732     10.0164   3.2702779453e+00   6.2150166335e+01     0.176925    0.1720809 -39.66 0.0003873377    1.130    0.115
        13 -10.6901    225.7350     13.3552   3.4873651169e+02   2.9070796157e+01    0.2006639    0.1281972 -44.48 0.0003157063    1.211    0.174
        14 -11.3093    243.5008     14.4829   3.4810987216e+02   2.5723687353e+01    0.2075766    0.1584947  23.00  0.001386318    2.380    0.580
        15 -12.4115     48.5139     12.7590   1.6824100072e+01   7.0250349694e+01    0.7300152     0.272199  52.49  0.002968872    2.450    0.592
        16 -12.1582    104.5754     11.8589   9.4791867233e-03   5.7018958471e+01    0.5088254    0.3267213 -25.49  0.001777585    1.713    0.416
        17 -11.2745    120.8668     11.4172   3.5721645125e+02   5.2950477445e+01    0.3406218     0.194487  89.05  0.001619302    1.793    0.442
        18 -11.3083    211.9606     10.0174   3.4872146111e+02   3.2093622904e+01    0.2855923    0.1735214 -29.40 0.0009810529    1.636    0.389
        19  -9.9907     98.7799     10.6520   5.7820567428e-01   5.8596450709e+01    0.1816417    0.1736021  51.93  0.001134051    1.120    0.107
        20 -11.5306     63.5573      9.2587   8.8412893359e+00   6.7318911175e+01    0.4284227    0.3162673 -66.65 0.0009902248    1.734    0.423
        21 -11.1006    169.1308      9.4574   3.5140153865e+02   4.1393568315e+01    0.3728626    0.1803333  64.25  0.001847943    2.074    0.518
        22 -10.0643      5.6766      8.9457   4.4004018889e+01   7.7912303722e+01     0.173451    0.1448399 -25.51 0.0008718898    1.095    0.087
        23 -10.0138     77.9585      7.1904   3.5427982134e+00   6.4093281349e+01    0.2032165    0.1697288 -83.34 0.0006735005    1.274    0.215
        24 -10.0992    185.5291      6.5237   3.4943584530e+02   3.7988812118e+01    0.1244223   0.09916898 -63.88 0.0001049919    1.002    0.002
        25  -9.9783    186.5318     14.9916   3.5155088797e+02   3.6902332007e+01    0.1828148    0.1077288 -35.51 0.0006227923    1.545    0.353
        26 -10.3831    128.9627      4.7748   3.5377323186e+02   5.1536916865e+01    0.1946904    0.1704247 -78.55   0.00121507    1.028    0.027
        27 -12.1904    133.5708      2.5188   3.5248828469e+02   5.0587439091e+01    0.6295477    0.2587587  85.90   0.00262812    2.458    0.593
        28 -10.8581     41.1288      4.0820   1.4663647537e+01   7.2816659428e+01    0.3384666    0.2024391  28.18  0.001344807    1.836    0.455
        29  -9.3729     30.5151      4.5100   2.0803654167e+01   7.4864518515e+01    0.1267039    0.1112349  22.87 0.0001051392    1.016    0.016
        30 -10.0213    223.8322      2.6416   3.4650711180e+02   3.0520672736e+01    0.1811754    0.1320142 -36.15 0.0006618196    1.323    0.244
        31 -11.0453    218.8527      3.1747   3.4684147927e+02   3.1424781958e+01    0.2353252    0.1452779 -89.43 0.0008031157    1.571    0.363
        32 -10.9308    105.5104      2.0398   3.5580067942e+02   5.7667591836e+01    0.2731505    0.1839537 -69.61  0.001131808    1.532    0.347
        33 -11.8274    113.7693      2.1778   3.5469162396e+02   5.5573159770e+01     0.510209     0.236025  80.95  0.002062029    2.060    0.515
        34 -10.0592     74.3381      2.5767   2.0688577644e+00   6.5387666284e+01    0.2677621    0.1225703  73.21  0.001149249    2.200    0.546
        35  -9.7767      2.1794      1.7502   4.2474679706e+01   7.9547693319e+01    0.1734613    0.1203085 -12.48  0.001052462    1.388    0.280
        36  -9.9251    152.7193      1.4054   3.5037227003e+02   4.6014054880e+01    0.2259677    0.1103741  85.87 0.0006543095    1.909    0.476
        37  -9.6263     28.9159      1.4658   1.9480155632e+01   7.5534754930e+01     0.179622    0.1122631  46.69 0.0003424965    1.472    0.321
        38 -11.0711     11.0651    125.5411   7.0495519757e+01   4.8508610833e+01    0.4607344    0.2318952 -52.72  0.001888268    1.969    0.492
        39 -11.4713    247.9154    248.8519   3.0614087114e+01  -5.3266079928e+00    0.3134328    0.2424069  48.50  0.002077495    3.915    0.745
        40  -9.6767    202.3102    250.3339   3.8038205528e+01  -1.4197639490e+00    0.1126682   0.06358205  -6.61 0.0007043327    1.676    0.403
        41 -11.0096    104.3492    122.4939   3.7205315444e+01   3.6599433850e+01    0.3005798    0.2896156  53.97  0.000836764    1.049    0.047
        42  -9.7389     48.9825    123.0000   5.5895042167e+01   4.5461466003e+01    0.2468884   0.08641718  26.70 0.0008043834    2.956    0.662
        43 -11.7381    245.3888    118.6961   9.1070048983e+00   1.1985267462e+01    0.2771186    0.1592392 -55.80  0.001531672    2.176    0.540
        44 -10.1495    218.4931    116.4609   1.2061273795e+01   1.6393145613e+01    0.1273514    0.1038494 -36.21 8.713954e-05    1.008    0.008
        45  -9.7560     43.4615    115.9581   5.6726272590e+01   4.8077065062e+01    0.2213024    0.1232051  80.44 0.0007236507    2.541    0.606
        46 -11.8018      7.8426    114.7066   7.0685727867e+01   5.1711031510e+01    0.3305134    0.2582775 -68.40  0.000337338    1.173    0.148
        47 -12.1720      2.5800    111.5937   7.2501335954e+01   5.2875872311e+01    0.5323251    0.3257989 -79.85 0.0006786349    1.457    0.314
        48 -11.4133      3.5917    104.7212   7.1427707125e+01   5.4708946175e+01     0.473168    0.2898459  31.42  0.001179273    1.710    0.415
        49  -9.9002     79.1017    114.8009   4.3395506602e+01   4.3096753844e+01    0.2175863    0.1878223 -12.68 0.0009662409    1.357    0.263
        50 -11.9632     26.8707    106.0099   6.1718914142e+01   5.2619961243e+01    0.6901286    0.6081644 -39.77   0.00356023    1.181    0.153
        51 -11.5895     22.2704    114.0665   6.4822244290e+01   5.0809849621e+01    0.4716417    0.3021039   3.79  0.001739211    1.885    0.470
        52 -11.3637     27.5111    112.3856   6.2461508922e+01   5.0797649603e+01    0.4630909    0.2991242  43.61  0.001649532    1.583    0.368
        53 -10.0132     48.9497    111.5237   5.3745335889e+01   4.8590732155e+01    0.2213027     0.149651  29.80 0.0004204724    1.524    0.344
        54 -11.7365     15.7765    108.2561   6.6708002038e+01   5.2945565394e+01    0.4646064    0.2561924  53.41  0.002038188    1.960    0.490
        55 -11.0601     79.6358    107.9788   4.1558081381e+01   4.4739891699e+01    0.4040529    0.3388284   1.69  0.001150579    1.438    0.304
        56  -9.4121    139.7674    106.6350   2.3875481931e+01   3.3038067283e+01    0.1485089    0.1144899 -18.67 0.0005101303    1.591    0.372
        57 -11.2274     49.8795    101.4117   5.1220557914e+01   5.1187966809e+01    0.5343375    0.3686137 -17.44  0.002290809    1.937    0.484
        58 -11.0155     35.3440    102.9071   5.7587521393e+01   5.2596649358e+01    0.2862441    0.2230814 -11.64 0.0001794898    1.512    0.339
        59 -11.2141     17.2071    100.5125   6.5019594360e+01   5.4971927017e+01     0.268326    0.1857215 -73.53 0.0006959601    1.327    0.247
        60 -11.6871    210.3873     98.1197   9.1957545460e+00   2.0658191126e+01    0.2115219    0.1890928 -46.25 0.0002727304    1.086    0.079
        61 -11.2910    247.6592     95.8566   4.3545487576e+00   1.4884746416e+01    0.2010111    0.1524818  16.06  0.001313334    1.938    0.484
        62  -9.8398     77.4956     96.5373   3.9313673688e+01   4.7986337264e+01    0.2099421    0.1528871  25.27 0.0005769883    1.554    0.357
        63 -10.8647     79.1583     92.2697   3.7516126496e+01   4.8720810852e+01    0.5843282    0.4898343 -69.04  0.002903067    1.251    0.200
        64 -11.8493     67.9139     95.0130   4.2460486044e+01   5.0063210044e+01    0.3828667    0.3195109  41.46 0.0009599822    1.217    0.178
        65 -11.4367     22.9489     94.4440   6.1460934091e+01   5.6153410585e+01    0.4301254    0.2515969 -34.47  0.001888882    1.941    0.485
        66 -11.1758      8.3154     96.0727   6.8366970186e+01   5.6808829993e+01    0.3064372    0.2291199  -0.52  0.001624268    1.521    0.343
        67 -10.0450     42.7891     94.4101   5.2604903145e+01   5.3998758143e+01    0.2014222    0.1473671   8.73 0.0008209297    1.598    0.374
        68  -9.3286    125.9740     93.7677   2.3731978909e+01   3.8660924661e+01    0.1849344    0.1277837  48.72 0.0008376029    1.493    0.330
        69 -10.0088     35.7172     92.4205   5.5277015156e+01   5.5392200281e+01    0.2668259    0.1799858 -81.61 0.0006432957    1.621    0.383
        70  -9.9918     98.1312     90.6890   3.0675100259e+01   4.5314280133e+01     0.213371    0.1921484  44.32 0.0004700461    1.132    0.116
        71 -10.4446     43.8327     90.4841   5.1217912384e+01   5.4901827692e+01     0.246744    0.1939729 -60.64 0.0002637086    1.215    0.177
        72 -11.9572     18.7967     87.4456   6.2135828849e+01   5.8407272766e+01      0.62132    0.3327665 -82.26  0.002637784    2.005    0.501
        73  -9.7541     38.7413     90.4292   5.3469855979e+01   5.5563850595e+01    0.1900011    0.1454194   3.84 0.0004066921    1.510    0.338
        74 -11.6747      5.7796     88.2003   6.8502544681e+01   5.9099611931e+01    0.5899377     0.362296   5.83  0.002332228    1.847    0.459
        75 -11.5716     27.8282     85.0472   5.7319171602e+01   5.8218765770e+01    0.5098233    0.4066819 -35.74  0.001518095    1.282    0.220
        76  -9.9322     52.3675     87.1852   4.6651008790e+01   5.4553531174e+01    0.2077203    0.1422183 -70.99 0.0004340776    1.595    0.373
        77 -11.0167     45.1502     84.3561   4.9069034535e+01   5.6319143950e+01    0.3489093    0.3187463 -39.47  0.001599485    1.086    0.079
        78  -9.4703     36.8049     85.6292   5.3215535808e+01   5.7066417694e+01      0.21329    0.1299571  37.50 0.0009518666    1.689    0.408
        79 -12.4154     60.9013     83.3750   4.1966341512e+01   5.4154248660e+01    0.3023283    0.2785772  53.56 0.0003939364    1.122    0.108
        80  -9.0429    151.2659     83.7049   1.5228658845e+01   3.5027522474e+01    0.1451003    0.1076152 -68.37 0.0006916082    1.510    0.338
        81  -9.9910    113.2722     82.3845   2.3718467504e+01   4.3832640246e+01    0.2735206    0.1823608 -62.90   0.00117368    1.764    0.433
        82 -10.8255      2.6223     81.2688   6.9101079621e+01   6.1130409666e+01    0.3905016    0.2060992  69.48  0.001684767    2.260    0.557
        83  -9.8456    162.2756     81.2438   1.2486484897e+01   3.3039959688e+01    0.1875555    0.1507631 -66.41  0.000338192    1.269    0.212
        84 -11.2161     75.7711     77.6575   3.4299711412e+01   5.2813161487e+01    0.6102935    0.5607153  11.97   0.00323013    1.181    0.153
        85 -10.2936     67.6881     80.9433   3.8472380343e+01   5.3562389764e+01    0.2795722    0.2218743  -1.29  0.001268213    1.594    0.373
        86 -12.4167    247.5445     76.6475   5.0688909143e-01   1.7527852998e+01     0.341531    0.2586048 -72.66  0.002389483    1.492    0.330
        87  -9.5065    118.8101     78.0346   2.0903725000e+01   4.3460603137e+01    0.2028688    0.1151674 -43.10 0.0003607639    1.725    0.420
        88  -9.7794     58.1755     78.1265   4.1527725823e+01   5.5892936866e+01    0.2060202     0.177388  89.31 0.0005437919    1.325    0.245
        89 -10.3339     88.9198     77.0315   2.9415168215e+01   5.0282721537e+01    0.3355801    0.2023915  45.77  0.001088402    1.664    0.399
        90 -10.4552     53.4086     76.0907   4.2979863388e+01   5.7164971227e+01     0.277214    0.2402765  81.72  0.001438338    1.321    0.243
        91  -9.5972    158.9566     75.9591   1.1637826257e+01   3.4688040175e+01    0.1665518    0.1538978 -63.63 0.0003856122    1.023    0.022
        92 -10.6856     94.8400     75.4982   2.6972390337e+01   4.9344659257e+01    0.3009155    0.2561171  65.06 0.0006120727    1.230    0.187
        93 -11.2701     14.2500     74.2866   6.1883476640e+01   6.2267801739e+01    0.3321187    0.2427383 -66.20  0.001754252    1.255    0.203
        94 -11.7291     27.5420     73.2852   5.4668911002e+01   6.1324790130e+01     0.352558    0.2736902  -5.84 0.0002394109    1.430    0.301
        95 -11.5703      2.0994     71.0213   6.7846229294e+01   6.3869924446e+01    0.8526319    0.2051645 -71.94  0.002806215    3.416    0.707
        96 -10.7891     16.9390     55.7988   5.5815774931e+01   6.6745152848e+01    0.4144822    0.1814394  10.05  0.001288873    2.813    0.645
        97 -11.2035      9.4805     55.5310   6.0343949005e+01   6.7403448857e+01    0.6395675     0.427722  71.13  0.003182845    1.942    0.485
        98 -11.8781      7.5324     63.4789   6.3371030108e+01   6.5528270081e+01    0.3653145    0.2341374 -29.45 0.0005618457    1.601    0.375
        99 -12.7014      4.2309     61.0448   6.4816419647e+01   6.6340666298e+01    0.4277571    0.2938804 -12.16 0.0003728756    1.558    0.358
       100 -10.7742     35.1926     71.4358   5.0246264061e+01   6.0911816587e+01     0.405365    0.2198991  36.20  0.001408103    1.885    0.470
       101 -10.5424     40.4904     72.7579   4.7998723268e+01   5.9893043578e+01    0.3761145    0.2601344  17.48  0.001032659    1.600    0.375
       102 -10.7656     40.2197     68.7821   4.6921845761e+01   6.0909991562e+01    0.3125629    0.2439695  33.36  0.001302605    1.315    0.240
       103 -11.1455    122.5981     68.3748   1.6909334168e+01   4.4425272451e+01    0.3767503    0.2456081  43.84 0.0009373464    1.672    0.402
       104 -10.1521    101.9893     66.9231   2.1896785397e+01   4.9490903194e+01    0.2199104    0.2118707  87.25  0.000334495    1.014    0.014
       105 -10.0236    202.2312     63.3591   2.1585988922e+00   2.7468767818e+01    0.1829304    0.1423076 -42.57 0.0006891473    1.111    0.100
       106  -9.7390    105.5114     63.4909   1.9705954064e+01   4.9333763698e+01     0.150237    0.1437983 -86.41 0.0008104578    1.017    0.017
       107 -10.8404     92.5437     62.5559   2.3241007187e+01   5.2481775747e+01    0.3366793    0.2557442  72.40 0.0008974561    1.527    0.345
       108 -11.4045     43.3024     60.3775   4.2563839253e+01   6.2463599988e+01    0.4259924     0.258301 -54.70 0.0006516856    1.635    0.388
       109 -11.3703     46.4706     59.4822   4.0652783946e+01   6.2178652125e+01    0.6807137    0.2613749  46.38  0.002321206    3.174    0.685
       110  -9.3186    150.7392     60.6662   8.7198742091e+00   3.9112916362e+01    0.1342388    0.1137067   7.49  0.000696124    1.575    0.365
       111  -9.8151    113.4774     60.5098   1.6555698318e+01   4.8004045441e+01    0.1483039    0.1423717 -85.59  6.93484e-05    1.009    0.009
       112 -10.0937     29.5990     60.2218   4.9801861638e+01   6.4351124468e+01     0.258729    0.2195392 -71.61 0.0009274982    1.261    0.207
       113 -11.1756     25.4465     57.0937   5.1153918510e+01   6.5580461731e+01    0.5108221    0.2963794 -62.49  0.001785692    1.713    0.416
       114  -9.9161    106.2456     58.3975   1.7718132305e+01   5.0094617854e+01    0.2097121    0.1408726  67.27 0.0007505843    1.628    0.386
       115 -11.6411     75.3222     55.0651   2.6364297602e+01   5.7708295564e+01    0.7425897    0.3240596 -48.48  0.002771811    2.456    0.593
       116 -11.4844     72.5737     46.0901   2.3729501547e+01   5.9979786996e+01    0.4351926    0.2626155 -53.90   0.00191157    1.954    0.488
       117 -10.7594    124.6117     56.7052   1.2625046388e+01   4.5991585601e+01    0.2434034    0.2258263  23.96 0.0005587595    1.259    0.205
       118 -11.6445     39.4942     56.5555   4.3155650415e+01   6.3904530075e+01    0.3192996    0.2442405  35.90 0.0005640377    1.336    0.252
       119  -9.7872    159.4729     62.5083   7.7758665918e+00   3.6796342523e+01    0.2402643    0.1215393  49.72  0.000974593    2.224    0.550
       120 -11.2555     31.4217     53.0657   4.6325263256e+01   6.5812342265e+01    0.4420042    0.2676841   1.66   0.00192001    2.255    0.557
       121 -10.1444    155.9505     53.2937   5.6772382121e+00   3.9037391210e+01    0.3541789    0.1695742  82.25  0.001274269    3.237    0.691
       122 -10.6674     59.8226     50.4329   3.0803730304e+01   6.1762197905e+01    0.5034041    0.2636154 -61.49  0.001839651    3.013    0.668
       123 -10.1305     61.6345     46.1982   2.8210805935e+01   6.2231567817e+01    0.2720459    0.1362317 -32.12  0.001054156    2.467    0.595
       124 -11.0578    243.7741     51.0340   3.5557978415e+02   2.1464829678e+01    0.1766397    0.1430215 -62.92 0.0003707131    1.176    0.150
       125 -12.0863    119.7330     37.5672   7.0216807821e+00   5.0129834110e+01    0.5826213    0.3120616 -49.62  0.001905562    1.950    0.487
       126 -10.2978    112.5680     50.2187   1.3173429668e+01   4.9977940870e+01    0.3350073    0.2659359 -15.41  0.001316591    1.551    0.355
       127 -11.5300    116.9758     47.6930   1.1238708787e+01   4.9307473723e+01     0.470225    0.3878933  35.39  0.001618795    1.403    0.287
       128  -9.9156    155.3255     48.7747   4.4396608260e+00   3.9852211446e+01    0.1905013    0.1275067 -26.18 0.0004453622    1.676    0.403
       129 -11.2475    116.5850     43.2505   9.7366894505e+00   5.0085265418e+01    0.2945925    0.2624145  19.79  0.001006247    1.348    0.258
       130 -10.1035     82.7985     47.5138   2.0664003466e+01   5.7466748267e+01    0.3541319    0.2101728 -18.53  0.001384168    2.630    0.620
       131  -9.9474      2.0329     48.3221   6.3372845233e+01   6.9631106092e+01     0.182824    0.1676758 -27.49  0.001155478    1.076    0.071
       132 -12.2764     42.1070     44.0811   3.6739042559e+01   6.6206973363e+01    0.8207417    0.3349137  35.04  0.002513015    2.479    0.597
       133 -11.2654     26.2705     42.6574   4.5393097509e+01   6.8801428825e+01     0.370719    0.2949379  66.45  0.001421042    1.690    0.408
       134 -10.4697     23.8748     37.5254   4.4759707397e+01   7.0205241073e+01    0.3935819    0.2096902  42.83  0.001482931    2.162    0.537
       135 -10.6734     20.7466     45.6677   5.0091443464e+01   6.8770200142e+01    0.2480776    0.2126197 -21.81 0.0004562022    1.109    0.098
       136 -10.0872     13.7323     45.8214   5.4753591874e+01   6.9416266938e+01    0.2293005    0.1430558 -40.58 0.0007061914    1.493    0.330
       137  -9.8171    138.9637     44.0269   5.6291168284e+00   4.4469215479e+01    0.2251114    0.1699611  29.43  0.001125115    1.783    0.439
       138  -9.5553    155.7164     42.6280   2.5512360870e+00   4.0630578350e+01    0.1330741    0.1081877  20.47  0.000701602    1.705    0.414
       139 -10.7786    110.2158     39.5474   9.8074709589e+00   5.2204781781e+01    0.4780003    0.2169978 -23.00  0.001678392    3.132    0.681
       140  -9.7965     57.0081     41.7225   2.8273306925e+01   6.3984000413e+01    0.2064929    0.1778175  42.84   0.00114272    1.141    0.124
       141 -10.4583     18.1648     40.4073   4.9798597089e+01   7.0230602718e+01    0.2492229    0.1593906 -39.96  0.001285021    1.473    0.321
       142 -11.1121      4.0210     37.1250   5.8775274815e+01   7.2175963571e+01    0.5310687    0.3629607 -80.77  0.002484543    1.711    0.416
       143 -10.5891    249.8404     38.9831   3.5271410435e+02   2.1905317804e+01    0.1750905    0.1354013 -63.45 0.0003714803    1.184    0.155
       144 -10.7814     78.6991     37.3448   1.7728726969e+01   6.0098483269e+01    0.4076623    0.2605737 -64.18  0.001772825    2.226    0.551
       145 -11.1202     78.5490     34.1091   1.6334120394e+01   6.0635013859e+01    0.5718647    0.3381763  28.72  0.002390401    2.366    0.577
       146 -10.0575     60.5959     36.7877   2.4391901179e+01   6.4143476778e+01    0.2772397    0.1392726 -40.34 0.0007345413    2.058    0.514
       147 -10.2975     62.8478     33.4572   2.1848692774e+01   6.4228092008e+01    0.2789178    0.1866314  48.61 0.0006770818    1.428    0.300
       148 -10.4191    153.0464     35.8415   8.7906694571e-01   4.2178808448e+01    0.2080208    0.1808094 -71.10 0.0006782265    1.022    0.021
       149 -10.6987    175.3435     34.3153   3.5771474225e+02   3.7164584006e+01     0.284809    0.1707846 -62.13 0.0006871206    1.601    0.375
       150 -11.7892    107.2391     31.2074   7.2768190019e+00   5.4107680193e+01    0.6468809    0.3443311  40.14  0.002689941    2.336    0.572
       151 -12.6553    112.9053     25.0757   3.7211046549e+00   5.3467390702e+01    0.7488003    0.3325525  61.22  0.003157883    2.034    0.508
       152 -12.7104    105.6526     19.9656   3.1249833392e+00   5.5888525019e+01    0.3593206    0.2848583 -70.58 0.0004056461    1.301    0.231
       153 -10.5858    240.5143     31.9912   3.5185842366e+02   2.4315064126e+01    0.2020646    0.1251766  32.54  0.001048815    3.532    0.717
       154  -9.7397    217.0127     32.0293   3.5343210627e+02   2.8654294935e+01    0.1481355    0.1117661 -50.59 0.0003541993    1.045    0.043
       155 -10.4668     60.4116     23.4768   1.7796515109e+01   6.6270656718e+01    0.2464518    0.1335665 -28.26 0.0006084952    2.056    0.514
       156 -11.7763     58.2428     29.3441   2.1750933605e+01   6.5856339844e+01    0.4170917    0.2862386  25.16  0.002060238    1.698    0.411
       157 -11.4335     49.1987     29.8743   2.6209728871e+01   6.7592290588e+01    0.6745622    0.2414167  39.72  0.002458687    2.886    0.654
       158 -10.5250     10.1462     30.0719   5.1391005508e+01   7.3276507276e+01    0.2921507    0.1832999 -68.35  0.001505893    1.862    0.463
       159 -10.5805    169.2635     23.0066   3.5520304010e+02   3.9915176004e+01    0.2350915    0.1895339 -80.00 0.0005925753    1.114    0.102
       160 -11.0593    157.3665     29.1688   3.5830363652e+02   4.1986027804e+01    0.2591891    0.2375798 -55.07  0.000776005    1.123    0.110
       161 -12.6580    164.8305     27.4149   3.5692437857e+02   4.0433208733e+01    0.3644092    0.2687026  69.96 0.0005409455    1.369    0.269
       162 -12.2675    127.3577     28.3957   2.3420153620e+00   4.9436247440e+01    0.6531537    0.3580694  79.08  0.001747969    1.924    0.480
       163 -11.7016     26.6028     27.4065   3.8024348111e+01   7.1875773099e+01    0.4583758     0.309116 -55.49  0.001598811    1.716    0.417
       164 -10.1098    177.3426     29.3199   3.5614512616e+02   3.7326860600e+01    0.1236164   0.09875773  35.65 0.0003507875    1.721    0.419
       165 -10.8139    183.6984     26.8386   3.5487562787e+02   3.6201428335e+01    0.3335487    0.1412131 -44.78    0.0010947    1.945    0.486
       166 -11.3212    230.3900     26.5784   3.5133144825e+02   2.6754742557e+01    0.1970285    0.1848513 -56.05 0.0008290084    1.313    0.239
       167 -10.3095    189.2738     26.6924   3.5434335844e+02   3.4996521935e+01    0.3054897    0.1807302  45.01  0.001490023    2.430    0.588
       168 -10.3985    150.2231     27.5424   3.5869975595e+02   4.3900110217e+01    0.3256864   0.08864414  59.72  0.001147647    3.299    0.697
       169 -10.9269     46.4003     24.0326   2.4463238352e+01   6.9081573960e+01    0.3468918    0.2479735  21.24 0.0008626776    1.550    0.355
       170 -10.8668    219.2951    248.0495   3.4904975015e+01  -2.7493272300e+00    0.1500768    0.1044093 -11.53  0.001157268    1.107    0.096
       171 -12.2656    246.4752     21.8100   3.4944594115e+02   2.4422848268e+01    0.4586171    0.1968015  72.80  0.002643972    2.655    0.623
       172 -10.9009    134.3660     22.2295   3.5912003787e+02   4.8420630468e+01    0.2711017    0.2195528 -87.71  0.001297007    1.137    0.120
       173 -10.9473    178.5428     20.9600   3.5377194539e+02   3.8027236771e+01    0.4273268    0.2168925  45.14  0.001920355    2.947    0.661
       174 -11.7366    148.7398     22.2829   3.5724191093e+02   4.4875403042e+01    0.4141803    0.1632918  68.68  0.001730601    2.361    0.576
       175 -10.8537     68.6293     20.3369   1.3073886769e+01   6.4853514700e+01    0.3755587    0.2646608 -44.62  0.001976148    1.569    0.363
       176 -10.3747     46.6166     19.7424   2.1909735153e+01   6.9688576929e+01    0.2270371    0.2135808  22.49 0.0008572989    1.047    0.045
       177 -10.1242    239.4908    250.4574   3.2084877430e+01  -4.8030175777e+00    0.1015386    0.0684408  -5.97 0.0002614844    1.004    0.004
       178 -10.4151    131.5138    240.5073   5.0254415062e+01   7.6767542175e+00    0.1210672   0.09795254  14.77 0.0007402421    1.016    0.016
       179 -11.5609      8.8513     19.6774   4.7469222994e+01   7.5549610847e+01    0.4360271    0.2429523  -9.90 0.0003086979    2.255    0.557
       180 -10.3203     72.6784    237.6758   6.2921808246e+01   1.5056035332e+01    0.1189383   0.08960021 -12.69 0.0005292951    1.680    0.405
       181 -10.4325    239.0107    234.9937   2.9975250038e+01  -3.0066750319e+00    0.1302085   0.08961353 -11.27 0.0008354535    1.036    0.035
       182  -9.7371    216.6807     19.6978   3.5065291089e+02   3.0129227378e+01    0.1009296   0.09112169  30.30 0.0002637782    1.626    0.385
       183  -9.5589     74.6161     19.2065   1.0533697813e+01   6.3599033916e+01     0.180029    0.1320675  -8.54 0.0008834007    1.641    0.391
       184  -9.2612    218.6660    231.6603   3.2679099476e+01  -6.8186156512e-01    0.1164001   0.06449942  -7.85  0.000705147    1.751    0.429
       185 -11.3626    247.7027    222.7221   2.6876922567e+01  -2.3452204030e+00    0.2766312    0.2198504 -18.68   0.00229112    1.363    0.266
       186 -10.0176      8.6771    210.6922   7.6434606851e+01   2.7097634830e+01    0.1140166   0.09201429 -37.15 0.0007035133    1.646    0.392
       187  -9.3196    171.5007    208.5132   3.7611909102e+01   7.9882292145e+00    0.1254316    0.1023907  -2.33 0.0008102978    1.035    0.034
       188 -11.1926      6.3732    185.5602   7.5964427357e+01   3.3123055065e+01    0.2549684    0.1869131  72.71  0.001501327    1.201    0.167
       189 -11.4314      3.4067    181.8678   7.6609205730e+01   3.4247772383e+01    0.4389057    0.2034981 -66.15  0.002058809    2.177    0.541
       190  -9.5048     85.7015    185.3215   5.4040914511e+01   2.4455042757e+01    0.1453651    0.1015147  61.01 0.0004147459    1.622    0.384
       191 -11.1894    236.0435     16.3822   3.4885715025e+02   2.6846688696e+01    0.1877954   0.09023135  68.09  0.001091362    2.408    0.585
       192 -11.2128    228.5195     15.4948   3.4905389582e+02   2.8321720782e+01    0.2206951    0.1410503 -56.27 0.0006820072    1.193    0.162
       193 -10.2187     16.0005    173.9834   7.2632899112e+01   3.5215643366e+01    0.2394438     0.129156  56.53  0.001139453    1.705    0.414
       194 -11.3353      8.7986    166.9510   7.4320103894e+01   3.7585864210e+01    0.2315188    0.1897799  31.29 0.0009436442    1.248    0.199
       195 -10.0745     93.7541     15.5025   3.7365844831e+00   5.9359645677e+01    0.1928415    0.1129491  53.78 0.0004516823    1.579    0.367
       196 -10.4164    111.9751     14.7478   3.5987728847e+02   5.4859430744e+01     0.180399    0.1071779  70.13 0.0005970177    1.533    0.348
       197  -9.5886     80.4777    165.0090   5.2554116215e+01   3.0049519519e+01     0.206274    0.1113076 -38.69 0.0005941147    2.357    0.576
       198 -10.1336     18.3152    165.3169   7.1354531146e+01   3.7239567655e+01    0.1371944   0.09890424 -42.41  0.000552369    1.649    0.393
       199  -9.9640    205.1737    163.1888   2.3489878347e+01   1.0883314389e+01    0.1639426    0.1403605 -44.72  0.001065629    1.339    0.253
       200 -12.2779     13.2995    160.2002   7.2528977036e+01   3.8986980768e+01    0.4528169    0.3173155 -26.11  0.002331925    1.847    0.459
       201 -10.4107    104.3540    153.8975   4.3847892173e+01   2.9038654448e+01     0.270633    0.2050355  46.18   0.00133123    1.336    0.251
       202 -10.1429     55.4535    152.7723   5.8364252379e+01   3.6608933469e+01    0.2108324    0.1289667 -54.42 0.0009418462    1.657    0.397
       203 -10.0310      4.6814    153.3365   7.4787796667e+01   4.1428852371e+01    0.1521282   0.08311085  57.61 0.0004696953    1.703    0.413
       204  -9.6399    240.5408    152.5172   1.6143290732e+01   7.7562732053e+00    0.1172284   0.08996671 -29.13 0.0005762065    1.057    0.054
       205 -10.5838     45.2480    149.9974   6.1290608817e+01   3.8589872757e+01    0.3588269    0.2544485 -82.23  0.001758404    1.414    0.293
       206 -10.6835     47.2254    145.7073   6.0064717078e+01   3.9507665871e+01    0.2611616    0.2469138  32.62  0.001294802    1.111    0.100
       207 -11.4180     21.2150    150.5444   6.9247365141e+01   4.0889687325e+01    0.2511802    0.2299239  39.87 0.0003821064    1.134    0.118
       208 -11.2161     24.0157    148.2320   6.8108766042e+01   4.1263005158e+01    0.3031611    0.2597928 -31.96 0.0008017445    1.360    0.265
       209  -9.3097    104.2869    147.6430   4.2661231941e+01   3.0544767617e+01    0.1541273    0.1177489  77.54 0.0007023163    1.677    0.404
       210 -10.1050     16.5170    147.4794   7.0530975843e+01   4.2109007090e+01    0.1407403    0.1265001  79.06 9.723144e-05    1.010    0.010
       211 -10.6617     32.9176    143.9212   6.4657650962e+01   4.1575381807e+01    0.2712857    0.2223635 -81.94 0.0007969578    1.156    0.135
       212 -11.9225      3.2768    141.8968   7.4542109792e+01   4.4569279939e+01    0.4783489    0.3311977  27.23  0.002563126    1.499    0.333
       213  -9.3569    105.4543    142.5118   4.1299925605e+01   3.1576047908e+01    0.1487293    0.1473501 -26.30 0.0001892541    1.014    0.014
       214 -11.1286     40.5655    138.3711   6.1323339684e+01   4.2268476607e+01    0.4360696    0.2753589 -73.72  0.000710758    1.536    0.349
       215 -11.7442     23.8231    137.0097   6.7029259946e+01   4.4333200070e+01    0.4748826    0.2694013 -45.32  0.002102884    1.957    0.489
       216 -10.2459     20.4707    133.9958   6.7899447542e+01   4.5452636961e+01    0.2630408    0.2341192 -53.11 0.0009611432    1.185    0.156
       217 -11.8561     12.4816    135.5688   7.0892578168e+01   4.5654580434e+01    0.5332686    0.2860569 -45.79  0.002361534    2.067    0.516
       218 -10.5994     30.1908    132.7325   6.4257073635e+01   4.4909919744e+01    0.2714192    0.2155325 -38.43 0.0007997197    1.404    0.288
