#   1 NUMBER                 Running object number                                     
#   2 MAG_AUTO               Kron-like elliptical aperture magnitude                    [mag]
#   3 X_IMAGE                Object position along x                                    [pixel]
#   4 Y_IMAGE                Object position along y                                    [pixel]
#   5 X_WORLD                Barycenter position along world x axis                     [deg]
#   6 Y_WORLD                Barycenter position along world y axis                     [deg]
#   7 A_WORLD                Profile RMS along major axis (world units)                 [deg]
#   8 B_WORLD                Profile RMS along minor axis (world units)                 [deg]
#   9 THETA_WORLD            Position angle (CCW/world-x)                               [deg]
#  10 FWHM_WORLD             FWHM assuming a gaussian core                              [deg]
#  11 ELONGATION             A_IMAGE/B_IMAGE                                           
#  12 ELLIPTICITY            1 - B_IMAGE/A_IMAGE                                       
         1  -8.6366     91.9611     26.4535   3.0333633122e+01   5.7748093231e+01    0.2450311    0.1793372 -50.71 0.0006201533    1.612    0.380
         2  -9.1406     95.9733     13.9482   2.4294941005e+01   5.8176618126e+01    0.2791613    0.1960668 -69.65  0.001105128    1.817    0.450
         3  -7.8397    213.8760     12.1661   9.0038952191e+00   3.1157044481e+01    0.1341555    0.1289597 -83.89  0.001024257    1.313    0.239
         4  -9.5463      2.2538     11.2272   6.7091854664e+01   7.5537330252e+01    0.2368364    0.1449353  25.31  0.001423728    1.645    0.392
         5  -8.3312     55.9221      9.9613   3.4495631196e+01   6.7521204214e+01    0.1812026     0.155495 -82.06 0.0005052058    1.652    0.394
         6  -9.5203      5.8587      8.4771   6.2697417220e+01   7.5666419937e+01    0.3858945    0.1655269  40.71  0.001729567    3.350    0.701
         7  -7.9062     29.8257     15.6297   5.0270583252e+01   7.1518896856e+01    0.1674642    0.1076001  42.71 0.0007191469    1.663    0.399
         8  -8.2026     70.3874      6.2013   2.7617632847e+01   6.4803362603e+01    0.1682184    0.1160708 -35.92  0.000948345    1.684    0.406
         9  -8.3752     79.3239      4.4399   2.4292601846e+01   6.2938528001e+01    0.2107619     0.119132 -22.41  0.001087964    2.014    0.503
        10  -8.1436     33.4723      4.9950   4.2036633079e+01   7.2323660145e+01      0.17237     0.115368 -28.79  0.001021421    1.601    0.375
        11  -8.2077     15.7826      3.0426   5.1844579228e+01   7.5310302597e+01    0.1486713   0.08983371 -33.43 0.0004755939    1.676    0.403
        12  -7.8090     98.4834      1.4960   1.8787163837e+01   5.8670371988e+01    0.1287046     0.111075  69.67 9.640086e-05    1.042    0.041
        13  -7.9481     62.4889      1.4356   2.7717430761e+01   6.6958709470e+01    0.1262676    0.1074498  46.26 6.059866e-05    1.045    0.043
        14  -8.4637    146.2939    239.6243   6.7820157017e+01   5.7493869094e+00    0.1661774    0.1547866  65.29 0.0007427416    1.507    0.337
        15  -9.2784    242.1241    237.2021   4.9527378635e+01  -4.9747656701e+00    0.5444781     0.208932 -17.09  0.002201621    4.383    0.772
        16  -9.0555    248.1507    234.1297   4.8106403459e+01  -5.1840377479e+00    0.2317822    0.1444817 -21.08  0.001060332    1.243    0.195
        17  -9.2067    249.6416    249.0019   5.0103496806e+01  -7.0878260714e+00    0.2904859    0.1625705 -11.17  0.002009397    1.450    0.310
        18  -9.1676    242.5330    247.0278   5.0934821743e+01  -6.2003241465e+00    0.2580302    0.1157417 -31.88  0.001588229    1.928    0.481
        19 -10.2799    248.1218    241.7269   4.9262365195e+01  -6.0968625593e+00    0.4728162    0.2511515 -17.71   0.00312043    1.561    0.360
        20  -8.9384    236.2179    242.7151   5.1313712061e+01  -5.0723858358e+00    0.2905408    0.1351373  15.57   0.00168049    2.109    0.526
        21  -8.6811    234.1998    250.4062   5.2781233363e+01  -5.8082673053e+00    0.1550407    0.1103235   3.64 0.0006195657    1.108    0.098
        22  -8.6460    232.4875    246.9872   5.2561710870e+01  -5.2282296480e+00    0.2203591    0.1159757 -37.37 0.0008081442    1.967    0.492
        23  -8.7930    214.3144    250.4174   5.6158063829e+01  -3.8142577298e+00    0.2146459   0.08829928  22.79  0.001148275    2.196    0.545
        24  -8.5621    184.8439    250.2546   6.1525594346e+01  -5.6305167864e-01    0.2069304    0.1156486  27.45 0.0008764816    1.534    0.348
        25  -8.6374    134.6597    250.3070   7.1652696097e+01   5.4774507009e+00    0.2392597    0.1459548  29.43  0.001398588    1.340    0.254
        26  -8.9261    131.9958    247.4914   7.1874418147e+01   6.2698821325e+00    0.1959933    0.1740767  78.48  0.000594858    1.608    0.378
        27  -9.3494    126.3881    249.5104   7.3316253184e+01   6.6388764726e+00    0.4162236    0.2045989   8.81  0.001738423    3.157    0.683
        28  -8.6756     94.0874    249.2697   8.0314632159e+01   1.0680472675e+01    0.2256467    0.1389486  63.37  0.001204812    2.184    0.542
        29  -8.2876     86.3833    250.2138   8.2098768591e+01   1.1440745477e+01    0.1490632    0.1142992  85.81 0.0006083647    1.660    0.398
        30  -8.7192     26.7590    250.4183   9.5020550395e+01   1.7907583986e+01    0.2249549   0.08257253  32.70 0.0009428178    2.071    0.517
        31  -9.1509    139.6997    244.3877   6.9844753384e+01   5.8080089743e+00     0.212914     0.166003  68.86  0.001063206    2.067    0.516
        32  -9.4904    143.7677    247.5838   6.9396206276e+01   4.7799823496e+00    0.3376313    0.1351058  31.87  0.001543305    2.049    0.512
        33  -9.4164    146.5055    245.5053   6.8554483502e+01   4.7695200393e+00      0.21903     0.195043  38.71 0.0008924415    1.354    0.262
        34 -10.1904    120.2940    245.5024   7.4159389744e+01   8.0803638909e+00     0.343234      0.23376  65.87  0.001868194    2.300    0.565
        35  -9.3018     76.3861    247.1479   8.4026047699e+01   1.3186047639e+01    0.2097468    0.1435746  23.11 0.0005658332    1.342    0.255
        36  -8.8574     57.4926    246.5228   8.8154255671e+01   1.5462066428e+01    0.2634715    0.1581233  -5.62  0.001268863    2.893    0.654
        37  -8.5145     34.2743    247.5555   9.3273876009e+01   1.7714420973e+01    0.2209191   0.08692991  32.94 0.0007875776    1.966    0.491
        38  -9.1036    210.9935    246.5097   5.6174576488e+01  -2.9598076688e+00    0.1848882    0.1489888 -38.67  0.001047036    1.727    0.421
        39  -9.5124     51.8153    248.8937   8.9568339884e+01   1.5634048581e+01    0.2447342    0.1921738  42.24  0.001125775    1.026    0.025
        40  -8.8806    159.2474    244.3593   6.5765313279e+01   3.3609831400e+00    0.2096532    0.1408093  13.60 0.0004267411    1.288    0.224
        41  -9.4303    159.9662    239.9625   6.5012188975e+01   3.9578780043e+00    0.2932025    0.2289228 -78.27  0.001652097    2.442    0.591
        42  -9.5038     81.7731    238.6158   8.2023509904e+01   1.4147558874e+01     0.472729    0.1630645  26.07   0.00190516    2.734    0.634
        43  -8.8736     45.4701    244.0583   9.0626861544e+01   1.7235993143e+01    0.2364883    0.1222997  41.93 0.0006334307    1.537    0.349
        44  -8.3624    201.9868    243.0032   5.7281114453e+01  -1.5058873707e+00    0.1471823    0.1419444  19.47 0.0007079686    1.702    0.412
        45  -8.6994    195.7795    242.5950   5.8366524303e+01  -7.4749395917e-01    0.2727731     0.153694  31.69  0.001597395    1.705    0.414
        46  -8.8847    194.0094    239.4921   5.8240079024e+01  -1.0722492228e-01    0.1995265    0.1552636  34.48 0.0005425059    1.587    0.370
        47  -8.5639    169.0990    243.2056   6.3613007486e+01   2.3250897228e+00    0.2100091    0.1456008  37.06 0.0007735944    1.557    0.358
        48  -8.4553     88.1468    242.3468   8.0947658887e+01   1.2665934508e+01    0.2153015    0.1537185  80.54  0.001007532    1.854    0.461
        49  -8.8306    179.8002    241.6489   6.1276552176e+01   1.2609612730e+00    0.2612101    0.1455691  29.96  0.001043002    1.594    0.372
        50  -9.0806    182.4020    239.2883   6.0427503280e+01   1.2958817487e+00    0.3253177    0.2409545  53.22  0.001722101    2.342    0.573
        51  -9.7099     77.6722    242.7156   8.3339629929e+01   1.3862488786e+01    0.2866518    0.1550556  67.67  0.001166271    2.694    0.629
        52  -9.6200    134.7353    241.9986   7.0600557028e+01   6.8361434266e+00    0.2363514     0.194554 -11.56 0.0007351944    1.239    0.193
        53  -9.2040     88.7320    246.8029   8.1255121559e+01   1.1774899326e+01    0.2666956    0.1289667  37.91  0.001061136    1.677    0.404
        54  -8.3720     97.1551    242.6221   7.8953670839e+01   1.1502366251e+01    0.1812124    0.1047165  19.72 0.0009431756    1.691    0.409
        55  -9.3085     61.3106    240.8415   8.6862440438e+01   1.6125008252e+01    0.2210335    0.1331387  39.44 0.0005666024    1.352    0.261
        56  -9.3524     29.1766    241.1708   9.4016804613e+01   1.9458892648e+01    0.2585447    0.1325148  34.72 0.0009276894    1.575    0.365
        57  -9.5189      2.8337    239.8184   9.9572932758e+01   2.2113663208e+01    0.2431998    0.1428993  54.21 0.0005413649    1.347    0.257
        58  -9.0997     37.0003    240.3428   9.2253766311e+01   1.8841634119e+01    0.1779743    0.1264444  41.20  0.001139477    1.148    0.129
        59  -9.4433    124.4590    239.0124   7.2461771877e+01   8.6709785296e+00    0.2939178    0.1554096  28.66  0.001035028    1.589    0.371
        60  -9.5895     71.1119    238.2940   8.4424168286e+01   1.5486835421e+01    0.2855587    0.1666407  31.02 0.0008471574    1.440    0.306
        61  -9.3137     52.3580    238.2405   8.8679491066e+01   1.7633135254e+01    0.2477781     0.154059  44.99 0.0007594921    1.344    0.256
        62  -9.2164    230.4032    236.6627   5.1358189410e+01  -3.7284616692e+00    0.2177985    0.2041514 -39.29  0.001315819    1.942    0.485
        63  -9.1085    226.1479    237.0715   5.2135213621e+01  -3.3385668551e+00    0.2197447    0.1319774  11.99   0.00113466    1.449    0.310
        64  -7.9969    208.9898    238.2209   5.5299856191e+01  -1.6364340005e+00    0.1393703    0.1218578 -33.37 0.0005154231    1.607    0.378
        65  -8.0547    172.6756    238.6748   6.2253999841e+01   2.5731101040e+00    0.1276601   0.07979231  -4.27 0.0005528341    1.689    0.408
        66  -9.3419    106.1083    238.1079   7.6445413530e+01   1.1198071981e+01    0.2994201    0.1564007  29.29 0.0009140729    1.609    0.379
        67 -10.2688     17.2940    237.7731   9.6419810133e+01   2.1256312458e+01    0.4547139      0.18567  24.60  0.001683898    2.325    0.570
        68  -9.4908    216.9909    235.5077   5.3471140033e+01  -2.1527381471e+00    0.2346341    0.1806356  35.16 0.0009270284    1.769    0.435
        69  -9.2976    213.6469    231.6405   5.3463966051e+01  -1.2577201752e+00    0.2687919    0.2348572  55.09  0.001388376    2.197    0.545
        70  -9.1432    203.0154    234.4882   5.5816587831e+01  -4.4350752660e-01     0.246436    0.1645537 -51.14  0.001198661    2.324    0.570
        71  -9.6791    175.3780    233.0047   6.0884400397e+01   3.1071799824e+00    0.4062259     0.313262 -60.42  0.002476012    2.086    0.521
        72  -7.9594    149.2967    236.3218   6.6734091026e+01   5.9068506760e+00    0.1271875   0.08542342  -5.65 0.0002956965    1.619    0.382
        73  -9.4169    108.7112    234.2468   7.5406519857e+01   1.1574070443e+01    0.3245139    0.2027741  57.12  0.001328435    2.064    0.516
        74  -7.9113    170.2889    235.6328   6.2292232594e+01   3.3381507013e+00    0.1089962   0.09538607  53.18 0.0007023662    1.706    0.414
        75  -8.6254     43.8352    235.6519   9.0419244939e+01   1.9067386494e+01    0.1819469   0.08609283  37.93 0.0006359821    1.680    0.405
        76  -9.4731    186.1190    230.8884   5.8452595256e+01   2.0953033619e+00    0.4151142    0.2128625 -46.01  0.002123235    2.286    0.563
        77  -9.5886    132.4078    233.8818   7.0053025537e+01   8.5303844152e+00    0.2297022    0.1894516 -23.13  0.001464911    1.286    0.222
        78  -8.3894    122.9553    233.9819   7.2162440297e+01   9.7581249574e+00    0.1984122    0.1420641  55.22 0.0008316257    1.746    0.427
        79  -8.2588     99.7658    234.1805   7.7440912672e+01   1.2741389251e+01    0.2183705    0.1153236  58.68 0.0009530216    2.810    0.644
        80  -9.1665     93.6415    233.5743   7.8781443765e+01   1.3637964520e+01    0.3772491    0.2383853  53.52  0.002037951    1.726    0.421
        81  -9.5607     68.3976    232.2946   8.4507305846e+01   1.6990248288e+01    0.4369827    0.2024308  60.01  0.001874837    2.870    0.652
        82  -7.9888     38.6641    234.3335   9.1499200638e+01   1.9873111305e+01    0.1350119   0.07093342  54.60 0.0007052117    1.739    0.425
        83  -9.4367      6.7202    234.6054   9.8556522710e+01   2.2823838027e+01    0.2073609    0.1031143  21.82  0.001127667    2.068    0.516
        84  -8.2955    194.2350    232.2744   5.7111578337e+01   9.0485585801e-01     0.143854    0.1292401   8.68   0.00058929    1.350    0.259
        85  -8.0121    164.6538    232.7052   6.3012946076e+01   4.5151721580e+00    0.1299966   0.08323186  -1.86 0.0007031814    1.670    0.401
        86  -8.6474    157.3080    231.6059   6.4378814094e+01   5.6439765634e+00     0.182485     0.166847 -35.88 0.0008662106    1.351    0.260
        87  -9.4702    235.0014    231.6562   4.9827949466e+01  -3.5615210301e+00    0.3586197     0.194691  -8.87  0.001221684    1.811    0.448
        88  -9.5271    246.5827    228.1949   4.7433955956e+01  -4.2959219338e+00     0.352074    0.1470192 -32.09  0.002019882    1.996    0.499
        89  -8.3362    205.4214    230.1276   5.4706167891e+01  -1.0608905193e-01    0.1884416     0.119022  26.99 0.0007232914    1.498    0.333
        90  -9.0429    145.0173    226.4861   6.6269667179e+01   8.1420084894e+00    0.3371154    0.1106643  31.43  0.001342986    2.653    0.623
        91  -8.6649    151.4570    228.9606   6.5235960763e+01   6.8553871639e+00    0.2193081    0.1861347  58.58  0.001017923    1.661    0.398
        92  -9.5418    148.4730    224.4050   6.5216602432e+01   8.0377867406e+00    0.3408847    0.2667798  76.18  0.001706807    2.237    0.553
        93  -8.8821    139.9319    229.9264   6.7865630721e+01   8.2238050071e+00    0.1938871    0.1423085  50.38 0.0006938628    1.686    0.407
        94  -9.5531    127.4871    227.9448   7.0357282959e+01   1.0246237428e+01    0.4004513    0.3056194 -24.56  0.002016095    1.429    0.300
        95  -9.2322     31.7356    229.7511   9.2778125574e+01   2.1512001472e+01    0.2261081    0.1612618  41.35 0.0006311895    1.174    0.148
        96  -8.7809      1.3992    230.2584   9.9532091406e+01   2.4147868798e+01    0.1641525   0.08820099  75.08 0.0009463651    1.714    0.417
        97  -8.6356    102.7395    229.4072   7.6203775354e+01   1.3265259807e+01    0.2549328    0.1013344  34.42  0.001048566    2.072    0.517
        98  -8.0658    229.4949    228.5199   5.0250247515e+01  -2.5747960574e+00     0.112371   0.08588155  -6.63 8.778606e-05    1.078    0.072
        99  -8.8382    161.9897    227.8337   6.2847165665e+01   5.6523785009e+00    0.2965118    0.2034533  42.91  0.001701825    1.702    0.413
       100  -9.5331    113.5722    228.0393   7.3535452171e+01   1.2094545643e+01    0.4519219    0.1396939  35.40   0.00176716    2.639    0.621
       101  -9.3834     48.1808    227.5966   8.8830248536e+01   2.0247546532e+01     0.309356    0.2376793   7.35  0.001555107    1.538    0.350
       102  -8.5778     39.2388    228.5955   9.0981557312e+01   2.0990049415e+01      0.16755    0.1108509  17.44 0.0009502842    1.640    0.390
       103  -8.4447     20.4059    227.7792   9.5232399601e+01   2.3007746648e+01    0.2379457    0.1052405  36.76  0.001232372    1.803    0.445
       104  -9.5109     60.7192    227.5987   8.5885303462e+01   1.8840763385e+01    0.4499225    0.1930391  27.70  0.002066051    2.081    0.519
       105  -9.2277     94.5424    225.1103   7.7619427269e+01   1.5173845662e+01    0.4231932    0.2716602  87.99  0.002093672    2.389    0.581
       106  -9.7590    238.8592    221.1027   4.7539653078e+01  -2.5929483545e+00    0.5546322     0.168451 -30.85  0.002452097    3.173    0.685
       107  -9.9696    242.3971    216.7872   4.6281962221e+01  -2.3991768672e+00    0.2803609    0.1532438  -4.25  0.001629006    1.961    0.490
       108  -8.6402    205.9383    225.6948   5.3918051064e+01   4.6705314630e-01    0.2062734    0.1519009 -49.07  0.001090591    1.963    0.491
       109  -8.1774    199.9950    225.9951   5.5059037694e+01   1.1325308407e+00    0.1465631    0.1126931 -14.65 0.0004712578    1.124    0.111
       110  -9.3971    179.6896    225.2500   5.8848649122e+01   3.7704480123e+00    0.3694108    0.2322305  -2.30  0.001170306    1.683    0.406
       111  -8.2929    189.5915    225.6258   5.6969753256e+01   2.4619476834e+00    0.2390242   0.09594388  18.84 0.0009520585    3.283    0.695
       112  -8.7714     73.9276    224.6201   8.2469640420e+01   1.7882090139e+01    0.2543151    0.1915786 -23.92  0.001437006    1.701    0.412
       113  -8.9488     11.0796    225.4761   9.7211862319e+01   2.4323454364e+01    0.1769671    0.1023891  29.81 0.0007133494    1.577    0.366
       114  -8.7577    216.4908    223.2748   5.1647157544e+01  -4.1888425566e-01    0.1997763    0.1839119 -55.54 0.0009782529    1.902    0.474
       115  -8.3543    173.2783    223.4076   5.9851571116e+01   4.8941828878e+00    0.1792754    0.1556578 -64.52  0.000691619    1.778    0.437
       116  -8.9476    164.3524    223.2265   6.1660742817e+01   6.1029486997e+00     0.391801     0.173731  46.13   0.00159253    3.328    0.700
       117  -8.7123    158.9594    220.3547   6.2356936335e+01   7.3139075576e+00    0.2038457     0.183532  69.31  0.000878308    1.649    0.394
       118  -8.3883    113.5857    223.7543   7.2984426607e+01   1.2907375499e+01    0.1588995    0.1298684 -79.35 0.0004965698    1.605    0.377
       119  -8.7641    104.8327    223.6909   7.5022683635e+01   1.4096311351e+01    0.2937175    0.2009928  64.86  0.001532253    1.963    0.491
       120  -9.3184    225.1967    221.4623   4.9854841219e+01  -1.1543668107e+00    0.2018806    0.1320906 -27.70 0.0005869679    1.329    0.247
       121  -9.3538    192.3231    221.2536   5.5755260894e+01   2.7873757855e+00    0.2498141    0.2302327 -64.49   0.00116901    1.776    0.437
       122  -9.2703     82.9066    220.4026   7.9867357046e+01   1.7628746797e+01    0.3274132    0.1799861  65.26  0.001436462    2.651    0.623
       123  -8.7208     54.1381    221.1914   8.6895649243e+01   2.0932834818e+01    0.1847897    0.1647675  19.96 0.0006998622    1.193    0.162
       124  -8.1725    202.5446    220.0717   5.3643873892e+01   1.6979092965e+00    0.1681663    0.1053516 -34.17  0.000423977    1.522    0.343
       125  -8.8287    132.9819    220.2086   6.8044405162e+01   1.0916517516e+01    0.3762637    0.1938309  21.54  0.001740909    1.961    0.490
       126  -9.2597    132.1231    215.1868   6.7513041035e+01   1.1976839238e+01    0.4266896    0.2824313  67.60  0.001952807    2.762    0.638
       127  -9.3160    120.2910    218.8329   7.0767206433e+01   1.2935755655e+01    0.4537359     0.241036  55.72  0.001878381    2.973    0.664
       128  -8.8191     43.0655    220.0588   8.9460538915e+01   2.2389609142e+01    0.1971877    0.1601715  48.17 0.0005512967    1.054    0.052
       129  -8.7881     18.1853    220.1999   9.5332310953e+01   2.4811077051e+01    0.2197551    0.1437761  45.67 0.0008286885    1.276    0.217
       130  -7.9919    218.3200    219.3155   5.0691134206e+01  -7.2147362644e-02    0.1232038   0.07370529  -6.77 0.0007040075    1.656    0.396
       131  -8.4211    210.2636    219.0358   5.2070702632e+01   9.1657102914e-01    0.1651909    0.1276135 -19.25 0.0004912957    1.153    0.133
       132  -8.7414     97.0711    218.7295   7.6256206541e+01   1.6121624148e+01    0.4075515    0.1413382  33.51  0.001626471    2.396    0.583
       133  -8.3368      1.4551    218.9705   9.9088363714e+01   2.6496286308e+01    0.1658187     0.103311  89.61 0.0004125644    1.518    0.341
       134  -8.1757    249.9668    218.4965   4.5377323067e+01  -3.4072636681e+00    0.1219368   0.09371618  46.86 0.0008093212    2.499    0.600
       135  -9.4434      6.2745    225.5786   9.8284822441e+01   2.4710948444e+01    0.2407216     0.121031  47.60 0.0005890438    1.593    0.372
       136  -8.6469    152.0096    218.3396   6.3542475894e+01   8.6169780558e+00    0.2817188     0.158634  18.98  0.001389998    1.782    0.439
       137  -8.1271    154.3748    215.1480   6.2537369737e+01   8.8527651784e+00    0.1650922    0.1255089 -57.33 0.0009361927    1.724    0.420
       138  -8.7338    142.7581    217.0037   6.5376936714e+01   1.0143682491e+01    0.2949122    0.1836355 -51.13   0.00155254    1.848    0.459
       139  -9.0797    108.6788    216.9603   7.3251242738e+01   1.4905455195e+01    0.4409896    0.1398535  34.41  0.001677302    2.626    0.619
       140  -8.4943     61.8159    216.9459   8.4647095759e+01   2.0953722351e+01    0.2209318    0.1275578  65.41  0.000822129    2.040    0.510
       141  -8.7553     51.8950    217.2758   8.7101100645e+01   2.2024295074e+01    0.2612336    0.1456981  47.98   0.00134341    1.615    0.381
       142  -9.7183    231.2061    214.8516   4.7776999158e+01  -9.1868883735e-01    0.4124456    0.2195611 -11.92  0.001671373    2.035    0.509
       143  -9.6372    236.0786    208.4359   4.5923523307e+01  -5.8189547470e-01    0.5366305    0.2240387 -28.82  0.002758318    2.170    0.539
       144  -8.7633    169.0360    215.5684   5.9491323926e+01   6.7562457463e+00    0.2161548    0.1796173 -56.75 0.0007844228    1.658    0.397
       145  -9.0261     11.3323    215.7245   9.6687500330e+01   2.6379139804e+01    0.2778062    0.1420654  28.31   0.00117647    1.805    0.446
       146  -8.4117     86.3094    214.9379   7.8415665851e+01   1.8327509247e+01    0.1808302    0.1669742  36.87  0.000572921    1.043    0.041
       147  -8.2211    185.4178    214.1953   5.5956474396e+01   4.7840642862e+00    0.1595665    0.1166307 -47.85 0.0009398621    1.702    0.413
       148  -8.8578     93.1884    213.7588   7.6586499202e+01   1.7663386599e+01    0.3436542    0.1873017  54.06  0.001551351    2.195    0.545
       149  -9.0282     32.7848    213.9642   9.1487315062e+01   2.4775801384e+01    0.2242722     0.161079  31.65  0.000921947    1.297    0.229
       150  -9.3670    214.0143    212.1069   5.0266096907e+01   1.4776341413e+00    0.2899892    0.2303848  51.03  0.001752071    2.134    0.531
       151  -9.0377     66.2305    211.3420   8.2997581225e+01   2.1639682475e+01    0.4628752    0.1438556  32.40  0.001782088    2.624    0.619
       152  -9.5255     72.4943    211.2790   8.1424580732e+01   2.0880148082e+01     0.534989    0.2290296  57.00  0.001819858    3.336    0.700
       153  -9.0635    204.2435    210.7925   5.1809995274e+01   2.8840684378e+00    0.2298823    0.1777454 -50.52 0.0007224199    1.824    0.452
       154  -8.4865    161.6512    212.1634   6.0500769286e+01   8.3614163167e+00    0.1777641    0.1677829 -58.53 0.0008218939    1.428    0.300
       155  -9.0237    116.0391    210.6388   7.0627434259e+01   1.5143718222e+01    0.3164268    0.2937639 -64.05  0.001297712    1.262    0.207
       156  -7.8229    106.5059    212.5028   7.3180114080e+01   1.6104568413e+01    0.1364165     0.118995  36.95 0.0008091944    1.086    0.080
       157  -9.0393      3.3934    211.8367   9.8348092857e+01   2.7880889421e+01    0.2522687    0.1434198  32.77 0.0008110871    1.585    0.369
       158  -9.4479    175.2094    209.8540   5.7292413829e+01   6.8753536663e+00    0.3326476    0.2553976  63.01  0.001804605    2.300    0.565
       159  -8.9161    147.2851    210.4814   6.3366734204e+01   1.0698580095e+01    0.3745616    0.2665659   8.56  0.001809049    1.413    0.292
       160  -9.0335     45.1380    210.8855   8.8218265023e+01   2.4170138620e+01    0.2701392    0.1492305 -42.44  0.001281662    2.402    0.584
       161  -8.3447    192.2196    210.1740   5.3968954166e+01   4.5310292144e+00    0.1526158    0.1435227 -18.02 0.0005054467    1.363    0.266
       162  -8.5334     85.8250    209.6921   7.7909384514e+01   1.9504768444e+01    0.2601815    0.1650855  70.49  0.001230545    2.154    0.536
       163  -8.8373     96.8324    209.0345   7.5089103276e+01   1.8159918429e+01    0.3505211    0.1382076  43.67   0.00137978    2.498    0.600
       164  -8.3524     57.5326    209.4785   8.4992506884e+01   2.3087360903e+01     0.216645    0.1598067   0.18   0.00117561    1.700    0.412
       165  -8.6806     56.6023    205.4545   8.4834898940e+01   2.4095734330e+01    0.2858018     0.139348  53.43  0.001117706    2.149    0.535
       166  -9.2507      6.0155    208.2771   9.7571573748e+01   2.8454698694e+01    0.3426901    0.1055347  62.67  0.001050623    3.530    0.717
       167  -9.5281    246.4054    206.9505   4.4048150145e+01  -1.5202718746e+00    0.2609946    0.1547757 -33.12  0.001077946    1.446    0.308
       168  -9.3846    250.1651    202.0043   4.2653493056e+01  -1.2641910278e+00     0.378609    0.1385625 -33.46  0.001785257    2.242    0.554
       169  -8.2849    138.9579    207.8721   6.4839648996e+01   1.2388412274e+01    0.2010592    0.1595052  59.97 0.0007124656    1.686    0.407
       170  -8.2726    134.9353    208.4631   6.5856241366e+01   1.2858455744e+01    0.2131386    0.1204231  30.90  0.001031557    1.595    0.373
       171  -8.1760    126.6609    208.3465   6.7769341776e+01   1.4078571514e+01    0.2096247    0.1548579  58.91  0.001098533    1.760    0.432
       172  -9.0007     24.6746    207.6138   9.3031847737e+01   2.6974916874e+01    0.2632371    0.2373312  41.18  0.001220699    1.128    0.114
       173  -7.5693    156.3458    207.7003   6.0925174232e+01   9.9073153158e+00    0.1261972    0.1021491  55.61 0.0007036913    1.680    0.405
       174  -9.1692     99.4164    205.9529   7.4038942974e+01   1.8454240024e+01    0.3555445    0.2269038  70.00  0.001396652    2.359    0.576
       175  -9.4077     77.7422    205.7273   7.9471963895e+01   2.1426357347e+01    0.4848197     0.144286  33.58  0.001776828    2.751    0.636
       176 -10.1500     11.7072    203.0967   9.5937083188e+01   2.9148282325e+01     0.369248    0.2460912  79.08  0.001582079    1.393    0.282
       177  -9.0401    183.7437    203.8228   5.4558374853e+01   6.7107297087e+00    0.2768427    0.2292775  57.93  0.001243256    1.874    0.466
       178  -8.0901    109.1828    205.1739   7.1514280018e+01   1.7238402940e+01    0.1888217    0.1557351  59.15  0.001061965    1.381    0.276
       179  -8.4101     50.0241    205.5403   8.6519061881e+01   2.4829363497e+01    0.2037815    0.1179383  30.00  0.000776591    1.583    0.368
       180  -8.0526     39.3648    205.2891   8.9199382652e+01   2.6042079492e+01    0.1263554   0.09709022 -25.01 0.0007024694    1.701    0.412
       181  -9.5415    194.8057    203.4858   5.2343617097e+01   5.2585342786e+00    0.3362042    0.2228749 -38.54  0.001362645    1.501    0.334
       182  -9.7099    192.4769    197.1396   5.1691186910e+01   6.6123968274e+00    0.5525878    0.3678307  52.27  0.002863838    2.382    0.580
       183  -8.7643    131.1332    203.8629   6.6031054455e+01   1.4311441130e+01    0.2729137      0.22508  38.48  0.001386405    1.218    0.179
       184  -8.2632    121.0622    204.4282   6.8514960324e+01   1.5675048880e+01    0.2051423    0.1140589   7.55 0.0008055796    2.734    0.634
       185  -8.4673     88.2427    204.6396   7.6672926960e+01   2.0272936014e+01    0.1947117    0.1222409  19.83 0.0009412672    1.650    0.394
       186  -8.3778    178.2957    203.5615   5.5609987828e+01   7.5137390030e+00    0.2419318    0.1147258  35.80  0.001138281    2.062    0.515
       187  -9.5843    163.4737    202.7113   5.8560529292e+01   9.7784051501e+00    0.3309771     0.225642  44.82  0.001189267    1.722    0.419
       188  -8.8438    140.4763    201.3398   6.3452202036e+01   1.3421967920e+01    0.3915977     0.262635 -81.84   0.00168604    3.075    0.675
       189  -9.0969    243.1588    201.0233   4.3561704663e+01  -3.5673752340e-01     0.248104    0.1316842 -34.31 0.0007427983    1.583    0.368
       190  -8.5678    211.0213    201.8049   4.9058653229e+01   3.3960374284e+00    0.2034436    0.1478732 -45.69  0.001071927    1.685    0.407
       191  -8.1655    222.0082    201.1856   4.7034231127e+01   2.1105730922e+00    0.1622515    0.1169902 -43.19  0.000602304    1.637    0.389
       192  -8.5350     79.6836    200.7329   7.8371027846e+01   2.2280882163e+01     0.253812     0.157037  79.85  0.001015273    2.315    0.568
       193  -9.4429    149.5207    198.4724   6.0915929552e+01   1.2621713631e+01    0.3624367    0.2766407  87.86  0.001190478    2.357    0.576
       194  -8.8737    123.8762    199.0406   6.7009600226e+01   1.6358682162e+01    0.2613509    0.2009415 -88.20 0.0008998815    1.917    0.478
       195  -9.1415    237.3169    198.3141   4.4020839626e+01   6.9055013192e-01    0.2553422    0.1161809 -39.18   0.00116237    1.988    0.497
       196  -7.7703    187.3536    199.2807   5.3062639171e+01   6.9690500653e+00     0.134186   0.08801083  -2.53 0.0007014183    1.655    0.396
       197  -8.1820    177.0198    198.9381   5.5077457504e+01   8.4900431529e+00    0.1800373    0.1635528  69.13 0.0006173078    1.653    0.395
       198  -9.1383    112.8979    198.3115   6.9589983277e+01   1.8139431827e+01    0.3927747    0.2398948  58.94  0.001734397    2.300    0.565
       199  -9.0102     88.7229    198.3849   7.5733917220e+01   2.1583134303e+01    0.3515558    0.2200748  68.19  0.001585295    2.226    0.551
       200  -8.6923     28.8315    198.8051   9.1369228023e+01   2.8590322423e+01    0.2589772     0.127429 -59.15  0.001239895    2.118    0.528
       201  -8.2750    202.1427    197.4738   4.9922900059e+01   5.2379173274e+00    0.1858861     0.161868 -36.47 0.0006927148    1.370    0.270
       202  -8.5649    103.2688    198.5018   7.2031806760e+01   1.9503172667e+01     0.337321     0.132488  28.15   0.00127464    2.498    0.600
       203  -9.2441     61.1163    196.6767   8.2748227880e+01   2.5564012624e+01    0.4365122    0.2200789  68.05  0.001724921    2.886    0.654
       204  -8.3548     21.2339    198.7895   9.3303165605e+01   2.9304374029e+01    0.1865296    0.1016805   8.13 0.0007895472    2.439    0.590
       205  -9.0132     51.9777    197.2587   8.5216970159e+01   2.6506801429e+01    0.3017941    0.1688206   6.51  0.001296984    2.563    0.610
       206  -8.6334    215.9416    195.4124   4.7080492360e+01   3.7430540842e+00    0.2174867    0.1534203 -45.20 0.0007235459    1.672    0.402
       207  -8.7560    169.4502    196.3704   5.6204865985e+01   1.0043709830e+01     0.264072    0.1122775  21.35  0.000954385    3.326    0.699
       208  -7.6931    209.6258    195.3190   4.8181049858e+01   4.5818021189e+00    0.1088809    0.1017659  84.61 0.0003313182    1.805    0.446
       209  -8.9552    185.2332    194.6039   5.2662105687e+01   8.0594834069e+00    0.2355687    0.1976458 -49.20 0.0007242339    1.491    0.329
       210  -8.9609    161.0105    194.1069   5.7620179399e+01   1.1714926026e+01    0.2584572    0.2187653  86.36  0.001032171    1.871    0.466
       211  -9.1863    245.4353    193.1384   4.1871801159e+01   4.7694236986e-01    0.1907592    0.1702697 -56.93  0.000785864    1.884    0.469
       212  -8.6130    224.4583    193.7486   4.5332325392e+01   2.9109906901e+00    0.2172768     0.102455 -41.52  0.001113392    2.043    0.510
       213  -8.6301     76.9627    193.8201   7.8214137846e+01   2.4208571948e+01    0.2309238    0.1740519  77.22 0.0006075871    1.542    0.351
       214  -8.8128     43.8709    193.4125   8.6985005278e+01   2.8312196385e+01    0.3739073    0.1871366  67.05  0.001587429    2.463    0.594
       215  -9.2618      5.3663    193.8120   9.7007565766e+01   3.1788832747e+01    0.2656052    0.1549404  29.24 0.0009770809    1.652    0.395
       216  -8.4911    198.8563    191.5712   4.9491673709e+01   6.6434352084e+00    0.2252304    0.1607585 -51.81  0.000713311    1.828    0.453
       217  -8.5917    152.6155    192.6283   5.9221216510e+01   1.3269872688e+01     0.324083    0.1141206  38.81   0.00121644    2.755    0.637
       218  -8.1378    127.0324    193.0000   6.5276171583e+01   1.7126524932e+01    0.2316596   0.07462557  33.00 0.0007865423    2.886    0.654
       219 -10.3247     92.3456    189.0859   7.3491033725e+01   2.3164438980e+01    0.9048619    0.3089193  43.42  0.003136764    2.959    0.662
       220  -8.0403    205.3520    191.2648   4.8235601868e+01   5.7982294210e+00    0.1647981    0.1071702 -42.46  0.000479027    1.593    0.372
       221  -8.2669    179.2133    191.2485   5.3275737200e+01   9.5154842182e+00     0.194792    0.1023163 -51.96 0.0005653683    2.411    0.585
       222  -8.4427    172.3933    191.3021   5.4693263571e+01   1.0518357859e+01    0.1732278    0.1246653 -49.67 0.0009355148    1.605    0.377
       223  -9.0164    139.4075    190.4998   6.1893784774e+01   1.5727144011e+01    0.2877203     0.219497  77.44  0.001045136    2.114    0.527
       224  -8.3051    117.2115    191.6451   6.7478422780e+01   1.8910221127e+01    0.2023514    0.1260246  22.61 0.0009262498    1.627    0.385
       225  -8.8773     16.4906    191.0100   9.4001762599e+01   3.1540427514e+01    0.1995351    0.1568433  38.66 0.0007577561    1.212    0.175
       226  -9.1863    216.7217    187.9780   4.5628498466e+01   4.7886553597e+00    0.2666126    0.2176363 -51.14  0.001205104    1.671    0.401
       227  -9.0038    164.8657    186.5799   5.5444735499e+01   1.2530156857e+01    0.2924823    0.1924869 -46.00 0.0008888135    1.594    0.373
       228  -9.2228    156.0549    187.5147   5.7548815040e+01   1.3720683232e+01     0.321217    0.2198181 -59.49 0.0008222013    1.922    0.480
       229  -8.2506    148.3932    189.1667   5.9574778997e+01   1.4593660851e+01    0.1836987    0.1335702 -59.41 0.0009373387    1.725    0.420
       230  -8.7565    129.1736    188.4053   6.3989549603e+01   1.7750499110e+01    0.2723392     0.208637  74.43 0.0008998851    1.929    0.482
       231  -8.3081    237.4464    188.1075   4.2235466604e+01   2.1358612033e+00    0.1782226   0.09486872 -33.98 0.0007084477    1.562    0.360
       232  -8.9391    191.3179    187.3073   5.0159258408e+01   8.4276556710e+00    0.2637538     0.219883 -66.50  0.001051811    1.847    0.459
       233  -9.3908    120.5759    186.1079   6.5729554260e+01   1.9578424241e+01     0.448778    0.2722276 -72.98  0.001873263    2.615    0.618
       234  -8.9240     54.9424    186.9397   8.3327891634e+01   2.8598135063e+01    0.4197934    0.1880233  60.03  0.001551694    3.048    0.672
       235  -8.4032     34.6488    188.3248   8.8987449603e+01   3.0488666302e+01    0.2292348    0.1302116  59.30  0.001106064    1.785    0.440
       236  -8.2697    230.4943    187.0164   4.3151893918e+01   3.1555791745e+00    0.1812183    0.0992898 -35.52  0.001022607    1.563    0.360
       237  -9.0993    109.4047    185.7946   6.8522716334e+01   2.1372175711e+01    0.3442323    0.2350896  67.57  0.001069687    2.097    0.523
       238  -8.8889     47.8346    187.4942   8.5330987078e+01   2.9283705276e+01    0.4006673    0.1143786  28.64   0.00141741    3.080    0.675
       239  -8.5406      9.8377    187.6390   9.5517703312e+01   3.2887246961e+01    0.1867379   0.09586384  37.34 0.0009455702    1.746    0.427
       240  -9.1574    249.2472    185.3294   3.9952808956e+01   1.1270241867e+00    0.2190027    0.1282329 -40.27 0.0008113727    1.627    0.385
       241  -8.1430     81.5038    186.5113   7.6025196404e+01   2.5285828072e+01    0.1406127    0.1319641  38.32 0.0008105745    1.004    0.004
       242  -9.2021     26.6901    186.3987   9.0967953900e+01   3.1725823837e+01    0.4449031   0.08334942  27.95  0.001460732    3.970    0.748
       243  -8.9176    210.0882    184.2542   4.6118529179e+01   6.2741730117e+00    0.2259643     0.159751 -36.65 0.0004855366    1.337    0.252
       244  -8.3214    202.7724    184.3448   4.7457089406e+01   7.2819874140e+00    0.2134366    0.1655456 -55.98 0.0008893827    1.800    0.445
       245  -8.5848    183.0736    184.6336   5.1294866984e+01   1.0107340066e+01     0.217109    0.1704909 -44.10  0.000647773    1.390    0.280
       246  -9.2040     66.5050    184.4765   7.9854626110e+01   2.7764908528e+01    0.3181754    0.1729999  60.40  0.001004465    2.294    0.564
       247  -8.5709    224.1581    183.5591   4.3574038241e+01   4.4903921807e+00    0.2031163    0.1416382 -37.07 0.0006490014    1.355    0.262
       248  -9.0015    174.1345    183.2271   5.2863308676e+01   1.1719109070e+01    0.2717622    0.1697757 -53.48    0.0006449    1.981    0.495
       249  -9.0441     44.3820    182.4853   8.5762058002e+01   3.0877725622e+01    0.3146434    0.1673792  55.59 0.0008177417    1.980    0.495
       250  -7.9667      1.8057    183.5882   9.7377826331e+01   3.4456089624e+01    0.1774565   0.09780101  38.90 0.0009415211    1.651    0.394
       251  -9.2174    147.3478    180.3740   5.8238059296e+01   1.6507279590e+01    0.3080602    0.2368101 -65.38 0.0007165475    1.709    0.415
       252  -8.7525     58.3457    180.9895   8.1692181388e+01   2.9625773011e+01    0.3356697    0.1613675  36.05  0.001458193    1.886    0.470
       253  -9.8345     25.2439    179.0602   9.0761093864e+01   3.3642890652e+01    0.6476716    0.3028181  59.19   0.00281307    2.288    0.563
       254  -7.8707    240.4854    180.4544   4.0413700493e+01   2.8746562532e+00    0.1187938   0.09223393 -18.66 0.0001406004    1.009    0.009
       255  -9.0864    205.2239    178.1999   4.5875218512e+01   7.9458830212e+00    0.3131857     0.194137 -44.44  0.001236698    1.663    0.399
       256  -9.2841    191.2627    178.0835   4.8463299203e+01   1.0022954631e+01    0.2277098    0.2124502 -40.56 0.0006156555    1.306    0.234
       257  -8.5139    137.6951    179.1754   6.0302595446e+01   1.8316619535e+01    0.2153639    0.1848645  89.64  0.001152882    1.575    0.365
       258  -8.0973    113.4908    179.4992   6.6421860096e+01   2.2135180660e+01    0.1441374    0.1354257  31.69 0.0008100907    1.051    0.049
       259  -8.8324    250.5291    172.5377   3.7517306941e+01   2.7833211068e+00    0.2111203    0.1240925 -33.02 0.0002191404    1.350    0.259
       260  -9.3636    249.1086    176.9518   3.8505465717e+01   2.3263193722e+00    0.2586568    0.1712914 -36.54 0.0004958985    1.340    0.254
       261  -8.7305    247.3105    173.6930   3.8188744274e+01   3.0117213969e+00     0.165157    0.1267434 -17.52 0.0004113332    1.050    0.048
       262  -7.9833    169.4358    178.2514   5.2924336686e+01   1.3374931569e+01    0.1798854    0.1294562 -52.83 0.0007164743    1.631    0.387
       263  -8.4915    129.1259    177.1814   6.2038937694e+01   2.0132155159e+01    0.2579428    0.1932698 -88.70  0.000786524    2.070    0.517
       264  -9.4306     35.9541    176.5834   8.7530374747e+01   3.3218018657e+01    0.4718497    0.2031884  75.80  0.001627408    3.645    0.726
       265  -8.2389    231.1249    176.9118   4.1237699371e+01   4.5903008215e+00    0.1758799    0.1453203 -37.27 0.0006602691    1.328    0.247
       266  -8.3469    217.4891    177.0761   4.3513562514e+01   6.3976388425e+00    0.1792384    0.1659458 -37.31 0.0008777719    1.367    0.269
       267  -8.0994     97.3662    177.2767   7.0333016632e+01   2.5138832632e+01    0.1487862    0.1107496  -9.73 0.0007008135    1.675    0.403
       268  -8.8371     88.8947    176.6263   7.2549037040e+01   2.6555885310e+01    0.2726054    0.1935401  86.87 0.0009249603    1.863    0.463
       269  -9.2774     58.7747    175.3877   8.0875984424e+01   3.0944146093e+01    0.5064124    0.2367182  61.44  0.001813758    3.139    0.681
       270  -9.2153     55.8020    170.4246   8.1101745324e+01   3.2539069744e+01     0.446961    0.2296872  68.49  0.001683394    2.867    0.651
       271  -9.3817    183.0893    175.8222   4.9642945183e+01   1.1673943637e+01     0.249397      0.21284 -53.81 0.0007900275    1.448    0.309
       272  -9.1055    158.7633    174.8299   5.4601191173e+01   1.5751686062e+01    0.3160966    0.2427528  81.64  0.001017501    2.272    0.560
       273  -9.3080    104.0102    174.4292   6.8065234834e+01   2.4773603447e+01    0.4558092    0.2578862  58.31  0.001299042    2.536    0.606
       274  -9.2499     12.6559    175.9220   9.4001219730e+01   3.5489561567e+01    0.2703175    0.1424213  76.54  0.001283288    1.944    0.486
       275  -9.1744     81.5809    154.6528   7.1018033521e+01   3.2982686018e+01    0.4822144    0.2855592  65.37  0.001508342    2.505    0.601
       276 -10.5641     75.7272    169.5846   7.5184745051e+01   3.0141748047e+01     1.347412    0.5300044 -75.50  0.003812297    4.929    0.797
       277  -8.6301     79.3117    157.7812   7.2238134768e+01   3.2543015684e+01    0.4390695    0.2099848  24.66  0.001677208    2.304    0.566
       278  -8.3017    224.3991    174.2096   4.1829442348e+01   5.9011162686e+00    0.1716165    0.1019821 -43.49 0.0009280995    1.682    0.406
       279  -8.3385    151.5147    174.2908   5.6139671893e+01   1.7050173825e+01    0.2594118    0.1222069  35.39   0.00107435    2.079    0.519
       280  -9.6651    175.5425    171.9567   5.0438666663e+01   1.3574092917e+01    0.3518739    0.2269797 -45.20   0.00110678    1.574    0.365
       281  -8.4335    142.8691    172.5201   5.7826557965e+01   1.8847091788e+01    0.2181475    0.2021402  88.45 0.0008807394    1.351    0.260
       282  -9.1281     45.3263    171.2424   8.4262659717e+01   3.3551931765e+01    0.3619832    0.1800372  64.10  0.001175796    2.602    0.616
       283  -8.5683    134.7639    171.5849   5.9611683615e+01   2.0397729876e+01    0.2023199    0.1309449  43.34  0.000694742    1.592    0.372
       284  -9.5852    121.2713    170.2026   6.2756414596e+01   2.2946012908e+01     0.364008    0.2750886 -79.14 0.0008608255    1.808    0.447
       285  -8.4359    237.0224    169.4942   3.8964592067e+01   4.9359476263e+00    0.1898992    0.1314751 -30.30 0.0006636152    1.175    0.149
       286  -9.1979    230.4739    169.5948   3.9999049866e+01   5.7915745335e+00    0.2352272    0.1479881 -26.47 0.0008603219    1.363    0.266
       287  -8.6767    205.5636    170.0007   4.4266574044e+01   9.2601472228e+00    0.1957935    0.1127755 -38.43  0.000523532    1.566    0.362
       288  -8.5681    198.4894    169.9722   4.5550519604e+01   1.0329246569e+01    0.1973108    0.1175634 -40.71  0.001015725    1.571    0.363
       289  -9.4915     18.0657    170.1558   9.2048487652e+01   3.6475054805e+01    0.4619442    0.1859177  11.86  0.001783467    3.278    0.695
       290  -8.2314    244.3913    169.1451   3.7798365525e+01   4.0368433984e+00    0.1618444   0.09209781 -42.45 0.0004661996    1.670    0.401
       291  -9.1135    166.8100    168.2316   5.1557920266e+01   1.5706790950e+01    0.2789482    0.2227602  69.16  0.001003682    1.871    0.465
       292  -8.3031    149.6667    169.2066   5.5590038140e+01   1.8387793535e+01    0.2070757    0.1799742 -72.08  0.000669963    1.470    0.320
       293  -8.6730    108.5599    169.7024   6.6018380107e+01   2.5138506029e+01      0.37713    0.1561752  29.87  0.001363961    2.491    0.599
       294  -8.6224    111.7368    167.5547   6.4778438512e+01   2.5114815811e+01    0.2678568    0.1959871  84.74 0.0009485787    2.014    0.503
       295  -8.5969     38.2747    169.6944   8.6150673346e+01   3.4698351946e+01    0.3036898    0.0890519  33.17  0.001094049    2.872    0.652
       296  -8.5551    218.8247    168.1590   4.1621825860e+01   7.6315653610e+00    0.1793704    0.1543239 -31.53 0.0004986292    1.192    0.161
       297  -7.8734     88.6874    168.3729   7.1283795296e+01   2.8555383058e+01     0.156269    0.1102671  67.34 0.0007032883    1.783    0.439
       298  -7.7417    211.2833    167.6535   4.2809632550e+01   8.8044575089e+00    0.1182404   0.09847845 -59.11 0.0002987252    1.645    0.392
       299  -8.9670    191.9036    166.5630   4.6128493143e+01   1.1943115389e+01    0.2438942    0.1778747 -43.06 0.0005014035    1.375    0.273
       300  -8.8939    184.9867    166.3116   4.7423392967e+01   1.3089558948e+01    0.2279157    0.1839537 -59.82 0.0007813697    1.611    0.379
       301  -8.0698    179.3679    166.2779   4.8542787770e+01   1.4006233393e+01    0.1420997   0.09969498  -0.89 0.0007009784    1.682    0.405
       302  -9.7240    137.0272    164.4603   5.7684155074e+01   2.1534990723e+01    0.6133579    0.2881169  53.22  0.001997777    3.356    0.702
       303  -9.9229     94.8117    162.5482   6.8548280940e+01   2.9013545126e+01    0.8408516    0.4483435  70.20  0.002386955    5.077    0.803
       304  -9.0731     20.5676    165.7695   9.0955941105e+01   3.7363762063e+01    0.4286154    0.1773415  56.77  0.001696189    2.699    0.629
       305  -8.6802    234.0966    164.8412   3.8553157644e+01   6.0292895929e+00    0.1771859    0.1441445 -35.01 0.0005288873    1.215    0.177
       306  -8.8240     36.0181    164.6837   8.6273786673e+01   3.6196587507e+01    0.3759955    0.1695055  47.54  0.001559622    2.238    0.553
       307  -9.0064     32.2684    162.3029   8.7141903912e+01   3.7175376679e+01     0.316254    0.1870788  79.06  0.001144298    1.896    0.472
       308  -8.3869    240.3502    164.1788   3.7487307959e+01   5.2941087279e+00    0.1676535   0.09211756 -42.23 0.0003180752    1.679    0.404
       309  -8.6118    212.9237    163.4175   4.1713524877e+01   9.2590025857e+00    0.2339567    0.1580001 -47.16 0.0006587686    1.592    0.372
       310  -8.5924    159.6565    164.1733   5.2321590504e+01   1.7705053227e+01    0.2128307    0.1785406 -63.13  0.001070751    1.475    0.322
       311  -9.4755    246.1998    162.6027   3.6345446979e+01   4.7641740407e+00    0.2160126    0.1314891 -33.75 0.0004717219    1.315    0.239
       312  -8.5012    204.7608    162.4221   4.2944418498e+01   1.0658058211e+01    0.2290411    0.1460283 -46.79 0.0006343577    1.641    0.391
       313  -9.2923     60.9731    161.9630   7.8410323014e+01   3.4020412826e+01    0.4081354    0.3502768  77.05  0.002233182    1.205    0.170
       314  -9.2096      3.4231    162.1924   9.5667219717e+01   3.9566558511e+01    0.4142198    0.1518831  49.87  0.001407097    2.657    0.624
       315  -8.7098    125.6270    162.4668   6.0164016443e+01   2.3930141983e+01     0.306911    0.1422695  34.72  0.001193154    2.116    0.527
       316  -9.1416    177.3763    160.4313   4.7779940287e+01   1.5423617918e+01     0.261224     0.222737 -58.89 0.0007931089    1.431    0.301
       317  -8.7054    151.8106    160.7671   5.3417453904e+01   1.9744987090e+01    0.2583826     0.193118 -76.34   0.00107741    2.059    0.514
       318  -8.6654    227.2471    158.8798   3.8493532057e+01   7.9034282447e+00    0.2529604    0.1432665 -45.83  0.001346684    1.791    0.442
       319  -9.9329    250.1984    157.5394   3.4855798489e+01   4.9877125859e+00    0.2958889    0.1450455 -38.28 0.0008299804    1.652    0.395
       320  -9.2062    246.5797    155.4992   3.4984669991e+01   5.7598494460e+00    0.1791805    0.1211579 -10.44 0.0005382058    1.572    0.364
       321  -9.4891    105.8623    157.7055   6.4543912579e+01   2.8373880298e+01    0.5155877    0.3374645  68.75  0.001284833    2.348    0.574
       322  -8.4643    237.2846    158.6539   3.6915993782e+01   6.5375353883e+00    0.1139401   0.08715775 -52.94 0.0003004168    1.647    0.393
       323  -8.6200    196.7713    157.7105   4.3459725778e+01   1.2725727327e+01    0.2288331    0.1650234 -60.68 0.0009756767    1.934    0.483
       324  -8.7456    188.2980    157.5202   4.5020222278e+01   1.4140213271e+01    0.2316774    0.1132319 -41.44 0.0006048614    1.902    0.474
       325  -9.0993    167.5228    157.1360   4.9171486162e+01   1.7734695916e+01     0.284942    0.2283882 -71.27 0.0008011335    1.737    0.424
       326  -8.8920    142.5413    158.0000   5.5045106409e+01   2.1948143760e+01    0.3391428     0.157571  36.19  0.001338726    2.153    0.536
       327  -9.3872    144.3226    154.4470   5.3883411388e+01   2.2381967591e+01    0.3365447    0.2077939 -52.25 0.0007167583    1.733    0.423
       328  -8.1263    127.8381    158.6145   5.8833972559e+01   2.4401546656e+01    0.2086007     0.133826  45.02 0.0005656516    1.622    0.383
       329  -8.5269    217.8857    156.4812   3.9535599723e+01   9.6542608425e+00    0.2489557    0.1429319 -49.16 0.0007744663    1.946    0.486
       330  -9.7348     35.4925    155.9708   8.5445101402e+01   3.8479590587e+01    0.5148199    0.1310554  32.03  0.001751595    3.259    0.693
       331  -8.6680    157.8143    156.0793   5.1086410857e+01   1.9643568008e+01    0.2119246    0.1966515 -81.08  0.000809631    1.333    0.250
       332  -9.1511    119.5215    154.9363   6.0272481353e+01   2.6680796633e+01    0.4044418    0.2831341 -89.52  0.001428591    2.364    0.577
       333  -9.3513     49.3480    155.0058   8.0997576704e+01   3.7221110829e+01    0.3987258    0.2299247  62.64  0.001590747    2.109    0.526
       334  -9.0423     23.5203    155.7655   8.9131384752e+01   3.9656420505e+01    0.3196965    0.1826079 -10.76  0.001389089    2.560    0.609
       335  -8.4639    237.3611    150.2080   3.5308991641e+01   7.8135294033e+00    0.1791194    0.1309978 -32.90 0.0004257945    1.120    0.107
       336  -9.1423    242.8393    154.7730   3.5379560373e+01   6.3678604796e+00    0.1616253    0.1345529 -20.42 0.0004137924    1.069    0.065
       337  -8.8638    239.7054    152.6903   3.5439330259e+01   7.1091543453e+00    0.1864415    0.1437039 -17.41 0.0002651792    1.162    0.139
       338  -8.2901    204.6955    155.1181   4.1511807509e+01   1.1910568822e+01    0.2007344    0.1475555 -47.99 0.0006144684    1.453    0.312
       339  -9.7592    132.8778    152.9345   5.6389574491e+01   2.4760553892e+01    0.4537066    0.3497059  83.19  0.001165013    1.924    0.480
       340  -9.5049    134.5501    147.6521   5.4852202817e+01   2.5612509305e+01    0.4761941    0.3040526  32.53   0.00215551    1.599    0.374
       341  -9.9663    139.0947    144.7720   5.3095572376e+01   2.5398181621e+01     0.476695    0.2792918 -61.91  0.001500057    2.319    0.569
       342  -8.9118     97.2522    154.8814   6.6446818060e+01   3.0466640560e+01    0.5244541    0.1865097  34.30  0.001778743    2.700    0.630
       343  -9.1779     68.1400    153.6222   7.4938714535e+01   3.5180971020e+01    0.3931568    0.2337318  63.80  0.001364091    2.243    0.554
       344  -9.3285      8.7651    152.8438   9.3398310444e+01   4.1562537097e+01    0.3398623    0.1570858  23.91  0.001197816    2.212    0.548
       345  -9.0545    189.4506    150.0740   4.3274283288e+01   1.5292761502e+01    0.2858709     0.197295 -57.30 0.0009334322    1.829    0.453
       346  -8.1415    182.4071    151.1303   4.4858519041e+01   1.6301635840e+01    0.1969918     0.123272 -51.18 0.0009373483    1.766    0.434
       347  -8.5807     98.2882    150.5970   6.5324241984e+01   3.1328743466e+01    0.2668192    0.1854561 -70.42  0.000831751    1.714    0.417
       348  -9.7011     29.0570    150.0887   8.6787877903e+01   4.0624617914e+01    0.5144471    0.2416264  64.67  0.001968847    2.798    0.643
       349  -9.5468    248.9279    149.0692   3.3466357213e+01   6.3943350871e+00    0.2806475    0.1382783 -36.18 0.0007434167    1.613    0.380
       350  -8.8145    243.1404    149.7211   3.4389441701e+01   7.0830862683e+00    0.2155199    0.1334281 -41.36  0.001058563    1.424    0.298
       351  -8.2983    212.9543    149.7073   3.9014625892e+01   1.1522876809e+01    0.1697928    0.1538531 -14.43 0.0003661449    1.090    0.083
       352  -8.5526    162.2546    150.3551   4.8898287325e+01   1.9998521602e+01    0.2003673    0.1722252 -31.58 0.0006887501    1.107    0.097
       353  -9.9198     40.2128    148.1706   8.2970982108e+01   4.0011182885e+01    0.5526746    0.2474509  53.42  0.002082015    2.705    0.630
       354  -8.4908    198.9066    148.9055   4.1284970681e+01   1.3918782616e+01    0.1913063    0.1596653 -67.05 0.0005276829    1.602    0.376
       355 -10.4480    148.9457    145.0912   5.0791123865e+01   2.3501306508e+01    0.6138027    0.4290168  88.95  0.001764475    2.778    0.640
       356  -9.8701     89.3741    146.3216   6.7127575821e+01   3.3830438448e+01       0.6983    0.4169426  85.45  0.002384095    3.394    0.705
       357  -8.1488     86.0829    149.0000   6.8633283770e+01   3.3692823044e+01     0.223171    0.1653616  11.78  0.001040239    1.561    0.359
       358  -9.3259     53.5232    148.8940   7.8792307832e+01   3.8298214661e+01    0.3600152    0.2345027  33.36  0.001127976    1.514    0.339
       359 -10.5139     55.2732    144.9128   7.7609507843e+01   3.9111204810e+01    0.7951906    0.3927071  62.19  0.002772989    3.161    0.684
       360  -8.9216    233.5064    147.4804   3.5351189044e+01   8.7836392680e+00    0.2449421    0.1017194 -38.15 0.0006550948    1.994    0.499
       361  -8.2161    122.4904    148.4856   5.8153509301e+01   2.7619245593e+01    0.2839365    0.1311882  47.24  0.001034107    2.423    0.587
       362  -8.1453    223.2102    146.7810   3.6778317032e+01   1.0420316466e+01    0.1708892    0.1278661 -16.38 0.0003489714    1.301    0.231
       363 -10.2377    106.6028    143.7879   6.1548000037e+01   3.1536549651e+01    0.7792548    0.5207209 -87.74  0.002500513    2.516    0.603
       364  -9.0965    110.9989    136.6635   5.8758437225e+01   3.2425469444e+01     0.508661    0.1887138  40.81  0.001719765    2.651    0.623
       365  -9.0399    112.9745    133.2171   5.7425583697e+01   3.2863235678e+01    0.3759435    0.2764031  77.05  0.001006495    1.973    0.493
       366  -8.9277     77.8556    147.0465   7.0789866636e+01   3.5444672300e+01    0.2375376    0.1999953  67.73 0.0006902387    1.304    0.233
       367 -10.1242    241.1206    136.9329   3.2231045980e+01   9.2956003308e+00    0.3722235    0.2368174 -53.66  0.002125201    1.860    0.462
       368  -9.3559    242.7062    142.6971   3.3118979928e+01   8.1985667575e+00     0.308752    0.1559411 -24.66  0.001539542    2.127    0.530
       369  -8.0838    175.5080    145.9963   4.5161424105e+01   1.8472803097e+01    0.1879394    0.1211538 -63.75 0.0006823089    2.360    0.576
       370  -9.0380     13.0179    145.8306   9.1463461422e+01   4.3059826072e+01    0.3067531    0.1858732  68.57  0.001381689    1.727    0.421
       371 -10.9135     60.2634    135.3704   7.4342684510e+01   4.0934045752e+01     1.055748    0.2656775  28.78  0.003091882    3.911    0.744
       372 -11.2776     68.8556    142.0214   7.2720077500e+01   3.8036054316e+01    0.7038072    0.5674548 -61.87  0.002895543    1.235    0.190
       373 -10.1193     72.3320    133.5269   6.9981672806e+01   3.9693659613e+01    0.5322194    0.2235269  32.13  0.001954156    2.349    0.574
       374  -9.8966     73.1476    129.2046   6.8838928196e+01   4.0666457371e+01    0.4442465    0.3032718 -79.43  0.001152901    1.826    0.452
       375  -8.9830    247.1019    143.7527   3.2718236492e+01   7.4276868627e+00    0.2235335    0.1384584 -31.92 0.0005575001    1.300    0.231
       376  -8.7502    165.4991    143.8378   4.6793290475e+01   2.0699567647e+01    0.2494649    0.2222839  89.22 0.0007215433    1.442    0.307
       377  -9.7435    124.9312    142.4560   5.6213179854e+01   2.8535037951e+01    0.4581816    0.3215004 -83.15  0.001467946    2.306    0.566
       378  -9.3054     31.0135    144.0475   8.5434911421e+01   4.2013698801e+01    0.4115014    0.1293791  30.07  0.001497817    2.887    0.654
       379  -7.8216    206.4602    146.4555   3.9456322922e+01   1.3104773735e+01    0.1309418    0.1145869 -29.44 7.221143e-05    1.060    0.057
       380  -9.2712      2.5195    141.2174   9.4421534012e+01   4.4945237313e+01    0.3784027    0.1573218  69.68  0.001477711    2.875    0.652
       381  -8.3263    250.5143    140.9347   3.1733249965e+01   7.3745884638e+00    0.1798903   0.09358928 -36.79 0.0003885881    1.518    0.341
       382  -8.2394    181.8708    141.3580   4.2895438753e+01   1.8208478968e+01    0.1932853    0.1631109 -46.10 0.0004983966    1.203    0.169
       383  -9.7324     43.7406    139.7273   8.0614972861e+01   4.1829704196e+01    0.6008773    0.1998445  18.22  0.001856119    4.005    0.750
       384  -9.8572     23.4554    137.9958   8.7212204706e+01   4.4276644883e+01     0.579007    0.2538107  55.25  0.002224811    2.785    0.641
       385  -9.0891     18.8202    138.5912   8.8834931864e+01   4.4500446949e+01    0.2398013     0.138917  12.55  0.001129847    1.981    0.495
       386  -7.6517    218.5240    138.5139   3.5858615766e+01   1.2488214541e+01    0.1287939    0.1092592 -31.07 6.491242e-05    1.033    0.032
       387  -8.6155    197.6022    137.4202   3.9122482576e+01   1.6151754326e+01    0.2493456    0.1802835 -57.97 0.0006329961    1.675    0.403
       388  -8.5668    172.1164    137.8898   4.4097633436e+01   2.0637195137e+01    0.2145641    0.1887618 -72.30 0.0006262886    1.391    0.281
       389  -8.9920    151.0497    135.7945   4.8232652952e+01   2.5031521055e+01    0.5153462    0.3138068  17.43  0.002042185    2.498    0.600
       390  -8.1919    207.4597    137.5397   3.7451084761e+01   1.4455674033e+01    0.1313613    0.1149751 -35.78 0.0005278587    1.083    0.076
       391  -9.2289    140.2822    136.6908   5.1006130013e+01   2.6907722536e+01    0.2946082     0.181335  17.35  0.001159463    2.377    0.579
       392 -10.4191     83.3156    133.2263   6.6362935506e+01   3.8056353956e+01    0.5825995    0.3883849 -66.42  0.001546036    1.659    0.397
       393  -9.1393    248.5560    135.0959   3.0886363320e+01   8.5064415171e+00    0.2615707    0.1460711 -37.69 0.0007683831    1.423    0.297
       394  -8.3285    162.6070    136.3215   4.5759300887e+01   2.2722582061e+01    0.2085112    0.1721769 -81.46 0.0005914027    1.630    0.387
       395  -9.6185    126.9126    135.0607   5.4039402961e+01   2.9818775116e+01    0.5645127    0.2385999  28.47  0.001749618    3.502    0.714
       396  -8.9032     91.0021    136.6409   6.4673062201e+01   3.5944046775e+01    0.3578758    0.1440111  33.49  0.001246309    2.490    0.598
       397  -9.2203     39.0688    135.9204   8.1629708011e+01   4.3334604016e+01    0.3055689     0.176239  61.54 0.0007967702    2.125    0.529
       398  -8.2884     95.8207    135.2975   6.2915446962e+01   3.5451522894e+01    0.2101517    0.1915005 -70.34 0.0005621647    1.164    0.141
       399  -8.6810    179.4707    133.7862   4.1713639174e+01   2.0054151981e+01    0.2706786    0.1830741 -58.28 0.0009439951    1.807    0.447
       400  -9.1302    240.3948    145.2128   3.3921681549e+01   8.1453431200e+00    0.2087479    0.1240042 -40.59 0.0004859843    1.436    0.304
       401  -8.1036    231.4463    133.5467   3.2922383379e+01   1.1260076389e+01     0.124992    0.1023181 -28.98 9.353956e-05    1.026    0.026
       402  -9.0010    142.9557    131.4505   4.9151438022e+01   2.7503424002e+01    0.2720133    0.2062624 -61.45  0.000629653    1.529    0.346
       403  -9.9355    132.2777    131.2016   5.1754371681e+01   2.9637593252e+01    0.3778106    0.2822283 -76.95 0.0009729796    1.870    0.465
       404  -8.9343    250.7784    129.3019   2.9499517850e+01   9.0440401575e+00    0.4348413   0.07886037 -37.61  0.001438138    4.398    0.773
       405  -8.2872    247.0561    129.8718   3.0082368345e+01   9.4936902576e+00    0.1788913    0.1335745 -45.22 0.0005482814    1.257    0.205
       406  -7.9413    204.5306    130.0245   3.6359398303e+01   1.6232503258e+01    0.1829563    0.1044491 -57.10 0.0008070391    2.364    0.577
       407  -8.2997    192.6374    129.8451   3.8377691179e+01   1.8366894877e+01    0.1946069    0.1158563 -47.42 0.0004187895    1.652    0.395
       408  -9.3764    152.8898    128.8446   4.6211086675e+01   2.6097593334e+01    0.3729944     0.205137 -52.51 0.0009657739    2.001    0.500
       409 -10.0779     99.3253    127.7649   6.0176572411e+01   3.6647500523e+01    0.5994995    0.3949021  85.91  0.001674722    2.757    0.637
       410 -10.0174     12.5946    128.6376   8.9865849493e+01   4.7561919242e+01    0.5058781    0.2456728  74.74  0.002014492    2.576    0.612
       411  -7.8424    220.6538    129.7308   3.3739050631e+01   1.3572193881e+01    0.1239891   0.09305584  -1.24  0.000699044    1.616    0.381
       412  -8.2652    211.4881    128.9977   3.5008314015e+01   1.5214206837e+01    0.1861093    0.1002203 -55.70 0.0008097881    2.488    0.598
       413  -8.9546     50.3329    128.6604   7.6547389615e+01   4.3950630231e+01    0.3274911    0.2183418  66.29  0.001275832    1.858    0.462
       414 -10.6370     44.3817    123.4017   7.7734949927e+01   4.6028583266e+01    0.9724467    0.4974626  82.74  0.003212329    3.691    0.729
       415  -9.6947     41.2820    125.3552   7.9188032310e+01   4.5866331699e+01    0.2679307     0.235351 -65.20 0.0005680644    1.085    0.078
       416  -9.3378     27.7498    129.4342   8.4635702298e+01   4.6147898714e+01    0.4722432    0.1530373  24.00  0.001700089    3.060    0.673
       417 -10.5233     60.4250    125.2373   7.2374836942e+01   4.3525744006e+01    0.7793484    0.4426728  72.00  0.002759021    3.126    0.680
       418  -9.7511    117.7082    125.1524   5.4216418124e+01   3.3812331166e+01    0.4531573    0.3435628  84.06  0.001427518    1.894    0.472
       419  -8.9814    179.2520    124.6024   3.9696264777e+01   2.1801673385e+01    0.2722751    0.2186652 -76.14 0.0007541322    1.639    0.390
       420  -9.6493    134.8390    124.5042   4.9515670661e+01   3.0582343001e+01    0.5048525    0.2323556  34.01  0.001815257    2.552    0.608
       421 -10.4202     28.4662    122.2637   8.3349511161e+01   4.7966504435e+01    0.7435486    0.3527758  70.17  0.002565658    3.520    0.716
       422  -9.5241    168.3860    129.3335   4.2949609914e+01   2.2988065048e+01    0.2858259    0.2299884 -77.24 0.0007996104    1.661    0.398
       423  -9.7572    158.5668    121.5802   4.3232493234e+01   2.6427792446e+01    0.3623275    0.2597246 -76.31  0.001360097    2.111    0.526
       424  -9.1188     87.7335    121.2082   6.2287202308e+01   4.0278171309e+01    0.3545208     0.181844  27.51  0.001336921    2.213    0.548
       425  -8.8564     76.3302    123.5746   6.6578614587e+01   4.1588024439e+01    0.2962068     0.140035  37.04  0.001132981    2.078    0.519
       426  -8.6614    172.0070    121.4586   4.0395049808e+01   2.3788663507e+01    0.2578305    0.1876383 -53.83 0.0004449707    1.458    0.314
       427  -7.9169    202.7122    121.6850   3.4866337228e+01   1.7974406603e+01    0.1313308   0.09962925  -7.43 0.0003237638    1.587    0.370
       428  -9.6578     71.1897    119.8868   6.7516120890e+01   4.3317373312e+01    0.3794823    0.2604392  76.81  0.001028707    2.111    0.526
       429  -9.5808    141.4993    118.3523   4.6369759875e+01   3.0535890813e+01    0.3866017     0.279324 -70.51  0.001036569    1.868    0.465
       430  -9.8347    131.1251    118.5791   4.9015409356e+01   3.2599355233e+01    0.5508706    0.3656445  77.20  0.002086824    2.692    0.628
       431  -9.0540    100.4491    119.2726   5.7827458885e+01   3.8454509960e+01    0.3976158    0.1808603  29.78  0.001368052    2.643    0.622
       432  -9.7330     19.2803    118.0716   8.6146383864e+01   4.9838900472e+01     0.450385    0.2051989  14.25  0.001878393    2.499    0.600
       433  -9.5708      2.8045    117.1364   9.2142248589e+01   5.1154515991e+01    0.3910347    0.1859973  65.53  0.001638463    2.574    0.611
       434  -7.9791    231.4736    117.4548   2.9683786675e+01   1.3756379346e+01    0.1251483    0.1029834 -41.34 0.0002211796    1.073    0.068
       435  -9.9257    109.2280    113.7902   5.3832302570e+01   3.8040014318e+01    0.5178812     0.344577 -74.41  0.001336035    2.283    0.562
       436  -9.8939    111.5536    106.4320   5.1239989243e+01   3.9219244045e+01    0.7486923    0.2857888  37.99  0.002481746    2.802    0.643
       437  -8.6686    250.0492    114.5365   2.6753339943e+01   1.1306268286e+01    0.2032894    0.1618032 -70.34  0.001368035    1.590    0.371
       438 -10.6667    248.6501    107.7350   2.5594894258e+01   1.2504311252e+01    0.4660503     0.248347 -35.79  0.002641111    1.518    0.341
       439 -10.7778    249.1259    102.7199   2.4560072419e+01   1.3153353948e+01    0.4201333    0.2863092 -41.96  0.002718424    1.170    0.145
       440  -8.0690    192.9641    115.0257   3.5027511273e+01   2.0914412245e+01    0.2045388    0.1543384 -63.75 0.0004643258    1.571    0.363
       441  -7.6962    185.5437    115.5524   3.6452980770e+01   2.2238592346e+01    0.1389542    0.1256036 -52.17 5.046075e-05    1.112    0.101
       442  -9.8699     79.0619    112.3380   6.3059871645e+01   4.3919620470e+01    0.5485198    0.3672597  77.25  0.001826679    2.434    0.589
       443  -9.9376     61.4030    114.4190   6.9774418382e+01   4.6151752660e+01    0.5638743     0.232159  24.33  0.001955871    2.830    0.647
       444  -8.4654    167.2416    114.2339   3.9647880492e+01   2.6100574275e+01     0.193751    0.1661155 -69.70 0.0004688543    1.326    0.246
       445 -10.7176    133.7518    109.7879   4.6121654787e+01   3.3915398829e+01    0.7602234    0.3619313 -45.70  0.002470186    2.088    0.521
       446 -10.1016     92.7011    112.2298   5.8509727205e+01   4.1545555724e+01     0.518182    0.3530106 -72.31  0.001282694    1.955    0.489
       447 -10.1678     30.8974    113.5980   8.1059494285e+01   5.0007704937e+01    0.8275918     0.217711  16.87  0.002310501    5.181    0.807
       448  -9.2005    142.9984    111.9685   4.4417866717e+01   3.1537019582e+01    0.4949991    0.2594138  24.17  0.001574197    3.774    0.735
       449  -9.7683    121.9886    112.5507   4.9911477096e+01   3.5758988235e+01    0.3349907    0.2644754  74.45  0.000753217    1.618    0.382
       450  -8.7157     50.8590    112.5992   7.3276260873e+01   4.8041726681e+01     0.302426    0.1661636  42.61  0.001279279    1.938    0.484
       451  -8.5744    174.7179    111.4816   3.7514186421e+01   2.5105785968e+01    0.2627005     0.154942 -49.02 0.0007373629    1.701    0.412
       452  -9.1679    159.0865    111.5203   4.0684420889e+01   2.8284406438e+01    0.2797296    0.1912368 -55.49 0.0006633899    1.601    0.375
       453  -9.7279     14.3586    110.7108   8.7005100814e+01   5.2119782309e+01    0.5427622     0.267075  83.87  0.002166756    2.662    0.624
       454 -10.1089     66.3056    110.2403   6.7050962901e+01   4.6479128705e+01     0.407538    0.3004743 -88.56  0.001418956    1.781    0.438
       455  -9.2419     67.4985    105.0067   6.5359935982e+01   4.7589158828e+01    0.4268514    0.2085718  18.23  0.001469372    2.972    0.664
       456  -9.1151     44.3340    108.8748   7.4994794162e+01   4.9798193771e+01    0.3542641    0.1500895  29.13  0.001299336    2.355    0.575
       457  -9.5179      5.5912    109.0133   9.0186104038e+01   5.3106148276e+01    0.5432052    0.1845106  13.78  0.002079902    3.276    0.695
       458  -8.3349    189.4432    107.9404   3.4011320119e+01   2.2820160186e+01    0.2116023    0.1237278 -40.63 0.0006703147    1.553    0.356
       459  -9.5366    126.3004    106.4108   4.7158702258e+01   3.6181035859e+01     0.297037    0.1454863  39.63  0.001075013    2.136    0.532
       460 -10.4994     45.7313    102.1964   7.3027569799e+01   5.1331090608e+01     0.824485    0.4410161  65.27  0.002834449    3.549    0.718
       461 -10.7222     22.7566    102.5726   8.2398950185e+01   5.3592087306e+01    0.6916202    0.3814507  66.39  0.002159985    2.585    0.613
       462  -9.3998    139.7775    104.2829   4.3210338748e+01   3.3766621321e+01    0.3521494    0.2573027 -78.18  0.001017081    1.944    0.486
       463  -9.6812     80.8433    104.4683   6.0471978086e+01   4.5509640982e+01    0.7496454    0.2594016  33.23  0.002387237    3.099    0.677
       464  -9.2491     81.9953     99.5799   5.8778667842e+01   4.6456583168e+01    0.4036804    0.2679622 -71.60 0.0009004523    2.058    0.514
       465  -8.4364    166.7763    104.0692   3.7262508557e+01   2.8091690004e+01    0.2231369    0.1838475 -62.66 0.0006593023    1.310    0.236
       466  -9.4721    150.4515    102.6611   4.0328012830e+01   3.1806054371e+01    0.4198025    0.2544344 -60.26  0.001298735    2.130    0.531
       467  -9.1324     93.3595    104.3427   5.6254557085e+01   4.3260959344e+01    0.2803433     0.192795  16.09  0.001198501    1.856    0.461
       468 -10.8057    109.5730     99.0920   4.9824367969e+01   4.1221995389e+01     0.991014    0.5244607  64.48  0.002327152    3.728    0.732
       469 -10.2272    109.4533     91.4802   4.7704775269e+01   4.2859460627e+01     1.142273    0.3218241  40.13  0.003201314    3.983    0.749
       470  -8.8734      6.9776    102.9653   8.8874682857e+01   5.4588790966e+01    0.2173174    0.1467458  60.81 0.0007752842    1.688    0.408
       471  -9.7593    128.3522    101.8775   4.5415479218e+01   3.6691059887e+01    0.2834839    0.2488753  83.52 0.0007255013    1.311    0.237
       472  -8.8741    188.1333    100.8159   3.2570790368e+01   2.4303433235e+01    0.1787685    0.1567307 -10.30 0.0003095171    1.276    0.217
       473  -8.4239    159.7238    100.5900   3.7814936143e+01   3.0220361921e+01    0.2452058    0.1634678 -57.78 0.0006365135    1.704    0.413
       474 -10.2181     63.9089     95.8505   6.4372167582e+01   5.0370955858e+01    0.5454318    0.3570851  88.95  0.001656428    2.673    0.626
       475  -9.1217     94.8909     96.7411   5.3681010964e+01   4.4687483906e+01    0.2851529    0.2211123 -57.93  0.000542731    1.391    0.281
       476  -8.5070    131.1705     96.5934   4.3262782781e+01   3.7156530035e+01    0.2200584     0.139714  36.04 0.0009491122    1.736    0.424
       477  -8.4451    151.6280     94.6758   3.7986583928e+01   3.3065048726e+01    0.2292845     0.179158   6.98   0.00107373    1.710    0.415
       478  -8.0175    164.6049     93.8073   3.5107266391e+01   3.0412213436e+01    0.2022433    0.1268049 -49.21 0.0005277686    1.591    0.372
       479  -9.4753     48.0448     91.9393   6.9674710805e+01   5.3590747977e+01    0.6685041    0.2278642  33.16   0.00236558    2.836    0.647
       480 -10.7341    247.3144     91.8668   2.2624005183e+01   1.4984027983e+01    0.3823665    0.1909413 -28.12  0.001960179    2.106    0.525
       481  -8.1477    176.4715     92.9927   3.2697855301e+01   2.8032818850e+01    0.2122018    0.1284374 -42.39 0.0004798342    1.540    0.351
       482  -9.5087    139.1223     92.0263   4.0079688938e+01   3.6308905987e+01    0.4311956    0.2483793 -54.35  0.001613617    1.992    0.498
       483  -9.8278    124.6088     90.7406   4.3308866541e+01   3.9750239132e+01    0.3840216    0.2939173 -71.36  0.000932085    1.637    0.389
       484  -9.6841      4.9956     91.8686   8.8154390004e+01   5.7531163432e+01    0.3768159      0.16716  52.84  0.001243558    3.064    0.674
       485  -9.7660     34.7330     89.6452   7.4755992931e+01   5.5737306205e+01    0.4194833    0.2779499  81.99  0.001776529    2.183    0.542
       486  -9.6347     23.3386     89.9080   7.9790234457e+01   5.6767370970e+01     0.411792    0.2030495  10.67  0.001756054    2.352    0.575
       487 -10.0200     86.6134     86.5171   5.3465064828e+01   4.8543340280e+01    0.5332565    0.3843407  87.90  0.001473183    2.268    0.559
       488  -9.3588     90.9489     79.0167   4.9700208045e+01   4.9272599740e+01    0.7575168      0.26157  31.39  0.001702022    6.777    0.852
       489  -9.4792     68.0111     86.2793   6.0149301213e+01   5.1954109446e+01    0.8192675    0.2599155  27.51  0.002112192    5.203    0.808
       490  -8.8407    238.3286     85.9990   2.2421095149e+01   1.7299785137e+01    0.1917991   0.09449001 -18.52 0.0007050842    4.327    0.769
       491  -9.8676     48.4920     83.9950   6.7411489350e+01   5.5445596280e+01     0.539369    0.3370069  72.69  0.001757074    3.044    0.672
       492  -9.6065    104.8032     82.8788   4.6529569154e+01   4.5607173219e+01     0.447694    0.2989316 -65.90  0.001167901    2.064    0.516
       493  -9.1587    106.9557     75.9301   4.3746243271e+01   4.6510264839e+01    0.4882887    0.2220135  33.19  0.001611103    3.182    0.686
       494  -9.3950     10.2087     81.0978   8.4028922860e+01   5.9933674941e+01    0.4171772    0.2225734  65.86  0.001741366    2.874    0.652
       495  -9.8663    250.0000     80.0146   2.0011906747e+01   1.6193975559e+01    0.3788511   0.06787646 -36.08   0.00127017    4.458    0.776
       496  -8.5923    129.0027     82.5462   3.9836062141e+01   4.0356252614e+01    0.2320721    0.1443378  50.06  0.001029485    1.593    0.372
       497  -8.0006     64.2719     82.6287   6.0533966461e+01   5.3403382977e+01    0.1457928    0.1179564  83.94  0.000396105    1.677    0.404
       498  -9.3445     24.5948     80.5900   7.7214361271e+01   5.8965635328e+01    0.3788416    0.2522448  79.69  0.001495072    2.138    0.532
       499  -8.8677     74.9261     80.4491   5.5783922395e+01   5.2049870679e+01    0.2714063    0.2144407 -69.14 0.0009350781    1.558    0.358
       500  -8.3595    150.3856     80.2513   3.4354460222e+01   3.5942737786e+01    0.2073414    0.1287913 -48.87 0.0005433151    1.635    0.388
       501  -8.6802    119.3057     79.9345   4.1545900802e+01   4.3018852661e+01    0.2412843    0.1804656 -61.73  0.001041782    1.559    0.358
       502  -8.2804    157.8495     83.8173   3.3819201902e+01   3.3650579222e+01    0.1973695    0.1621104 -66.90 0.0004384906    1.302    0.232
       503  -7.8152    166.6051     79.5002   3.1027577896e+01   3.2444823931e+01    0.1381543    0.1308296 -47.71 0.0001011958    1.049    0.047
       504  -7.9406    184.3463     77.8380   2.7637875214e+01   2.8868532142e+01    0.1868469    0.1224123 -29.14 0.0005519288    1.626    0.385
       505  -8.5139    157.3479     76.1848   3.1859212228e+01   3.5065089097e+01    0.2077055    0.1213176 -47.90 0.0004269212    1.713    0.416
       506  -9.3065    128.1416     75.1174   3.7854928315e+01   4.1913426324e+01      0.35925    0.2342429 -58.21 0.0008145572    1.827    0.453
       507  -8.1722    140.4170     75.1740   3.5039645159e+01   3.9093796315e+01    0.2048759    0.1317381 -50.60 0.0005981209    1.630    0.386
       508  -9.9623     63.1451     73.4442   5.8150362175e+01   5.5625377248e+01    0.4631505    0.2975704 -63.81   0.00111165    2.010    0.503
       509  -9.2683    140.7656     82.5441   3.7063911624e+01   3.7707171389e+01    0.3391326    0.1903146 -50.62 0.0008493527    1.916    0.478
       510  -9.6297     82.4902     72.4961   5.0495261912e+01   5.2290026055e+01    0.3664218    0.2809286 -72.84 0.0008574721    1.778    0.437
       511  -8.3621    163.4276     73.2255   2.9936453163e+01   3.4182786155e+01       0.2056     0.122299 -48.47 0.0009483696    1.667    0.400
       512  -8.7352    115.6405     72.5894   4.0271878368e+01   4.5208054515e+01    0.2755317    0.1794064 -43.77 0.0005808643    1.576    0.366
       513  -8.8052    105.8556     71.7494   4.2738922254e+01   4.7542989905e+01    0.2650242    0.1904279 -69.98 0.0008088491    1.914    0.477
       514  -9.1130     94.9925     70.7712   4.5728577208e+01   5.0074481052e+01    0.3700331    0.2108189 -52.69  0.001111807    2.053    0.513
       515  -8.2351     42.5111     72.0376   6.6638253135e+01   5.9018673245e+01    0.1964186    0.1283266 -86.04  0.000809893    2.671    0.626
       516  -9.7376     51.5013     69.5683   6.1829423621e+01   5.8314020433e+01    0.4396126    0.2828677 -75.13  0.001616232    2.541    0.606
       517  -8.9867     16.4883     69.6036   7.8548029609e+01   6.2290158479e+01    0.2998813    0.2074321  84.62  0.001096475    1.962    0.490
       518  -8.9015    147.1004     68.0289   3.1584191523e+01   3.8755702302e+01    0.2816536    0.1945648 -49.11  0.000757598    1.463    0.316
       519  -9.1791    138.5452     65.6271   3.2648162436e+01   4.1136225140e+01     0.341719    0.1273292 -42.69  0.001088295    2.681    0.627
       520  -8.8169    121.7713     65.8987   3.6589215399e+01   4.4991772630e+01    0.2660506    0.1940136 -59.66 0.0007840891    1.583    0.368
       521  -8.8177    110.1124     63.5206   3.8859697381e+01   4.8073288244e+01    0.2715858    0.1976006 -55.79 0.0006904631    1.568    0.362
       522  -9.4453     97.5091     60.5584   4.1497126070e+01   5.1408951934e+01    0.3203218    0.2664958 -55.01 0.0009736496    1.338    0.252
       523  -8.6636     37.1541     63.7646   6.6617217344e+01   6.1554705995e+01    0.2320877     0.188968 -68.58 0.0009642884    1.457    0.314
       524  -8.4650     85.6806     63.5679   4.6360318885e+01   5.3386438787e+01    0.2965742    0.1227939  33.40 0.0009571575    3.289    0.696
       525  -8.7850     65.6269     61.8966   5.3236555270e+01   5.7590268740e+01    0.3885976    0.1933104  20.65  0.001309188    3.450    0.710
       526  -7.9875    158.3033     61.6949   2.7698549829e+01   3.7162762522e+01    0.1433137    0.1023468 -70.50 0.0003194709    1.598    0.374
       527  -9.6659     73.4025     59.2111   4.9225751595e+01   5.6659572680e+01    0.4119254    0.2537139 -55.12  0.001094519    2.022    0.505
       528  -9.3695     31.3647     68.7683   7.0947533978e+01   6.1101156081e+01    0.4037093    0.1891992   0.44   0.00138042    3.763    0.734
       529  -8.2980    250.3220     58.3400   1.5734086821e+01   1.8997914857e+01    0.1028158   0.08631919  -1.92  0.000705056    1.720    0.419
       530  -8.7324    130.7069     57.3986   3.1834525156e+01   4.4291845168e+01    0.2539175    0.1622701 -46.80 0.0005733304    1.630    0.386
       531  -9.9815     23.3748     56.2152   7.1277707220e+01   6.4757227104e+01    0.4448543    0.2988056  79.25  0.002046883    2.690    0.628
       532  -9.6502      7.2593     56.6019   8.0232134705e+01   6.5962075268e+01    0.3500892    0.2314702  78.01  0.001513366    2.240    0.554
       533  -8.1157    140.1212     56.1392   2.9481561462e+01   4.2259492905e+01    0.1956071    0.1593879 -71.69 0.0004707496    1.315    0.240
       534  -8.8766    119.2078     55.6603   3.3928309545e+01   4.7273031908e+01    0.2881116     0.207192 -65.94 0.0006496456    1.725    0.420
       535  -8.9026     43.9953     55.2330   6.0396409183e+01   6.2449716545e+01    0.2828157    0.1937088 -57.45  0.001123519    1.691    0.409
       536  -9.0107     62.9469     54.5785   5.1653531101e+01   5.9487237740e+01    0.2619357    0.2036094 -51.43 0.0006625143    1.455    0.313
       537  -9.2090    249.0009     54.6513   1.5121338092e+01   1.9687721244e+01    0.2222732    0.1042436  68.76  0.001239986    2.495    0.599
       538  -8.5876    105.9649     53.2793   3.6531858672e+01   5.0728261734e+01    0.2544425    0.1964793 -67.48 0.0007317041    1.604    0.377
       539  -8.8769     53.8427     53.3238   5.5105639211e+01   6.1301756036e+01    0.3138261     0.191845 -61.84  0.001143327    2.412    0.585
       540  -9.2928     92.4815     50.4496   3.9439178927e+01   5.4225357717e+01    0.3476822    0.2365887 -53.35  0.001036244    1.766    0.434
       541  -8.6064     76.1550     50.6933   4.5022883624e+01   5.7652402282e+01    0.3676633    0.1581284  31.16   0.00121243    3.459    0.711
       542  -9.1144    129.7830     49.4169   2.9514758895e+01   4.5715313846e+01    0.2572714    0.1937547 -36.22 0.0006636027    1.391    0.281
       543  -8.4723    144.7838     48.9752   2.6443889385e+01   4.2201217520e+01    0.1773901    0.1123808 -34.17 0.0005244963    1.642    0.391
       544  -8.1798    163.4467     47.7837   2.3008812340e+01   3.7977883959e+01    0.1808259    0.1326736 -17.91  0.000947469    1.695    0.410
       545  -9.3837     11.4375     47.7426   7.5361003252e+01   6.7652770781e+01    0.4441448    0.1508116   4.31  0.001416877    4.886    0.795
       546  -8.1493    120.6280     47.2180   3.0803133547e+01   4.8217517972e+01    0.1861515    0.1378102 -20.70 0.0007970111    1.583    0.368
       547  -8.2503    112.4552     46.5355   3.2508428020e+01   5.0252928148e+01     0.235805     0.124538 -46.10 0.0007985605    2.098    0.523
       548  -8.7240     82.0245     46.4162   4.1306868653e+01   5.7146527796e+01    0.2474425    0.1955019 -55.07 0.0006525447    1.516    0.340
       549  -8.6239     45.0644     44.6668   5.5816184903e+01   6.4351987529e+01    0.2174342    0.1857062 -51.61 0.0006234923    1.375    0.273
       550  -9.0026     32.1940     44.2024   6.2267909800e+01   6.6267874970e+01    0.4087976    0.2005005   3.68  0.001406262    4.015    0.751
       551  -9.2193     16.8528     44.7028   7.1168891579e+01   6.7850046495e+01    0.2189462    0.1694238  81.13  0.000761363    2.014    0.503
       552  -8.6212    132.6550     42.8080   2.6826723161e+01   4.5957260938e+01    0.1935038    0.1212661 -43.94 0.0002723254    1.648    0.393
       553  -8.7899     93.3148     42.5147   3.6225170213e+01   5.5272270036e+01    0.4047452    0.1538633  43.77  0.001482728    2.622    0.619
       554  -8.7933     58.4270     42.6069   4.8818656286e+01   6.2460185091e+01    0.2737852    0.2196162 -78.83  0.001226435    1.970    0.492
       555  -9.9723      5.0978     41.5256   7.7293732752e+01   6.9435891692e+01    0.4189113    0.2281952 -78.44  0.001941369    2.692    0.628
       556  -8.7472    106.1156     41.2304   3.2227570233e+01   5.2507651881e+01    0.2549135    0.1687211 -60.16 0.0006782506    1.954    0.488
       557  -9.1826     69.6704     41.3065   4.3713611849e+01   6.0522224627e+01    0.2927063    0.2307905 -69.06  0.001081956    1.825    0.452
       558  -8.6100     36.8241     40.6742   5.8361585845e+01   6.6319569704e+01    0.2235442    0.1796001 -79.95 0.0007695532    2.013    0.503
       559  -8.9193     95.5087     37.9784   3.3866342602e+01   5.5426679823e+01    0.2016631    0.1378916 -35.44 0.0007572569    1.572    0.364
       560  -8.0081     80.5163     36.0335   3.7677109061e+01   5.9055023882e+01    0.1951745    0.1133822 -56.52 0.0008101632    2.656    0.623
       561  -9.4358     26.0870     35.1191   6.2002478046e+01   6.8773656041e+01    0.3021577    0.2369445 -61.37   0.00101067    1.669    0.401
       562  -8.0342    125.8297     35.5582   2.5814391017e+01   4.8555917460e+01    0.1849233    0.1263381  77.68 0.0004594747    1.533    0.348
       563  -8.4186    112.0001     34.9178   2.8540420342e+01   5.1965321126e+01    0.2166573    0.1600609 -70.04 0.0007477758    1.649    0.394
       564  -9.0280      8.5239     34.2650   7.2627423301e+01   7.0703553250e+01    0.3204183   0.08233967  25.29  0.001219311    3.544    0.718
       565  -8.3799    119.3723     33.1919   2.6326272724e+01   5.0413221579e+01    0.1903197    0.1200799 -44.75 0.0005076525    1.701    0.412
       566  -8.8902     60.7702     32.4703   4.3447444815e+01   6.3648830240e+01    0.2283407      0.20923 -76.10 0.0006511681    1.450    0.311
       567  -8.9285     48.4939     32.9070   4.9080549932e+01   6.5834748232e+01    0.2278897    0.2060572  62.41 0.0006658029    1.449    0.310
       568  -9.0001     72.2218     31.0832   3.8440767950e+01   6.1529790728e+01    0.2341825    0.1861772 -56.21 0.0009008934    1.608    0.378
       569  -9.2176     12.9756     30.1116   6.8060037995e+01   7.1139926787e+01    0.2736873    0.1808609 -66.14  0.001180037    2.056    0.514
       570  -8.3254    101.4564     29.2255   2.8957325135e+01   5.5188874718e+01    0.1822059     0.125652 -45.56 0.0006471208    1.623    0.384
       571  -8.9869     81.5397     27.3409   3.3728406949e+01   6.0006824964e+01    0.2682069    0.2006504 -69.31 0.0007831744    1.885    0.470
       572  -9.1574      3.6471     27.5290   7.3393023554e+01   7.2410191737e+01    0.2358573    0.1698054  66.77  0.001151805    2.433    0.589
       573  -8.9536    202.8323    248.1431   5.7877044991e+01  -2.2917376672e+00    0.3657013    0.1486973  13.80  0.001584148    3.318    0.699
       574  -8.1835     34.3703     23.1159   5.1623956126e+01   6.9694922301e+01    0.1665352    0.1178819 -46.43  0.000934399    1.705    0.414
       575  -8.5365    120.6428     21.7213   2.2122595432e+01   5.1437516163e+01    0.1741383    0.1196487 -41.12 0.0003698747    1.556    0.357
       576  -8.7348     48.4507     21.5187   4.3642323028e+01   6.7550659214e+01    0.2145085    0.1946099 -18.60 0.0007149841    1.207    0.171
       577  -8.8294     63.7829     20.9096   3.6921923123e+01   6.4634786142e+01    0.2280563    0.1778565 -51.09 0.0008311315    1.649    0.393
       578  -8.2844     19.4431     21.2373   5.9709874233e+01   7.2054744260e+01    0.1631182    0.1185726 -52.22 0.0007791715    1.710    0.415
       579  -8.7683     74.0369     19.4039   3.2639558863e+01   6.2628942666e+01    0.2381668    0.1780134 -48.89 0.0007484888    1.650    0.394
       580  -8.3429    104.4948     22.9827   2.5873856719e+01   5.5198154932e+01    0.1918881    0.1337628 -30.92 0.0008401673    1.580    0.367
       581  -8.5133     38.8089     18.5875   4.6885202435e+01   6.9654336326e+01    0.1738253    0.1136131  46.58 0.0009432671    1.637    0.389
       582  -7.9168    113.0000     16.9947   2.1888676785e+01   5.3785385810e+01    0.1918185   0.07712333 -25.61 0.0004853369    2.810    0.644
       583  -8.7712    112.8572    248.8306   7.6159531800e+01   8.4430009984e+00    0.1950644    0.1732207 -62.68   0.00134529    1.426    0.299
       584  -9.6307    103.6391    247.2239   7.8002155601e+01   9.8694445255e+00    0.4200383    0.2696118 -76.11  0.002342294    2.279    0.561
       585  -8.0027     77.7757     12.6498   2.8436258607e+01   6.2527696348e+01    0.1848468    0.1146055  66.29 0.0009397727    1.630    0.386
       586  -9.7296     64.3563    248.4489   8.6791580553e+01   1.4331415002e+01      0.28132    0.1646879  39.11 0.0006714663    1.367    0.269
       587  -8.3858    218.6118    247.8576   5.5037406860e+01  -3.9355584206e+00    0.1984947   0.08915075 -32.71  0.001063845    2.058    0.514
       588  -8.3958      7.6545     15.3205   6.4995044467e+01   7.4342974812e+01    0.1100123   0.09331615  47.91 0.0007049559    1.730    0.422
       589  -9.9993    223.8514    243.6572   5.3517438774e+01  -3.9439026189e+00    0.3704956    0.2207777 -41.75  0.002360655    2.067    0.516
       590  -8.0504    219.9988    244.3186   5.4276149532e+01  -3.6285314893e+00    0.2719874    0.1188124   9.63  0.001271364    3.043    0.671
       591  -9.0158    175.5707    247.4512   6.2925205062e+01   9.1716840985e-01    0.2135711    0.1837039  62.54  0.001415772    2.051    0.512
       592  -8.8853    156.4270    248.0805   6.6841841490e+01   3.1349659657e+00    0.1876549    0.1459777  34.26 0.0007452901    1.351    0.260
       593  -9.3844     20.7350    247.8676   9.6160466332e+01   1.8964747383e+01    0.2715477    0.1257274  31.49 0.0009265962    1.767    0.434
       594  -8.3754    168.9980    247.2776   6.4198400704e+01   1.7278069372e+00    0.1766783    0.1242774  18.50 0.0008670598    1.154    0.133
       595  -9.2378    149.3064    242.5734   6.7580993493e+01   4.8868788161e+00    0.2441686    0.1432447  41.63  0.001265453    1.819    0.450
