#   1 NUMBER                 Running object number                                     
#   2 MAG_AUTO               Kron-like elliptical aperture magnitude                    [mag]
#   3 X_IMAGE                Object position along x                                    [pixel]
#   4 Y_IMAGE                Object position along y                                    [pixel]
#   5 X_WORLD                Barycenter position along world x axis                     [deg]
#   6 Y_WORLD                Barycenter position along world y axis                     [deg]
#   7 A_WORLD                Profile RMS along major axis (world units)                 [deg]
#   8 B_WORLD                Profile RMS along minor axis (world units)                 [deg]
#   9 THETA_WORLD            Position angle (CCW/world-x)                               [deg]
#  10 FWHM_WORLD             FWHM assuming a gaussian core                              [deg]
#  11 ELONGATION             A_IMAGE/B_IMAGE                                           
#  12 ELLIPTICITY            1 - B_IMAGE/A_IMAGE                                       
         1 -13.5896    222.3728      8.0114   3.4835446238e+01   2.9392137719e+01     1.240681    0.9686776  50.75  0.005415313    1.514    0.339
         2 -14.3051    195.7189     38.5011   4.5248440213e+01   3.2027938597e+01      2.21528     1.435116  15.66   0.01005659    2.472    0.595
         3 -11.0904     75.8610     13.7202   6.0999801964e+01   6.2226319182e+01    0.5924127    0.2798868  65.77  0.002110573    4.666    0.786
         4 -10.9606     67.6984      4.5707   5.9325765986e+01   6.4654382827e+01    0.3558688    0.2048698 -40.35  0.001858701    2.350    0.574
         5 -11.2990     61.0160      2.7324   6.0652957817e+01   6.6038215532e+01    0.3573056    0.1932365  29.66   0.00194315    1.666    0.400
         6  -9.3978     56.3810    208.5100   1.1562096569e+02   2.3815803797e+01    0.2360649    0.1594644  83.86  8.89915e-05    1.424    0.298
         7 -19.4892     12.6682    146.3666   1.1924063954e+02   4.2415112544e+01     19.35221      4.56004 -75.55   0.06491785    3.992    0.750
         8  -9.9925     42.2308    208.3966   1.1849673761e+02   2.5474725123e+01    0.2719044    0.1427704  70.33 0.0009771517    1.985    0.496
         9  -9.8133     35.6404    208.6609   1.1983750786e+02   2.6133467338e+01    0.1498448    0.1003255  66.24 0.0005877854    1.309    0.236
        10 -10.9847     66.0070    207.0877   1.1346976894e+02   2.2927099922e+01    0.2187581    0.1761395  88.72 0.0003073666    1.136    0.120
        11 -11.5944     64.2747    202.5617   1.1334912592e+02   2.4116992955e+01    0.2424165    0.1967696 -74.99 0.0004127925    1.180    0.153
        12  -9.1572     93.2680    205.7329   1.0747885848e+02   1.9505447248e+01    0.2075536    0.1745052  41.12 0.0006295649    1.178    0.151
        13 -11.0240    192.2852    194.2060   8.4282860161e+01   5.4607524496e+00     1.234402    0.6442412 -61.59  0.003664351    6.074    0.835
        14  -9.8255     72.0000    248.8564   1.1626112691e+02   1.4001774021e+01    0.1953564    0.1288736 -75.80  0.001280999    1.600    0.375
        15  -9.1785     96.4693    201.9646   1.0628016625e+02   1.9833464318e+01    0.1911419     0.125889 -61.53 0.0009338078    1.547    0.354
        16 -11.8967    133.9015    196.4526   9.7141851420e+01   1.5064564237e+01    0.6103435    0.2727506 -62.93  0.002208297    3.420    0.708
        17 -12.4457     53.2496    197.1492   1.1513687831e+02   2.6644779241e+01     0.505694    0.2774724 -45.58  0.002296093    2.398    0.583
        18 -10.0381     38.9334    199.7649   1.1841300745e+02   2.7686394832e+01    0.2020319    0.1524618  73.73  0.001159491    1.144    0.126
        19 -12.5515    126.7006    191.3195   9.7895175477e+01   1.7330463495e+01    0.6575403     0.384751 -45.70   0.00310774    1.792    0.442
        20 -10.4860     71.9435    244.6793   1.1591449014e+02   1.4758950030e+01    0.2607504    0.1672431  67.45 0.0007160476    1.483    0.326
        21 -10.3075    204.2067    199.6001   8.2954544376e+01   2.5492301849e+00     0.196615    0.1152724  25.70 0.0009573253    1.724    0.420
        22  -9.2483     81.3103    193.7907   1.0856197251e+02   2.3781030922e+01    0.4240542     0.221393  65.17  0.001802347    2.612    0.617
        23 -11.4221    149.8873    188.7247   9.2237416823e+01   1.3890763611e+01    0.6279504    0.3991284 -74.20  0.002582647    2.806    0.644
        24 -11.3128     73.5655    188.2378   1.0959393049e+02   2.6079951896e+01    0.7339312    0.3696623  64.51  0.002591915    2.719    0.632
        25 -12.2163     66.7353    181.5928   1.1030909326e+02   2.8494699352e+01     1.115328    0.4341885 -49.42  0.004462915    2.868    0.651
        26 -11.9729     62.7890    182.3948   1.1132726700e+02   2.8811129519e+01     0.658918    0.3603363 -45.20  0.003129227    2.221    0.550
        27 -11.6057    120.7200    186.5832   9.8462927889e+01   1.9334771894e+01    0.4588799    0.2894014  29.11  0.001204101    1.725    0.420
        28  -9.3682     92.6165    184.8801   1.0472219573e+02   2.4146318084e+01    0.2654607      0.18435  46.58 0.0007756666    1.415    0.293
        29 -10.8971     98.7165    180.8847   1.0267202217e+02   2.4126011118e+01    0.4326962    0.2760849  21.05  0.001496161    2.041    0.510
        30 -10.8638     62.4138    250.4478   1.1811429675e+02   1.4905805764e+01    0.2153292    0.1207622  55.13 0.0006896672    1.492    0.330
        31 -12.0268     49.0567    249.0822   1.2037104531e+02   1.6730592048e+01    0.1872118    0.1381064  88.95  0.000553562    1.258    0.205
        32 -10.0106    187.7918    176.1246   8.1581924281e+01   9.5302022567e+00    0.3550521    0.3154872 -49.96  0.001752771    1.308    0.236
        33  -9.2732    148.9989    176.3059   9.0078555327e+01   1.6599454161e+01    0.2232994    0.1875021 -44.00 0.0005487071    1.202    0.168
        34 -10.1432    146.7311    172.5445   8.9853639022e+01   1.7804682329e+01    0.3392926    0.2403031 -74.42   0.00117825    2.055    0.513
        35  -9.9872     46.9605    173.2593   1.1391224784e+02   3.2813518831e+01    0.3681189    0.2718338 -45.68  0.001167458    1.563    0.360
        36  -9.4743     84.1568    173.8134   1.0505735899e+02   2.7928002525e+01    0.1998163    0.1739286  81.17 0.0003868551    1.127    0.113
        37 -10.2705     54.2476    173.3497   1.1219822681e+02   3.1957617492e+01    0.2598383     0.190453  68.37 0.0004576803    1.366    0.268
        38  -8.8233    193.9754    171.4883   7.9336104914e+01   9.2663113545e+00    0.2092456    0.1384336  37.78 0.0007326733    1.535    0.348
        39  -9.3267    185.6087    169.7268   8.0690314470e+01   1.1143560400e+01    0.2483514    0.1771515 -45.54 0.0005384861    1.461    0.316
        40  -9.9402    137.9006    169.0798   9.1222205647e+01   2.0159241853e+01    0.3375243    0.2323856  47.45 0.0008420744    1.515    0.340
        41 -10.2526    240.7796    169.1799   7.0044156370e+01   1.5177010376e+00    0.1942267    0.1402746  -6.61  0.001045623    1.340    0.254
        42 -10.2405     57.0468    165.9276   1.1055105897e+02   3.3386595743e+01    0.4194131    0.1998075 -48.23  0.001454592    2.263    0.558
        43 -11.7468     94.0255    151.2782   9.8673754591e+01   3.1802763876e+01    0.7186562    0.5834376 -25.93  0.003046466    1.443    0.307
        44 -10.8461    133.8004    145.7040   8.7252332799e+01   2.6137539150e+01     1.249328     0.312183 -53.25  0.002945141    5.597    0.821
        45  -9.5651    112.7771    151.0037   9.3738569800e+01   2.8756020033e+01    0.2850695    0.2073045  56.17 0.0007494771    1.562    0.360
        46  -8.7733    109.6271    147.8645   9.3900769385e+01   3.0042111902e+01    0.2376497    0.2016318 -88.69 0.0005224335    1.347    0.258
        47  -9.4136    174.9161    149.1843   7.8415112148e+01   1.7272912493e+01    0.2246673    0.2113022 -75.24 0.0006807562    1.266    0.210
        48  -8.6442     75.9816    221.4856   1.1293304448e+02   1.8660502042e+01    0.2428131    0.1110599 -54.10  0.001182291    2.409    0.585
        49 -10.7408    105.8506    137.7470   9.2724574749e+01   3.3098858554e+01    0.5811719       0.3381 -26.54   0.00218517    2.623    0.619
        50 -10.5566    105.9520    130.8475   9.1132609847e+01   3.4723818991e+01    0.4197338    0.3228858 -56.94  0.001131576    1.270    0.213
        51 -11.6209     93.8597    137.3507   9.5906310368e+01   3.5195141803e+01    0.2917871    0.2531102 -40.49 0.0003240337    1.139    0.122
        52  -9.2234    118.9936    135.2103   8.8637776561e+01   3.1342228823e+01    0.2027545    0.1248162  39.11 0.0006334212    1.704    0.413
        53 -10.9709    113.9778    129.0730   8.8525176932e+01   3.3701937302e+01    0.3852887    0.3316822 -39.64 0.0008815613    1.109    0.098
        54  -9.9131    136.0022    128.7876   8.2675634682e+01   2.9525193942e+01    0.3508039    0.1830442 -45.46  0.001373084    1.833    0.454
        55  -8.8471     81.0233    220.6551   1.1182399399e+02   1.8154233248e+01    0.1712577    0.1401258  52.84  0.001110761    1.101    0.092
        56 -10.3591    101.2597    124.8327   9.1021739414e+01   3.6969982915e+01    0.3073809    0.2315831 -30.53 0.0005056735    1.423    0.297
        57 -11.0216    119.7951    122.8543   8.5422655711e+01   3.4053939921e+01    0.5152971    0.3368216 -12.40  0.001992354    2.438    0.590
        58 -10.2512    135.0015    120.9950   8.0947503617e+01   3.1465201487e+01    0.5009704    0.1347332 -44.99  0.001403257    3.544    0.718
        59  -9.4883    109.4077    118.1327   8.7077560004e+01   3.7093850617e+01    0.2559114    0.2197382  47.73 0.0003135719    1.271    0.213
        60 -10.0686    231.2190    113.7361   5.9181410576e+01   1.2557527106e+01    0.2666887    0.2533382 -29.19 0.0007571494    1.106    0.096
        61  -9.2403    167.6782    112.6993   7.0921118133e+01   2.6247858345e+01    0.3138466    0.2266591 -74.65  0.001312907    2.100    0.524
        62 -11.7930    118.6138    109.7674   8.2312579754e+01   3.7252223853e+01    0.6214393    0.5492589 -87.16  0.002752445    1.379    0.275
        63  -9.5812    205.4430    110.2706   6.2703191514e+01   1.8463848262e+01    0.3009758     0.239154  35.79 0.0008335968    1.382    0.276
        64  -9.9671    134.5224    103.6203   7.6356546422e+01   3.5339216344e+01    0.5701141    0.1476021 -43.74  0.001568788    3.699    0.730
        65  -9.8839     63.2480     99.9849   9.6482217895e+01   4.8705986121e+01    0.3567106    0.2070737  18.60  0.001602219    2.204    0.546
        66 -10.0233     59.6981    220.4095   1.1608234923e+02   2.0947485123e+01    0.2640666    0.2103708 -20.28  0.001638545    2.030    0.507
        67  99.0000     51.5678    219.5269   1.1760537533e+02   2.2100119795e+01    0.4255626    0.1516685  44.51  0.002024262    2.394    0.582
        68  -9.8415     49.3197    216.6705   1.1779960913e+02   2.2945940832e+01    0.2309766    0.2087503  80.48  0.001581578    1.165    0.142
        69  -8.8894    156.0282     82.4882   6.4985684665e+01   3.4720490210e+01    0.2226861    0.1519542  49.51 0.0004324439    1.510    0.338
        70  -8.4190    184.6634     76.7024   5.7547151007e+01   2.9030994885e+01    0.1509285    0.1150883  17.74 0.0004520207    1.654    0.395
        71  -9.1046     64.9416     70.3032   8.7412134353e+01   5.5084401918e+01    0.1895378    0.1658878  -7.67  0.000203371    1.111    0.100
        72 -11.3252    244.8238    248.2369   8.4134260123e+01  -1.0110852427e+01    0.4994329    0.2291503  40.40  0.002676224    2.496    0.599
        73 -12.8250    180.0672     52.5134   5.1468960100e+01   3.3873908217e+01     0.728407    0.7021185 -43.59 0.0008550214    1.027    0.027
        74 -11.6799    249.7016    238.8555   8.1745093279e+01  -9.6151418472e+00    0.5905853    0.1846363 -36.26  0.002685613    3.242    0.692
        75  -8.6975     57.5181    211.5309   1.1568132944e+02   2.3041924253e+01    0.1872196    0.1228845  74.51 0.0007479102    1.482    0.325
        76  -9.2514    189.7864     14.9038   3.9632466412e+01   3.6114318038e+01    0.1924473    0.1721754  47.71  0.000848447    1.221    0.181
        77  -9.1451    168.0383    232.0400   9.5694394283e+01   3.0363174829e+00    0.1871327    0.1645487  22.57 0.0004401857    1.040    0.038
        78  -8.9895     58.1530    228.0239   1.1706523928e+02   1.9617118058e+01    0.1482498    0.1212881  73.28 0.0003833123    1.028    0.028
        79  -8.4059     84.2352    245.6703   1.1372300638e+02   1.2989714749e+01    0.1132562   0.07526903  69.87            0    1.528    0.346
