#   1 NUMBER                 Running object number                                     
#   2 MAG_AUTO               Kron-like elliptical aperture magnitude                    [mag]
#   3 X_IMAGE                Object position along x                                    [pixel]
#   4 Y_IMAGE                Object position along y                                    [pixel]
#   5 X_WORLD                Barycenter position along world x axis                     [deg]
#   6 Y_WORLD                Barycenter position along world y axis                     [deg]
#   7 A_WORLD                Profile RMS along major axis (world units)                 [deg]
#   8 B_WORLD                Profile RMS along minor axis (world units)                 [deg]
#   9 THETA_WORLD            Position angle (CCW/world-x)                               [deg]
#  10 FWHM_WORLD             FWHM assuming a gaussian core                              [deg]
#  11 ELONGATION             A_IMAGE/B_IMAGE                                           
#  12 ELLIPTICITY            1 - B_IMAGE/A_IMAGE                                       
         1 -15.6959    147.9921    122.4237   1.0078307735e+02   2.8439926773e+01     2.640136     1.933134 -66.15   0.01156838    1.633    0.387
         2 -14.8458     10.0406     19.8851   1.1629694259e+02   6.9433588329e+01     1.522788    0.6817645 -22.65  0.008523602    2.178    0.541
         3 -12.8638     75.0486     13.2852   8.6825567494e+01   6.2060375786e+01    0.4194543    0.2290239  48.70  0.001599872    1.770    0.435
         4 -13.3784     96.0174      3.3134   7.6859896650e+01   5.8944493983e+01     0.773613    0.1948271  47.31  0.003073923    2.851    0.649
         5 -12.5162     82.4918     13.5176   8.4578188039e+01   6.0681774460e+01    0.3201497    0.2302536  17.96  0.001018505    1.265    0.209
         6 -12.7543     87.0120     11.3755   8.2395524886e+01   6.0031384460e+01    0.5643617    0.4357172  88.37  0.002231048    2.261    0.558
         7 -11.2727    123.9258     10.2683   7.2910152968e+01   5.2303212423e+01    0.2271496     0.184506  11.13  0.000761072    1.362    0.266
         8 -11.0541    137.5483      5.8424   6.8881656405e+01   4.9521801050e+01    0.2545412    0.1582403  62.70  0.001233588    1.335    0.251
         9 -12.7599     73.2280      2.7100   8.3063788189e+01   6.3376534376e+01    0.4038779    0.2455307 -10.46  0.002431472    1.712    0.416
        10 -12.9564     80.3073      2.2377   8.0725539733e+01   6.2117300698e+01    0.4988916    0.4317413  89.91  0.003329935    1.809    0.447
        11 -11.8829     32.1787      4.5997   9.9465032560e+01   6.9353560542e+01    0.3146364    0.1607504  30.17  0.001551076    1.787    0.440
        12 -13.2950     89.1878      1.9311   7.8115035727e+01   6.0429433949e+01    0.6137707    0.2716185  42.99  0.003126929    1.801    0.445
        13 -11.3970     53.4942    201.4994   1.3872755613e+02   2.6612486604e+01     0.129338    0.1050507  80.70 -4.896943e-05    1.000    0.000
        14 -11.9504     41.3705    199.7610   1.4109407102e+02   2.8501250747e+01    0.2263284    0.1398514 -67.91  0.001127027    1.493    0.330
        15 -11.1611    220.1568    197.6450   1.0149859840e+02  -2.2800800196e+00    0.2066614    0.1186191  30.91 0.0009524741    1.761    0.432
        16 -12.4595    186.6242    195.2943   1.0795786740e+02   4.5285384119e+00    0.4162575    0.3152589 -53.67  0.002115111    1.525    0.344
        17 -11.5198     71.3415    197.6711   1.3441975148e+02   2.5029861014e+01    0.1457425   0.08820866  70.28 0.0007051387    1.742    0.426
        18 -10.3496    213.3268    196.6851   1.0267120857e+02  -8.5824972544e-01    0.1329033    0.1143872  82.06 0.0006808511    1.671    0.401
        19 -11.2184    242.6650    191.6839   9.6018029636e+01  -5.2460349431e+00    0.1406855   0.09594492   1.87 0.0007047583    1.693    0.409
        20 -12.4495     33.8177    177.5034   1.4046541882e+02   3.4388908239e+01    0.2545077    0.2187215 -23.39  0.001652258    1.693    0.409
        21 -12.4425    216.6551    173.6908   9.7303262572e+01   2.6705772140e+00    0.6355656    0.4236457  38.13  0.003083095    1.496    0.332
        22 -12.8267    211.7994    165.1311   9.6443709116e+01   5.2609899020e+00    0.6195897    0.4152805  26.56  0.002841522    1.711    0.415
        23 -13.6968    200.1600    155.7007   9.6755581192e+01   9.5544631714e+00     1.351255    0.7543042 -35.32  0.005559655    1.890    0.471
        24 -13.6035    193.9883    149.2207   9.6592163361e+01   1.2213404465e+01    0.8554696    0.3519961 -47.80  0.002950749    2.584    0.613
        25 -12.6896    179.1946    159.5461   1.0216409030e+02   1.3315196683e+01    0.5862896    0.4249243 -10.84  0.002526135    1.921    0.479
        26 -12.6715    170.5918    157.8485   1.0374523986e+02   1.5558972824e+01    0.4336683    0.2881505  48.22  0.001901559    1.483    0.326
        27 -12.9083     58.7399    145.2571   1.3000656144e+02   3.9146107124e+01    0.6482707    0.4506754  70.87  0.003369198    1.652    0.395
        28 -13.7822     50.6723    142.9421   1.3179761833e+02   4.0680638127e+01    0.8647684    0.5168337  42.26  0.003777805    1.805    0.446
        29 -12.9082    242.3802    247.8846   1.0644641624e+02  -1.3400643898e+01    0.5512999    0.2155126  24.05  0.002232812    3.309    0.698
        30 -13.6726    200.3422    128.6517   9.0450822619e+01   1.4955268286e+01     1.006601    0.6492776  46.27  0.004442625    1.577    0.366
        31 -13.6874    190.4830    156.1720   9.8920564556e+01   1.1555456406e+01    0.9251905    0.5601421 -38.23  0.003944944    1.702    0.413
        32 -11.3528    121.6482    127.1195   1.0885836833e+02   3.3080828649e+01     0.316342    0.2376902  32.91  0.001465515    1.423    0.297
        33 -13.9920    169.5003    118.9649   9.4724595438e+01   2.4176684193e+01     1.318696    0.7628663 -56.14  0.005081633    2.041    0.510
        34 -12.7883    132.6744    103.1036   9.9666252124e+01   3.6063159212e+01    0.3921686    0.3008674  20.24 0.0005464344    1.568    0.362
        35 -12.9477    119.7311    104.7307   1.0364962138e+02   3.8498407967e+01    0.4491096    0.3178946  86.04   0.00129525    2.298    0.565
        36 -13.3826     16.5909    100.8380   1.3465958911e+02   5.3569627268e+01    0.4184937    0.3551305 -52.60  0.001640425    1.077    0.071
        37 -13.9536    202.9366    120.7395   8.8032075991e+01   1.5926936354e+01    0.7648242    0.4409049 -58.16  0.002992622    2.160    0.537
        38 -11.4995    188.8645     94.5242   8.4275002554e+01   2.4350278919e+01    0.2665098    0.2100069 -64.90 0.0006015768    1.370    0.270
        39 -10.8177     55.0552     94.6531   1.2096398886e+02   5.1395634085e+01    0.1831779    0.1668473 -13.60 0.0008986642    1.127    0.113
        40 -10.7175      2.5368     93.4887   1.3781221811e+02   5.6001265318e+01    0.1170466   0.08974081 -59.47 7.985706e-06    1.010    0.010
        41 -12.5601    178.9250    113.8142   9.1301330620e+01   2.2993381285e+01    0.6320344    0.4289047  87.91  0.002457755    2.296    0.565
        42 -13.0386    196.8001    137.2013   9.3207693236e+01   1.4037873017e+01    0.4767669    0.3607802 -23.21  0.002211145    1.515    0.340
        43 -12.0177     33.8251     75.6837   1.2360058761e+02   5.7621632083e+01     0.299493    0.2009258   7.66  0.001200557    1.692    0.409
        44 -10.6714    250.1005     74.3181   6.9671158911e+01   1.3548925089e+01    0.1801237    0.1538854 -74.51 0.0004143254    1.063    0.059
        45 -12.7170     96.6784     72.0993   1.0096906753e+02   4.9641029964e+01    0.4790408    0.3168059  23.45 0.0004789303    1.697    0.411
        46 -10.6845     19.0134     72.2783   1.2812949834e+02   5.9484480978e+01    0.1541964    0.1323184 -22.33 0.0006056984    1.172    0.146
        47 -10.8439     60.2845     71.6371   1.1299935400e+02   5.5527542244e+01    0.1227823    0.1053241 -84.09 0.0005011915    1.685    0.407
        48 -10.8168     76.8098     70.2389   1.0684665257e+02   5.3412593208e+01    0.1871518    0.1451151 -10.94 0.0003536647    1.320    0.243
        49 -11.1218    132.0278     65.0077   8.8708569332e+01   4.3452151255e+01    0.1803752    0.1672674  39.53 0.0003761513    1.011    0.011
        50 -12.6668    125.6377     57.4211   8.7975190507e+01   4.6136295943e+01    0.3370583    0.2442814  46.28 0.0005911287    1.280    0.219
        51 -10.1470    174.9931     56.7370   7.6873643939e+01   3.4266076275e+01    0.1908471    0.1198702  60.24 0.0004660811    1.471    0.320
        52 -10.3586    137.2205     55.7761   8.4570433888e+01   4.3712072528e+01    0.1995724     0.161534  25.56 0.0005145583    1.320    0.242
        53 -12.0977     66.9123     53.1949   1.0474550432e+02   5.7964931471e+01    0.3661554    0.3094244 -88.51  0.002091767    2.060    0.515
        54 -10.5989    210.6133     54.2638   7.0411212267e+01   2.5759186685e+01    0.1785023    0.1375576 -25.42 0.0008976584    1.590    0.371
        55 -11.0867    132.6940     53.8081   8.5051766584e+01   4.5072150965e+01    0.2397225     0.177651  40.47 0.0005077476    1.278    0.217
        56 -11.5262     93.0109     52.9794   9.5859641050e+01   5.3614849473e+01    0.2012907    0.1794902  11.96  0.001202459    1.009    0.009
        57 -11.2675    145.5889     50.9249   8.1155936717e+01   4.2430413106e+01    0.2434236    0.1853412  45.38 0.0005285122    1.229    0.186
        58  -9.9208     95.3018     49.2701   9.3870618837e+01   5.3756252391e+01    0.1369343   0.09734462  13.99  0.000179482    1.530    0.346
        59 -12.3674     42.4289     47.6889   1.1213903337e+02   6.2057349867e+01    0.2847525    0.2303301   6.55 0.0007243363    1.193    0.162
        60 -12.0566     41.3027     42.8310   1.1092737484e+02   6.2996656395e+01    0.3551825    0.2212951  -4.65  0.002033475    1.711    0.415
        61 -11.6006      2.5497     46.5417   1.2812803670e+02   6.5415806206e+01    0.2024887    0.1505025 -37.61 0.0008124017    1.015    0.015
        62 -11.7289    156.9614     43.8632   7.6673550580e+01   4.0629684026e+01    0.2102803     0.207598  38.92 0.0004364793    1.112    0.101
        63 -10.4707    197.6488     41.0197   6.9026520786e+01   3.0831762721e+01    0.1820903    0.1660059 -84.49 0.0002871969    1.068    0.063
        64 -12.8574    225.6376    248.1716   1.0960380680e+02  -1.0938638928e+01    0.3101923     0.224259 -13.65  0.001948376    1.412    0.292
        65 -11.8906     69.6066     34.0563   9.6869726982e+01   6.0487195892e+01     0.245498    0.1641563  27.08 0.0006453997    1.369    0.270
        66 -10.3087    176.4770     33.4914   7.0287448609e+01   3.7098421453e+01    0.1410518    0.1232976  74.62 -4.223088e-05    1.002    0.002
        67 -11.7622     42.0911     32.6389   1.0690295559e+02   6.4510894253e+01    0.2904016    0.1599822   8.78  0.001541113    2.094    0.523
        68 -10.6049     79.4483     30.2810   9.2057053795e+01   5.9330827276e+01    0.2317033    0.1186851 -25.23  0.001134702    2.053    0.513
        69 -11.7345     83.5512     22.6597   8.7815418435e+01   5.9509482013e+01    0.2765456    0.2216346   9.57    0.0010356    1.127    0.113
        70 -12.0845     63.4196     17.4567   9.2517880962e+01   6.3567297667e+01    0.4584638    0.2138306  42.98  0.002369353    2.035    0.509
        71 -12.2167    193.8960    248.7926   1.1581723901e+02  -5.9121721938e+00    0.2116066    0.2059157  66.61  0.001457194    1.348    0.258
        72 -12.4955    233.5573    246.5448   1.0784805904e+02  -1.1926277901e+01    0.1900439    0.1611045 -20.03   0.00130121    1.321    0.243
        73 -11.8671    184.5022    246.5057   1.1731471117e+02  -3.9759011993e+00    0.1314117    0.1080818  32.84 -3.626948e-05    1.013    0.012
        74 -12.9052    231.7386    237.9175   1.0671300259e+02  -1.0480880970e+01    0.2902409    0.1972318   0.14  0.001687518    1.516    0.340
        75 -11.6613    244.9996    235.5037   1.0382694806e+02  -1.2160653004e+01    0.1578423     0.103066  54.17 0.0008105588    2.564    0.610
        76 -12.0177    187.1989    232.6103   1.1454692766e+02  -2.2318760154e+00    0.2031087    0.1108656  31.91 0.0009583452    1.718    0.418
        77 -11.7204    204.6903    229.8376   1.1055340725e+02  -4.8486523906e+00    0.2088258    0.1599907  -6.07  0.001199995    1.407    0.289
        78 -10.7365    245.6632    218.3254   1.0059480504e+02  -9.8520006269e+00    0.1117222    0.1047653  82.27 0.0007051419    1.720    0.419
        79 -11.5787    239.8263    214.1797   1.0090161534e+02  -8.3147247720e+00    0.1890101    0.1379821   1.12  0.001087392    1.336    0.251
