#   1 NUMBER                 Running object number                                     
#   2 MAG_AUTO               Kron-like elliptical aperture magnitude                    [mag]
#   3 X_IMAGE                Object position along x                                    [pixel]
#   4 Y_IMAGE                Object position along y                                    [pixel]
#   5 X_WORLD                Barycenter position along world x axis                     [deg]
#   6 Y_WORLD                Barycenter position along world y axis                     [deg]
#   7 A_WORLD                Profile RMS along major axis (world units)                 [deg]
#   8 B_WORLD                Profile RMS along minor axis (world units)                 [deg]
#   9 THETA_WORLD            Position angle (CCW/world-x)                               [deg]
#  10 FWHM_WORLD             FWHM assuming a gaussian core                              [deg]
#  11 ELONGATION             A_IMAGE/B_IMAGE                                           
#  12 ELLIPTICITY            1 - B_IMAGE/A_IMAGE                                       
         1 -12.6996      2.0158     84.2390   1.0842107668e+02   5.8834040789e+01     1.848313          nan -65.24  0.004452172    7.400    0.865
         2 -13.8491    227.6732     33.4700   3.3826705477e+01   2.5933647411e+01     1.242066    0.9230225  44.48  0.007674489    1.922    0.480
         3 -12.9867    212.9865     45.3760   3.7872226861e+01   2.7449070828e+01     1.116362    0.5559809 -52.48  0.005516767    1.863    0.463
         4 -11.6724      2.3144     24.3590   9.2147761161e+01   7.1130278494e+01    0.5235549   0.07755918 -51.24  0.001846477    4.731    0.789
         5 -12.3788      5.3601      5.1119   8.1557554167e+01   7.3865354627e+01    0.5872679    0.4618602  26.05  0.004338931    1.641    0.391
         6 -10.6396    250.3358     10.4076   2.7640953909e+01   2.4226900149e+01     0.412194    0.1337017 -35.69  0.001888107    2.879    0.653
         7  -8.1696     78.7058      4.3536   4.8749619830e+01   6.2462514800e+01    0.1122012   0.09423211 -68.95 0.0007031753    1.686    0.407
         8  -9.4831    193.6759    196.0154   7.4634012275e+01   4.0279918230e+00     0.215777     0.114339 -61.95 0.0007051096    4.357    0.770
         9 -14.4766     56.7989    245.7169   1.1233254864e+02   1.4698471348e+01     7.956828      2.00956  25.99    0.0183448   10.244    0.902
        10 -11.7351     46.9087    178.3559   1.0786822724e+02   3.1409169573e+01    0.4198575    0.2955505 -36.52  0.001376032    1.762    0.432
        11 -11.7717     54.0871    172.2149   1.0514975323e+02   3.2119569096e+01    0.3886097    0.2678726 -49.36 0.0006983776    1.498    0.333
        12 -10.3143    101.3827    171.6011   9.2094139885e+01   2.5415979807e+01    0.4962734    0.1720527  47.43  0.001504353    3.511    0.715
        13  -8.5905    110.5375    167.4906   8.8851336776e+01   2.4881142852e+01    0.1524516    0.1479214  82.56 0.0001740017    1.051    0.048
        14 -12.3944     52.4448    115.0416   9.5842428246e+01   4.7096194550e+01     1.591727    0.4657915 -66.81  0.003948459    5.718    0.825
        15 -13.4048     68.0182    144.2974   9.6642427450e+01   3.7547886493e+01      1.96829     1.060026  72.63  0.003131651    3.854    0.741
        16 -12.8271      7.3896    227.5500   1.2115085910e+02   2.3895583243e+01     1.499743    0.6460457  82.84  0.007486099    2.251    0.556
        17 -11.0738     66.1827    162.7189   1.0036972260e+02   3.3011743205e+01    0.2894213    0.2677164 -51.53 0.0004346061    1.107    0.097
        18 -13.0455     51.8104    158.7680   1.0387738143e+02   3.5865769361e+01    0.6063282    0.3554131 -36.91   0.00172454    2.115    0.527
        19 -13.9872     12.3759    205.8763   1.1878924902e+02   2.8260601254e+01    0.9487246    0.6894729  14.96  0.002368703    1.838    0.456
        20 -10.4123     91.2942    143.0427   8.9364826921e+01   3.4316037063e+01    0.3395194    0.3073987 -57.10 0.0007708065    1.065    0.061
        21  -9.5073     94.8162    139.6425   8.7587510137e+01   3.4585782525e+01    0.3244716    0.2404103 -20.78  0.001162609    1.677    0.404
        22  -8.8981    134.1687    142.9572   7.7293269663e+01   2.6431464209e+01    0.3177827    0.1869926 -47.64  0.001295857    1.658    0.397
        23 -12.0181     78.6322    140.9420   9.2747108460e+01   3.6870824919e+01    0.3466418      0.28526 -43.85 0.0004005139    1.194    0.163
        24 -10.8157     68.0849    132.2591   9.4267792973e+01   4.0654786952e+01    0.5722961    0.1739848 -53.18  0.001866107    2.831    0.647
        25 -10.5761    105.6683    131.1107   8.2427684016e+01   3.4783697127e+01    0.4242521    0.3491057  -1.37   0.00115395    1.436    0.303
        26 -10.7390    244.4696    129.5075   5.1935407109e+01   7.8256042941e+00    0.2034925    0.1542455 -15.60  0.001160842    1.524    0.344
        27 -15.2451     27.8533    183.7747   1.1335967352e+02   3.2086476228e+01     8.427593     3.153441  83.94   0.02554685    4.918    0.797
        28  -9.8901     91.9178    127.3029   8.5672037623e+01   3.8179780536e+01    0.3271267    0.2610509  -1.86  0.001119303    1.507    0.337
        29  -9.1966    112.7710    125.4347   7.8979303823e+01   3.4816640102e+01    0.2213101    0.1533187  24.10 0.0009432523    1.680    0.405
        30 -14.2798     22.6124    197.7485   1.1586740531e+02   2.9204771846e+01     2.397497    0.9491628  52.92  0.009202846    2.498    0.600
        31  -9.4524    103.6144    119.6348   8.0228010925e+01   3.7951534084e+01    0.2476174    0.2275474  17.20 0.0003634032    1.128    0.114
        32 -11.0837    245.6819    118.1254   4.9423952787e+01   9.5730539110e+00    0.2126169    0.1847745 -89.82  0.001349186    1.386    0.279
        33  -9.9096     23.7277    117.0541   1.0612262311e+02   4.9468716400e+01    0.1961026    0.1533382 -59.44 0.0003526752    1.082    0.076
        34  -9.5409    204.7317    110.6834   5.4110652076e+01   1.8596754633e+01    0.3793466    0.2338274  34.14  0.001699429    2.175    0.540
        35  -9.0244     64.8244    103.6108   8.8835259773e+01   4.8279394960e+01    0.2053894    0.1331889  42.37 0.0006614408    1.720    0.419
        36 -10.8328    242.6347    102.0066   4.6497819980e+01   1.2822980240e+01    0.2487509    0.1359591  42.94  0.001213031    2.442    0.590
        37  -8.2150     99.6453    180.7346   9.4165030018e+01   2.3442086748e+01    0.1484537    0.1167096 -11.90 0.0003083106    1.627    0.385
        38 -11.1763    162.8913     84.2697   5.5356468351e+01   3.2656149219e+01    0.4415856     0.268107  52.11  0.001979939    1.658    0.397
        39  -8.9479    184.5010     77.4812   4.9538141129e+01   2.8895652680e+01    0.1396793    0.1342107 -66.72 0.0001143529    1.066    0.062
        40  -9.7825    242.6816     93.6605   4.4756176782e+01   1.4188003829e+01    0.1225643   0.09933326  -8.18 0.0007049307    1.710    0.415
        41 -10.5641     13.4402     60.2164   9.8110680291e+01   6.3541238215e+01    0.2332957    0.1862727 -32.99 0.0004615553    1.018    0.018
        42 -12.6954     75.0167    156.0421   9.6695550756e+01   3.3502949228e+01     1.295559    0.7928624  63.19  0.002144674    2.148    0.534
        43  -8.7765     21.3161    242.4080   1.1924891274e+02   1.9409366153e+01    0.1969377     0.109318  26.38 0.0006833826    2.092    0.522
        44  -9.9026     12.7480    240.0834   1.2077995831e+02   2.0750567731e+01    0.1985247    0.1607159  31.75 0.0007402309    1.471    0.320
        45 -11.1672      2.3785     50.3280   1.0068368132e+02   6.6252052009e+01    0.4545226   0.08788066 -59.92  0.001602896    4.041    0.753
        46  -8.5046     20.5020     52.5017   9.2487339164e+01   6.4576462753e+01    0.1268833    0.1035003 -26.79 -0.0002570552    1.027    0.026
        47  -8.6612     94.7922     46.6022   6.0526252466e+01   5.4289340883e+01    0.1823468    0.1275193  56.40 0.0003227501    1.532    0.347
        48 -11.0238      2.2904     37.8769   9.6997109767e+01   6.8699057485e+01     0.279102    0.2557172  84.07  0.001684443    1.667    0.400
        49  -9.3684    120.6508     28.6393   4.7595368444e+01   5.0894546001e+01    0.3092892    0.1620865 -62.46  0.001162432    3.626    0.724
        50 -11.6440      2.5993    245.5610   1.2296233095e+02   2.0608612596e+01     1.065409    0.2594599 -81.19  0.004353891    3.945    0.747
        51  -8.7587     25.9640    232.4969   1.1769863783e+02   2.0999261273e+01    0.1723123    0.1036732  39.42 0.0006686359    1.536    0.349
        52 -12.2759    206.8751     50.5002   3.9747396536e+01   2.8062028001e+01    0.9076874    0.4486792 -55.61  0.004232442    2.045    0.511
        53 -11.4346      7.1966     20.0935   8.7527480985e+01   7.1478807549e+01    0.3068193    0.1078257 -38.81  0.001508173    2.325    0.570
        54 -10.0493    189.7860     15.2077   3.3435028616e+01   3.6217398536e+01    0.1889308    0.1437645 -74.04 0.0006795893    1.163    0.140
        55 -14.1103     96.2492    225.6920   1.0159565728e+02   1.3570316620e+01     5.630788    0.8126724  43.02   0.01096027    6.014    0.834
