#   1 NUMBER                 Running object number                                     
#   2 MAG_AUTO               Kron-like elliptical aperture magnitude                    [mag]
#   3 X_IMAGE                Object position along x                                    [pixel]
#   4 Y_IMAGE                Object position along y                                    [pixel]
#   5 X_WORLD                Barycenter position along world x axis                     [deg]
#   6 Y_WORLD                Barycenter position along world y axis                     [deg]
#   7 A_WORLD                Profile RMS along major axis (world units)                 [deg]
#   8 B_WORLD                Profile RMS along minor axis (world units)                 [deg]
#   9 THETA_WORLD            Position angle (CCW/world-x)                               [deg]
#  10 FWHM_WORLD             FWHM assuming a gaussian core                              [deg]
#  11 ELONGATION             A_IMAGE/B_IMAGE                                           
#  12 ELLIPTICITY            1 - B_IMAGE/A_IMAGE                                       
         1 -11.4915     84.2132     49.9128   5.3360190167e+01   5.3591104834e+01     1.111332    0.5668671 -17.22  0.005051853    2.653    0.623
         2 -10.6772     82.4987     26.8682   4.6245461641e+01   5.6606794899e+01    0.5889193    0.4599155 -47.59   0.00393862    1.684    0.406
         3 -10.9072     81.0470     18.5816   4.3826869217e+01   5.7655123113e+01    0.3816575    0.1976319 -25.63  0.001505126    1.984    0.496
         4 -10.1680     85.2389     14.1677   4.1392516819e+01   5.7320071229e+01    0.5757138    0.3135336 -54.36  0.002729686    3.874    0.742
         5 -10.5994     77.8541      6.2619   4.0414131274e+01   5.9223441668e+01    0.7063744    0.2123085  50.18  0.003440341    2.652    0.623
         6 -10.0535     75.7840     13.5481   4.3377197593e+01   5.8987517944e+01    0.4433985    0.2031559 -17.59  0.002417766    2.402    0.584
         7 -12.3769    140.2532     37.9399   3.7671189715e+01   4.4414176782e+01    0.5937244    0.3937651  74.22 0.0002926894    1.695    0.410
         8 -10.9488    157.7938     39.0938   3.5092184703e+01   4.0631791981e+01    0.7244527    0.4754002  10.37  0.003613236    2.596    0.615
         9 -10.5742    201.8474     38.2368   2.8940620539e+01   3.1498319896e+01    0.4406219    0.2173641 -47.01  0.001163936    1.887    0.470
        10 -10.8025    178.7445     20.9042   2.7812713648e+01   3.8304796377e+01    0.4560007    0.2600088 -57.00  0.002573425    1.871    0.466
        11 -11.5085    236.5286     29.6677   2.3656418059e+01   2.5634214869e+01    0.4179786    0.3250341 -36.55  0.001878531    1.545    0.353
        12 -11.3027    225.5886     20.0616   2.2804410629e+01   2.8918188560e+01    0.7314795    0.4970473  31.88  0.004127938    2.924    0.658
        13  -9.9663    247.0183     13.9696   1.9947556170e+01   2.5536611699e+01    0.3040859    0.1681957  76.70  0.001490978    1.663    0.399
        14 -11.7182    239.0176     19.7383   2.1602008598e+01   2.6366147245e+01    0.5879844      0.44181 -49.95  0.001723387    1.308    0.235
        15 -10.6062    231.9943     15.4989   2.1398768240e+01   2.8198943740e+01    0.3366114    0.1705816 -57.97  0.001554232    1.746    0.427
        16  -9.9806     23.5190     24.9100   6.3043307194e+01   6.5219401309e+01    0.6911286    0.1622656 -40.11  0.002761658    4.706    0.788
        17  -9.1827     39.3405      9.5498   5.1873479263e+01   6.4855934324e+01    0.2247476    0.1544486  11.41 0.0009125937    1.199    0.166
        18 -10.6059      9.2871     15.4343   6.4548285664e+01   6.7788722773e+01    0.2513078    0.1887738  -6.41  0.001123842    1.098    0.090
        19 -10.8318     33.2792     25.8505   6.0056071820e+01   6.3976515031e+01    0.5212849    0.4426985 -26.42  0.002571756    1.447    0.309
        20 -10.7441     28.6395     17.9134   5.8596540533e+01   6.5408778663e+01    0.4596336    0.2306202   3.30  0.002186725    2.681    0.627
        21 -10.9858      7.2941     22.0505   6.7879241642e+01   6.7209662238e+01    0.4239413    0.2407435 -17.44  0.002930182    1.475    0.322
        22 -11.1612     31.8712     10.9395   5.4793270083e+01   6.5704673382e+01     0.512402    0.2873566  -0.96  0.001699058    1.798    0.444
        23 -10.4354      8.5989      8.4037   6.1963914475e+01   6.8604658505e+01    0.3003915    0.1792226 -21.19  0.002240012    1.368    0.269
        24 -11.1683     34.7610      2.8993   5.0681196600e+01   6.6033371254e+01    0.2961619    0.2302064  40.33  0.001331854    1.528    0.346
        25 -10.5558     41.0477      2.5039   4.8611798872e+01   6.5210891103e+01    0.2703805    0.1800215  48.78  0.001949016    1.761    0.432
        26 -11.5767      2.9080      4.0195   6.2314602806e+01   6.9607042902e+01    0.3401322    0.2420155 -38.34  0.002632493    2.091    0.522
        27 -10.4302      6.8251      2.8666   6.0322709332e+01   6.9327817118e+01    0.1696655    0.1239246 -11.82 0.0002763467    1.205    0.170
        28 -12.2040    111.1355     19.7906   3.7798291487e+01   5.2087321745e+01     0.521989      0.32099  -2.35  0.002997068    2.072    0.517
        29 -11.2200    112.0464     15.2137   3.6265619867e+01   5.2321492372e+01    0.1720139    0.1585741  46.02            0    1.065    0.061
        30  -9.6202     69.3350     21.2917   4.7669225849e+01   5.9341357055e+01     0.349795    0.1657225 -19.02  0.001894209    2.268    0.559
        31 -11.8711     55.5704     19.4380   5.0768601968e+01   6.1643361178e+01    0.3378477    0.2013821  21.99 0.0007525947    1.606    0.377
        32 -11.3097     58.0674     12.8339   4.7664064783e+01   6.1879432095e+01     0.514915     0.298774  51.52  0.003259905    1.905    0.475
        33  -9.7810     63.0152      9.9978   4.5320044106e+01   6.1355604469e+01    0.1582388     0.128608  14.77 0.0004027128    1.037    0.036
        34 -11.6021    193.0650     17.8985   2.5527615455e+01   3.5677810976e+01     0.563624    0.2562585  66.02  0.001623966    1.967    0.492
        35 -10.4819    152.1290      4.6299   2.7242486171e+01   4.5281528351e+01    0.5930599    0.2194446  52.97  0.002967533    2.372    0.578
        36 -10.0716    149.6818     11.9894   2.9393269052e+01   4.5144941989e+01    0.2333899    0.1875638  48.36  0.001071978    1.226    0.185
        37 -11.6127    151.3543     18.6704   3.0848283113e+01   4.4182917219e+01    0.3989402    0.2790594  79.32  0.002507846    1.438    0.305
        38 -10.2155    155.0156     15.2901   2.9493504772e+01   4.3755015007e+01    0.2187106    0.1909772  -1.91 0.0006273141    1.394    0.283
        39 -10.1496    156.8138     10.5937   2.8101632982e+01   4.3818694068e+01    0.2577946    0.2059797 -77.66 0.0006971253    1.284    0.221
        40 -10.1524    153.0781      9.7022   2.8368042429e+01   4.4657605105e+01    0.1799797    0.1657873 -47.62 0.0003534398    1.198    0.165
        41  -9.9239    136.2030     17.1057   3.2697470543e+01   4.7408219048e+01    0.3783816    0.2835243  32.36  0.002493655    1.444    0.307
        42 -10.4806    116.7481      8.7115   3.3534637909e+01   5.1958727051e+01    0.2232611    0.1812955 -82.64 0.0006314678    1.506    0.336
        43 -10.3712    131.0634     13.2694   3.2466066486e+01   4.8778243571e+01    0.2768804    0.2123449 -89.39 0.0006891708    1.493    0.330
        44 -12.1547    128.1835      5.1147   3.0691072443e+01   5.0016177848e+01    0.8414212    0.2762804  53.33  0.002787959    2.426    0.588
        45 -10.0594    126.2511     15.0139   3.3725852889e+01   4.9578989730e+01     0.212483    0.1934468 -12.50 0.0006686046    1.211    0.174
        46 -11.6160    123.1633     11.1740   3.3160643284e+01   5.0513799244e+01    0.4583649    0.2189056  48.95  0.001500091    1.830    0.454
        47 -11.2283    100.2270     15.9825   3.8781791990e+01   5.4474473281e+01    0.4791323    0.3480124  41.82  0.002311285    1.205    0.170
        48  -9.9062     39.4076     16.6226   5.4574450766e+01   6.4183438743e+01    0.4176373     0.271393  46.42  0.002837111    1.917    0.478
        49 -12.2541     45.7876      9.5775   4.9936845406e+01   6.3963639395e+01    0.3261907    0.2029344   1.05 0.0004079214    1.516    0.340
        50 -10.4942     48.9752      3.1729   4.6584561663e+01   6.4028222998e+01    0.2231272    0.2187419 -78.63  0.001619177    1.659    0.397
        51 -10.7431    221.5209     15.3996   2.2268851106e+01   3.0243076921e+01    0.2751467    0.1944854  60.62  0.001867766    1.559    0.358
        52 -10.1462    176.2133     12.4602   2.6188489001e+01   3.9678364535e+01    0.3054163    0.2465572 -62.20  0.001056392    1.224    0.183
        53 -12.5791    187.1087     13.6854   2.5254236013e+01   3.7329780289e+01    0.3451893    0.2951374 -21.85 0.0003821359    1.484    0.326
        54 -11.9629    182.5961     12.0167   2.5376987826e+01   3.8416584871e+01    0.4122127    0.2961463 -15.94  0.001558836    1.895    0.472
        55  -9.9360     15.6574      2.8160   5.7044998378e+01   6.8384233871e+01    0.3306373    0.3130046 -39.11   0.00284016    2.081    0.519
        56 -10.6606     24.8237     13.0787   5.8005078188e+01   6.6357584863e+01    0.3758582    0.2119011  -9.45 0.0007113034    1.650    0.394
        57 -10.1756     24.0020      7.3673   5.5998011575e+01   6.7003561884e+01    0.3741681    0.1432546  24.52 0.0007830374    3.131    0.681
        58 -11.7282     16.7227     13.7755   6.1141642148e+01   6.7200452199e+01    0.2824412    0.1876989  35.60  0.001947732    1.793    0.442
        59  -9.5655     18.2025      9.3313   5.8820273315e+01   6.7488050352e+01    0.2362723    0.1541932 -48.53  0.001438419    3.339    0.700
        60  -9.5813    144.2912     12.1624   3.0189220981e+01   4.6221937952e+01    0.2844644     0.206416 -58.72  0.001460519    1.566    0.362
        61 -11.2092    208.5583     10.3575   2.2441147494e+01   3.3344321653e+01    0.3366846    0.3183315  44.87 0.0007389507    1.441    0.306
        62 -11.2770    215.7027      7.3107   2.1217692949e+01   3.2249037924e+01    0.5037552    0.2871017 -74.03  0.001154934    1.683    0.406
        63 -10.7519    218.2096      2.8055   2.0154726472e+01   3.2217907697e+01    0.2526566    0.1950147 -70.13 0.0006298546    1.097    0.089
        64 -10.1338     90.8163      9.9514   3.8810499727e+01   5.6682345784e+01    0.3173611    0.2100491  50.22  0.002125263    1.337    0.252
        65 -11.3577     89.6777      3.4658   3.6960518959e+01   5.7374257788e+01    0.4505895    0.2663123  62.47  0.002790935    1.742    0.426
        66 -10.9144    167.6407      6.5877   2.5830836263e+01   4.1971577902e+01     0.332782    0.2424839 -59.22  0.000773097    1.421    0.296
        67 -10.3007    170.5211      2.9447   2.4673933957e+01   4.1706209175e+01    0.2109526    0.1853678  76.66 0.0003703573    1.068    0.064
        68 -10.5512    104.3144      7.6968   3.5444114715e+01   5.4394658605e+01    0.2623875    0.1873483  46.02  0.001794814    1.198    0.165
        69 -10.4620    105.7236      2.5439   3.3638773607e+01   5.4513917424e+01    0.5861444    0.3525615 -81.03  0.003054401    3.175    0.685
        70  -8.7017    137.5248      8.2936   3.0154727109e+01   4.7911951467e+01    0.1408074    0.1004467 -44.85 0.0007179197    1.570    0.363
        71  -9.7249    238.2471      6.7809   1.9334098561e+01   2.7976405473e+01    0.2705177    0.1449241 -80.04  0.000814394    1.735    0.424
        72  -9.3600    225.2746      7.1785   2.0403541361e+01   3.0402465870e+01    0.2183956    0.1261802 -89.42 0.0008503837    1.562    0.360
        73  -8.9043     98.2163      7.2310   3.6458525157e+01   5.5556475082e+01    0.1643813    0.1267721  34.40   0.00107932    1.143    0.125
        74 -11.0187    196.7370      2.6906   2.1981399074e+01   3.6455859001e+01    0.7259253    0.2948916  84.87  0.003431834    2.865    0.651
        75 -10.1556    204.5973      3.3811   2.1412173577e+01   3.4828807283e+01    0.2677921    0.2099929  38.70  0.001343153    1.802    0.445
        76  -9.3798    178.7651      6.0075   2.4465424533e+01   3.9764850744e+01    0.2403458    0.1541446 -40.77  0.001211505    1.633    0.388
        77  -9.9795    176.0302      2.9489   2.4080738074e+01   4.0592431683e+01     0.223625    0.1713043 -32.36 0.0004799494    1.506    0.336
        78  -9.6434    120.5299      3.3937   3.1403816344e+01   5.1637606974e+01    0.2849621    0.1732831 -23.49  0.001825084    1.857    0.462
        79  -9.9651    244.6812      1.5427   1.7968412089e+01   2.7340779675e+01    0.4276436    0.1053263  73.88  0.001872084    3.807    0.737
        80  -9.2691    229.8806      2.1631   1.9131942453e+01   3.0043014151e+01    0.1648354    0.1116279 -74.09 0.0003015265    1.201    0.167
        81 -10.1836     23.9216      1.9492   5.3812901094e+01   6.7491684719e+01    0.1673068    0.1268619  28.71 0.0003730854    1.377    0.274
        82  -9.2940     62.9971      1.6598   4.2328429250e+01   6.2000474385e+01    0.3048764    0.1396045  58.20  0.001688085    2.555    0.609
        83  -8.8222    114.9524      1.0000   3.1622512809e+01   5.2881876204e+01    0.1717974   0.05370915  62.38 0.0003601659    2.774    0.640
        84  -8.9501     55.5258    104.3941   7.7513621465e+01   4.8274559261e+01    0.3520473    0.1678269 -31.14   0.00142352    2.698    0.629
        85  -8.5164     61.7684    103.0429   7.5383770253e+01   4.7746962223e+01    0.1895877   0.09873886 -49.59 0.0008819693    1.651    0.394
        86  -8.3844    127.2823    101.6943   5.7921157818e+01   3.7003086899e+01    0.1422924    0.1121133 -73.60 0.0002244691    1.558    0.358
        87  -8.5260     53.6640    101.3008   7.7262880455e+01   4.9159546560e+01    0.1240583    0.1032445 -87.81 0.0005643324    1.659    0.397
        88  -8.2983    148.4724    100.5358   5.2926704767e+01   3.2936045962e+01     0.146348    0.1353444 -53.73 8.901618e-05    1.020    0.020
        89 -10.6111    118.1020     97.2057   5.8873183954e+01   3.9665306468e+01    0.4658259     0.368704 -17.01  0.001746064    1.426    0.299
        90  -8.8522     97.1781     95.6651   6.3681723070e+01   4.3786319702e+01    0.2274108    0.1686944  -6.86 0.0006950514    1.689    0.408
        91 -11.5783    101.6664     97.9012   6.3141073801e+01   4.2559756820e+01    0.2526298     0.247651  13.78 0.0002711762    1.114    0.103
        92 -10.5221    108.1154     96.0891   6.1010710849e+01   4.1752539386e+01    0.3995154    0.2485302  52.91  0.001110938    1.896    0.473
        93  -9.2950     63.5332     98.5362   7.3696640919e+01   4.8442433477e+01    0.1879062    0.1630215 -79.30  0.000615187    1.488    0.328
        94  -9.0716     61.7479     95.3709   7.3361184268e+01   4.9327070583e+01    0.2471865    0.1572169 -43.58 0.0005337549    1.338    0.253
        95  -9.7258     16.9863     98.1481   8.7343959418e+01   5.3615731027e+01    0.2181574    0.1369925 -44.71 0.0007928763    1.235    0.190
        96 -10.2168     26.8537     97.0358   8.4126743349e+01   5.2975885923e+01    0.2480508    0.2003286 -21.20 0.0003823334    1.260    0.206
        97  -9.4436     22.6522     96.0564   8.5157476872e+01   5.3563107262e+01    0.5050527      0.18737 -62.66   0.00195787    3.278    0.695
        98  -9.1477     51.1140     97.1846   7.6942123908e+01   5.0326033290e+01    0.1922174    0.1500181 -30.39 0.0003534708    1.161    0.138
        99 -12.6090     34.6371     89.2680   7.9817383133e+01   5.3783612724e+01    0.4696219    0.3230676 -57.91  0.002760994    1.480    0.324
       100 -10.1001     53.8417     88.9601   7.3928856687e+01   5.1631248887e+01    0.4100913    0.1917219  32.07  0.001107688    2.463    0.594
       101  -9.2319     90.3938     92.5408   6.4596264609e+01   4.5548380623e+01    0.3283576    0.1881833  26.62  0.001069425    2.246    0.555
       102  -9.7247      9.3420     90.4345   8.7894998711e+01   5.5802376784e+01    0.4335099    0.1017787 -50.00  0.001220097    2.732    0.634
       103  -9.8641     12.9887     88.1258   8.6223532308e+01   5.5986081029e+01    0.1911971    0.1346424 -48.19 0.0003033686    1.102    0.093
       104  -9.3324    137.5495     92.2634   5.3077784905e+01   3.6754460757e+01    0.1935429    0.1333206 -31.38 0.0003052743    1.504    0.335
       105  -9.5033    139.0136     87.5279   5.1485776914e+01   3.7320225342e+01    0.3546972    0.2048274 -54.24  0.001260158    1.944    0.486
       106  -9.6701    113.1145     91.5824   5.8527607067e+01   4.1686113543e+01    0.2621048    0.2248393  -1.38 0.0008139605    1.288    0.224
       107 -10.6305    111.9929     82.9545   5.6368342421e+01   4.3472123748e+01    0.3141221    0.2552355  31.69            0    1.308    0.235
       108 -12.4535    105.5009     80.2118   5.7171602841e+01   4.5160634374e+01    0.8822164     0.661508 -12.67  0.002726232    1.522    0.343
       109  -9.7066     65.6797     90.8606   7.0989347562e+01   4.9679990196e+01    0.2658839    0.2023157 -73.71 0.0009570708    1.919    0.479
       110  -9.8778     85.7586     88.2780   6.4635374471e+01   4.7125942809e+01    0.4204595    0.3000649 -59.71  0.002185976    1.706    0.414
       111  -9.8310    124.4995     85.5846   5.4165780893e+01   4.0591406492e+01    0.4119668    0.2171539 -46.97    0.0018164    1.893    0.472
       112  -9.7778    120.1415     87.4635   5.5698951526e+01   4.1104987039e+01    0.3470849     0.275557 -49.71  0.001088225    1.259    0.206
       113 -10.3641    120.8634     82.4196   5.4117261799e+01   4.1864785625e+01    0.2483439    0.2430387 -42.17 0.0003271018    1.059    0.056
       114  -9.7794    110.0600     87.9619   5.8259837752e+01   4.2930814319e+01    0.2142856    0.1976737 -23.38 0.0005767262    1.028    0.028
       115  -8.5641     83.4978     80.9883   6.3140099817e+01   4.8831662988e+01    0.2050807    0.1776186  74.38 0.0009584032    1.595    0.373
       116  -9.7289     87.4815     80.1440   6.1812246385e+01   4.8327843980e+01    0.3132225    0.1903171  39.48 0.0004957164    1.763    0.433
       117  -9.0179     71.7031     81.1240   6.6475619518e+01   5.0642679313e+01    0.3383038    0.1568328 -53.52  0.001371824    2.716    0.632
       118  -9.4068     76.5488     86.5265   6.6672338519e+01   4.8912875508e+01    0.2788363    0.2249585 -71.61  0.001235457    1.706    0.414
       119  -9.2793     75.8045     83.3947   6.5976726543e+01   4.9608316279e+01    0.3163363    0.2068774  14.63  0.001382009    1.961    0.490
       120  -9.9283     79.9215     81.0155   6.4132176252e+01   4.9399397106e+01    0.2168792    0.1881252  -3.52 0.0003078736    1.137    0.121
       121  -9.9551    156.8516     85.5122   4.7315185119e+01   3.3955516608e+01    0.2416184    0.1854919 -60.59  0.001268045    1.358    0.264
       122  -9.5465    131.4238     86.1762   5.2770026308e+01   3.9105607524e+01    0.2271886    0.1908345  46.50 0.0002676588    1.250    0.200
       123  -8.3654    153.6350     85.7226   4.7999258513e+01   3.4597664201e+01    0.1397084    0.1105505  16.38 0.0007009367    1.674    0.403
       124  -9.7489     40.9317     91.4250   7.8467019879e+01   5.2678377464e+01     0.364815    0.2189328 -11.38   0.00181113    2.309    0.567
       125  -9.1331    127.1364     91.4154   5.5171724676e+01   3.9006630604e+01    0.3363172    0.1405399  50.87  0.001291029    2.632    0.620
       126  -9.9500    188.2205     82.8075   4.1073333670e+01   2.7739760223e+01    0.2768421    0.2204495  29.99  0.001487695    1.687    0.407
       127  -9.6729      1.8989     83.0742   8.8498597169e+01   5.7794741257e+01     0.177936    0.1327941 -43.83   0.00057523    1.018    0.018
       128 -10.0084    147.0664     81.4863   4.8188950492e+01   3.6713592902e+01    0.2367283    0.2286652 -57.89 0.0003633981    1.013    0.013
       129 -11.0184     54.0414     80.9673   7.1614735705e+01   5.3124226679e+01     0.236823    0.1794045 -37.05 0.0003152842    1.122    0.109
       130  -8.7199     18.9110     83.0000   8.3091656244e+01   5.6506145596e+01    0.1641023   0.06818274  24.41 0.0007726161    2.907    0.656
       131  -9.0505    143.0497     81.1314   4.8912076972e+01   3.7610855617e+01    0.2092898    0.1868872  -4.06 0.0008392339    1.262    0.208
       132 -10.2913     47.7386     90.7985   7.6251514064e+01   5.2020093044e+01    0.5105811    0.3236594 -21.79  0.001652046    1.767    0.434
       133  -9.1191     43.2674     80.0435   7.4640116256e+01   5.4611459563e+01    0.3696076    0.1915548  48.12  0.001716533    3.119    0.679
       134  -8.6658     36.1603     78.1415   7.6320042482e+01   5.5758079666e+01    0.1623702     0.130319 -51.94 0.0008066577    1.335    0.251
       135  -8.7742    187.4281     76.2299   3.9626423754e+01   2.9012014011e+01    0.1834089    0.1165382 -51.79    0.0002636    1.487    0.328
       136 -11.2577    152.2487     73.0656   4.4932955917e+01   3.7026497332e+01    0.5081001    0.2965897 -23.40  0.001016983    2.242    0.554
       137 -11.6470    161.2320     55.7830   3.8813931171e+01   3.7728256014e+01     0.557805    0.3358097 -38.46   0.00173201    1.651    0.394
       138 -11.5944    158.5215     71.6339   4.3387928526e+01   3.5927960356e+01    0.7971979     0.271084 -45.69  0.002289808    2.985    0.665
       139 -10.2876    161.2022     64.5671   4.1078978693e+01   3.6454488768e+01    0.3064169    0.2188395 -44.21  0.000921024    1.363    0.267
       140 -10.5913    153.0424     64.8221   4.2603571310e+01   3.8145672944e+01    0.4429494    0.3358136  25.70            0    1.675    0.403
       141 -11.0676    147.2172     61.9867   4.2926600081e+01   3.9793447842e+01     0.533299    0.3874391  31.57 0.0007857741    1.647    0.393
       142 -12.6241    150.6968     57.4717   4.1080623486e+01   3.9716123050e+01    0.3439047    0.2794338 -58.76 0.0005415259    1.286    0.223
       143  -9.3832    119.1642     72.1870   5.1596975537e+01   4.3919542730e+01    0.2290771    0.1681334  43.91 0.0006691932    1.395    0.283
       144 -10.4384    123.4832     76.0199   5.1711759066e+01   4.2443402771e+01    0.4262249    0.2004496  49.93   0.00138862    2.207    0.547
       145  -9.5297    123.8630     71.4008   5.0315282243e+01   4.3122508079e+01    0.4018716    0.2332567 -19.01  0.001471052    2.392    0.582
       146 -10.4936     77.8130     75.4401   6.3062900782e+01   5.0713142679e+01    0.4495978    0.3333437  26.31  0.001357377    1.431    0.301
       147  -9.3485     83.3561     73.1829   6.0854562797e+01   5.0209393417e+01    0.2484932    0.1948698  -7.52 0.0007851843    1.320    0.242
       148  -9.7218     59.9444     76.1657   6.8438434354e+01   5.3211727953e+01    0.2691388     0.171592  32.65  0.001500754    1.722    0.419
       149 -10.8368     51.2250     70.0159   6.9226003814e+01   5.5435339037e+01    0.3008635    0.2128156 -47.06  0.000511079    1.445    0.308
       150 -10.2572     56.1055     73.1833   6.8696781727e+01   5.4252860176e+01    0.5145868      0.26555 -18.51  0.002162134    3.023    0.669
       151 -11.1227     46.2910     73.2578   7.1728977647e+01   5.5484839905e+01    0.4251596    0.3343426 -66.35 0.0009205107    1.837    0.456
       152 -11.5939      7.9508     74.0772   8.4312163427e+01   5.9083958292e+01    0.3276909    0.2285419 -15.26 0.0007251076    1.449    0.310
       153  -8.9945      3.7129     72.6717   8.5342582378e+01   5.9653141161e+01    0.1507286   0.09763334 -19.23 0.0003842812    1.536    0.349
       154  -9.2285    143.1338     71.1362   4.6189466656e+01   3.9244951498e+01    0.2064589    0.1806574 -72.85 0.0004625697    1.238    0.192
       155 -10.2199    139.8207     69.2212   4.6330134314e+01   4.0233772465e+01    0.2524693    0.2111528 -25.19  0.000996904    1.247    0.198
       156 -10.3093    136.5186     73.7932   4.8264107231e+01   4.0183990659e+01     0.375424    0.2756285  15.54  0.001205545    1.839    0.456
       157 -10.4262    136.4846     69.4933   4.7083721677e+01   4.0877999348e+01    0.2588152    0.2215137 -11.51 0.0007020371    1.289    0.224
       158  -9.4830     88.6656     74.4919   5.9817978961e+01   4.9107450461e+01    0.2215767    0.1904192 -38.47 0.0005334544    1.156    0.135
       159  -9.3142     23.9903     72.5878   7.8650269920e+01   5.8002494392e+01    0.2162649    0.1229856 -36.38 0.0006715198    1.423    0.297
       160 -10.7732     17.4158     70.6626   8.0266456623e+01   5.8944944402e+01     0.274594     0.199364 -39.45 0.0006973028    1.089    0.082
       161  -9.6660     12.0146     67.4328   8.1160516515e+01   5.9976563081e+01    0.3675821    0.1813457  28.61  0.001336885    2.413    0.586
       162 -10.1313     63.1770     70.7539   6.5845528142e+01   5.3699837601e+01    0.4608217    0.2916576 -49.11  0.002515811    1.700    0.412
       163  -9.3386     58.6623     66.0089   6.5724949514e+01   5.5119783092e+01    0.4031126    0.1970495  25.23   0.00189988    2.545    0.607
       164 -10.5521     60.7388     60.4004   6.3330243442e+01   5.5724515422e+01    0.4032107     0.315346  87.23  0.001891058    2.711    0.631
       165 -10.7167     61.8712     57.1725   6.1954603522e+01   5.6056157163e+01    0.2401784    0.1973211  31.36 0.0002726962    1.321    0.243
       166 -10.9879     30.5768     71.0663   7.6073585419e+01   5.7628403019e+01    0.2265568    0.1906074 -29.54  0.000109255    1.104    0.095
       167 -11.1282     34.7100     67.6382   7.3720943225e+01   5.7793177194e+01    0.2739271    0.2583626  50.27 0.0006649027    1.541    0.351
       168  -9.9598     34.1915     63.1511   7.2521923683e+01   5.8610228889e+01    0.4655749    0.2011397 -30.41  0.002197342    2.392    0.582
       169  -9.8480     27.2483     56.5607   7.2760882123e+01   6.0420931191e+01    0.2166032    0.1726121  -4.72 0.0007419248    1.172    0.147
       170 -11.4267     30.5152     53.5473   7.0695266231e+01   6.0552611814e+01    0.4376372    0.2731881 -52.75  0.001597046    2.074    0.518
       171 -10.7920    165.3539     69.6761   4.1665790047e+01   3.4782746940e+01    0.3740185    0.2864403 -27.67  0.001705599    1.441    0.306
       172  -9.1717    128.8234     71.3777   4.9223316450e+01   4.2136064443e+01    0.1811322    0.1211316  39.35 0.0003491945    1.596    0.373
       173  -9.9874    106.1487     57.4473   5.0269288925e+01   4.8645282215e+01     0.460981    0.2415109  47.03  0.002278879    1.896    0.473
       174 -12.0143    111.0364     65.8624   5.1634068460e+01   4.6479892822e+01     0.455846     0.295589  23.15 0.0003114234    1.962    0.490
       175  -9.0437     97.4998     69.7661   5.6101722580e+01   4.8355987450e+01    0.3615973    0.1193057 -40.79  0.001370787    2.898    0.655
       176 -10.8460    180.9493     63.8038   3.7647768343e+01   3.2355113997e+01    0.4358105    0.2593688 -34.13 0.0005543045    1.761    0.432
       177 -10.1057    177.0077     63.9741   3.8304998832e+01   3.3170964826e+01    0.2141107    0.1968285  69.64  0.001339541    1.116    0.104
       178 -10.0315     86.9300     66.9615   5.7998112117e+01   5.0633431691e+01    0.4082238    0.2494425  -6.02   0.00140735    2.450    0.592
       179  -9.9297     73.1025     67.8281   6.2068834655e+01   5.2720204712e+01    0.2974878    0.2152276  26.59   0.00100956    1.440    0.305
       180 -10.3473     79.1209     66.0630   5.9837548314e+01   5.2059352232e+01    0.4230731    0.2669773  17.23  0.001518391    1.974    0.493
       181  -9.3890     78.0469     55.6002   5.6834599546e+01   5.3817260905e+01     0.353255    0.1625393 -39.22   0.00170507    2.116    0.527
       182  -9.0560    106.9626    246.6324   9.1695615351e+01   7.4554427745e+00    0.2130174    0.1690204 -56.81 0.0009064066    1.298    0.229
       183 -10.5405     69.1360    217.0830   9.5157238528e+01   1.9577060630e+01    0.4891256    0.2953261  87.80  0.002369592    1.896    0.473
       184  -9.2991     89.9516     33.9255   4.6759996773e+01   5.4561875711e+01    0.2431412    0.1716239 -47.73 0.0009694777    1.812    0.448
       185 -10.2989     73.7237    214.0101   9.3806838357e+01   1.9645838307e+01    0.4403808    0.3210881 -69.74  0.001714122    1.195    0.163
       186  -9.6753     76.7116    222.6884   9.4385623928e+01   1.7207293427e+01    0.2080421     0.176163  67.94 0.0003668606    1.155    0.134
       187 -11.3289     77.1280    219.4361   9.3862049351e+01   1.7894243009e+01    0.5895562    0.4273657   6.31  0.002239197    2.531    0.605
       188 -10.1820     75.6752     20.6368   4.5826814627e+01   5.8369023409e+01    0.2519428    0.1723349  38.90 0.0007158606    1.302    0.232
       189  -9.1484     91.4532    214.5182   9.0223290545e+01   1.6898116465e+01    0.2576227    0.1349262  40.30 0.0007283771    2.047    0.512
       190 -11.5607     90.8399     43.8747   4.9741952805e+01   5.3232703426e+01    0.2868775    0.2333238  24.43 0.0002870979    1.154    0.133
       191 -11.1087     89.2492     38.2571   4.8329011380e+01   5.4191238504e+01    0.2631731    0.2413299 -72.40 0.0001943226    1.476    0.322
       192 -11.3564     43.3301     61.2630   6.8981676454e+01   5.7870836855e+01    0.5548248    0.2555803 -34.51  0.001291969    1.927    0.481
       193  -9.3907    194.6645     65.5690   3.6023959531e+01   2.9170592520e+01    0.3094213    0.1593764 -41.19 0.0005673763    1.819    0.450
       194  -9.5543    189.3262     62.2824   3.6028599388e+01   3.0800646238e+01     0.273513    0.1997931  35.24  0.001127652    1.862    0.463
       195  -9.3994    192.6304     61.2554   3.5313270724e+01   3.0253775815e+01    0.2387783    0.1709666  87.98 0.0003119118    1.492    0.330
       196  -9.1921     26.8225     65.5960   7.5687100716e+01   5.8963501851e+01    0.1939292    0.1292632 -31.05 0.0005948336    1.211    0.174
       197  -8.9319    137.4734     64.9742   4.5632851200e+01   4.1370951238e+01    0.2043595    0.1275324 -35.67 0.0006678585    1.594    0.373
       198 -11.0267     22.0457     60.9078   7.5867574127e+01   6.0222303039e+01    0.2300352    0.1675549 -14.30  0.001569676    1.244    0.196
       199 -10.4728     17.9570     41.3471   7.0953077185e+01   6.3651426120e+01    0.3513361    0.2322646 -58.35  0.002047732    2.789    0.641
       200  -9.3217      2.2905     63.8345   8.3456429374e+01   6.1350378155e+01    0.2011719    0.1562909 -48.87  0.001225141    1.286    0.222
       201 -10.5798      7.6768     58.1319   7.9962333409e+01   6.1931495149e+01    0.4918753    0.2908869 -10.83  0.001525742    1.808    0.447
       202 -10.0190     10.2781     51.9436   7.7163394755e+01   6.2736217155e+01    0.2898751    0.2435709 -40.59  0.001627662    1.363    0.266
       203  -9.8104     26.2463     48.2516   7.0398103814e+01   6.1809928899e+01    0.3975676    0.2262966  -5.60  0.002159605    2.087    0.521
       204 -10.4180     20.1194     54.9024   7.4661716862e+01   6.1388286172e+01    0.3501973    0.1736682 -28.09  0.001281942    1.870    0.465
       205 -10.4822     17.9730     48.6014   7.3380783144e+01   6.2576623470e+01    0.3908314    0.2751365 -21.46  0.001117503    1.122    0.109
       206  -9.0782     21.5635     47.4661   7.1752423071e+01   6.2402572615e+01     0.167562     0.112355 -23.86 0.0001067279    1.191    0.161
       207  -8.6601    172.4700     63.0142   3.8793666653e+01   3.4284649056e+01    0.1951844    0.1257254 -38.10  0.000855839    1.540    0.350
       208 -10.2582    167.6916     61.3613   3.9160512841e+01   3.5550259548e+01    0.3563392    0.2462735 -17.64  0.001118942    1.927    0.481
       209 -10.0117    131.9034     60.8831   4.5620562194e+01   4.3116747347e+01    0.2780085    0.1820401 -40.77  0.001220922    1.525    0.344
       210  -8.9890    100.0956     62.1110   5.3139836970e+01   4.9078353594e+01    0.1929845    0.1609877   1.57 0.0003871514    1.220    0.180
       211 -10.3740    218.9087     59.6289   3.1509817048e+01   2.5030172432e+01    0.3045511    0.2189105 -65.39  0.001140677    1.253    0.202
       212  -8.5586    200.6524     61.2685   3.4203502348e+01   2.8561191986e+01    0.1340849   0.09001441 -75.13 0.0004112749    1.617    0.382
       213  -9.1213    108.7906     61.0164   5.0721355768e+01   4.7633217675e+01    0.1904247      0.17935 -12.16  0.001230051    1.032    0.031
       214  -9.3004    206.1483     52.8252   3.1606612936e+01   2.8644281387e+01    0.2209662    0.1698725 -49.66 0.0006677185    1.215    0.177
       215 -10.1162    201.6229     49.8258   3.1512325418e+01   3.0005974986e+01    0.3094534    0.2387059  87.43 0.0006319476    1.237    0.192
       216  -9.5510    196.8060     58.3661   3.4066573666e+01   2.9799232907e+01    0.2219579     0.216915 -27.55 0.0004346145    1.261    0.207
       217 -10.8789    200.3661     55.0434   3.2838378960e+01   2.9533290936e+01    0.3181137    0.2572565 -81.14   0.00197968    1.153    0.133
       218 -10.5727    184.9595     56.1412   3.5212582937e+01   3.2627919891e+01    0.6537362    0.2346915 -43.08  0.002705721    2.586    0.613
       219 -10.4804    174.4017     53.0851   3.6040194275e+01   3.5304099679e+01    0.4622557    0.3786979  24.96  0.001220557    1.598    0.374
       220  -9.6905    178.9729     53.2956   3.5407150266e+01   3.4302394252e+01    0.2640725    0.2273887  87.30   0.00113313    1.108    0.097
       221  -8.9300    172.3272     48.7479   3.5289825916e+01   3.6335343097e+01    0.3037807    0.1025235  55.98  0.001171485    2.772    0.639
       222  -9.8470     92.6292     57.2931   5.3525709989e+01   5.1116305929e+01    0.2659021    0.2141115 -60.26 0.0008057738    1.654    0.395
       223  -9.7717     95.4792     56.4835   5.2557673769e+01   5.0728703119e+01    0.2802775    0.2480993 -30.08  0.001821487    1.148    0.129
       224  -9.6819    222.8209     55.5276   3.0186397960e+01   2.4842148043e+01    0.2482578    0.1567266 -51.41  0.000758107    1.381    0.276
       225 -12.7346    137.9779     47.1248   4.0597736243e+01   4.3757448860e+01    0.6493837    0.4929988  62.71  0.001142187    1.317    0.240
       226 -10.5520    117.7115     51.5695   4.5914052429e+01   4.7245480568e+01    0.5921242    0.3506027  14.92  0.002614369    2.860    0.650
       227 -10.8011    128.0944     53.3421   4.4260145296e+01   4.4948261435e+01    0.4772806    0.3721375  11.63  0.001586449    1.527    0.345
       228 -12.0709    122.5691     49.9011   4.4402207433e+01   4.6510738833e+01    0.3609757    0.3438756 -59.47  0.001418562    1.146    0.127
       229  -9.5137     45.0780     50.7434   6.5003259904e+01   5.9273348993e+01    0.4253122     0.153315 -31.47  0.001856645    2.844    0.648
       230  -8.5982     40.5152     52.0485   6.6904007095e+01   5.9642206341e+01    0.1780691   0.09851737 -36.53  0.001026067    1.571    0.363
       231 -10.8599      2.0353     51.0722   7.9831542619e+01   6.3523879957e+01    0.2339972    0.1259843 -35.20  0.000440455    1.397    0.284
       232  -9.3864     35.0206     51.0842   6.8385182476e+01   6.0429552636e+01    0.1722534    0.1326659 -15.76 0.0003291068    1.047    0.045
       233 -11.6936    233.1372     48.3295   2.7595913363e+01   2.3816994376e+01    0.2408849    0.1845713 -63.82 0.0002533447    1.073    0.068
       234  -9.4213    193.8149     49.2260   3.2382811129e+01   3.1723505718e+01    0.2659729    0.2324737  31.10  0.001691379    1.509    0.337
       235  -8.6496     90.4086    206.1948   8.9167454883e+01   1.9014711657e+01    0.2031074    0.1226927 -72.61 0.0005533118    1.683    0.406
       236  -9.4518    104.2760     48.8835   4.8100792875e+01   5.0162578085e+01    0.4718597    0.2066027 -33.78  0.002200761    2.273    0.560
       237 -10.0158    110.8485     49.0985   4.6677529718e+01   4.8896115311e+01    0.2486092    0.2080734 -43.70 0.0002757941    1.297    0.229
       238  -9.6454    110.3439     44.6926   4.5461418716e+01   4.9553436138e+01    0.2178269     0.211614  76.04 0.0009936413    1.173    0.148
       239 -10.2358    107.4731     43.4995   4.5731854966e+01   5.0245350399e+01    0.2850159    0.2069909  41.93 0.0009013992    1.310    0.236
       240 -10.3798    211.7612     49.5429   3.0212979869e+01   2.7946818460e+01    0.2828999     0.188534 -82.56 0.0008814334    1.548    0.354
       241  -9.3771     62.9042     48.7595   5.8884968117e+01   5.7117787655e+01    0.2023234    0.1487861 -25.36 0.0006526599    1.230    0.187
       242  -9.2112    246.5009     47.6848   2.6141405531e+01   2.1325903806e+01    0.1843037    0.1521181 -43.02  0.000933216    1.390    0.281
       243  -9.2261      7.0644     46.2019   7.6484687926e+01   6.3901193885e+01    0.2040274     0.106837 -27.94 0.0008202854    1.602    0.376
       244 -12.1507    163.5043     42.6308   3.5107332599e+01   3.8995364429e+01    0.3832991    0.2859584 -86.26   0.00226344    1.475    0.322
       245 -10.2060      2.8509    193.2894   1.0556641873e+02   3.2834214266e+01    0.1936527    0.1305169  72.25  0.001207903    1.460    0.315
       246 -10.9653    153.8696     35.1708   3.4696134574e+01   4.1915284137e+01    0.5729564    0.3976199 -26.29  0.003403966    1.614    0.381
       247  -9.5441    149.3951     33.3172   3.4918550955e+01   4.3056817093e+01    0.2479808    0.2287093   2.39 0.0005271585    1.232    0.188
       248 -10.1159     68.9412     44.6066   5.5763262877e+01   5.6763099120e+01    0.5890145    0.2735261  51.90   0.00278335    2.881    0.653
       249 -11.4930     54.2233     34.4983   5.6568997101e+01   6.0205655685e+01    0.4159771    0.1993747 -35.94  0.001352015    2.065    0.516
       250 -10.4410     62.1266     36.9616   5.5105139525e+01   5.8758248729e+01    0.3781661    0.2891704  41.58  0.001829082    1.445    0.308
       251  -9.6730     33.5777     44.1229   6.6516276575e+01   6.1606588252e+01    0.4171633     0.187284 -24.26  0.002071945    2.450    0.592
       252 -10.0173     33.0522     37.3912   6.4340398587e+01   6.2583496760e+01    0.2280267    0.1356183 -34.68  5.89541e-05    1.532    0.347
       253  -8.6916    228.5205     45.4716   2.7505734995e+01   2.5125227792e+01     0.120519    0.1014892 -72.02 2.667074e-05    1.062    0.058
       254 -10.0552    179.1472     43.9779   3.3149277498e+01   3.5517032877e+01    0.3859849    0.2146577  71.48   0.00135819    1.858    0.462
       255  -9.4501     78.6826     44.3427   5.3009261967e+01   5.5242364729e+01    0.2114207    0.1888372 -71.85 0.0007537411    1.640    0.390
       256  -9.6024    210.3727     42.7416   2.8923790515e+01   2.9157072876e+01    0.2772492    0.2394569 -80.35  0.001885985    1.048    0.046
       257  -8.6893    191.9299     44.4437   3.1539989692e+01   3.2761790038e+01    0.1761996   0.09786432 -85.45 0.0005156951    2.445    0.591
       258  -9.1583     55.7279     43.9881   5.9409592701e+01   5.8795464335e+01    0.1577301    0.1233275 -14.06            0    1.096    0.087
       259  -9.3329    218.4067     41.4869   2.7769234405e+01   2.7688725326e+01    0.2127072    0.1745992 -75.58 0.0005432377    1.019    0.019
       260  -9.6008      1.3906    184.9489   1.0498704096e+02   3.4911848670e+01    0.3328708   0.08920096 -69.87  0.001328797    2.727    0.633
       261 -10.0365    240.7102     39.4641   2.5128555688e+01   2.3559767947e+01    0.3952486    0.3090802   7.89  0.001880344    2.692    0.629
       262  -9.6605    250.6148     37.2987   2.3832080726e+01   2.1971695051e+01    0.2669109    0.1059394 -48.50 0.0008501131    2.040    0.510
       263 -11.1158    246.0554     32.1231   2.3278401803e+01   2.3505055927e+01    0.3268662    0.2207091 -59.86 0.0007249649    1.197    0.165
       264 -10.8350    229.9520     39.2682   2.6126800102e+01   2.5679076871e+01    0.3858669    0.2223032  85.07 0.0008755344    1.779    0.438
       265  -8.6535     97.4983     41.5402   4.7400245334e+01   5.2330381977e+01      0.11921    0.1092395  15.12 0.0002852123    1.029    0.029
       266 -10.3186    115.6137     35.7336   4.1667587336e+01   4.9599071734e+01    0.4573226    0.3223052   3.37   0.00230455    1.727    0.421
       267  -8.3227     48.2891     40.6373   6.0540674968e+01   6.0254777069e+01    0.1025993   0.08920521 -50.68 0.0004587304    1.696    0.410
       268 -10.3744    194.6367     37.2417   2.9580071899e+01   3.3120061172e+01    0.2900109    0.1901075 -64.90 0.0002155168    1.530    0.347
       269 -11.4597    127.1771     35.0008   3.9206075563e+01   4.7402130820e+01    0.5508766    0.3439006 -57.63  0.002932689    2.160    0.537
       270 -10.0394    123.9519     30.6531   3.8563709438e+01   4.8518344990e+01     0.236431    0.1839871  51.34 0.0004636155    1.186    0.157
       271  -8.7205     38.2328     37.3740   6.2614341612e+01   6.1965683098e+01     0.227856    0.1273376 -20.49 0.0008525648    1.689    0.408
       272  -9.0346      2.3351     38.0167   7.5512867432e+01   6.5503664689e+01    0.1683045    0.1124451  -9.13 0.0003466363    1.312    0.238
       273 -10.2746     60.4253     41.0330   5.7000313088e+01   5.8505360069e+01    0.2511295    0.2299291  74.59 0.0003254826    1.728    0.421
       274  -8.9444    186.1491     35.3796   3.0211056764e+01   3.5121589576e+01    0.1879421    0.1697016 -29.64  0.001281535    1.310    0.237
       275  -9.7127    113.9692     31.4832   4.0734619206e+01   5.0382757817e+01    0.4687026    0.3048766  88.20  0.002390152    2.627    0.619
       276  -9.9365     73.9500     35.3832   5.1286273500e+01   5.7103388907e+01    0.2384638    0.1557323 -27.06 0.0005164192    1.490    0.329
       277  -8.7678     73.4071     31.4479   5.0096752364e+01   5.7635372414e+01    0.1486141    0.1384928 -48.07 7.230585e-05    1.451    0.311
       278 -10.0505     45.8987     29.4644   5.7315381803e+01   6.1945756257e+01    0.4885449    0.3029819   4.60  0.002632825    1.670    0.401
       279  -8.7099     28.5267     36.4768   6.5551128457e+01   6.3220236467e+01    0.1133436   0.08449596 -10.52 4.299334e-05    1.054    0.051
       280 -10.6394    180.3159     28.9095   2.9459001158e+01   3.7101455563e+01    0.5239427    0.3630853 -10.09  0.003004913    2.157    0.536
       281  -9.7447    182.6954     24.6859   2.8200038109e+01   3.7079257169e+01    0.2055258    0.1840879  63.84 0.0007592519    1.183    0.155
       282  -8.9142     25.1593    174.1623   9.8658646168e+01   3.5271621061e+01     0.173402    0.1297136  87.34 0.0003045619    1.289    0.224
       283 -10.6549    170.4896     32.1408   3.1510535485e+01   3.8786518644e+01    0.4116908    0.3243862 -42.15  0.002155482    1.312    0.238
       284  -8.9991      6.8757    168.4579   1.0193407376e+02   3.8343632998e+01     0.149916    0.1277751  34.50  0.001022483    1.571    0.364
       285  -9.9638      8.1207    136.9080   9.7190593072e+01   4.5695850032e+01    0.2989088    0.1935267  89.59 0.0002579886    1.780    0.438
       286 -10.7786     23.8697    124.7372   9.0947574489e+01   4.7183376951e+01    0.3176003    0.2661696  23.51  0.002077417    1.520    0.342
       287 -10.7902      5.6258    163.1693   1.0153990052e+02   3.9705139108e+01    0.3996179    0.1736046  36.68  0.001322177    2.772    0.639
       288 -10.9434      6.2662    158.6153   1.0079949635e+02   4.0733626121e+01    0.4015239    0.1433981 -59.41  0.001597276    1.986    0.496
       289 -11.8348    132.0112     29.6789   3.6834081682e+01   4.7010905381e+01    0.3200471    0.2543125 -32.95            0    1.342    0.255
       290 -10.3095     79.9417     33.2832   4.9019468908e+01   5.6354677928e+01    0.6044249    0.4353057  84.98    0.0032443    2.913    0.657
       291  -9.8629      1.5605     21.6308   6.9917550823e+01   6.7772190258e+01    0.2380922    0.1115782 -35.84 0.0009041771    1.769    0.435
       292 -10.6092     17.8807     27.8632   6.6157180217e+01   6.5463117645e+01    0.3931178    0.2329458  15.89  0.002669838    1.636    0.389
       293 -10.9754      2.8306    153.5777   1.0090987590e+02   4.2197920217e+01    0.5035594    0.1966363 -57.57    0.0015102    1.862    0.463
       294 -11.2138     30.7930    125.6719   8.9260445517e+01   4.6312653110e+01    0.3779869    0.3544586 -77.67  0.001333236    1.227    0.185
       295 -10.7896      6.3303    148.0151   9.9312663884e+01   4.3235319480e+01     0.284934    0.2238328  48.60  0.001186121    1.599    0.375
       296 -11.3722     30.8070     31.7415   6.3064347288e+01   6.3566948036e+01    0.2816356    0.2472141 -39.39 0.0006113945    1.649    0.394
       297 -11.5741     11.3497    144.9955   9.7654707866e+01   4.3542402248e+01    0.4357958     0.263719 -79.41 0.0007678904    1.573    0.364
       298 -11.8519     28.6248    136.7945   9.1944513482e+01   4.3929936932e+01    0.6598009    0.3055702 -57.68   0.00142546    1.635    0.388
       299  -9.5281     10.2997     26.0808   6.8271920128e+01   6.6431518757e+01    0.1997257    0.1439931 -12.90 0.0001562682    1.010    0.010
       300 -11.1399     26.6696    130.5458   9.1303713098e+01   4.5582213244e+01     0.435583    0.2883498   5.86  0.001569497    2.164    0.538
       301 -11.5219     22.1926    141.9425   9.4481886201e+01   4.3320087294e+01    0.2730284    0.2103234 -76.36 0.0002778345    1.208    0.172
       302 -10.9164     16.4600    140.7189   9.5716051723e+01   4.4119861131e+01    0.3206819     0.264284 -55.27 0.0002495609    1.137    0.120
       303 -11.0518     12.7238    134.9072   9.5700354047e+01   4.5794351487e+01    0.3364851    0.2376696 -72.02  0.000232961    1.230    0.187
       304 -10.7816     17.4209    133.8486   9.4315614705e+01   4.5647349553e+01    0.3403794    0.2302469 -82.75 0.0005612167    1.585    0.369
       305 -11.4127     12.7160    129.1549   9.4722255451e+01   4.7125828423e+01    0.4741668    0.3308964  42.17 0.0009526708    1.846    0.458
       306 -11.9211     19.3524    159.8071   9.7958080025e+01   3.9306956866e+01    0.4620021    0.3431125  72.57  0.002800625    1.515    0.340
       307  -9.3591     11.3404     33.0987   7.0453561864e+01   6.5421451222e+01    0.1900737    0.1429049  15.04  0.001462891    1.389    0.280
       308  -9.2516    223.7122     30.8419   2.5076366099e+01   2.7994497157e+01    0.1880785    0.1435381  73.66  0.000698394    1.292    0.226
       309  -9.7151    216.4077     29.6460   2.5558988748e+01   2.9599558395e+01    0.2817415    0.1847902 -70.35  0.001180025    1.412    0.292
       310  -9.3097    208.5396     30.8874   2.6628585851e+01   3.1039178017e+01    0.2608353    0.1490264 -70.59  0.001422548    1.864    0.464
       311  -9.0547    207.0084     25.9084   2.5752715113e+01   3.1943732392e+01    0.2189373    0.1458889 -41.72 0.0007482427    1.507    0.337
       312  -9.1574     27.7748     41.9923   6.7747347314e+01   6.2552931031e+01    0.1816051    0.1399715   4.87 0.0006647804    1.195    0.163
       313  -9.1010    230.0152     28.9288   2.4106620126e+01   2.6990748394e+01    0.2432766    0.1586034  33.33  0.001258066    3.250    0.692
       314  -9.1997    146.9967     29.0784   3.4186417907e+01   4.4018437184e+01    0.1685077    0.1558714  53.66            0    1.064    0.060
       315 -10.1036      2.8171     28.9470   7.2150371563e+01   6.6726321472e+01    0.2337124    0.1537394  26.77  0.001092709    1.782    0.439
       316 -10.3266     72.0241     25.9872   4.8592308165e+01   5.8440211105e+01    0.4718964    0.2013091  35.42  0.002378316    2.344    0.573
       317 -10.9980     29.0114    152.1365   9.4482681725e+01   4.0224982778e+01    0.5398762    0.1707156 -47.78  0.002035803    2.992    0.666
       318 -11.5422     19.9922    149.9881   9.6328383185e+01   4.1605065124e+01    0.3456096    0.2264419 -44.53  0.001978039    1.520    0.342
       319 -10.1632    212.0160     22.6000   2.4569466232e+01   3.1316046728e+01    0.2476477    0.2053331 -59.19 0.0007916599    1.161    0.139
       320  -8.9323    129.8980     23.8586   3.5578858105e+01   4.8030018996e+01    0.2070237    0.1068216  38.65 0.0007931888    2.138    0.532
       321  -8.7382    103.7963     24.0263   4.0543630221e+01   5.3073350559e+01    0.1530752     0.134985  21.93            0    1.056    0.053
       322 -10.1548     99.3606     23.5127   4.1314039190e+01   5.3944667069e+01    0.2471959    0.1912518  58.06 0.0007280651    1.337    0.252
       323 -10.1340     66.3820     22.2008   4.8768019200e+01   5.9721972990e+01    0.2498231    0.1911299 -19.04  0.001234779    1.291    0.226
       324  -8.7497     37.4719    147.4832   9.1607004806e+01   4.0470257883e+01    0.1375647     0.109819 -67.18 -1.729029e-05    1.064    0.060
       325  -9.5231    248.5500     22.4819   2.1331073484e+01   2.4243961516e+01    0.1902068    0.1435276 -75.88 0.0005981778    1.039    0.037
       326 -10.0752    164.3861     22.4134   2.9983177277e+01   4.1121501112e+01    0.2462938    0.1908023  53.12 0.0008229829    1.281    0.219
       327  -9.8911     29.1867    146.3304   9.3474538742e+01   4.1604828927e+01    0.2547062    0.1910846  84.70 0.0007761766    1.512    0.338
       328 -10.3880      2.5291    142.6288   9.9441673281e+01   4.4788281321e+01    0.3430595    0.2207078 -85.26  0.001752982    1.553    0.356
       329  -9.7741      1.7619    138.1504   9.8964044706e+01   4.5885076568e+01    0.3320347    0.1713186  87.96  0.001505667    2.809    0.644
       330  -9.1112    143.2040     21.9019   3.2888473630e+01   4.5534117864e+01    0.1712531    0.1482578 -80.64  0.000598873    1.224    0.183
       331 -10.2905    188.4584     20.5760   2.6613300723e+01   3.6335995546e+01    0.1989478    0.1725886 -77.03 7.121106e-05    1.055    0.053
       332  -9.7706     44.4244    141.5862   8.8763660067e+01   4.1120317615e+01    0.2443275    0.1938363 -59.16    0.0006563    1.015    0.014
       333  -9.5791     37.0065    141.2638   9.0605031910e+01   4.2014447045e+01    0.2484055    0.1451683 -45.39 0.0003295629    1.568    0.362
       334  -9.0166     53.5543    133.7222   8.4814320070e+01   4.1912989797e+01    0.2123103    0.1613004  68.08 0.0006824352    1.714    0.417
       335 -10.3611      4.1414    131.3836   9.7311678708e+01   4.7272168822e+01    0.3094739    0.2070356  42.12  0.001073935    1.942    0.485
       336  -9.1871     40.0023    129.9442   8.7640733734e+01   4.4369434908e+01    0.2011914    0.1623313 -56.70  0.001210508    1.022    0.022
       337  -9.5917     63.0672    127.4699   8.0924641908e+01   4.2158801531e+01    0.2511482    0.2313876 -52.88 0.0006957338    1.101    0.091
       338 -10.0079     67.0200    123.9149   7.9049022271e+01   4.2442784970e+01    0.3444403    0.2798601 -34.05   0.00118822    1.210    0.173
       339  -9.7595    130.0436     19.4441   3.4328268917e+01   4.8424989329e+01    0.3828221    0.1662403  65.01   0.00179124    2.298    0.565
       340 -10.6646     48.6456    126.7234   8.4646176399e+01   4.4142028202e+01    0.2947623    0.2321908 -57.04 0.0001002406    1.076    0.070
       341 -11.0094     98.8234    126.0861   7.1213192551e+01   3.7034716466e+01    0.2617605    0.2340137 -54.01  0.000297367    1.053    0.050
       342  -9.5908    230.3234    124.5631   4.3936753627e+01   1.1452772153e+01    0.3243829    0.2440632 -77.68  0.001728339    1.535    0.349
       343  -8.9862     58.8593    125.2409   8.1556774132e+01   4.3226132221e+01    0.2132875    0.1474584 -19.32 0.0009462621    1.878    0.468
       344 -10.1655     20.7099    118.7540   9.0641367538e+01   4.8823705974e+01    0.2691393    0.1975863  15.11 0.0008884845    1.756    0.431
       345  -9.4655     12.6033    107.1947   9.0587039905e+01   5.2044752250e+01     0.299708    0.1334394 -49.74 0.0009740556    1.656    0.396
       346  -9.1631    117.8554     19.3500   3.6417462576e+01   5.0833771672e+01    0.1709775    0.1552847 -40.51 0.0008017604    1.240    0.194
       347 -10.3973      1.8091    112.2453   9.4623175720e+01   5.1732048500e+01    0.4335688    0.1995785 -59.12  0.002003971    1.569    0.363
       348 -11.0416      8.1709    121.8660   9.4639068261e+01   4.9139941305e+01    0.6364527    0.2519866  19.83  0.002966001    3.517    0.716
       349 -11.4205     14.0190    116.4608   9.2040046938e+01   4.9897802546e+01    0.6314039    0.3483998 -15.74  0.002485255    2.778    0.640
       350 -11.4350     10.6108    112.2505   9.2169258253e+01   5.1096603792e+01    0.2565465    0.2340161 -38.87 0.0002920777    1.227    0.185
       351  -8.2836     15.2998     19.3083   6.3840083794e+01   6.6746712785e+01    0.1069602   0.06250756  -4.81 0.0006398655    1.598    0.374
       352  -8.3240     50.4291     17.4799   5.1538488000e+01   6.2581344637e+01    0.1086219   0.08554789   8.14 0.0001262407    1.009    0.009
       353 -11.2243      6.5818    108.4178   9.2553325693e+01   5.2232198978e+01    0.7247677    0.2360315 -46.30  0.002926879    2.358    0.576
       354  -9.3029     82.7332    121.0407   7.4156689282e+01   4.0795170064e+01    0.3165819    0.2130751 -28.53  0.001326221    1.691    0.409
       355  -8.5791     56.4323    122.4872   8.1594850483e+01   4.4167825654e+01    0.1406661    0.1150519 -48.93 0.0001354367    1.014    0.014
       356 -10.8688     58.1035    118.2451   8.0158540985e+01   4.4917139607e+01    0.4708665     0.328199  30.30  0.002556795    1.709    0.415
       357  -9.3139     54.0022    117.2118   8.1052937001e+01   4.5666111086e+01    0.1965626    0.1718343 -67.60  0.001187085    1.217    0.179
       358  -9.7553     40.1285    120.0317   8.5535746113e+01   4.6638249390e+01    0.2630346    0.1986756   5.22  0.001066415    1.694    0.410
       359  -8.6612    102.4076    117.5098   6.8154786029e+01   3.8333473220e+01    0.2228274    0.1483563  41.28  7.11016e-05    1.680    0.405
       360 -10.5594     98.6861    117.3804   6.9072864492e+01   3.9005737098e+01    0.2605286    0.2292954 -49.46 0.0002848908    1.049    0.047
       361  -9.2164     98.5652    113.5356   6.8116716668e+01   3.9863902630e+01    0.2372824    0.1989258 -32.29 0.0001005201    1.149    0.130
       362 -10.0944     66.8721    117.8965   7.7665817957e+01   4.3827282980e+01    0.2264309     0.195554   2.83  0.000703233    1.345    0.257
       363 -10.9070     46.7458    116.1955   8.2841922179e+01   4.6762186514e+01    0.3692073    0.1963955 -54.46 0.0003006085    1.551    0.355
       364  -9.4757     49.9918    112.2469   8.1011853818e+01   4.7257120074e+01    0.2115091    0.1666219 -47.07 0.0002829486    1.041    0.039
       365 -10.2944     46.6813    109.2839   8.1248589894e+01   4.8295099486e+01    0.2768689    0.2180554  54.33 0.0002370356    1.686    0.407
       366 -11.7276     45.9639    103.2827   7.9997950026e+01   4.9666902299e+01    0.4050072    0.2379495 -55.14 0.0006641283    1.518    0.341
       367  -9.7187     31.0009    117.2571   8.7479292734e+01   4.8206185096e+01    0.2991758    0.1570908 -63.99   0.00146002    1.777    0.437
       368  -9.5225     79.8684    115.1792   7.3467643680e+01   4.2541423058e+01    0.2317619    0.1780915 -47.82 0.0003883248    1.134    0.118
       369 -10.0232     24.8349    115.9753   8.8933925974e+01   4.9077842100e+01    0.1903383     0.163967 -46.35 0.0003091154    1.117    0.105
       370 -10.1330     73.6167    113.0165   7.4620273495e+01   4.3949810283e+01    0.4200535    0.2741051  45.73  0.001184167    1.846    0.458
       371  -8.8710    116.9256    112.8579   6.3338129904e+01   3.6704042978e+01    0.2248572    0.1926734 -18.99 0.0005265449    1.266    0.210
       372  -9.3857     84.0964    113.0383   7.1790418229e+01   4.2354658161e+01    0.2060902    0.1872206 -47.93 0.0003730816    1.069    0.064
       373 -10.6373     62.3201    112.0098   7.7491071884e+01   4.5749753155e+01    0.3019704    0.2586806  -5.13  0.001798471    1.313    0.238
       374 -10.9464     21.3550    104.9426   8.7573313314e+01   5.1805573019e+01    0.3622237    0.2860565  17.73 0.0005549114    1.567    0.362
       375 -10.9315     34.7762    110.9650   8.5041403901e+01   4.9225418845e+01    0.5191895    0.3770904  41.12  0.002456238    1.747    0.428
       376 -10.2230     34.8173    105.4312   8.3760623489e+01   5.0422873248e+01    0.4300734    0.2080592 -61.97 0.0008240525    2.111    0.526
       377 -10.9731     22.2108    110.0990   8.8443151429e+01   5.0612939474e+01     0.494348    0.2956371  17.44  0.002512291    2.171    0.539
       378 -10.6034     28.6729    109.4381   8.6448600216e+01   5.0163170777e+01    0.3388302    0.2438341 -42.82 0.0006555459    1.157    0.136
       379 -10.9463    120.0314    107.8406   6.1269447954e+01   3.7165880456e+01    0.2519215    0.2419896  52.27  0.001444575    1.141    0.124
       380  -9.9256    131.5670    104.4590   5.7670145165e+01   3.5603847918e+01    0.2693058    0.2459733  38.07 0.0009902538    1.190    0.159
       381 -11.9771     80.8086    103.2317   7.0117897063e+01   4.4952761287e+01    0.3015772    0.2563477 -12.06  0.001736329    1.246    0.197
       382  -9.0828      1.6681    104.9268   9.3268599342e+01   5.3325333710e+01     0.175106    0.1201432 -55.39 0.0006635488    1.081    0.075
       383  -9.0523    114.4756    104.0164   6.1596821277e+01   3.8998688240e+01     0.225275    0.1332472 -43.67 0.0005803794    1.549    0.354
       384 -10.5058    107.7811    103.1788   6.3029621127e+01   4.0404339265e+01    0.3187033    0.2371835  32.39 0.0006097873    1.510    0.338
