#   1 NUMBER                 Running object number                                     
#   2 MAG_AUTO               Kron-like elliptical aperture magnitude                    [mag]
#   3 X_IMAGE                Object position along x                                    [pixel]
#   4 Y_IMAGE                Object position along y                                    [pixel]
#   5 X_WORLD                Barycenter position along world x axis                     [deg]
#   6 Y_WORLD                Barycenter position along world y axis                     [deg]
#   7 A_WORLD                Profile RMS along major axis (world units)                 [deg]
#   8 B_WORLD                Profile RMS along minor axis (world units)                 [deg]
#   9 THETA_WORLD            Position angle (CCW/world-x)                               [deg]
#  10 FWHM_WORLD             FWHM assuming a gaussian core                              [deg]
#  11 ELONGATION             A_IMAGE/B_IMAGE                                           
#  12 ELLIPTICITY            1 - B_IMAGE/A_IMAGE                                       
         1 -13.7836    233.8449     91.2270   6.1803603097e+01   1.5232449574e+01     2.933753     1.123407 -23.98   0.01165187    2.462    0.594
         2 -13.3501    232.1679     19.0567   4.2288523468e+01   2.3650287318e+01     1.200473    0.5358416 -19.51  0.004979688    2.050    0.512
         3 -12.7856    245.9873    142.9512   7.1648244172e+01   7.1246257011e+00     3.683827     1.154245 -41.88   0.01064645    7.851    0.873
         4 -13.9022    234.3155     36.5770   4.7092038171e+01   2.1377512832e+01     1.654073     0.666299 -31.41  0.006712326    2.086    0.521
         5 -12.4865    241.4221     53.8412   5.1089818756e+01   1.7893495178e+01      1.23202    0.4945219 -24.77  0.005017528    2.142    0.533
         6 -14.4303    246.7617     28.9298   4.3772505634e+01   1.9271626928e+01     4.433872     1.349225 -19.38   0.01549959    3.021    0.669
         7 -13.5516    247.5374     66.7237   5.3785585145e+01   1.5151722553e+01     3.472008     1.106383 -17.20   0.01145608    3.557    0.719
         8 -10.7936    207.9005     22.3593   4.5669963215e+01   2.9410077008e+01    0.4008598    0.2001056   4.87  0.001424869    2.903    0.656
         9  -9.8510     18.9505      8.9856   9.4154726249e+01   7.3520993133e+01    0.1468711    0.1185999 -45.16 0.0003474415    1.026    0.025
        10  -9.5667    116.7542      5.2625   5.2891845829e+01   5.5782149826e+01    0.2119012     0.195818 -39.67 0.0005747737    1.132    0.116
        11 -10.0251    110.9541      4.9801   5.4034055551e+01   5.7292000652e+01    0.2197889    0.1993585   8.75 0.0003234418    1.055    0.053
        12 -10.1185     76.2695      4.9730   6.3824138667e+01   6.5356877641e+01    0.2453108    0.1966613  32.38 0.0005208231    1.282    0.220
        13  -9.6504     50.8954      3.3510   7.3144925817e+01   7.0391826142e+01    0.2088288    0.1557371 -36.18 0.0004106388    1.205    0.170
        14  -8.7433    159.0000      1.9803   4.4350902075e+01   4.4678478159e+01    0.2449667   0.08451133 -17.79 0.0007931119    2.878    0.653
        15 -10.4754     14.9187      1.9829   9.3182166824e+01   7.5302646080e+01    0.1849384     0.144345 -44.11 0.0003996304    1.001    0.001
        16  -8.5410    121.6888      1.7129   5.0185593122e+01   5.4867601416e+01    0.1562072    0.1039722  31.70 0.0002161383    1.578    0.366
        17 -10.2934    207.3801    237.5224   9.2560529461e+01   4.0634141680e+00    0.2746802    0.1558082  51.33  0.001823859    2.081    0.519
        18 -10.5839    224.7933    249.0701   9.1431456819e+01   8.6631237299e-01     0.206291    0.1465785  52.57  0.001590151    2.056    0.514
        19 -10.4264    210.5881    248.8657   9.3416994359e+01   2.7129669299e+00    0.2192014     0.162945  13.36   0.00194579    1.307    0.235
        20 -10.7876    193.2515    249.1181   9.5952810063e+01   4.9648820273e+00    0.1865586     0.161086  45.40  0.001727326    1.470    0.320
        21  -9.8762    244.1130    236.6659   8.7214056327e+01  -7.1727841346e-01    0.1575983    0.1240058  30.74 0.0006304123    1.404    0.288
        22  -9.9124    240.2567    231.8605   8.7122712563e+01   1.2583826020e-01    0.1952239    0.1762851  62.20  0.001258787    2.178    0.541
        23 -10.5057    235.4418    229.6254   8.7506524158e+01   9.2751229409e-01    0.2236031     0.188574  -9.75  0.001383466    1.542    0.351
        24  -9.5255    236.9550    235.5067   8.8059759115e+01   2.8979379496e-01    0.1418394    0.1297335   0.91 0.0007648203    1.648    0.393
        25  -9.5284    248.0255    234.9785   8.6455864053e+01  -1.0995904405e+00    0.1347847    0.1290741 -27.59 0.0005781477    2.046    0.511
        26 -10.4399    245.0339    230.5960   8.6288862310e+01  -4.0552234626e-01    0.1839224    0.1453702 -27.64 0.0009351083    1.905    0.475
        27 -10.7623    247.0860    226.2585   8.5417852486e+01  -3.6045622427e-01    0.2943834    0.1645197  45.12  0.001419429    1.869    0.465
        28 -10.5340    216.9221    234.3276   9.0773813629e+01   3.0398432071e+00    0.3027458    0.1828609  47.04  0.002158748    1.701    0.412
        29  -9.5577    225.7712    231.7240   8.9162544178e+01   2.0574463031e+00    0.1350444     0.128122  62.96 0.0008770925    1.904    0.475
        30 -11.0425    240.4765    221.7609   8.5728337014e+01   8.5412412852e-01    0.3078275    0.2081813  49.41  0.002245555    1.954    0.488
        31  -9.9575    229.6395    228.4804   8.8184239162e+01   1.7929679957e+00    0.1714171    0.1513836  35.34 0.0009711842    1.569    0.363
        32  -9.4723    211.9702    227.7673   9.0676879905e+01   4.2700351826e+00    0.1404458    0.1330675 -14.09  0.001105165    1.590    0.371
        33 -10.2337    198.9416    226.9574   9.2537139726e+01   6.1647761882e+00    0.1728157    0.1516982 -55.16  0.001389756    1.887    0.470
        34  -9.2297    223.4876    226.9514   8.8874358943e+01   2.7515494085e+00    0.1222528   0.09310669 -15.05 0.0007474683    1.559    0.359
        35  -9.9340    206.1726    225.8669   9.1303767453e+01   5.2472196298e+00    0.1761885    0.1613509 -77.30  0.001153926    1.967    0.492
        36  -8.9730    190.5115    226.4959   9.3774379765e+01   7.4006057572e+00    0.1054232   0.07551744  34.22 0.0008105251    1.015    0.014
        37  -9.7439    217.4398    224.1867   8.9401002593e+01   3.8184461225e+00    0.1896202    0.1671163  85.03  0.001394828    2.287    0.563
        38 -10.2725    228.9406    222.2365   8.7451422274e+01   2.3885162379e+00    0.3654912    0.1299751  45.96  0.001945199    2.633    0.620
        39 -11.3708    248.1108    217.6400   8.4071703227e+01   1.3989255139e-01    0.3655612      0.25835 -25.93  0.002176024    1.842    0.457
        40 -10.5654    247.1468    207.3858   8.2710716672e+01   1.0630846148e+00    0.2526366    0.1728864 -31.53  0.001348083    2.005    0.501
        41 -10.3123    243.7253    201.3394   8.2285466642e+01   2.0351097246e+00     0.255143    0.2347881  -7.38  0.001822772    1.590    0.371
        42  -9.7743    194.2489    220.2900   9.2422866774e+01   7.4709760780e+00    0.2070962    0.1068552  54.06  0.001172249    2.510    0.602
        43  -9.2804    211.0237    219.0555   8.9683807537e+01   5.1764361120e+00    0.1463665     0.117565  53.85 0.0009810609    1.702    0.412
        44 -10.6884    219.0079    215.4221   8.7986578466e+01   4.3617373857e+00    0.3694096    0.2347388 -46.90  0.002420197    2.850    0.649
        45  -8.8427    228.2810    216.6676   8.6782317247e+01   2.9409234611e+00   0.08698528   0.07595742  43.52 0.0004327037    1.610    0.379
        46  -9.4381    239.5039    215.0074   8.4917719890e+01   1.5152170009e+00    0.1878127    0.1156778  52.79  0.001196174    2.376    0.579
        47 -10.2383    233.1855    213.3943   8.5602293673e+01   2.5260475997e+00    0.2114629    0.1711901 -32.96  0.001317416    1.846    0.458
        48  -9.0931    185.7102    215.3616   9.3141445876e+01   9.2171155949e+00   0.09719867   0.07642032  61.06 0.0007026136    1.694    0.410
        49 -10.0191    230.9239    193.9212   8.3021679114e+01   4.5581516746e+00    0.2309543    0.1413008 -21.71  0.001550727    1.780    0.438
        50 -10.0630    230.3316    187.5991   8.2102928025e+01   5.2385041912e+00    0.2113635    0.1933736 -49.77  0.001596777    1.822    0.451
        51 -10.2971    231.3414    199.3088   8.3793745474e+01   4.0070884883e+00    0.2096122     0.198646 -69.71  0.000982235    1.932    0.482
        52 -10.8028    240.8024    208.7463   8.3821852468e+01   1.8393137293e+00    0.3447499    0.2705793 -57.49  0.002311337    3.089    0.676
        53 -10.3059    235.3031    203.4872   8.3839851577e+01   3.0623242522e+00    0.2088985    0.1924239 -31.15 0.0009729827    1.743    0.426
        54  -9.2180    206.8510    208.8056   8.8926222261e+01   6.7486755351e+00    0.1407931    0.1106327  43.44 0.0005332704    1.352    0.260
        55  -9.6143    229.6640    207.3718   8.5250062548e+01   3.5394487905e+00    0.1594327    0.1242994 -28.60  0.001127739    1.712    0.416
        56  -9.2695    224.7969    208.0153   8.6070028660e+01   4.1865991824e+00    0.1339117    0.1240541 -64.04  0.001058197    1.981    0.495
        57  -9.4441    217.2940    205.0593   8.6778438322e+01   5.5576947210e+00     0.146722    0.1179617  19.81    0.0010581    1.127    0.113
        58  -9.3360    197.4342    204.7303   8.9842254809e+01   8.5730622911e+00    0.1734607    0.1058798 -38.40   0.00114336    2.132    0.531
        59  -8.5713    124.2475    205.7190   1.0238085576e+02   1.9466642960e+01    0.1017701   0.06948885  62.10 0.0006824661    1.459    0.314
        60  -9.0989    202.4534    204.4830   8.9008426113e+01   7.8379179032e+00    0.1102907   0.08368157  30.98 7.818664e-05    1.037    0.035
        61  -9.6091    187.7669    204.1673   9.1326130764e+01   1.0106565448e+01    0.1616998      0.11461  73.45 0.0009428081    2.779    0.640
        62  -9.5625    173.1056    203.7190   9.3691295231e+01   1.2404854471e+01    0.1582693    0.1513187  79.98 0.0007410753    1.410    0.291
        63  -9.2508    241.5056    191.9165   8.1131340352e+01   3.1610992547e+00    0.1727543    0.1223613 -29.60 0.0007514274    1.780    0.438
        64 -10.9218    246.8766    193.6291   8.0624161470e+01   2.2273972051e+00    0.3207857     0.296663 -58.95  0.001894196    2.101    0.524
        65 -10.0137    243.9667    188.4842   8.0216343443e+01   3.0974407402e+00    0.2248511     0.135185  43.21 0.0009945127    1.603    0.376
        66  -9.0239    227.5522    201.5024   8.4694469793e+01   4.3684301722e+00    0.1089232   0.08125322  24.78 0.0003966148    1.038    0.036
        67  -9.1426    223.5401    201.4951   8.5299711370e+01   4.9629226158e+00    0.1088136   0.08252945  26.57 0.0001765207    1.067    0.063
        68  -9.0750    215.8397    198.8324   8.6083320224e+01   6.3717204259e+00    0.1352977    0.1175136  34.15  0.000530505    1.325    0.246
        69  -9.2924    202.1452    197.6832   8.8074837619e+01   8.5880172090e+00    0.1712872     0.119559  48.02 0.0008932191    1.467    0.318
        70 -10.3403    224.5663    192.9048   8.3827910332e+01   5.6159644463e+00    0.2653124    0.1752536 -36.74  0.001423639    2.023    0.506
        71 -10.3200    250.1579    201.1817   8.1339929097e+01   1.1372003413e+00    0.2296674    0.1373036 -21.35  0.001012694    1.797    0.443
        72  -9.1137    219.4894    194.9490   8.4927361902e+01   6.1941085543e+00     0.123388   0.09649636 -56.59 0.0008072812    2.412    0.585
        73  -9.1139    209.4637    194.9684   8.6501382132e+01   7.7357803567e+00    0.1224069   0.09845096 -63.29 0.0006573249    2.328    0.570
        74  -9.1328    215.6210    192.2836   8.5118132567e+01   7.0532771432e+00    0.1022436   0.08267266  56.77 0.0007012395    1.722    0.419
        75  -9.1263    229.6356    181.8578   8.1265666367e+01   5.8986154515e+00    0.1422732      0.12743  25.72  0.000777912    1.339    0.253
        76  -9.8399    227.2852    176.8593   8.0784651322e+01   6.7667839748e+00    0.3629163    0.2071691  13.58  0.002064766    1.919    0.479
        77 -10.4862    237.2133    187.2609   8.1012770973e+01   4.2201845467e+00    0.2578247    0.2140129 -14.70   0.00129518    1.412    0.292
        78 -10.0689    235.9668    181.4711   8.0240912913e+01   4.9492133435e+00    0.1999693    0.1883636  65.43 0.0009637532    1.760    0.432
        79  -9.2972    231.7685    179.1546   8.0485951814e+01   5.8270732931e+00    0.1838764    0.1537875  52.73 0.0008270101    1.656    0.396
        80  -9.3188    220.5621    187.7404   8.3628808034e+01   6.7388123294e+00    0.1316504    0.1043214 -29.56 0.0007031956    1.586    0.369
        81 -11.0803    246.1897    169.6645   7.6678789779e+01   4.4652404655e+00    0.6340317    0.3734429  28.87  0.003973635    1.403    0.287
        82  -9.6993    240.1509    164.2004   7.6586938210e+01   5.9546218462e+00    0.1894509    0.1563712  50.25  0.001063435    1.594    0.373
        83  -9.6714    231.4693    159.9462   7.7122715302e+01   7.8227802996e+00    0.1999382     0.193285  77.46  0.000894993    1.607    0.378
        84 -10.9011    237.6733    169.5194   7.7918038829e+01   5.8308318566e+00    0.3915838    0.2261124 -40.21    0.0013989    2.441    0.590
        85 -10.5610    249.4634    184.7189   7.8798264889e+01   2.6099238809e+00    0.2901064    0.1693104 -26.76  0.001513949    1.887    0.470
        86 -10.8565    247.8769    178.5687   7.7988854506e+01   3.3893552640e+00    0.3798266    0.2313782 -34.37  0.002410018    2.104    0.525
        87  -9.4654    215.1575    186.8911   8.4341897712e+01   7.6747265648e+00    0.1558866    0.1411851  35.37 0.0006807358    1.359    0.264
        88  -9.4971    166.4923    186.9948   9.2524547980e+01   1.5516725304e+01    0.1379678    0.1017215 -81.84 0.0007295023    2.389    0.581
        89  -9.8541     77.6973    185.7399   1.0905855181e+02   2.8971899195e+01    0.1755749    0.1467369  46.61 0.0005902164    1.247    0.198
        90 -10.0313    224.1821    184.3065   8.2510083045e+01   6.5135384970e+00    0.2290919    0.1905775 -47.37  0.001102392    1.909    0.476
        91  -9.8787    197.6155    183.1242   8.6589699276e+01   1.0907983284e+01    0.2210532    0.1701871  60.47  0.001072327    1.731    0.422
        92 -10.7537    241.6155    181.0693   7.9331409077e+01   4.1170730940e+00    0.3029156    0.2249404 -36.73  0.001648031    1.907    0.476
        93  -9.9823    234.3770    164.6109   7.7534480183e+01   6.8567350839e+00    0.2857065    0.1614708 -39.59  0.001587067    2.371    0.578
        94  -8.9879    183.4879    182.4886   8.8883206452e+01   1.3305974483e+01     0.118067   0.09602344  35.88 -5.70472e-05    1.053    0.051
        95  -9.4121    177.1495    181.9836   8.9906059145e+01   1.4416642681e+01    0.1712607    0.1360639 -84.90  0.001066908    2.095    0.523
        96  -9.4578    191.0294    179.9612   8.7194399908e+01   1.2364566713e+01    0.1733024    0.1428894  72.88  0.001131821    1.805    0.446
        97  -9.7643    210.6364    176.1887   8.3312372234e+01   9.5479209086e+00    0.2115201     0.134195 -40.30 0.0008641547    2.041    0.510
        98  -9.4915    197.8601    177.1161   8.5578461495e+01   1.1564955180e+01    0.1699129    0.1507802  47.50  0.001039604    1.322    0.244
        99  -9.5382    219.3063    178.4676   8.2305429157e+01   7.8859767847e+00    0.2176907    0.1983587 -46.97  0.001591423    1.660    0.398
       100  -9.1701    161.6816    176.3313   9.1812921231e+01   1.7747092478e+01    0.1164369   0.08851928  69.25 0.0007047891    1.690    0.408
       101  -9.6589    232.7718    174.6567   7.9563044315e+01   6.1093906113e+00    0.2018169    0.1482491 -28.91  0.001080936    1.612    0.380
       102  -9.9740    223.6931    173.3325   8.0738414302e+01   7.7093038494e+00    0.2342343    0.1622212 -46.23  0.001157013    2.235    0.553
       103  -9.6637    188.4724    173.0254   8.6505618128e+01   1.3645096984e+01    0.1602088    0.1179817 -32.56 0.0007483999    1.577    0.366
       104  -9.8319    227.8989    171.3299   7.9732853801e+01   7.2303719759e+00    0.2168204    0.1573958 -40.31  0.001181903    1.903    0.474
       105 -10.2715    219.1956    168.7442   8.0648140620e+01   8.9410598467e+00     0.242519    0.2285105 -31.04  0.001281388    1.468    0.319
       106 -10.0180    205.5476    169.5341   8.3011944267e+01   1.1155985014e+01    0.2356978    0.1886601 -85.62  0.001381424    2.435    0.589
       107  -8.7662    197.6859    170.3392   8.4472128391e+01   1.2402011564e+01    0.1092478   0.09488875  75.69 0.0007047196    1.698    0.411
       108  -9.4570    179.6885    169.3439   8.7439413053e+01   1.5627911091e+01    0.1144631   0.09410938  74.85 0.0007045991    1.704    0.413
       109  -9.1340    165.6620    168.2904   8.9816516336e+01   1.8199823845e+01    0.1188712   0.09051391  66.78 0.0007023253    1.641    0.391
       110  -9.4795    191.5038    166.5150   8.4876758506e+01   1.3942175341e+01    0.1902794     0.113763 -46.91  0.001029996    2.248    0.555
       111  -9.5160    229.0788    165.8199   7.8569026791e+01   7.6067306909e+00    0.1966761    0.1467939 -35.22  0.001281684    1.690    0.408
       112  -9.3312    199.7014    165.0930   8.3218016094e+01   1.2691654526e+01     0.173504    0.1555918 -46.83  0.001183603    1.494    0.331
       113 -10.4417    212.9066    162.1203   8.0478181002e+01   1.0752464428e+01    0.5445294    0.1903808 -38.12  0.002366749    3.361    0.702
       114  -8.9414    172.6604    164.3312   8.7869903948e+01   1.7535965332e+01    0.1201501    0.0947772  73.47 0.0007051731    1.743    0.426
       115  -9.9133    218.7704    248.4283   9.2203433229e+01   1.6867460560e+00    0.1670207    0.1259957  42.46  0.001059715    1.491    0.329
       116  -9.0723    168.4144    249.5233   9.9677134699e+01   8.2162609856e+00   0.09829284    0.0676256  37.52 9.644654e-05    1.022    0.022
       117 -12.2976    246.4163    102.8259   6.2852058333e+01   1.1365387290e+01     1.428527     0.602152 -34.33  0.006340114    2.298    0.565
       118 -10.4347    243.3318    248.3205   8.8786811809e+01  -1.4140952038e+00     0.253085     0.080395  41.88  0.001490758    2.383    0.580
       119 -11.1482    248.6441    129.8190   6.8557218462e+01   8.0262286426e+00    0.5453008    0.3094684 -31.61  0.002983596    1.804    0.446
       120 -11.9498    248.5408    121.0306   6.6680922378e+01   8.9765820845e+00     1.310814    0.3978518 -36.48   0.00497596    3.611    0.723
       121 -10.0873    232.9345    247.4850   9.0110381136e+01  -5.4797093639e-02    0.1396406    0.1270622  11.35  0.001232257    1.631    0.387
       122 -10.7940    176.4882    247.3586   9.8248479379e+01   7.3470192790e+00     0.239199    0.1721284  69.14  0.001801771    2.312    0.568
       123 -10.5933    249.4090    245.7408   8.7646247869e+01  -1.9953390507e+00     0.236635    0.1593821  25.40  0.001498271    1.085    0.078
       124  -8.8356    184.6964    160.3470   8.4995821295e+01   1.5946087854e+01    0.1156962   0.09824701  81.51 0.0007040562    1.692    0.409
       125  -9.7200    158.5213    160.0299   8.9797679370e+01   2.0656408616e+01     0.173044    0.1257234 -45.23  0.001031869    1.603    0.376
       126  -9.5947    226.8458    157.3194   7.7351355902e+01   8.8887267134e+00    0.1919833     0.159525 -24.23  0.001297595    1.380    0.275
       127  -9.8512    197.3120    157.6807   8.2292783937e+01   1.4036587963e+01    0.2344444    0.2069253  83.54  0.001505512    1.663    0.399
       128  -9.5032    222.3844    156.7710   7.7954205836e+01   9.7181543592e+00    0.2019005    0.1083608 -32.17 0.0007090765    2.013    0.503
       129  -9.7489    216.2905    156.6652   7.8916442388e+01   1.0792514391e+01    0.2227955    0.2035527  88.16  0.001221895    1.703    0.413
       130  -9.7564    187.6309    155.9696   8.3680924539e+01   1.6004748242e+01    0.2640963    0.1195572 -35.67  0.001250594    2.474    0.596
       131  -9.8774    205.5960    153.7755   8.0146494484e+01   1.3037980747e+01    0.2397579    0.1978155  84.83  0.001419983    2.018    0.505
       132  -9.1863    202.6767    151.6990   8.0248247810e+01   1.3825331841e+01    0.1600409     0.117901 -37.82 0.0007644392    1.587    0.370
       133  -9.7914    157.8195    153.6761   8.8841696856e+01   2.1752894950e+01    0.2285467    0.1682924 -80.61  0.001228611    2.121    0.529
       134  -9.5520    145.4868    154.5206   9.1428174223e+01   2.3824473979e+01    0.1275361    0.1111837  49.20 0.0001001903    1.036    0.035
       135  -9.9179    177.2216    152.6423   8.4963567407e+01   1.8365603409e+01     0.288287      0.19092  87.44  0.001158618    4.077    0.755
       136  -9.3642    228.4731    151.5397   7.5993481939e+01   9.2399422301e+00    0.2133177    0.1745017 -11.06 0.0008620126    1.217    0.178
       137  -9.4925    229.3908    147.8413   7.5127908898e+01   9.4874745597e+00    0.2181895    0.1495782  25.40  0.000641731    1.279    0.218
       138  -9.3470    221.6532    152.3684   7.7233035354e+01   1.0342346494e+01    0.1646717    0.1523599 -85.44  0.001092275    1.686    0.407
       139  -9.8875    211.8878    150.9709   7.8555966744e+01   1.2246700889e+01    0.2071815    0.1653221 -26.89  0.001000415    1.372    0.271
       140  -9.7816    215.4933    149.1307   7.7603920127e+01   1.1817078923e+01    0.2600407    0.1916111 -50.69  0.001152534    2.003    0.501
       141  -8.9470    196.5012    150.5252   8.1092264248e+01   1.5105802599e+01    0.1268839    0.1099174  27.28 8.979772e-05    1.040    0.039
       142  -9.8953    191.5058    148.5403   8.1593232888e+01   1.6292955484e+01      0.21423    0.1159404 -46.19  0.001031945    2.388    0.581
       143 -10.4351    223.8849    146.9589   7.5821048166e+01   1.0563621823e+01    0.3247755    0.2324107  53.84   0.00141226    1.657    0.397
       144  -9.9309    207.8868    145.3604   7.8127450560e+01   1.3666282398e+01    0.2010357    0.1723244 -28.28 0.0007075264    1.317    0.241
       145  -9.4088    200.6983    145.3901   7.9362882510e+01   1.4997877261e+01    0.1784784    0.1561056  84.60 0.0008839505    1.675    0.403
       146  -9.7925    156.0937    144.2360   8.7474590450e+01   2.3560525653e+01    0.2396363    0.1733409 -77.38  0.001235115    2.133    0.531
       147  -9.5825    214.4491    142.8241   7.6524417046e+01   1.2766828096e+01     0.223254    0.1697075 -48.24 0.0008745732    1.803    0.445
       148  -9.9131    182.0604    142.2308   8.2078271174e+01   1.8952757426e+01     0.276083    0.1749707 -55.51  0.001357509    2.312    0.567
       149  -9.7696    238.4106    140.2211   7.2218687913e+01   8.7298351956e+00    0.2572796    0.1551129 -37.39 0.0009867935    1.966    0.491
       150 -11.2257    234.8846    136.2025   7.1925252011e+01   9.7997483806e+00    0.4759629    0.2508555 -37.31  0.001804159    2.174    0.540
       151  -9.6719    224.3616    140.3194   7.4410383625e+01   1.1243782125e+01    0.2040929    0.1866483  -3.05 0.0008830031    1.205    0.170
       152  -9.5854    198.1679    140.4021   7.8805221897e+01   1.6132491178e+01    0.3045079    0.2223807  86.67  0.001475511    2.717    0.632
       153  -9.6263    199.0596    137.0371   7.7959441187e+01   1.6412616599e+01    0.2421378    0.2094016 -80.44  0.001347518    1.709    0.415
       154  -9.8121    166.8469    140.7690   8.4685330735e+01   2.2079067951e+01    0.2351432    0.1764107 -76.34  0.001229986    2.057    0.514
       155  -9.6858    209.0217    138.5617   7.6561368597e+01   1.4311487288e+01    0.2234291    0.1789322 -41.18  0.000847863    1.515    0.340
       156  -9.7451    173.1698    138.6588   8.3044232230e+01   2.1188841367e+01    0.2670457    0.2114892 -75.82   0.00146759    1.850    0.460
       157  -9.4732    192.8983    137.1379   7.9072516981e+01   1.7588602822e+01    0.1861592    0.1831898  64.69  0.001214556    1.250    0.200
       158  -9.2981    187.8979    136.1534   7.9774768721e+01   1.8697998935e+01     0.190313    0.1816642  76.38   0.00120833    1.293    0.226
       159  -9.9431    218.6549    138.2915   7.4910881362e+01   1.2536717876e+01    0.2634251    0.2281481 -15.19  0.001145937    1.203    0.169
       160 -10.1245    224.7165    133.5710   7.2952940742e+01   1.1970097927e+01    0.3629161    0.2666189  69.01  0.001977155    2.111    0.526
       161  -9.6562    220.9704    129.0137   7.2578057219e+01   1.3225841093e+01    0.1897667    0.1778411 -35.32  0.001153924    1.340    0.254
       162  -9.8911    197.9824    132.0469   7.7102433502e+01   1.7298450817e+01    0.2697057    0.1866814 -20.04 0.0009832752    1.525    0.344
       163 -10.1304    179.8771    132.6947   8.0545930447e+01   2.0777147459e+01    0.2464158     0.200207 -43.16  0.001248645    1.391    0.281
       164  -9.9563    143.1620    131.7349   8.7748331972e+01   2.8103751399e+01    0.2546949     0.154993 -60.36  0.001204829    2.117    0.528
       165  -9.5883    137.0305    131.9622   8.9116095676e+01   2.9220881382e+01    0.2061205    0.1586548  84.12 0.0006338778    1.646    0.392
       166  -9.7325    205.9847    131.0390   7.5497665302e+01   1.5867183720e+01    0.1920254    0.1666958 -75.72  0.001026721    1.698    0.411
       167  -9.8956    233.8810    129.4421   7.0652332358e+01   1.0743582855e+01     0.268192    0.1955443 -27.54  0.001252206    1.407    0.289
       168  -9.3351    192.6685    130.1052   7.7635480242e+01   1.8617539890e+01    0.2025728    0.1706259 -52.54  0.001180939    1.491    0.329
       169  -9.7019    186.5092    129.3807   7.8604112722e+01   1.9948504714e+01    0.2456727    0.1807203 -65.21  0.001015293    2.091    0.522
       170  -9.3976    172.1683    129.9593   8.1449442572e+01   2.2725261541e+01     0.211116    0.1570013 -71.43  0.001063198    2.042    0.510
       171  -9.4200    212.0063    129.0219   7.4046875944e+01   1.4955243051e+01    0.1956241    0.1624987 -61.86   0.00110582    1.758    0.431
       172  -9.6133    165.3356    126.7107   8.2109577333e+01   2.4608985118e+01    0.3848395    0.1584435 -50.46  0.001413505    3.355    0.702
       173 -10.4195    200.1195    126.4387   7.5515744012e+01   1.7642971925e+01    0.2991785    0.2019236 -52.41 0.0009999445    2.058    0.514
       174 -10.2612    228.0618    125.5444   7.0703834888e+01   1.2288752137e+01    0.2490571    0.2222346 -70.98  0.001375747    1.677    0.404
       175  -9.9822    179.8893    125.0739   7.8910332822e+01   2.1924177859e+01    0.3081072    0.2334256 -59.52  0.001199044    1.759    0.432
       176  -9.3636    170.1520    124.4972   8.0671950607e+01   2.3992710897e+01    0.2104872    0.1904827 -73.06 0.0007837255    1.339    0.253
       177  -9.4288    146.4225    125.2113   8.5720638085e+01   2.8622138068e+01     0.190497    0.1293643 -57.78  0.000951206    1.744    0.427
       178 -11.6532    220.7277    121.8942   7.1054435175e+01   1.4148556221e+01    0.8049279    0.4119458 -54.22  0.002758597    4.917    0.797
       179  -9.4057    188.4745    123.4560   7.6946960048e+01   2.0417368698e+01    0.2263353     0.121999 -44.83  0.000878659    2.182    0.542
       180 -10.2946    212.7353    122.3997   7.2469650835e+01   1.5663575406e+01    0.2627301    0.1899441 -33.79  0.001462142    1.463    0.317
       181  -9.4430    212.3064    115.6471   7.1006657450e+01   1.6628714946e+01    0.2068638    0.1083231 -48.74 0.0007126884    2.821    0.646
       182  -9.3297    203.0333    121.3062   7.3867553448e+01   1.7757869397e+01    0.1891081    0.1694965  29.87 0.0009657588    1.084    0.077
       183  -9.6518    194.1362    120.9310   7.5351538197e+01   1.9624582051e+01    0.2030155    0.1848979 -58.96 0.0008239207    1.370    0.270
       184  -9.3026    157.6622    120.3257   8.2288884837e+01   2.7221171655e+01    0.2092488    0.1658773 -88.26 0.0009713186    1.715    0.417
       185  -8.7075     95.3289    120.6667   9.6740449300e+01   3.8777650023e+01    0.1403936   0.09548712  75.96 0.0007051909    1.721    0.419
       186 -10.3189    140.6174    118.8646   8.5635934726e+01   3.0904246615e+01    0.2723417    0.1752904 -60.97  0.001288668    1.928    0.481
       187  -9.1119     18.9971    118.9916   1.1644214736e+02   4.8551354889e+01    0.1375139    0.1098461  73.21 0.0004148726    1.083    0.076
       188  -9.0398    190.6688    118.3262   7.5386786307e+01   2.0715715559e+01    0.1330958    0.1108133 -77.67 0.0007051029    1.708    0.415
       189  -9.8840    186.1188    115.2063   7.5504233468e+01   2.2127811586e+01    0.2605003    0.1771534 -58.01  0.001231143    2.090    0.522
       190  -9.1522    191.4954    114.5154   7.4353864248e+01   2.1099834174e+01    0.1373084    0.1282037  18.38 0.0003922304    1.042    0.041
       191  -9.2615    173.4472    114.2438   7.7704872990e+01   2.4948307449e+01    0.1902419    0.1312414 -47.89 0.0009405056    1.642    0.391
       192  -9.1747    168.4232    112.1902   7.8222232958e+01   2.6343597339e+01    0.1969895    0.1311306 -48.62 0.0009477951    1.697    0.411
       193  -9.5125    177.4109    111.1755   7.6207049360e+01   2.4593399009e+01    0.1975579    0.1284943 -46.77 0.0009408708    1.739    0.425
       194  -8.8313    155.2935    110.6154   8.0569327559e+01   2.9382937598e+01    0.1441528    0.1115667 -78.76 0.0005998397    1.762    0.432
       195  -9.0322    218.5255    109.5065   6.8560487927e+01   1.6150832474e+01    0.1363863    0.1208251   7.16 4.062299e-05    1.014    0.014
       196  -8.8230    201.4719    109.4892   7.1392295155e+01   1.9713194732e+01    0.1376029    0.1274475  10.21 4.347366e-05    1.042    0.041
       197  -9.6869    189.7764    108.9167   7.3336692390e+01   2.2289622943e+01    0.2237867    0.1575139 -57.25  0.001074106    1.938    0.484
       198  -9.4064    183.3971    109.2064   7.4591191214e+01   2.3616253158e+01    0.2047526     0.126579 -44.39 0.0009536264    1.795    0.443
       199  -9.7612    160.8553    108.6008   7.8917245075e+01   2.8553221213e+01    0.2810545    0.1823073 -54.73  0.001072043    1.879    0.468
       200  -9.2382    133.6847    109.3466   8.5084285485e+01   3.4058068842e+01     0.144956    0.1102029 -89.84 0.0007047709    1.720    0.419
       201  -9.9273    236.0672    107.6567   6.5446948137e+01   1.2840345985e+01    0.2213502    0.1633334 -28.78 0.0006690638    1.346    0.257
       202  -9.6562    205.9420    105.4828   6.9660223246e+01   1.9317853201e+01    0.2686148    0.1800015 -42.18  0.001241026    1.661    0.398
       203  -9.1788    218.4138    104.2307   6.7316396480e+01   1.6849905926e+01    0.1908138     0.118717 -36.53 0.0009387755    1.661    0.398
       204  -9.0082    213.5460    104.5245   6.8168163117e+01   1.7833807887e+01    0.1386716    0.1235582   7.04 0.0004008513    1.003    0.003
       205  -9.6900    140.9877    103.7235   8.2070003783e+01   3.3622369460e+01    0.2497293    0.1519862 -75.87 0.0008901155    3.409    0.707
       206  -9.3580    200.7375    103.1456   6.9975542316e+01   2.0760700007e+01    0.2175664    0.1663674 -42.58 0.0006221571    1.446    0.309
       207  -9.0580    195.3540    103.1382   7.0916321438e+01   2.1930966363e+01    0.1969735    0.1231261 -40.11 0.0006363438    1.690    0.408
       208  -9.7910    150.3931    103.1983   7.9836748370e+01   3.1731571036e+01    0.2063664    0.1329879 -50.99 0.0009530875    1.708    0.415
       209  -9.0496    130.3394    102.6818   8.4302317268e+01   3.6010230375e+01    0.1469695    0.1115568  87.61 0.0003281844    1.709    0.415
       210  -9.7342    167.1120    100.6742   7.5668345093e+01   2.8531853047e+01    0.2572027    0.1930043 -45.23  0.001109297    1.414    0.293
       211  -9.7819    160.4031    100.6439   7.7047598690e+01   3.0012345529e+01     0.281265    0.1333918 -43.29  0.001126615    2.195    0.544
       212 -12.0832    240.6870    125.1902   6.8718245752e+01   9.9630028403e+00     1.368827    0.5564553 -37.62  0.005961494    2.784    0.641
       213  -9.2740    215.4267     94.2138   6.5308555694e+01   1.8786108653e+01    0.2166708    0.1314779 -26.11  0.001001268    1.569    0.362
       214 -10.1823    213.0425     96.6506   6.6303050046e+01   1.8982174303e+01    0.4193403     0.262869 -59.14  0.001797925    2.626    0.619
       215  -9.8976    211.1418     91.9770   6.5419530621e+01   2.0019940565e+01    0.3349945    0.2093228 -47.28  0.001318594    1.927    0.481
       216  -9.0264    209.4580     99.5184   6.7603969404e+01   1.9374154897e+01    0.1396103    0.1275973   3.54 0.0002070312    1.026    0.025
       217  -9.4293    202.8475     98.0803   6.8347312196e+01   2.1011394948e+01    0.2140649    0.1903134 -50.49  0.001111881    1.318    0.241
       218  -9.7344    194.9891     97.5041   6.9562034930e+01   2.2828967233e+01    0.2783859    0.1920107 -45.83  0.001359687    1.640    0.390
       219  -9.4743    135.6546     97.3325   8.1717411500e+01   3.5940925814e+01    0.1504499    0.1140535 -87.75 0.0007049933    1.762    0.432
       220  -9.1058    183.5884     95.8326   7.1204348756e+01   2.5629805223e+01    0.2076211    0.1299751 -42.71 0.0009486668    1.698    0.411
       221  -9.3747    153.5024     95.9881   7.7325807502e+01   3.2340848812e+01    0.2054518    0.1222004 -60.85 0.0008093923    2.456    0.593
       222  -9.2173    206.8510     94.5652   6.6782527071e+01   2.0616354486e+01    0.1858347    0.1391159  70.36 0.0005630062    1.710    0.415
       223  -9.3705    164.5036     94.0176   7.4477612738e+01   3.0228412836e+01    0.2248091    0.1432246 -35.60   0.00103154    1.586    0.369
       224 -10.0416    127.6227     93.7854   8.2741935405e+01   3.8299446975e+01    0.2105594    0.1328845 -54.57 0.0009541266    1.697    0.411
       225 -11.4735    234.1393    145.9994   7.4029652552e+01   8.8555884808e+00    0.9108879    0.5075629 -50.40  0.004025749    3.692    0.729
       226  -9.4972    189.1859     93.1904   6.9483419260e+01   2.4766724119e+01    0.2007387    0.1749939 -59.55  0.001082349    1.364    0.267
       227  -9.3296    177.3693     93.1768   7.1688931610e+01   2.7451788743e+01     0.217016    0.1277108 -43.66 0.0009484739    1.810    0.448
       228  -9.2897    141.3792     92.1809   7.9041885980e+01   3.5687387246e+01    0.2162011     0.133101 -51.32 0.0009533128    1.759    0.431
       229  -9.6681    158.0163     90.4294   7.4876368035e+01   3.2306206612e+01    0.2930297    0.1995911 -52.42  0.001230294    1.662    0.398
       230  -8.9404     24.6683     90.6735   1.1194987673e+02   5.4415269048e+01    0.1211624   0.08045679 -48.94 0.0006186446    1.710    0.415
       231  -8.8450    183.2982     89.6598   6.9627068123e+01   2.6645331801e+01     0.146626     0.114206 -64.53 0.0004736435    1.664    0.399
       232 -10.8578    226.0604     87.4042   6.1959283947e+01   1.7349699377e+01    0.3653962    0.1727001 -29.32 0.0009611005    1.939    0.484
       233  -9.5093    222.6564     83.7282   6.1509853265e+01   1.8550317559e+01    0.2998856    0.1983894  10.43  0.001436831    1.722    0.419
       234  -9.7847    225.4562     81.9925   6.0649919612e+01   1.8151189634e+01     0.262188    0.1846992 -38.14  0.001062457    1.457    0.314
       235  -9.5230    150.8904     88.1184   7.5791919278e+01   3.4321742884e+01    0.2307523    0.2038907 -71.67 0.0009657062    1.275    0.216
       236  -9.2081    124.6898     88.3416   8.2038196091e+01   3.9978979820e+01     0.150216       0.1142 -83.66 0.0007045074    1.695    0.410
       237  -9.1598    197.5025     86.9825   6.6370385676e+01   2.3779607586e+01    0.2244674    0.1377145 -28.58  0.001022321    1.582    0.368
       238  -9.5111    163.7451     86.8461   7.2693631779e+01   3.1609039161e+01    0.2897269    0.1742448 -38.95  0.001282246    1.662    0.398
       239  -9.4877     30.6319     86.6286   1.0950019710e+02   5.4818792217e+01    0.1759007     0.124307 -49.13 0.0005808767    1.568    0.362
       240  -9.2523    205.8725     84.5759   6.4329713411e+01   2.2203012984e+01    0.2466475     0.158637 -31.19  0.001177669    1.492    0.330
       241  -9.0499    178.6348     84.8276   6.9185581436e+01   2.8475636203e+01    0.2179574    0.1292604 -41.57 0.0009477738    1.735    0.424
       242 -11.2952    244.5272    154.6152   7.4146268053e+01   6.1889382475e+00     1.098655    0.3747361 -35.11  0.004855418    3.327    0.699
       243  -9.0226    200.5167     83.0063   6.4788394430e+01   2.3649144590e+01    0.2028499    0.1107276 -49.51 0.0008069796    2.344    0.573
       244  -9.2222    193.3497     83.1210   6.6040498056e+01   2.5295588611e+01    0.2176917     0.123233 -39.39 0.0009136354    1.788    0.441
       245  -8.8049    185.6472     83.3159   6.7464134982e+01   2.7066766382e+01    0.1503006    0.1157614 -68.87  0.000704639    1.737    0.424
       246  -9.0976    170.5322     83.5062   7.0388631026e+01   3.0582930954e+01    0.1459945    0.1437524 -28.63 0.0004391302    1.059    0.056
       247  -9.8358    159.0963     82.1134   7.2334356450e+01   3.3489064308e+01    0.3312806    0.2057774 -40.23  0.001016952    1.607    0.378
       248  -9.2607    209.9721     81.0119   6.2718354247e+01   2.1748870142e+01    0.2254836    0.1657022 -53.11  0.000709336    1.658    0.397
       249  -9.5963    210.7249     76.4872   6.1372909256e+01   2.2176612199e+01    0.3212933    0.1926707 -17.77  0.001453108    1.683    0.406
       250  -9.3782    150.5036     79.4919   7.3435913528e+01   3.5941888020e+01    0.2762532    0.1309697 -46.97   0.00103363    2.292    0.564
       251  -9.6432    166.8586     78.0720   6.9569248024e+01   3.2336322387e+01    0.3191621    0.1918835 -37.69  0.001188215    1.640    0.390
       252  -9.4885    119.5116     79.5044   8.0912175143e+01   4.2815517393e+01    0.1457637    0.1408222 -70.08 0.0008105397    1.012    0.011
       253 -10.0959    205.5254    162.3789   8.1749238789e+01   1.2004775338e+01    0.2391062    0.2248276 -50.35  0.001417225    1.471    0.320
       254  -9.5154    201.1505     77.9220   6.3289238031e+01   2.4210924871e+01    0.2321121    0.1906102 -47.36 0.0009922422    1.340    0.254
       255  -9.3822    174.4358     77.7501   6.7986277885e+01   3.0580697321e+01    0.2889402     0.136566 -36.78  0.001125164    2.055    0.513
       256 -10.2312    130.4221     77.7618   7.7630466103e+01   4.0810416684e+01    0.2911378    0.1392825 -44.78  0.001135361    2.073    0.518
       257 -10.5525    157.8822     75.7393   7.0734607041e+01   3.4859782189e+01    0.4335887    0.1908111 -40.87  0.001615971    2.251    0.556
       258  -9.2819    183.5124     77.0282   6.6082149602e+01   2.8521379431e+01    0.2188171    0.1131564 -50.71 0.0008099457    2.519    0.603
       259  -9.6809    163.2344     71.5155   6.8356908555e+01   3.4280005753e+01      0.29862    0.2056487 -33.25  0.001226086    1.427    0.299
       260  -8.9983    150.5003     72.4948   7.1351044068e+01   3.7168974381e+01     0.150047    0.1463838 -56.09 3.119398e-05    1.053    0.050
       261  -9.8635    222.1090     70.9200   5.8176956124e+01   2.0272449342e+01    0.2216405    0.1788914 -41.64 0.0007079903    1.306    0.234
       262  -9.5262    107.3826     71.2048   8.1754086140e+01   4.6991123714e+01    0.2217776    0.1311671 -55.09 0.0009570197    1.776    0.437
       263  -9.1602    214.4400     69.9500   5.9011796395e+01   2.2164403394e+01    0.2146535    0.1001024 -45.43 0.0008072187    2.525    0.604
       264  -9.0221    170.6161     69.8182   6.6378342117e+01   3.2755627161e+01    0.2254804    0.1323221 -41.47 0.0009494501    1.719    0.418
       265  -9.0926    206.3651     74.1217   6.1397562252e+01   2.3507022356e+01    0.2170588    0.1203033 -37.22 0.0009386384    1.764    0.433
       266  -8.9908    218.3984     68.2279   5.7962788332e+01   2.1461587408e+01    0.2079041    0.1194071 -35.51 0.0006613411    1.658    0.397
       267  -9.1124    187.3811     68.2190   6.2829629247e+01   2.8888806896e+01    0.2187574    0.1303107 -37.95 0.0008300891    1.647    0.393
       268  -9.3302    182.3771     68.2419   6.3716379750e+01   3.0112284798e+01    0.2252602     0.129871 -39.07 0.0009513518    1.715    0.417
       269  -8.4639    223.2780     66.6370   5.6843800384e+01   2.0531151529e+01    0.1478229    0.1011613 -49.05 0.0007010525    1.671    0.402
       270  -9.0535    212.5016     65.9827   5.8184385057e+01   2.3127974172e+01    0.2233916      0.13581 -23.79 0.0009527787    1.544    0.352
       271  -9.3168    145.7710     66.0077   7.0381035823e+01   3.9424184743e+01    0.2122247    0.1242299 -35.22 0.0008861301    1.677    0.404
       272  -9.4462    164.0000     64.9309   6.6172876077e+01   3.5158078146e+01    0.2554477   0.08539906 -31.87 0.0007876873    2.934    0.659
       273  -9.8376    111.8879     64.5070   7.8391564113e+01   4.7407263969e+01     0.253114    0.2043234 -64.98  0.001279474    1.348    0.258
       274  -8.9756    170.9964     64.0026   6.4520356908e+01   3.3568383662e+01     0.191606    0.1744478 -23.22  0.001004605    1.070    0.065
       275 -11.8896    192.6174     57.8399   5.8836529652e+01   2.9052865960e+01    0.8703159    0.2828537 -27.89  0.002849529    2.879    0.653
       276  -9.0383    141.0000     60.9498   6.9823803484e+01   4.1449194805e+01    0.2517765   0.08546798 -35.10 0.0006080443    2.881    0.653
       277  -9.8021    153.1276     59.6485   6.6712453812e+01   3.8705747860e+01    0.2866824    0.1987254 -41.99  0.001306923    1.436    0.304
       278 -10.5992    225.6698     45.3370   5.0546759359e+01   2.2475896289e+01    0.2744754    0.1132798 -33.23 0.0008039898    2.110    0.526
       279 -10.8637    230.6153     50.8120   5.1511054930e+01   2.0692430059e+01    0.4392532    0.2382259 -36.68  0.001990688    1.715    0.417
       280 -12.2120    225.9083     54.5254   5.3128545336e+01   2.1366114634e+01    0.6449543      0.41099 -53.71  0.002982262    1.886    0.470
       281 -11.3553    226.5937     50.8283   5.2000311029e+01   2.1632487303e+01    0.4273474    0.2391959 -32.18    0.0014968    1.608    0.378
       282  -9.3723    221.6736    161.6283   7.8970705844e+01   9.3014701098e+00    0.1830286    0.1418176 -42.67  0.001162765    1.770    0.435
       283  -9.3335    203.3827     66.1978   5.9617245559e+01   2.5278539214e+01    0.2181769    0.1242121 -36.40  0.000803324    1.690    0.408
       284  -9.4687    139.5250     55.4878   6.8320705477e+01   4.2747218754e+01    0.1523897    0.1477658 -38.98 0.0003085917    1.024    0.024
       285 -10.2761    153.0928     52.6000   6.4358420397e+01   3.9851295259e+01    0.2828257    0.1997124 -40.86 0.0009167198    1.400    0.286
       286  -9.7828    157.8983     61.6490   6.6366688430e+01   3.7197028711e+01    0.3181837    0.2143925 -41.41  0.001435868    1.477    0.323
       287 -11.4245    219.6654     47.3263   5.1851541739e+01   2.3692302043e+01    0.5208985     0.199754 -31.71   0.00173059    2.250    0.556
       288  -9.1120    158.2736     48.6207   6.1945743501e+01   3.9146353503e+01     0.163956    0.1132834 -56.54 0.0006553141    1.699    0.411
       289  -9.1116    181.4582     46.9814   5.7224454359e+01   3.3375867854e+01    0.2237965    0.1084605 -47.60 0.0008061934    2.376    0.579
       290  -9.8601     95.4945     46.9895   7.7100787453e+01   5.4262717504e+01    0.2345384    0.1366992 -42.01  0.001036086    1.600    0.375
       291 -10.1289    237.8235    158.9654   7.5969282994e+01   6.8621767829e+00    0.2405779    0.2321649 -28.77  0.001033839    1.531    0.347
       292  -8.6225     22.7109     40.3218   1.0343669262e+02   6.6313774077e+01    0.1221665   0.08706485  82.06 0.0002827038    1.604    0.376
       293  -8.4646    185.3240     39.3285   5.4101778614e+01   3.3371597570e+01     0.162934    0.1116323  25.65 0.0004892794    1.696    0.410
       294  -9.1417    165.1652     39.6253   5.7520855104e+01   3.8650697151e+01    0.3009739    0.1037718 -29.43   0.00097588    2.674    0.626
       295  -9.8132    168.5683     36.3160   5.5765552943e+01   3.8196495030e+01      0.29828    0.1380152 -30.58 0.0009661966    2.011    0.503
       296  -9.4337    149.4114     33.8132   5.8347788901e+01   4.3617234010e+01    0.2998643    0.1394687 -31.32 0.0007729541    2.019    0.505
       297 -12.4427    246.0947     85.6462   5.8756183087e+01   1.3350483197e+01     1.176875    0.7375874 -52.97  0.005679612    2.267    0.559
       298  -8.8994    116.4901     32.5175   6.5268436762e+01   5.2155932545e+01    0.1508122    0.1436039 -30.79 0.0008101604    1.031    0.030
       299  -9.4284      1.5012     31.4475   1.1164561129e+02   6.9733087220e+01    0.1195934   0.09160473 -69.65 0.0001101129    1.006    0.006
       300  -8.9703    125.7685     30.0119   6.1930545317e+01   5.0263153241e+01    0.2097961     0.123189 -29.30 0.0005977399    1.640    0.390
       301  -8.8067    170.3122     29.3504   5.3009314526e+01   3.8622689013e+01    0.1658543    0.1125009  25.63 0.0003639698    1.722    0.419
       302  -9.7006    172.8956     25.4563   5.1218075650e+01   3.8395908482e+01    0.4510209    0.1219059 -40.78  0.001285654    3.680    0.728
       303  -8.4425     42.3116     27.6983   8.9885777149e+01   6.7075193555e+01    0.1241282    0.0991108 -86.35 0.0003120901    1.608    0.378
       304  -9.1410    136.5887     24.9959   5.7467456959e+01   4.8199519205e+01    0.2319084    0.1463991 -24.20 0.0003618448    1.555    0.357
       305  -9.3943    237.9725    245.0104   8.9113736845e+01  -5.1871007800e-01    0.1286822    0.1041054  44.20   0.00112452    1.761    0.432
       306  -8.9811    118.4533     24.4861   6.1344957610e+01   5.2899799397e+01    0.1507861    0.1428757  -9.38 0.0001372032    1.012    0.012
       307  -9.4677    225.6810    243.9906   9.0702479619e+01   1.1269800985e+00    0.1772646    0.1027415  53.42  0.001155936    2.651    0.623
       308  -9.0769    155.6251     16.1902   5.0440251296e+01   4.4174251611e+01    0.2224817    0.1444773  -6.33 0.0009537301    1.689    0.408
       309  -9.8352      2.5504     15.5338   1.0700825157e+02   7.3279522682e+01    0.1192558   0.09153788 -63.37 3.613229e-05    1.027    0.026
       310  -8.7526    140.3132     21.6367   5.5342463759e+01   4.7657519611e+01     0.166294    0.1110755 -56.10 0.0005026683    1.758    0.431
       311  -9.1048    160.8955     13.6559   4.8640628025e+01   4.3005951168e+01    0.2959028    0.1177605 -52.11 0.0008958337    3.491    0.714
       312  -9.7560      8.6787     14.7040   1.0296156924e+02   7.3106265431e+01    0.1246302   0.07051493 -41.34 0.0002242743    1.617    0.381
       313  -9.3751    140.4137     16.7939   5.3323727291e+01   4.8228732510e+01    0.2193493    0.1450071  -5.08 0.0007654002    1.684    0.406
       314  -9.7999     29.7433     12.9747   8.9710752844e+01   7.1607393020e+01    0.1795211    0.1370627 -45.92 0.0002175742    1.070    0.065
       315 -11.0711    241.8029    241.4453   8.8142625921e+01  -7.5608516889e-01    0.3206291     0.181873  45.60  0.002347204    1.885    0.470
       316  -9.8606    202.5771    242.7962   9.3883541568e+01   4.2635368936e+00    0.1681671    0.1294727  51.16  0.001400691    1.635    0.388
       317  -9.7287    177.5443    242.0876   9.7537182749e+01   7.7011773296e+00    0.1114029   0.09877156 -23.05 0.0004358578    1.559    0.358
       318 -10.1379    248.5414    240.3920   8.7087115229e+01  -1.5337832096e+00     0.176761    0.1265766  36.73 0.0007653278    1.455    0.313
       319  -9.3126    219.9823    240.0654   9.1037246632e+01   2.1719278092e+00    0.1340735     0.105781  48.86  0.001119253    1.708    0.414
       320 -10.0073    233.4860    153.9936   7.5689058249e+01   8.1100954397e+00    0.2557123    0.2265575 -60.86   0.00129184    1.848    0.459
       321 -10.4831    192.1721    237.3642   9.4804690310e+01   6.1474785916e+00    0.3950607    0.2347824  63.97  0.002125022    4.037    0.752
       322 -10.4323    230.5058    237.0172   8.9160446340e+01   1.0205608720e+00    0.1984095    0.1742859  65.53  0.001370169    2.222    0.550
