#   1 NUMBER                 Running object number                                     
#   2 MAG_AUTO               Kron-like elliptical aperture magnitude                    [mag]
#   3 X_IMAGE                Object position along x                                    [pixel]
#   4 Y_IMAGE                Object position along y                                    [pixel]
#   5 X_WORLD                Barycenter position along world x axis                     [deg]
#   6 Y_WORLD                Barycenter position along world y axis                     [deg]
#   7 A_WORLD                Profile RMS along major axis (world units)                 [deg]
#   8 B_WORLD                Profile RMS along minor axis (world units)                 [deg]
#   9 THETA_WORLD            Position angle (CCW/world-x)                               [deg]
#  10 FWHM_WORLD             FWHM assuming a gaussian core                              [deg]
#  11 ELONGATION             A_IMAGE/B_IMAGE                                           
#  12 ELLIPTICITY            1 - B_IMAGE/A_IMAGE                                       
         1 -13.9774    214.4713      9.2623   3.8799076079e+01   3.0261890252e+01      1.93067     1.349077  36.76   0.01029653    1.937    0.484
         2 -13.5054    189.6716     40.5323   5.0039458748e+01   3.2648295082e+01     1.079959     1.041281 -24.83  0.003737438    1.140    0.123
         3 -12.8072    194.6865     34.5183   4.7646727219e+01   3.2176953022e+01    0.6462536    0.5916172  47.70  0.001166568    1.202    0.168
         4 -13.2172    174.8849     54.2365   5.6440439024e+01   3.4439252542e+01     1.743909     1.142113  25.22  0.005052551    2.165    0.538
         5  -9.3120     54.3375      1.6800   6.7091063949e+01   6.7969278126e+01    0.1057676   0.09642935 -51.82 0.0007049818    1.709    0.415
         6  -9.8484     64.8795    223.7250   1.1788424929e+02   2.0207994813e+01    0.1487816    0.1021538  79.12 0.0005497193    1.313    0.238
         7 -12.2880    247.1422    246.2379   8.6551247205e+01  -1.1051309689e+01    0.8095002    0.5482583  25.17  0.005649269    1.211    0.174
         8 -12.5510    248.4138    232.0182   8.4002187115e+01  -9.6202132681e+00    0.8332103    0.3333451 -29.43   0.00423611    2.530    0.605
         9  -8.1614     71.5878    201.5480   1.1436613538e+02   2.3801557371e+01     0.297513    0.1738495  79.53   0.00152433    1.889    0.471
        10  -9.4253    160.4962    205.4838   9.6046337178e+01   8.4804644952e+00    0.1356737    0.1204108  33.56 0.0008103721    1.021    0.020
        11 -10.3781     96.4548    201.8671   1.0911067868e+02   2.0072898758e+01    0.3836516    0.2969289 -39.36  0.001639655    1.730    0.422
        12 -11.0630    192.9947    195.2709   8.7636629172e+01   4.4073470106e+00     0.927539    0.5248532 -64.94  0.003170896    4.818    0.792
        13 -10.1935     57.5178    201.4749   1.1729713510e+02   2.5691546117e+01    0.2595727    0.2003452 -38.46  0.001148343    1.967    0.492
        14 -11.4859     59.8829    195.1001   1.1616216567e+02   2.6752185457e+01    0.3454753    0.2852491 -50.69  0.001762208    1.546    0.353
        15  -9.8574     82.0124    195.0274   1.1137880634e+02   2.3705397243e+01    0.1942904    0.1687089  75.28 0.0004288433    1.029    0.028
        16  -9.7848     61.4412    219.9217   1.1821269748e+02   2.1405113281e+01    0.1529715    0.1030472 -64.94 0.0007215953    1.608    0.378
        17 -10.1655     55.9330    217.2408   1.1904829795e+02   2.2646183355e+01    0.2457994    0.1119201  76.79  0.001112342    2.766    0.638
        18 -11.7444    149.5041    188.3154   9.5452528330e+01   1.3705314468e+01    0.4785032     0.366932 -89.29  0.001580018    1.764    0.433
        19 -10.2863    141.3568    187.7970   9.7149889664e+01   1.5311561827e+01    0.1983836    0.1295193 -40.65 0.0009548853    1.746    0.427
        20  -8.2443     91.3091    185.2726   1.0803181152e+02   2.4426339485e+01    0.1214911    0.1081016 -15.87 0.0003209057    1.547    0.354
        21 -11.6245    143.8923    178.4809   9.4926417368e+01   1.6739090291e+01     0.477437    0.2896272 -53.13  0.001570514    1.773    0.436
        22 -10.7158    149.8557    178.0274   9.3505895315e+01   1.5699451161e+01    0.3549518    0.2574805 -71.46 0.0008803796    1.780    0.438
        23 -10.2927    188.6078    176.6116   8.4907798470e+01   8.4878705508e+00    0.3772418    0.3304864 -50.21  0.001504289    1.297    0.229
        24 -11.1189    237.7374    174.5933   7.5136383506e+01  -1.8229221012e-01    0.2620276     0.151606 -23.12  0.001286948    1.729    0.422
        25  -8.8379    194.4975    172.0203   8.2769974592e+01   8.1834375013e+00    0.2084188    0.1383277 -37.83  0.000594288    1.526    0.345
        26 -19.5194     23.3223    146.5460   1.1942554559e+02   4.1922388136e+01     19.34528     4.911995 -74.88   0.06743877    3.728    0.732
        27 -11.2754    139.4435    172.0087   9.4734318141e+01   1.8937675799e+01    0.4356168    0.2808516  43.77  0.001375864    1.479    0.324
        28  -9.1722    177.0000    168.9476   8.5771708595e+01   1.2194129683e+01    0.2363582    0.0829748 -43.35   0.00080184    2.938    0.660
        29  -9.2969    184.5771    212.7872   9.2408359251e+01   3.0143746461e+00    0.1683225     0.127183 -55.09 0.0009477424    1.723    0.420
        30  -9.1368    187.6034    163.2607   8.2342122570e+01   1.1161249031e+01     0.275619    0.1380989 -45.43 0.0009781565    2.094    0.522
        31  -9.3221     43.9448    221.2691   1.2165421642e+02   2.3318409752e+01    0.1533549    0.1083502  77.74 0.0005579143    1.146    0.128
        32  -9.9688     55.5379    223.1612   1.1961816460e+02   2.1525819690e+01    0.1413904   0.09972221 -88.56  0.000297303    1.293    0.226
        33  -9.3034    160.6748    161.6681   8.7831505615e+01   1.6925081865e+01    0.1536926    0.1178051   0.12 0.0007050905    1.708    0.415
        34 -11.0388     90.9124    157.6289   1.0386212853e+02   3.0819582833e+01    0.2795802    0.2499127 -59.47 0.0004228006    1.150    0.131
        35 -11.9410     96.7693    151.2023   1.0123160391e+02   3.1381760619e+01    0.6253976    0.5215755 -21.29  0.003285921    1.560    0.359
        36 -10.0432    187.7219    152.0648   7.9865237531e+01   1.3275527580e+01    0.3028195    0.2443824 -68.93   0.00149237    1.603    0.376
        37 -10.9990    133.8530    145.6370   9.0716507649e+01   2.5820113020e+01     1.264186    0.3134142 -54.11  0.003004818    5.652    0.823
        38  -9.5783    113.0604    150.8448   9.7006199870e+01   2.8613472196e+01    0.2405814    0.1962538  78.73 0.0006859515    1.343    0.255
        39  -9.7174    174.5363    149.1949   8.2033680025e+01   1.6603627848e+01    0.2841666    0.2148857  44.75 0.0008290589    1.320    0.243
        40 -11.4286    108.1715    137.7191   9.5572678269e+01   3.2587379747e+01    0.6511719    0.4285353 -44.53  0.002982151    1.563    0.360
        41 -11.0089    105.6007    131.0809   9.4817751675e+01   3.4628703787e+01     0.505862    0.3884208 -36.42  0.002474187    1.434    0.303
        42  -9.7329    143.6045    145.7861   8.8373165056e+01   2.3806552191e+01    0.2213656    0.1447236 -58.99 0.0009503578    1.710    0.415
        43 -11.7840     96.3851    137.1931   9.8612314836e+01   3.4791710695e+01    0.3467414     0.291478 -80.09 0.0004463285    1.205    0.170
        44 -10.0386    135.7480    128.8588   8.6386376036e+01   2.9214128905e+01    0.3683999     0.132335 -48.99  0.001176939    2.808    0.644
        45 -10.4129    115.0553    128.8682   9.1771248230e+01   3.3380726028e+01    0.3478987    0.2881322 -12.10  0.000729856    1.520    0.342
        46  -9.8953    160.8367    127.9952   8.0097257283e+01   2.3967702934e+01    0.3834457    0.2304742 -43.31  0.001598518    1.646    0.393
        47 -10.5515    102.7384    124.4734   9.4110390372e+01   3.6716422496e+01    0.3055577    0.2565877  -7.74 0.0007511147    1.498    0.332
        48 -10.3198    120.3501    122.9727   8.8954774384e+01   3.3712445019e+01    0.3968969     0.254259 -25.22   0.00157203    2.234    0.552
        49  -9.9999    135.0000    121.3728   8.4728181569e+01   3.1051377166e+01    0.5328628   0.08810568 -46.11  0.001157244    5.944    0.832
        50 -10.5527     43.9397    205.4435   1.2041122488e+02   2.6526316513e+01    0.1630328    0.1284985 -89.97 4.845344e-05    1.132    0.117
        51  -9.5792    110.2250    118.0230   9.0495897856e+01   3.6841702894e+01    0.2352841    0.2186294  46.89 0.0003414186    1.117    0.105
        52 -10.0276    231.2224    113.8501   6.2723201487e+01   1.1098633748e+01    0.2755461    0.2566753  -9.99 0.0007874481    1.086    0.079
        53  -9.3841    167.4424    112.2597   7.4557006168e+01   2.5739979695e+01      0.33454    0.2436799 -72.98   0.00106397    1.874    0.466
        54  -8.3269    146.6401    113.2938   7.9716072990e+01   3.0280206060e+01    0.1622207     0.126586  89.11 0.0007030683    1.700    0.412
        55 -10.0533    134.5140    106.0471   8.0823430408e+01   3.4540022293e+01    0.5223601    0.1436707 -49.15  0.001365738    4.156    0.759
        56 -11.4233    118.8207    110.5517   8.6221815240e+01   3.6863536856e+01    0.6051199    0.4141189  67.23  0.002331781    1.958    0.489
        57  -9.6165    205.4259    110.1793   6.6280778411e+01   1.7368529303e+01    0.3135763    0.2155397  40.71 0.0009332702    1.577    0.366
        58  -9.3939    131.1442     96.8337   7.9120297514e+01   3.7261032709e+01    0.2157513    0.1859228  12.31 0.0003979341    1.319    0.242
        59  -8.8420    154.2932     82.3262   6.9123528611e+01   3.4789335151e+01    0.1584637     0.124197   9.10 0.0003645131    1.622    0.383
        60  -9.1868     70.0417     72.2560   9.0334164708e+01   5.4101143052e+01    0.1824425     0.172376  -2.93 0.0001840878    1.104    0.095
        61  -8.8293     75.7334    247.2136   1.1786985124e+02   1.4421537023e+01    0.1094335   0.06466713  59.81  0.000339932    1.397    0.284
        62 -10.3513     71.8911    244.9908   1.1837710308e+02   1.5328339205e+01    0.1958774    0.1413279 -63.92  0.001075673    1.659    0.397
        63 -10.1934     58.7700    229.2903   1.1950781184e+02   1.9932085936e+01    0.1645946    0.1203704  78.59 0.0003477572    1.164    0.141
        64 -10.4425    189.9451     15.1554   4.2871812154e+01   3.5651257200e+01    0.2307819    0.1990577 -41.52  0.000811683    1.208    0.172
        65 -10.3213     67.2351    204.6314   1.1560030105e+02   2.3748375505e+01    0.3271809    0.1776234 -50.93  0.001118219    2.328    0.571
        66 -11.2150     50.4052    224.7227   1.2070789601e+02   2.1861607247e+01     0.218745    0.1311577  78.27 0.0009460772    1.511    0.338
