#   1 NUMBER                 Running object number                                     
#   2 MAG_AUTO               Kron-like elliptical aperture magnitude                    [mag]
#   3 X_IMAGE                Object position along x                                    [pixel]
#   4 Y_IMAGE                Object position along y                                    [pixel]
#   5 X_WORLD                Barycenter position along world x axis                     [deg]
#   6 Y_WORLD                Barycenter position along world y axis                     [deg]
#   7 A_WORLD                Profile RMS along major axis (world units)                 [deg]
#   8 B_WORLD                Profile RMS along minor axis (world units)                 [deg]
#   9 THETA_WORLD            Position angle (CCW/world-x)                               [deg]
#  10 FWHM_WORLD             FWHM assuming a gaussian core                              [deg]
#  11 ELONGATION             A_IMAGE/B_IMAGE                                           
#  12 ELLIPTICITY            1 - B_IMAGE/A_IMAGE                                       
         1 -12.3392    242.4688     25.3783   2.8906942305e+02   6.1021835111e+00   0.08375801   0.02311813 -59.08  0.005872932    3.360    0.702
         2 -10.7756    249.2103     17.3018   2.8894132618e+02   6.1570421971e+00   0.03776275   0.01600718 -64.02  0.003108427    2.483    0.597
         3 -11.9074    235.0889     17.8909   2.8912051959e+02   6.2314918742e+00   0.03040884   0.02308281 -69.71  0.003203244    1.435    0.303
         4 -11.5445    236.4391      5.4718   2.8903587301e+02   6.3677336253e+00   0.03261151   0.02263608 -46.05  0.003411477    1.520    0.342
         5 -11.9183    247.3663      5.7575   2.8890124820e+02   6.3015085164e+00   0.05286627   0.04693592  -0.53  0.006257589    1.144    0.126
         6  -9.8919    186.9043      8.6315   2.8967101344e+02   6.6158834042e+00   0.01326137   0.01063119 -81.41  0.001471261    1.411    0.291
         7  -8.0544    196.3377      3.3353   2.8952437242e+02   6.6231333394e+00   0.00731407  0.004985823 -24.60 0.0002907374    1.749    0.428
         8  -8.5696    159.4758      2.5272   2.8998021365e+02   6.8440993971e+00  0.006822282  0.006394716   8.47 7.963762e-05    1.046    0.044
         9  -8.1181     38.6920    240.6564   2.9277916983e+02   4.7648479978e+00   0.00722046  0.004973883 -27.11 0.0007043694    1.694    0.410
        10  -7.8105     49.6838    250.6660   2.9269605954e+02   4.5858953315e+00  0.007213185  0.004992484 -25.97 0.0007047412    1.691    0.409
        11  -9.1070     14.6838    239.8444   2.9307411630e+02   4.9106207554e+00   0.01726967  0.007128838  35.42  0.001415573    2.163    0.538
        12  -9.1323    184.0985    237.3353   2.9094933817e+02   3.9745258378e+00   0.01212822  0.009352699 -48.55  0.001327084    1.356    0.263
        13  -8.1775     43.5950    237.7487   2.9270238084e+02   4.7708246211e+00  0.009351555  0.006708289 -84.55 0.0009552614    1.662    0.398
        14  -8.1223    230.0000    235.9622   2.9037062330e+02   3.7279011016e+00   0.01107575  0.003946141 -65.00 0.0008096809    2.993    0.666
        15  -9.2514    176.9992    234.7787   2.9102388905e+02   4.0448344858e+00   0.01720688  0.007732154 -46.16  0.001416949    2.416    0.586
        16  -9.4356    247.8552    224.6865   2.9008735128e+02   3.7566897809e+00   0.01672037   0.01213113 -72.86  0.001770136    1.533    0.348
        17  -7.5363     31.3125    222.6519   2.9277420679e+02   5.0163039412e+00  0.007308722  0.004887064  57.43  0.000704627    1.716    0.417
        18  -9.2260      2.2034    220.0350   2.9312316908e+02   5.2119655975e+00   0.01445985  0.008231141 -64.95  0.001362185    1.868    0.465
        19 -10.5749    240.5282    216.4662   2.9013386845e+02   3.8941766266e+00   0.03285351    0.0177932 -54.06  0.003067616    1.883    0.469
        20 -10.5017    247.1993    216.1968   2.9004942342e+02   3.8590900105e+00   0.02183475   0.01897875  81.87  0.001924775    1.286    0.223
        21  -8.7340    226.8578    219.3042   2.9031935518e+02   3.9394860259e+00   0.01345986  0.007322235 -52.20 0.0009919837    1.884    0.469
        22  -8.2220     12.5376    216.3032   2.9297418373e+02   5.1967795048e+00   0.01883895  0.004275808  30.74  0.001218252    3.410    0.707
        23  -8.6429    233.2392    211.3357   2.9019670548e+02   3.9955480121e+00   0.01765932    0.0083294 -41.14  0.001442574    2.506    0.601
        24  -8.1211      2.4888    212.4610   2.9307884919e+02   5.2984983661e+00  0.006828449  0.006383973  24.36 0.0002237782    1.005    0.005
        25  -8.4456    216.6021    209.5846   2.9039425395e+02   4.1111774489e+00    0.0162646  0.007138923 -72.94   0.00125748    2.895    0.655
        26  -8.8222    236.4032    199.6028   2.9009363400e+02   4.1137703856e+00   0.02601236  0.005579416 -48.39  0.001477273    5.054    0.802
        27  -8.1989    250.3482    199.3512   2.8991877136e+02   4.0367761307e+00   0.01298421  0.008602135 -66.20   0.00131475    1.623    0.384
        28  -9.0985    242.9174    199.3836   2.9001138967e+02   4.0789882928e+00   0.01386608  0.009954575 -55.27  0.001471116    1.448    0.309
        29 -10.0046    246.1290    192.3611   2.8993328436e+02   4.1421797254e+00   0.01743154   0.01000156 -63.16  0.001657216    1.833    0.455
        30  -8.1791    231.0014    192.9722   2.9012484964e+02   4.2217788747e+00   0.01143993    0.0077963 -28.11  0.001133273    1.716    0.417
        31  -8.7233    234.5982    181.6890   2.9001879152e+02   4.3322874407e+00   0.01316055  0.006235507 -59.20  0.001141649    2.137    0.532
        32  -9.7831    241.0274    178.9202   2.8992372999e+02   4.3276039680e+00   0.02179638  0.008052212 -55.63  0.001710611    2.632    0.620
        33  -9.4548    247.8268    176.6726   2.8982690336e+02   4.3147299254e+00    0.0175904  0.009359892 -71.19  0.001565875    2.171    0.539
        34  -9.3010    246.0011    167.2181   2.8979822275e+02   4.4350473565e+00   0.01204886   0.01005549 -62.35 0.0007747009    1.271    0.213
        35  -8.3832      7.6641    166.3070   2.9276557086e+02   5.8062849992e+00  0.007290649  0.004828897  53.90 0.0007041347    1.674    0.402
        36  -7.9424    239.5429    163.5024   2.8985839867e+02   4.5152614195e+00  0.006812347  0.006407597  24.38 8.856248e-05    1.005    0.005
        37  -8.2487    245.2087    157.5870   2.8975571175e+02   4.5514885530e+00   0.00965419  0.006400192  10.62 0.0009458937    1.603    0.376
        38  -9.0823    250.4318    152.0355   2.8966051054e+02   4.5860128845e+00    0.0281852  0.008024026 -70.94  0.001585103    5.480    0.818
        39 -10.0993    243.9248    148.6775   2.8972323153e+02   4.6623629095e+00   0.01820099   0.00975633 -61.12  0.001680503    1.930    0.482
        40  -9.4838    234.7983    145.8251   2.8982133350e+02   4.7478683729e+00   0.01748163  0.007467329 -57.96  0.001457573    2.331    0.571
        41 -10.4577    248.6933    142.2636   2.8962898089e+02   4.7095056103e+00   0.03586226   0.01381756 -44.03  0.002659731    3.051    0.672
        42 -10.6255    247.9617    131.4442   2.8957920394e+02   4.8393816179e+00   0.03349724    0.0146233 -75.47  0.002517866    3.172    0.685
        43  -9.5762    243.3866    139.9122   2.8968224178e+02   4.7672801138e+00   0.01660477  0.008542476 -68.45  0.001289442    2.167    0.539
        44  -9.5922    241.5451    134.0245   2.8967312968e+02   4.8462452971e+00   0.01796713   0.01091629  61.25   0.00164335    2.094    0.522
        45 -10.4055    241.0925    124.8216   2.8962867553e+02   4.9557453426e+00   0.02152915   0.01014315 -65.00  0.001850746    2.265    0.559
        46  -9.0876    249.3042    124.0338   2.8952215131e+02   4.9177442688e+00  0.009468183  0.009339781 -32.50  0.001135074    1.070    0.066
        47  -9.4928    247.6387    118.8484   2.8951465212e+02   4.9875337400e+00   0.01215863  0.009243134   9.48  0.001305947    1.347    0.258
        48 -11.8838    229.9113    102.3617   2.8964564445e+02   5.2808164939e+00   0.04411837    0.0252305 -82.52  0.003913745    2.339    0.572
        49 -10.7384    224.3926     93.0790   2.8966384444e+02   5.4203152098e+00   0.01989169   0.01624854  82.23  0.002226883    1.413    0.292
        50  -8.6196    249.9955     79.9968   2.8927362904e+02   5.4251105562e+00    0.0196909  0.005886593 -51.70  0.001385106    3.262    0.693
        51  -9.8313    248.0475     74.3158   2.8926691613e+02   5.5022561791e+00    0.0133407   0.01050516 -81.61  0.001463852    1.445    0.308
        52  -9.7319    248.7669     64.8676   2.8920643558e+02   5.6077819458e+00   0.01476105  0.009625154 -77.00  0.001306408    1.804    0.446
        53 -10.3808    244.7836     57.2045   2.8921425584e+02   5.7196236315e+00   0.02419826   0.01020015  35.83  0.002009181    2.129    0.530
        54  -8.8283    250.2890     56.2110   2.8914026120e+02   5.6994870653e+00   0.01168189  0.008368191 -60.28  0.001233715    1.465    0.317
        55 -10.0655    246.0000     46.9963   2.8914341288e+02   5.8310820112e+00   0.01621271  0.008984977 -72.43 0.0009465485    2.106    0.525
        56 -10.2829    247.5053     43.0580   2.8910317059e+02   5.8681150413e+00   0.01742652  0.009748037 -65.81   0.00162744    1.924    0.480
        57  -9.7168    167.1451    248.2663   2.9121960557e+02   3.9443076843e+00   0.01657948   0.01288421  75.63  0.001792059    1.518    0.341
        58  -9.5419    142.4940    247.0014   2.9151977152e+02   4.0997871177e+00   0.01633269   0.01193623   0.13  0.001703519    1.510    0.338
        59  -8.3023    191.3479    245.6944   2.9090436023e+02   3.8358943307e+00  0.007357856  0.004804392  53.53 0.0007042121    1.699    0.411
        60  -9.1851    176.1080    243.7867   2.9108375880e+02   3.9451848963e+00   0.01414473  0.007744918 -38.16  0.001248329    2.149    0.535
        61 -10.7969    248.0792     27.9800   2.8901372276e+02   6.0397174576e+00   0.02762757   0.02141233   3.87  0.003017243    1.359    0.264
        62  -8.5968      3.3361    243.6790   2.9323621020e+02   4.9303617998e+00   0.01155818  0.007489964  54.78  0.001123359    1.740    0.425
        63  -8.3017      8.6418     34.8107   2.9204221436e+02   7.3299063039e+00  0.009352003   0.00658526 -82.49 0.0009470023    1.691    0.409
        64  -9.8114    168.4141    241.2236   2.9116568868e+02   4.0189543912e+00    0.0122538  0.009138377 -50.86  0.001180141    1.398    0.285
        65  -9.8960    247.4799     37.1896   2.8907146100e+02   5.9363408803e+00   0.01540264   0.01259947  -5.28  0.001244869    1.304    0.233
        66  -9.6806    171.7551    239.5870   2.9111522634e+02   4.0188946675e+00   0.01414736   0.00939431  33.94   0.00144065    1.395    0.283
