#   1 NUMBER                 Running object number                                     
#   2 MAG_AUTO               Kron-like elliptical aperture magnitude                    [mag]
#   3 X_IMAGE                Object position along x                                    [pixel]
#   4 Y_IMAGE                Object position along y                                    [pixel]
#   5 X_WORLD                Barycenter position along world x axis                     [deg]
#   6 Y_WORLD                Barycenter position along world y axis                     [deg]
#   7 A_WORLD                Profile RMS along major axis (world units)                 [deg]
#   8 B_WORLD                Profile RMS along minor axis (world units)                 [deg]
#   9 THETA_WORLD            Position angle (CCW/world-x)                               [deg]
#  10 FWHM_WORLD             FWHM assuming a gaussian core                              [deg]
#  11 ELONGATION             A_IMAGE/B_IMAGE                                           
#  12 ELLIPTICITY            1 - B_IMAGE/A_IMAGE                                       
         1 -14.5584     68.4232    144.0886   1.0291525941e+02   3.7630619028e+01     4.845685      2.13845  61.37  0.006678445    4.598    0.782
         2 -13.1976    196.8813     41.4167   4.4631419337e+01   3.0934386212e+01     1.175328    0.9699762 -57.36  0.004106789    1.155    0.134
         3 -13.8022    205.9453     32.1561   4.1178421864e+01   2.9975046544e+01     1.577427     1.044898 -12.78  0.001350593    2.213    0.548
         4 -11.5899     29.1855     15.3926   8.1296999205e+01   6.9927208888e+01    0.3216668    0.2089277  46.26  0.001833413    2.451    0.592
         5 -12.4223    233.1722      7.5039   3.3020205006e+01   2.6679348747e+01    0.7011086     0.540204 -26.66  0.004563253    1.615    0.381
         6 -12.4520    226.9008      5.6388   3.3096427626e+01   2.8245189098e+01    0.6257716    0.4213698 -36.75  0.003861464    1.543    0.352
         7 -10.3554     39.6086      8.4009   7.2693843501e+01   6.9506791389e+01    0.2133965    0.1024306  50.03 0.0009601627    3.382    0.704
         8 -10.9652     59.0155      2.6123   6.1557268014e+01   6.7010150703e+01    0.3496572    0.1449984  51.52  0.001646022    2.409    0.585
         9  -8.8898     93.0648    205.5337   1.0573155171e+02   1.9420908977e+01    0.2039525    0.1222057  39.13 0.0004765724    1.534    0.348
        10 -11.4092    139.7927    248.2636   1.0113656908e+02   3.9013367332e+00    0.4489233    0.3287248 -55.03  0.002785824    1.689    0.408
        11 -16.0531     59.5717    188.5611   1.1150475089e+02   2.8014837127e+01     29.46576     10.76363 -85.64   0.07163812    7.915    0.874
        12 -10.6187    164.2947    214.1341   9.1059901163e+01   5.8171061671e+00    0.2442468    0.1899562 -22.69  0.001282609    1.452    0.312
        13 -11.4305     75.9423    167.7150   1.0466196163e+02   3.0729685268e+01    0.3613309    0.3512811  43.89  0.001122048    1.151    0.132
        14  -9.9612    121.8435    173.9638   9.3909830616e+01   2.1664576727e+01     0.249334    0.1726451 -24.07  0.001088793    2.053    0.513
        15 -11.5587    111.8420    204.9962   1.0133994055e+02   1.6547643557e+01    0.4508948    0.3184471 -89.04  0.001538096    1.777    0.437
        16 -16.0972      2.3779    223.0191   1.2625280985e+02   2.6725601603e+01     3.450826    0.3748571 -69.37   0.01219647    5.603    0.822
        17  -9.6301    147.2856    173.2843   8.7564677227e+01   1.7044410231e+01    0.5287508    0.3058729 -73.08  0.001828434    3.398    0.706
        18  -9.5162    240.4788    169.4651   6.7512731870e+01   5.0842697894e-01    0.1320553    0.1148127 -17.80 3.520717e-05    1.056    0.053
        19  -8.9669    137.4174    167.3769   8.8791962097e+01   2.0240604243e+01    0.3723811    0.1309012  44.65  0.001217201    2.808    0.644
        20 -11.0634    192.9447    194.7217   8.1567765361e+01   4.3251270356e+00     1.145165    0.5530298 -59.43  0.003568809    5.200    0.808
        21 -10.6331    107.8731    203.9386   1.0210452648e+02   1.7421401848e+01    0.2842719    0.2454497  83.78 0.0005847602    1.197    0.164
        22 -10.6668     32.1519    165.2965   1.1566387195e+02   3.6700624923e+01    0.3117246    0.1839551  86.86 0.0009494819    1.667    0.400
        23 -10.6921    202.9055    199.2791   8.0402634022e+01   1.8213216515e+00    0.3931186    0.1481707  43.29  0.001534594    2.720    0.632
        24 -10.1057    120.2838    194.4457   9.7775056050e+01   1.7384316825e+01    0.2675025     0.218575  88.58 0.0008519283    1.396    0.284
        25 -12.1135     83.8059    159.7041   1.0129481454e+02   3.1505468434e+01    0.9963341    0.6683784  79.78 0.0005167008    1.862    0.463
        26 -11.5298     90.6551    152.4087   9.8142506963e+01   3.2208610782e+01    0.6769374    0.4857885 -26.44  0.003124949    1.882    0.469
        27 -13.1940     72.5771    154.0560   1.0342057132e+02   3.4567129065e+01     0.731231    0.5460134 -60.75  0.001081912    1.275    0.216
        28 -10.7931    133.6361    144.6430   8.4969346871e+01   2.6162269307e+01     1.214332    0.3118682 -54.40  0.002840104    5.621    0.822
        29  -8.3348    112.3541    150.6654   9.1884500185e+01   2.8861244706e+01    0.1631724    0.1177877  74.77  0.000704438    1.792    0.442
        30 -15.9300     50.4244    201.4207   1.1495934616e+02   2.6238538060e+01     11.44253     3.976824  62.34   0.03674099    4.776    0.791
        31  -9.4968    174.6664    149.0211   7.6060791664e+01   1.6698155535e+01    0.2209241    0.1955843 -38.99 0.0005690706    1.125    0.111
        32 -10.2901    103.7671    138.3676   9.1677613048e+01   3.3393287304e+01    0.5793499    0.3673297 -23.14  0.002240767    2.510    0.602
        33 -17.4191     10.9000    246.6849   1.2581699328e+02   2.1326643271e+01     5.287434     2.348067  27.52   0.01846406    2.965    0.663
        34 -10.4344     21.1628    192.0903   1.2063531432e+02   3.1543984975e+01    0.3775744    0.2613316  75.84  0.001599365    1.214    0.176
        35  -9.8459    149.1830    187.1939   8.9750396874e+01   1.3741062643e+01    0.2547536    0.2232907 -73.65  0.001158421    1.332    0.249
        36 -11.6499     91.4497    138.0311   9.5123711270e+01   3.5615744217e+01    0.2929293    0.2663755 -43.04 0.0004911838    1.132    0.117
        37 -10.1713    135.6349    129.9764   8.1042181287e+01   2.9113413279e+01     0.466245    0.1503326 -50.00  0.001379096    3.270    0.694
        38 -10.0308    105.8941    130.7448   8.9387538013e+01   3.4847420493e+01    0.3969766    0.3284113 -64.54  0.001348524    1.241    0.194
        39  -9.8518    112.5303    129.4718   8.7207804118e+01   3.3899309198e+01    0.3296981    0.2754248   6.38 0.0007302744    1.435    0.303
        40  -9.1505    160.5785    127.3448   7.4190070886e+01   2.4295360077e+01    0.3078162     0.149811 -48.11  0.001056006    2.114    0.527
        41 -10.2829     99.8335    125.2203   8.9878257197e+01   3.7286152184e+01    0.3304279    0.2661358  -6.26  0.001582096    1.565    0.361
        42 -10.9331    119.3702    123.0430   8.3745268540e+01   3.4065872090e+01    0.6199938    0.4055687  14.56  0.002403224    2.352    0.575
        43  -9.1863    108.4419    118.3851   8.5712931048e+01   3.7309868697e+01    0.2497245    0.2270509  28.26 0.0005038041    1.140    0.123
        44  -9.8681    231.3868    113.7177   5.7042843203e+01   1.1655895230e+01    0.2497201    0.2409662 -41.17 0.0008310754    1.076    0.071
        45  -9.1312     91.2197    182.8729   1.0303791937e+02   2.4803828043e+01    0.2099777     0.178264  79.13 0.0004796873    1.155    0.134
        46 -11.0546    116.7857    109.0143   8.0888951630e+01   3.7813568709e+01    0.6320459    0.4915786  57.51  0.002985518    1.416    0.294
        47  -9.3842    205.6042    110.1123   6.0549014498e+01   1.7700071512e+01    0.2654034    0.2140448  42.83 0.0005995953    1.331    0.249
        48  -9.9174    134.7775    106.7523   7.5320013291e+01   3.4472812721e+01    0.6752703    0.1397668 -47.45  0.001559671    5.367    0.814
        49 -13.2209     55.2407    146.8115   1.0711459844e+02   3.8674308188e+01     1.020567     0.839792  17.67   0.00578156    1.458    0.314
        50  -9.1650    238.3272    107.6602   5.4622977074e+01   1.1311812016e+01    0.1428952   0.09944163 -64.71 0.0002713937    1.733    0.423
        51 -11.6552     71.9027    172.2000   1.0636552946e+02   3.0223320575e+01    0.4615395    0.3364459 -31.01  0.001248553    1.883    0.469
        52  -8.0505    141.7038    108.3424   7.3946499411e+01   3.2587498111e+01    0.1610203    0.1264428 -82.59 0.0003710721    1.664    0.399
        53 -10.5916     55.3969     94.9410   9.7034821414e+01   5.1396728491e+01    0.4985428    0.2494809  46.23  0.002101045    2.498    0.600
        54 -10.6580     51.3689     89.6309   9.7179646911e+01   5.3123882749e+01    0.3605979    0.2557603 -69.97 0.0007211623    1.566    0.361
        55  -8.3798    157.5835     89.8241   6.4999638684e+01   3.2667952174e+01    0.2198389    0.1416365 -52.33  0.000853193    1.684    0.406
        56 -10.4086     99.4169    180.7660   1.0067522414e+02   2.3977439464e+01    0.2614082    0.2431045  46.20 0.0006888025    1.088    0.081
        57  -9.3585    157.6304     82.6185   6.2953045024e+01   3.4013987838e+01    0.2330664    0.1853468  14.21 0.0007883388    1.594    0.373
        58  -8.8808    184.7755     77.1690   5.5961670747e+01   2.8406930605e+01     0.204761    0.1797701  19.02  0.001069456    1.362    0.266
        59 -13.0321    185.7789     50.0468   4.8503795537e+01   3.2438105547e+01    0.9741936    0.8541211  22.86   0.00100937    1.408    0.290
        60 -10.5279    156.1016    216.6312   9.3223511445e+01   6.7598316046e+00    0.2535347      0.20546 -33.65  0.001467222    1.381    0.276
        61  -9.4963     90.0246    212.8504   1.0733015987e+02   1.8317432331e+01    0.2676666    0.1790211  55.84 0.0008563393    1.378    0.274
        62  -9.9541    188.4191    176.5683   7.8960290070e+01   8.4866941444e+00    0.4618078    0.3746293 -89.23  0.002311544    1.888    0.470
        63 -13.7574     44.3623    112.0464   1.0450338567e+02   4.8559687103e+01       2.3079     1.462861  63.93   0.01101837    2.100    0.524
        64 -11.0548    224.8572     27.7795   3.8142914879e+01   2.6166933062e+01     0.343789    0.2348109  34.99  0.001808525    2.290    0.563
        65  -9.6152    198.1872     23.3273   3.9887158064e+01   3.2891941182e+01    0.2120334    0.1806987 -22.20 0.0007024421    1.431    0.301
        66 -10.9697    188.7321    210.8196   8.5367677444e+01   2.2507980991e+00    0.3757992    0.2084637  43.23  0.001810843    1.785    0.440
        67  -9.1280    189.4939     15.0167   3.8769490357e+01   3.5915452319e+01    0.1802385    0.1290809 -31.62 0.0007447529    1.551    0.355
        68 -11.1282    108.1017    210.8819   1.0301297971e+02   1.5920314280e+01    0.3722573      0.23381  42.44  0.001909504    1.409    0.290
        69  -8.1588    224.2983    206.7026   7.7644702682e+01  -2.8294745095e+00    0.1093755    0.1057036  76.00 0.0002385174    1.573    0.364
        70 -11.8197    112.5307    196.3655   9.9906147801e+01   1.8285944518e+01     1.092378    0.6512977   0.29  0.003337428    5.365    0.814
