#   1 NUMBER                 Running object number                                     
#   2 MAG_AUTO               Kron-like elliptical aperture magnitude                    [mag]
#   3 X_IMAGE                Object position along x                                    [pixel]
#   4 Y_IMAGE                Object position along y                                    [pixel]
#   5 X_WORLD                Barycenter position along world x axis                     [deg]
#   6 Y_WORLD                Barycenter position along world y axis                     [deg]
#   7 A_WORLD                Profile RMS along major axis (world units)                 [deg]
#   8 B_WORLD                Profile RMS along minor axis (world units)                 [deg]
#   9 THETA_WORLD            Position angle (CCW/world-x)                               [deg]
#  10 FWHM_WORLD             FWHM assuming a gaussian core                              [deg]
#  11 ELONGATION             A_IMAGE/B_IMAGE                                           
#  12 ELLIPTICITY            1 - B_IMAGE/A_IMAGE                                       
         1 -12.4987     10.0687     49.5504   1.1642585338e+02   6.4609747382e+01     1.299458    0.4628368 -44.34  0.006570436    2.140    0.533
         2 -11.1011    249.5925     42.4975   5.7574906884e+01   2.0061514353e+01    0.4732986     0.231517 -46.49  0.002591256    1.759    0.432
         3 -10.9881     18.4048     25.4692   1.0446592149e+02   6.7694375586e+01    0.4496523    0.2757764   4.29 0.0007376518    1.499    0.333
         4 -11.0355     29.2033     20.2731   9.7666952339e+01   6.7212481793e+01    0.5427727    0.3081468  18.52  0.003376909    1.618    0.382
         5 -11.5128     23.1287     14.1853   9.7780001861e+01   6.8649977563e+01     1.280504    0.3331662 -31.92  0.005406773    3.965    0.748
         6 -11.6421      2.9336      7.3677   1.0439041483e+02   7.1462851061e+01      0.38233    0.1850093 -22.37  0.001202305    1.808    0.447
         7  -9.9213     28.8019     13.7534   9.5132708391e+01   6.8037039128e+01    0.1978469    0.1580048   6.20 0.0006806762    1.149    0.130
         8 -10.7223     10.9889      5.9351   9.9801422800e+01   7.0892361225e+01    0.6849506    0.3184472   2.82  0.002479158    2.855    0.650
         9 -11.5908     33.1940     12.8981   9.2929773079e+01   6.7584062997e+01    0.6483748    0.4527293  26.17  0.004611696    1.283    0.221
        10 -10.7728     31.3919      5.5170   9.0490248607e+01   6.8590943238e+01    0.3187925    0.2886517  -5.13  0.001852425    1.516    0.341
        11 -10.5842     10.7575     10.3188   1.0182947268e+02   7.0398548633e+01    0.3022737    0.1779202  -6.23 0.0003994876    1.487    0.328
        12 -11.3308     11.8736     18.5394   1.0472389476e+02   6.9251023023e+01    0.5967336    0.2266454  28.55  0.003276706    2.568    0.611
        13 -10.7147      5.6214     16.2992   1.0680124977e+02   7.0094046741e+01    0.4761165    0.1918581  14.32   0.00168837    2.721    0.633
        14 -10.9513     15.6172     14.2269   1.0120162735e+02   6.9444411161e+01    0.2321892    0.1773013  -2.90 0.0003172033    1.095    0.087
        15 -11.2814     16.5029     10.0522   9.9009782326e+01   6.9855239689e+01    0.6799127    0.2289907 -29.02   0.00305411    2.970    0.663
        16 -11.9449     37.0380      6.1433   8.8485479066e+01   6.7771214005e+01    0.7389671    0.4200343  43.06   0.00466916    1.849    0.459
        17 -10.6597     35.6215      2.1054   8.7280243671e+01   6.8348055183e+01    0.2948536    0.1678623  40.54 0.0003793213    1.676    0.403
        18 -10.3444     92.6998     17.2571   7.5143419975e+01   5.7270716185e+01    0.2855765    0.2026792 -49.96   0.00134096    1.944    0.486
        19 -11.4341    247.9809     16.3104   5.2977661100e+01   2.3747669457e+01    0.4266091    0.2693115  70.60  0.002818427    1.565    0.361
        20 -10.8479    249.0937      5.2664   5.0984645866e+01   2.4808709948e+01    0.7064804    0.1997343 -41.87  0.003446131    2.956    0.662
        21 -11.0907     68.9828      9.6640   7.8901982415e+01   6.2405223163e+01    0.3502652    0.2670934 -54.71  0.001888593    2.147    0.534
        22  -9.5935     50.5341     13.4311   8.6465613673e+01   6.5087566127e+01    0.2307449    0.1578658   6.66   0.00103913    1.335    0.251
        23  -9.9114     64.3026      5.0419   7.8522295357e+01   6.3617543458e+01    0.2137178    0.1799827 -61.77  0.001079228    1.974    0.493
        24  -9.7003     59.4334      3.2888   7.9338967276e+01   6.4590365624e+01    0.2998098    0.1443995 -19.17   0.00138713    2.262    0.558
        25  -9.8256     62.9147      1.4374   7.7519908835e+01   6.4147525102e+01    0.2253983   0.08964565  49.04 0.0003172831    2.068    0.516
        26 -11.0595     53.6924      5.0234   8.1923065430e+01   6.5385199199e+01    0.4932525    0.3027959  20.42  0.002037643    1.467    0.318
        27  -8.7769     49.6891      3.7190   8.2755105998e+01   6.6131514330e+01     0.178953    0.1051294  31.52 0.0003077224    1.376    0.273
        28  -9.1151     61.4460      8.8336   8.0912126461e+01   6.3776071218e+01    0.1510471   0.09651434  -0.17 0.0005434282    1.633    0.388
        29 -11.0071    233.7925      6.5385   5.2301894556e+01   2.7687200387e+01     0.350005    0.1611202  86.45  0.001904429    1.995    0.499
        30 -11.3853     73.9032      5.4655   7.5882116157e+01   6.1879394395e+01    0.4329652    0.2557887  59.16  0.002544218    1.806    0.446
        31 -10.7173     94.6243      4.9841   7.0473316069e+01   5.7946080057e+01    0.2540518    0.2440738 -70.43  0.001907026    1.329    0.247
        32 -10.3257     91.2999    235.7476   1.2755264497e+02   1.2238656919e+01    0.3014972    0.2521009  25.75 0.0005159165    1.426    0.299
        33 -12.4717    191.3846    244.6224   1.0767620935e+02  -5.7807759604e+00    0.7499211    0.4926509  28.68  0.004148279    1.399    0.285
        34 -10.8211    217.2036    238.8882   1.0160413624e+02  -8.7159000951e+00     0.733772    0.2674674  30.86  0.002316858    2.884    0.653
        35 -11.0532    224.7871    247.9389   1.0171194997e+02  -1.1199756915e+01    0.2938627    0.2110663 -27.58 0.0005859433    1.319    0.242
        36 -12.2392    207.9889    202.1229   9.6670761042e+01  -8.0035641682e-01     1.421335    0.4841142 -34.87   0.00462377    3.681    0.728
        37 -11.3354    184.0893    220.0384   1.0493285062e+02  -1.7113834949e-01    0.7552572    0.3481447  26.15   0.00173093    2.838    0.648
        38 -12.0778    191.3801    214.3348   1.0236855409e+02  -3.1848896714e-01     0.934378    0.6063548  61.93  0.002986877    2.476    0.596
        39 -11.8357    215.4117    177.1256   9.0236036966e+01   2.7659974705e+00     1.108407    0.6780961  11.63  0.004482693    2.801    0.643
        40 -11.6631    231.3031    162.0563   8.4226557530e+01   2.8930954945e+00    0.8122537    0.6300627 -15.41   0.00228136    1.459    0.315
        41 -14.2023    246.1166    112.2516   7.1634900404e+01   9.5413029078e+00     5.701961     1.496882 -39.66    0.0186353    3.689    0.729
        42 -11.1319    237.3567    185.5386   8.7878988102e+01  -2.5247423947e+00    0.4426708    0.3052971 -15.39 0.0006220822    1.637    0.389
        43 -12.8676    235.0103    172.9075   8.5781549030e+01   1.9741310061e-01     1.723776    0.7676571 -32.42  0.006887427    2.470    0.595
        44 -13.1148    243.7312    147.7648   7.9224324867e+01   3.4355170252e+00     2.016557    0.9532713 -28.47  0.007650971    3.026    0.670
        45 -12.0818    216.4521    230.4792   1.0027060108e+02  -7.2229698474e+00     0.431051    0.3758596  15.30  0.000530043    1.120    0.107
        46 -11.4612    217.9376    204.2961   9.5137402313e+01  -2.8485232690e+00     0.947884    0.4360746 -35.32  0.002799874    2.157    0.536
        47 -11.5161    229.5414    197.8812   9.1705267160e+01  -3.5322356610e+00    0.5419535    0.4023486  34.82  0.002816661    1.452    0.311
        48 -13.0078    243.9524    240.4642   9.6892564149e+01  -1.2629183180e+01     1.231557    0.7773979 -39.93  0.007358613    1.628    0.386
        49 -12.0051    235.9536    226.5613   9.5883872000e+01  -9.4012180808e+00    0.4098904    0.2999166 -14.05 0.0003909387    1.250    0.200
        50 -12.0102    248.1261    174.9849   8.3949549072e+01  -2.3063685408e+00    0.7739577    0.5093476 -10.75   0.00230265    2.033    0.508
        51 -11.5084    225.6881    240.1873   1.0021194771e+02  -1.0131332071e+01    0.4630906     0.288072 -31.14  0.001747328    1.521    0.343
        52 -11.9589    238.4993    217.1934   9.3709437939e+01  -8.2279916862e+00    0.4920329     0.313089 -21.33 0.0005534226    1.542    0.351
        53 -11.8340    230.2763    233.6123   9.8197000957e+01  -9.7360500292e+00    0.3475253    0.2770997  -3.67 0.0004729131    1.091    0.083
        54 -11.2408    228.7004    226.9495   9.7301095563e+01  -8.4351868704e+00    0.6005143    0.3073067 -21.23  0.002335271    2.491    0.598
        55 -11.4756    249.4493    231.8793   9.4402538196e+01  -1.2047581489e+01    0.3219141    0.2295694 -28.82 0.0006170374    1.232    0.188
        56 -11.5681    233.8248    210.4358   9.3307263546e+01  -6.4056640897e+00    0.3784264     0.271728  -7.66 0.0004516299    1.451    0.311
        57 -11.9666    247.7642    184.2717   8.5824804667e+01  -3.9146275108e+00    0.7401247    0.4425541   8.53   0.00330412    2.797    0.642
        58 -12.6325    210.2210    246.0327   1.0417942647e+02  -8.8446684209e+00    0.5082036    0.3589339  -2.08 0.0004448075    1.461    0.316
        59 -11.6230    202.6776    240.8992   1.0479130756e+02  -6.8884254926e+00    0.7034467    0.3712733 -50.26  0.001213472    2.338    0.572
        60 -11.6950    238.2606    194.4827   8.9461497810e+01  -4.2793149571e+00    0.7535512    0.3802687 -26.03  0.002153707    2.355    0.575
        61 -11.6368    246.5111    191.1313   8.7366016229e+01  -4.9374731548e+00    0.4037215    0.3008826  -4.95 0.0004493053    1.459    0.315
        62 -12.6641    245.6552    165.1122   8.2405074499e+01  -1.1027041724e-01     1.502858     0.535549 -32.82  0.003162068    3.678    0.728
        63 -12.0839    248.2327    156.3071   8.0227335158e+01   1.0879931750e+00     0.589259    0.5095102 -41.25  0.003274292    1.036    0.034
        64 -13.0672    240.6151    202.6714   9.0609499768e+01  -6.0727118293e+00     1.009922    0.5919895 -23.85   0.00331217    1.784    0.439
        65 -12.4900    248.6807    202.4683   8.9150942808e+01  -7.2099603138e+00     1.026624    0.3968233 -28.15  0.003697918    3.625    0.724
        66 -12.4393    220.0691    221.8172   9.8008633410e+01  -6.2975728586e+00    0.8089618    0.6282056  51.17  0.002886997    1.699    0.411
        67 -12.2900    227.9014    218.0522   9.5827299682e+01  -6.8294198281e+00    0.6096863     0.416184 -43.85  0.002549316    1.513    0.339
        68 -11.9712    247.6311    224.1440   9.3339119271e+01  -1.0611603310e+01    0.4601472     0.327573  -1.98 0.0004890449    1.366    0.268
        69 -12.5522    248.1254    214.1257   9.1422330426e+01  -9.0711181175e+00    0.6081672    0.3245304 -28.12  0.001187466    1.783    0.439
        70 -10.5226    148.8988    238.2692   1.1550236554e+02   2.2805642782e+00    0.3204364     0.272034  12.48 0.0003585056    1.265    0.209
        71 -10.7885    173.3442    227.5572   1.0852689334e+02   2.1374223739e-01    0.6254966    0.2385507  33.49  0.002133024    2.721    0.632
        72 -10.9431    191.1066    223.4702   1.0408819244e+02  -1.9923030794e+00    0.2871161    0.2346315 -15.73 0.0003275509    1.228    0.186
        73 -10.0704    158.4402    229.3283   1.1201796483e+02   2.4091822405e+00    0.2923883     0.250418  -5.60  0.000518944    1.286    0.223
        74 -11.1447    163.9405    224.0311   1.0993609591e+02   2.5093103457e+00    0.6366595    0.3786161 -31.91  0.002049329    2.049    0.512
        75 -10.9598    198.9642    224.9299   1.0274339105e+02  -3.5414088208e+00    0.4070579    0.3099377  17.62 0.0009469706    1.289    0.224
        76 -12.1603    140.4454    246.6869   1.1855823585e+02   2.0693233119e+00    0.5618712    0.4047265   5.33 0.0004787584    1.927    0.481
        77 -11.2408    169.8674    240.6884   1.1145006366e+02  -1.6570833140e+00    0.4409518     0.338908 -30.86    0.0004568    1.408    0.290
        78 -11.5906    177.5886    232.4296   1.0846519461e+02  -1.4127171143e+00    0.3708908     0.289367 -10.11 0.0004242688    1.421    0.296
        79 -10.4873    171.0658    232.9310   1.0992158143e+02  -4.2076358192e-01    0.2752146    0.2380941   6.48  0.000382207    1.157    0.135
        80 -10.5095    184.4354    226.2730   1.0596963531e+02  -1.4062077852e+00    0.4364044    0.2457545  24.29 0.0004247501    2.008    0.502
        81 -11.0157    163.6218    245.0014   1.1343978572e+02  -1.4200823183e+00    0.3645033    0.3028887  19.65 0.0004439222    1.157    0.135
        82  -9.8990    165.9255    232.3541   1.1091527213e+02   5.5127353017e-01    0.2713336    0.2246619  14.19 0.0003400772    1.229    0.186
        83 -11.4857    183.9457    236.9071   1.0790283505e+02  -3.2656485481e+00    0.3443251    0.2675986 -13.39  0.000403066    1.377    0.274
        84 -10.7808    189.6483    231.6813   1.0583583052e+02  -3.2514613295e+00    0.6263256    0.4273424  22.02  0.003332021    1.476    0.322
        85 -11.5600    166.7640    250.4422   1.1363219533e+02  -2.8975363858e+00     0.459462    0.2162778  29.84 0.0003801848    2.162    0.537
        86 -11.9469    176.8400    243.8307   1.1051186216e+02  -3.3499535980e+00    0.4633466    0.3332422   5.33 0.0004395487    1.610    0.379
        87 -10.7895    151.8766    250.0066   1.1664986339e+02  -4.1734667162e-01    0.5100232    0.2134053  44.93 0.0008860864    2.262    0.558
        88 -10.9211    156.9751    245.8864   1.1496576777e+02  -4.9535911902e-01    0.3584758     0.306054  11.70 0.0003940705    1.208    0.172
        89 -10.8745    153.0174    243.2230   1.1539010385e+02   6.5010358555e-01    0.7346573    0.4549212  -2.26  0.002619419    3.181    0.686
        90 -11.6324    159.3099    235.6941   1.1287148764e+02   1.0270627077e+00    0.4267917    0.2913982  21.69  0.001681336    1.591    0.372
        91  -8.9057    101.6300    250.6621   1.2719885146e+02   7.5397636474e+00    0.2312849    0.1121213  36.14 0.0005840852    1.965    0.491
        92  -9.7514     87.6440    249.8038   1.2996363032e+02   9.8542216485e+00    0.2431208    0.2031596  32.57 0.0005214767    1.356    0.263
        93  -9.2800     72.6971    250.6009   1.3305685826e+02   1.1885836297e+01     0.211684    0.1135641  36.19  0.000561937    1.865    0.464
        94 -10.0643     61.5055    248.8023   1.3509290346e+02   1.3826621479e+01    0.2433531    0.2238287 -56.31 0.0007766171    1.438    0.305
        95 -10.2303     46.9655    250.4007   1.3804464143e+02   1.5429917081e+01     0.257123     0.150972  35.01 0.0009228112    1.856    0.461
        96  -9.3688     16.4716    249.0840   1.4355137983e+02   1.9346511218e+01    0.1809285     0.164924 -73.15 0.0006943077    1.488    0.328
        97  -9.2759     41.6593    236.6516   1.3788863193e+02   1.9015953042e+01    0.2240891    0.1856579 -46.73 0.0008521479    1.678    0.404
        98 -10.0447     77.8791    235.6469   1.3038839151e+02   1.4290664587e+01     0.249383    0.2163976  50.44 0.0005227129    1.166    0.143
        99  -8.9479      3.2615    235.8862   1.4506812790e+02   2.3479796444e+01    0.1775286    0.1418124 -39.76 0.0009376666    2.036    0.509
       100 -12.0153    204.7097    231.7960   1.0281035083e+02  -5.6587079018e+00     0.372491    0.3191683  15.06 0.0004410405    1.072    0.067
       101  -9.4222    108.2783    233.1970   1.2355618948e+02   1.0087405028e+01    0.2442568    0.2229021   3.93 0.0004630811    1.361    0.265
       102  -8.5070     64.8750    234.1355   1.3294255372e+02   1.6491368104e+01    0.1582531    0.1544322 -77.44 0.0004522738    1.313    0.239
       103  -9.8395    153.0654    232.9109   1.1376211129e+02   2.6218065379e+00    0.2528706    0.1980746  29.73 0.0003679484    1.221    0.181
       104  -9.9861     35.6070    230.8607   1.3858059458e+02   2.1023993109e+01    0.3512897    0.2196458 -45.15  0.001277958    2.362    0.577
       105 -10.1104    123.4427    230.7909   1.1989487660e+02   8.0855207089e+00     0.336249    0.2595736   7.76 0.0006841423    1.741    0.426
       106 -10.1346    100.4239    230.4802   1.2490389639e+02   1.1940884530e+01     0.281942    0.2522563   8.46 0.0006662425    1.421    0.296
       107  -9.6645     85.1797    231.4365   1.2833597071e+02   1.4115358553e+01    0.2423224    0.2234239 -46.59 0.0006487729    1.341    0.254
       108 -10.7967     54.8397    230.9744   1.3469443632e+02   1.8560728416e+01    0.3039212    0.2443068  23.14 0.0007056725    1.669    0.401
       109  -8.7042      9.8776    231.4949   1.4357541314e+02   2.3748606345e+01    0.1562327    0.1074278  42.28 0.0008731328    1.556    0.357
       110  -9.1904     44.9355    229.4187   1.3657397129e+02   2.0193399183e+01    0.2221048    0.1574184 -58.04 0.0007474654    1.586    0.370
       111 -10.3919    113.2348    228.0855   1.2175294285e+02   1.0369149164e+01    0.2995718    0.2527573  34.42  0.000402484    1.215    0.177
       112  -9.5068     79.0567    228.3215   1.2927927165e+02   1.5727713232e+01     0.223783    0.2047937 -60.92 0.0004649876    1.271    0.213
       113  -8.6722     29.8152    228.8447   1.3955560488e+02   2.2152131839e+01    0.1746988    0.1495817 -75.86 0.0007113591    1.282    0.220
       114  -9.4600    152.7293    227.6940   1.1298681896e+02   3.7150568080e+00     0.252811    0.2165602   9.08 0.0005587891    1.262    0.208
       115  -9.6776    155.3935    223.3769   1.1168532788e+02   4.1246699423e+00    0.2647537    0.2357651   9.68 0.0004471754    1.169    0.144
       116  -9.0948    107.0594    228.1220   1.2312358340e+02   1.1379401145e+01    0.1998661    0.1832271   4.48 0.0004770279    1.347    0.258
       117  -9.6261     92.8356    227.8195   1.2621525550e+02   1.3728495252e+01    0.2340322    0.2203112 -28.33 0.0004734363    1.343    0.255
       118  -9.4449     19.8680    227.3531   1.4138050833e+02   2.3596695154e+01    0.2135206    0.1655876 -67.76 0.0007731469    1.387    0.279
       119  -9.2271      1.6483    227.2464   1.4481584648e+02   2.5482328962e+01    0.1823037    0.1471251 -87.56 0.0008603603    1.189    0.159
       120  -9.8022     67.9489    226.9505   1.3150834966e+02   1.7653470767e+01    0.2528504    0.1801189  42.88 0.0004609847    1.376    0.273
       121 -11.0338    206.5798    223.1524   1.0089276684e+02  -4.4400391954e+00    0.3243232    0.2453954  -6.31 0.0004344429    1.368    0.269
       122  -9.3405    120.6993    224.6701   1.1959071361e+02   9.8544116176e+00    0.2678993    0.2083166  30.23 0.0008178493    1.345    0.257
       123  -8.5596     89.2490    224.8306   1.2661563304e+02   1.4954985354e+01     0.172106    0.1638008 -19.87  0.000568773    1.342    0.255
       124  -9.4779      8.1648    225.1740   1.4346048470e+02   2.5294495936e+01     0.296138    0.1510801  37.95  0.001165534    2.035    0.509
       125  -9.5709    170.7788    223.6828   1.0840353915e+02   1.3990966979e+00    0.2407262    0.1971024  -3.78 0.0004130064    1.343    0.255
       126 -10.2608    175.1216    221.0348   1.0700986741e+02   1.1692362156e+00    0.2946056    0.2313252  -1.91 0.0003520692    1.444    0.308
       127  -9.5681    129.5179    223.8686   1.1749756964e+02   8.5192940041e+00    0.2859872    0.1981153  28.63 0.0005257209    1.541    0.351
       128  -9.3380    109.7215    224.0491   1.2195366071e+02   1.1832481926e+01    0.2938049    0.1898703  40.41 0.0005122349    1.460    0.315
       129  -9.2624    104.3420    223.8813   1.2313244757e+02   1.2755906277e+01    0.2466994    0.1975268  33.67 0.0005418714    1.311    0.237
       130  -9.2894    135.5973    222.9610   1.1599673379e+02   7.6612632174e+00    0.2531428    0.1925265  21.74 0.0004896888    1.478    0.323
       131  -9.7761     97.8142    222.0953   1.2434358724e+02   1.4213767308e+01    0.2480908    0.2139393  29.07 0.0004445427    1.310    0.237
       132  -8.9251     82.6242    222.8418   1.2782339791e+02   1.6422560504e+01    0.2098129    0.1812593  34.05 0.0004884275    1.309    0.236
       133 -10.3635     49.7954    222.2733   1.3486392333e+02   2.1180756831e+01    0.2548212    0.2413017  82.46 0.0004840513    1.248    0.199
       134 -10.2739    148.5633    220.6510   1.1273136491e+02   5.8803453279e+00    0.2973685    0.2533399  -9.74 0.0005733244    1.358    0.264
       135  -8.9715    114.9175    221.6339   1.2043201016e+02   1.1495663838e+01    0.2211554    0.1927335 -44.24 0.0005559564    1.293    0.226
       136  -9.2401     74.2557    222.1805   1.2958368970e+02   1.7822738852e+01    0.2056781    0.1773194  38.03 0.0003924536    1.295    0.228
       137  -9.8792     40.0482    221.0715   1.3678670411e+02   2.2680064409e+01    0.2968988    0.2456144 -22.53  0.001097918    1.919    0.479
       138  -9.0877     28.5581    221.9604   1.3922186782e+02   2.3832834208e+01    0.1869601    0.1782408  20.49  0.000598656    1.493    0.330
       139  -9.3902     15.6807    221.2857   1.4172835787e+02   2.5386696769e+01    0.2286922    0.1675131 -55.20 0.0008401295    1.661    0.398
       140  -8.3957    124.9754    220.9805   1.1806540887e+02   9.9243221425e+00    0.1753631     0.154823  47.12 0.0005842232    1.064    0.060
       141  -8.5423     92.6726    221.4257   1.2540329860e+02   1.5184856460e+01    0.1792447    0.1320004  29.36 0.0008025402    1.540    0.350
       142  -8.9192     68.3185    221.0741   1.3075146604e+02   1.8934612739e+01    0.2051536    0.1806437  36.73 0.0004205411    1.317    0.241
       143  -9.8407     58.5730    220.6138   1.3281467713e+02   2.0396857496e+01      0.42046    0.2135902  39.42  0.002037155    1.918    0.478
       144 -10.2552     55.9813    216.5228   1.3292340940e+02   2.1690190953e+01    0.2794826    0.1675532 -75.29 0.0005595016    1.565    0.361
       145  -9.3961    140.7135    220.1074   1.1438955325e+02   7.3733201386e+00    0.2512005     0.199247  30.18 0.0004841294    1.264    0.209
       146  -8.9584    128.8595    218.9098   1.1686148639e+02   9.7031895869e+00    0.2089689    0.1898598   5.12  0.000451589    1.262    0.208
       147  -9.3364    109.3620    219.0792   1.2130745550e+02   1.2996698720e+01    0.2423256    0.1961543  20.26  0.000400262    1.479    0.324
       148  -8.9560    104.0706    218.6564   1.2244591533e+02   1.3970129358e+01    0.1972603    0.1736145  46.29 0.0005140734    1.118    0.105
       149  -9.8585    159.0290    217.6472   1.0990300275e+02   4.6570548299e+00    0.2722318    0.2246215   5.34  0.000395019    1.364    0.267
       150  -8.7459    154.4753    218.4759   1.1105150859e+02   5.2905122933e+00    0.2301879    0.1336582  27.60 0.0001479161    1.924    0.480
       151  -8.8314    136.0134    218.0130   1.1510031175e+02   8.6467186139e+00    0.2149391    0.1728131  -4.26 0.0003471097    1.609    0.379
       152  -8.5599     95.4144    217.7589   1.2428146784e+02   1.5581960903e+01    0.1832597      0.12798 -53.15 0.0004690277    1.527    0.345
       153 -10.0979      7.9950    216.2692   1.4285419321e+02   2.7282206786e+01     0.294764    0.2028268 -47.24  0.001278933    1.983    0.496
       154  -9.2839    119.7128    216.8807   1.1861751497e+02   1.1732549750e+01    0.2260372    0.1923724  27.36 0.0004658946    1.267    0.211
       155  -8.6017     77.0654    217.4470   1.2837470537e+02   1.8494589445e+01    0.1963339     0.129603  38.03 0.0004798902    1.540    0.351
       156  -8.6797     72.2078    216.7741   1.2937488831e+02   1.9365692739e+01    0.1683759    0.1621057 -38.41 0.0004507638    1.322    0.244
       157  -8.7496     21.8999    216.9983   1.4014487338e+02   2.5692312500e+01    0.1840864    0.1344352 -50.17  0.001118117    1.745    0.427
       158 -10.0067    179.8377    215.3964   1.0499115279e+02   1.4586105617e+00    0.2794243    0.2217352   7.76 0.0003425461    1.366    0.268
       159  -8.8011    150.9612    215.6137   1.1133810994e+02   6.5118108356e+00    0.2030712    0.1710886  37.51 0.0004104849    1.134    0.118
       160  -8.9389    123.9520    215.6376   1.1745331002e+02   1.1276247481e+01    0.2325612     0.199539 -40.25 0.0005673387    1.299    0.230
       161  -9.5632     83.2059    215.3924   1.2672561045e+02   1.8042994607e+01    0.2535653    0.2144982 -27.78 0.0007504813    1.599    0.375
       162  -9.8867     31.2036    214.4889   1.3800970851e+02   2.5233620881e+01     0.284778     0.195567 -64.69 0.0008877576    1.427    0.299
       163 -10.6082    171.0629    213.6922   1.0656733463e+02   3.3359169750e+00    0.3188356    0.2929167 -80.79 0.0004251897    1.290    0.225
       164  -9.6721    165.7368    213.9883   1.0778186056e+02   4.2194086858e+00    0.2647554    0.2218373  -0.60 0.0004157074    1.319    0.242
       165  -9.7583    143.5831    214.3483   1.1277698370e+02   8.0961756404e+00    0.3186741    0.2422069  16.82 0.0007298242    1.550    0.355
       166  -8.7568    107.0173    215.4850   1.2130652642e+02   1.4200236157e+01    0.2089924    0.1347641  38.84 0.0003964046    1.509    0.337
       167  -9.1311    101.7345    214.5135   1.2237382498e+02   1.5298277888e+01      0.29426    0.2246653 -21.15 0.0006415273    1.929    0.482
       168  -8.5514     90.7897    215.4356   1.2500878827e+02   1.6852314653e+01    0.1807406    0.1350778  25.89 0.0004833388    1.597    0.374
       169  -9.3174    131.9483    213.7311   1.1531576449e+02   1.0296873236e+01    0.2683939    0.1899956  26.41 0.0004923915    1.567    0.362
       170  -9.6400     63.2593    213.0541   1.3091836678e+02   2.1507825474e+01    0.2866861    0.2283003  11.36 0.0009330118    1.809    0.447
       171 -10.0047     51.2580    213.1055   1.3357717980e+02   2.3108851115e+01    0.2790565    0.2143298 -40.77 0.0008852881    1.752    0.429
       172  -9.5406    154.6613    212.2973   1.0993062590e+02   6.5506567427e+00    0.2577613    0.2317121   0.63 0.0004218752    1.192    0.161
       173  -8.8273    117.4734    212.6167   1.1845914692e+02   1.3075864392e+01    0.2221385    0.1704415  16.64 0.0006580311    1.639    0.390
       174  -8.2926    111.4387    213.4176   1.1997619769e+02   1.3926507424e+01     0.140283    0.1330228  62.53 0.0001580943    1.047    0.045
       175  -9.7309     96.8333    212.4024   1.2319275427e+02   1.6586655099e+01    0.2504996     0.218881 -48.73 0.0006155819    1.286    0.222
       176  -9.2534     41.0960    212.8084   1.3574975377e+02   2.4455956477e+01    0.2042401    0.1832474 -17.49 0.0008288246    1.629    0.386
       177  -8.7286     74.4513    212.4968   1.2833082853e+02   2.0035592648e+01    0.2119595     0.137288  23.34 0.0006387047    2.049    0.512
       178  -9.6599     25.2137    210.7541   1.3891959769e+02   2.6763938710e+01    0.2905923    0.2028799 -48.47 0.0009523486    1.810    0.447
       179  -9.7605     17.8032    211.1463   1.4048700703e+02   2.7459312713e+01    0.2603621    0.2107641 -34.57  0.001044496    1.837    0.456
       180  -9.0992    125.3090    210.8817   1.1636949885e+02   1.2102356155e+01    0.2671118    0.2039943  29.46 0.0003563709    1.392    0.282
       181  -9.0860    106.8280    210.3085   1.2056406765e+02   1.5419385727e+01    0.2452502    0.2080015 -10.97 0.0005331509    1.568    0.362
       182  -8.8828    149.2530    210.1746   1.1077021005e+02   7.9777309057e+00    0.2087402    0.1918264 -16.26 0.0004280217    1.169    0.144
       183 -10.6009    193.0606    207.7676   1.0079022050e+02   6.6145793965e-01    0.2694055     0.245793  -1.55 0.0003860549    1.030    0.030
       184 -10.2429    177.0172    208.3633   1.0429864733e+02   3.3593457841e+00    0.2797621    0.2389177  12.32 0.0002903931    1.198    0.165
       185 -10.2342    161.3133    208.5561   1.0777483235e+02   6.1414846049e+00    0.2654978    0.2415489  -5.94 0.0002919769    1.149    0.130
       186  -8.5745     93.6307    208.7936   1.2340863117e+02   1.7947345898e+01    0.1861776    0.1767768  50.08 0.0006761575    1.140    0.123
       187  -8.8819     78.1965    208.9970   1.2701422291e+02   2.0303611190e+01    0.2005312    0.1804109 -45.98 0.0006084678    1.323    0.244
       188  -8.5229    167.5379    207.9363   1.0628429273e+02   5.1465808227e+00      0.22517    0.1922187   0.41 0.0005152595    1.273    0.214
       189  -9.0904    171.2924    206.0751   1.0511474465e+02   4.8553489463e+00    0.2378824     0.200809  36.07  0.000508616    1.163    0.140
       190  -8.7936    146.0678    207.5142   1.1102162938e+02   9.1321404658e+00    0.2123858    0.1944105 -50.25 0.0003724041    1.128    0.113
       191  -9.6220    149.7464    205.0427   1.0973967008e+02   9.0022932092e+00    0.3597609    0.2967557 -30.23  0.001878135    1.329    0.248
       192  -8.6064    134.7520    208.0085   1.1370469920e+02   1.1067581937e+01    0.1961236    0.1898158 -60.28 0.0003250949    1.070    0.065
       193  -8.6269    131.4561    208.0163   1.1446773776e+02   1.1656466433e+01     0.215178    0.1436625 -54.74 0.0004691912    1.546    0.353
       194  -9.8553    113.6143    207.2678   1.1850102386e+02   1.4966355790e+01    0.5071617    0.2600068  22.58  0.001793946    3.203    0.688
       195  -8.8499     72.9036    207.7503   1.2806706009e+02   2.1385156153e+01    0.1887462    0.1882245  -6.65 0.0005306128    1.253    0.202
       196 -10.1846    124.5271    205.8947   1.1571980959e+02   1.3371932116e+01     0.335394    0.2176469  32.46 0.0004677982    1.620    0.383
       197  -9.7089    120.2239    206.1489   1.1676953048e+02   1.4073560465e+01     0.255428    0.2241404  50.83  0.000439653    1.094    0.086
       198 -10.1028     46.6801    206.4084   1.3384827628e+02   2.5272107384e+01    0.2577108    0.2338717  -2.23 0.0005261332    1.553    0.356
       199  -8.9980     31.9526    206.8233   1.3711880857e+02   2.6931412808e+01    0.1857157    0.1589291 -59.35 0.0006881582    1.354    0.262
       200  -9.9490    226.5094    204.9076   9.3621129517e+01  -4.3210782855e+00    0.4623099     0.227279  28.26  0.002039227    2.402    0.584
       201  -9.4625    183.5137    205.5472   1.0237664508e+02   2.7731301665e+00    0.2665548    0.2209024  -6.45 0.0003311519    1.291    0.225
       202  -9.7477     86.4452    204.8952   1.2452296051e+02   2.0012774732e+01    0.2735267    0.2432479  77.81 0.0009827516    1.026    0.025
       203  -9.2440    156.5450    205.0263   1.0819619743e+02   7.7615622970e+00    0.2444418    0.1995047  17.41 0.0004367405    1.340    0.254
       204  -9.2281    109.7464    203.3922   1.1878603515e+02   1.6535719341e+01     0.409489    0.2489514 -32.56  0.001487489    2.465    0.594
       205  -8.8716    104.0952    205.2305   1.2041513970e+02   1.7063517426e+01    0.2030104    0.1965632 -16.08 0.0004508909    1.211    0.174
       206 -10.2004      6.7513    204.0857   1.4217192752e+02   3.0162742506e+01    0.3193661    0.2211124  13.79  0.000913974    2.230    0.552
       207  -9.7872    139.7000    203.2115   1.1171889774e+02   1.1245449464e+01    0.3803517    0.2875465 -71.73 0.0002968689    1.537    0.349
       208  -9.1073    139.0300    199.0450   1.1112391576e+02   1.2309005993e+01    0.2225716    0.2091821  70.88            0    1.079    0.073
       209  -8.7812    140.5300    195.5461   1.1012965247e+02   1.2828249445e+01    0.2235278    0.2179725 -18.31 0.0005417061    1.075    0.070
       210  -8.4743     76.8610    204.1539   1.2666540401e+02   2.1658736842e+01     0.180157    0.1687389 -31.65  0.000468226    1.332    0.249
       211 -10.8859    202.3976    195.2750   9.6457235194e+01   1.4843759550e+00    0.3312699    0.2665643  -1.86 0.0002438339    1.346    0.257
       212 -11.3221    198.2766    201.2358   9.8462364323e+01   1.0332696453e+00    0.3447485    0.2934263   4.52  0.000356079    1.190    0.160
       213  -9.7078    193.0878    200.9591   9.9480758475e+01   1.9962976632e+00    0.2792038    0.2444024  20.77 0.0004025189    1.132    0.117
       214  -9.2540    190.1490    190.3820   9.8014007438e+01   4.6649172820e+00    0.3255195    0.2149804 -36.84 0.0007078727    1.496    0.332
       215  -9.6313    191.5553    196.2369   9.8879611074e+01   3.2155236630e+00    0.3100309    0.2521278 -32.95 0.0008041244    1.190    0.160
       216 -10.0658    194.0273    192.6497   9.7655159418e+01   3.4965755420e+00     0.428485    0.2756765  27.97  0.001580765    1.721    0.419
       217  -9.4510    179.1608    202.2157   1.0267493987e+02   4.2302491367e+00     0.233857    0.2161585   0.48  0.000428031    1.060    0.056
       218  -8.5383     92.7758    203.1738   1.2277544103e+02   1.9416913924e+01    0.1868105    0.1718168 -16.26 0.0005336528    1.363    0.267
       219  -9.7367     56.1007    202.1294   1.3121920694e+02   2.5080348738e+01    0.2391595    0.2128736 -55.21 0.0004563431    1.295    0.228
       220  -9.8266     21.2261    202.2750   1.3898937385e+02   2.9162750159e+01    0.2173363    0.1777027  69.59 0.0005704621    1.147    0.129
       221  -8.5200     66.2173    206.7685   1.2947563139e+02   2.2581082655e+01    0.1731469    0.1579465 -49.55 0.0004666193    1.313    0.239
       222  -9.9038    186.8276    201.0482   1.0081211184e+02   3.0899917742e+00    0.2381809    0.2009019  24.45 0.0003166499    1.185    0.156
       223 -10.1851    165.0724    200.0650   1.0535636885e+02   7.2587444727e+00    0.3149514    0.2556168  -8.74 0.0005325765    1.442    0.306
       224  -8.4318    162.2966    197.3319   1.0545740029e+02   8.3634541004e+00    0.1519961    0.1478133  68.57 0.0003403298    1.086    0.080
       225 -10.2520    132.0836    199.7579   1.1288214172e+02   1.3419418793e+01      0.36148    0.2849515  -0.28   0.00174397    1.699    0.411
       226 -10.2454     98.1866    200.3539   1.2105352835e+02   1.9207014888e+01    0.2904616    0.2392938 -75.28  0.000947309    1.193    0.161
       227  -9.8449     69.3877    200.3529   1.2790062912e+02   2.3672389678e+01    0.2507822    0.2345978 -62.80 0.0003284471    1.201    0.168
       228  -8.6472     33.8313    201.2289   1.3614382905e+02   2.8040820632e+01    0.1660559     0.142283 -57.54 0.0004765819    1.343    0.255
       229  -9.0776    144.6083    200.7701   1.1014146253e+02   1.0891478921e+01    0.2390422    0.1937837  28.46 0.0005733139    1.283    0.221
       230  -9.1648     41.4323    199.5904   1.3426729125e+02   2.7544957764e+01    0.2593774    0.1725556 -36.43 0.0007720903    2.210    0.548
       231  -9.0666     80.4308    199.1340   1.2511359256e+02   2.2330260619e+01    0.2161892     0.195608  29.25 0.0005112313    1.289    0.224
       232  -8.6421     75.0008    198.9725   1.2638334048e+02   2.3187236752e+01    0.2026439    0.1685794 -29.65 0.0004274652    1.584    0.369
       233  -8.5936    103.9703    198.2927   1.1933618691e+02   1.8731377327e+01    0.1992252    0.1811409  46.92 0.0003781912    1.116    0.104
       234  -8.6687      7.1360    197.8695   1.4158897900e+02   3.1562670158e+01    0.1552111    0.1278025 -66.26 0.0004081028    1.301    0.231
       235  -8.8283    149.3076    196.5741   1.0827706191e+02   1.0957977771e+01    0.2405776    0.1794125  29.36 0.0004453397    1.415    0.293
       236  -8.7662    124.8053    196.6232   1.1405121974e+02   1.5468186367e+01    0.2194819    0.1801256  23.21 0.0005457629    1.373    0.271
       237  -8.4991     27.7623    197.3998   1.3709543594e+02   2.9625392259e+01    0.1521185    0.1278105  14.30 0.0006778809    1.657    0.397
       238  -8.9432    173.1691    202.1567   1.0396520269e+02   5.3299493588e+00    0.2160968    0.1879434  -2.86 0.0004460201    1.219    0.180
       239  -9.4100    176.4104    195.4533   1.0196380905e+02   6.1408430443e+00    0.2423441    0.2280256 -14.18 0.0001770905    1.040    0.038
       240  -8.9345    170.0287    195.8082   1.0343632132e+02   7.2504164809e+00    0.2207578    0.1918249   4.75  0.000501884    1.240    0.193
       241  -9.0450     88.9568    195.9097   1.2258217472e+02   2.1781852646e+01    0.2164738    0.1929092 -34.68 0.0006092327    1.343    0.255
       242  -9.0604     16.8254    195.3192   1.3929519965e+02   3.1244546070e+01    0.2167584    0.1654223 -45.82 0.0006182574    1.642    0.391
       243  -8.6770     11.5407    195.7529   1.4047489976e+02   3.1649450244e+01    0.1839356    0.1580164   9.42 0.0007081648    1.681    0.405
       244  -9.8313    184.2973    194.2644   1.0002659656e+02   4.9361895819e+00    0.3120711    0.2349549  36.55  0.001328939    1.343    0.255
       245  -8.2602     31.6504    195.7050   1.3605207056e+02   2.9606339882e+01     0.124865   0.09354289 -43.79 0.0007032476    1.678    0.404
       246  -9.6592    132.9751    193.2608   1.1149394657e+02   1.4757937472e+01    0.2487025    0.2136996 -47.54 0.0002625324    1.191    0.160
       247  -9.5230    112.4406    193.3911   1.1646403984e+02   1.8442348993e+01     0.378557    0.2688828 -83.78  0.001341882    1.697    0.411
       248  -8.9551     60.9830    196.0054   1.2930458779e+02   2.5908890166e+01    0.2073862    0.1877541 -83.31 0.0004874535    1.086    0.079
       249  -8.3488     54.5149    194.5364   1.3064229253e+02   2.7132119583e+01    0.1375678    0.1196514 -87.37 0.0001985111    1.027    0.026
       250  -9.2887     36.2619    193.3196   1.3474511407e+02   2.9663140904e+01    0.2467358    0.1865259 -46.64  0.000679381    1.576    0.365
       251  -9.2782     49.4036    198.4533   1.3231619005e+02   2.6836761530e+01    0.2498393    0.2116617 -40.11 0.0008339249    1.499    0.333
       252  -7.9246    157.5293    192.4783   1.0560397822e+02   1.0324883105e+01    0.1491257    0.1434907  -4.88   0.00016883    1.058    0.055
       253  -8.4589    152.0773    192.3032   1.0682404826e+02   1.1395415225e+01     0.205905    0.1859275  37.08 0.0004058747    1.102    0.093
       254  -8.3433    124.8459    192.3696   1.1327957652e+02   1.6461274914e+01    0.2061931    0.1425256  27.16 0.0004242075    1.660    0.398
       255  -9.2273     26.9285    192.0699   1.3673523945e+02   3.0990716095e+01    0.2224582    0.1758721  -6.64  0.000844417    1.949    0.487
       256  -8.6442    146.1411    191.1510   1.0798460618e+02   1.2779031000e+01    0.2195399    0.2015449  -2.41 0.0004105885    1.196    0.164
       257  -8.6988    105.1875    191.6073   1.1792743343e+02   2.0134594199e+01    0.1970161    0.1438385  25.86  0.000412455    1.605    0.377
       258  -8.2307     49.4990    191.4907   1.3144294044e+02   2.8521150216e+01    0.1366745    0.1184482 -82.51  0.000810102    1.051    0.048
       259  -8.2075      9.3545    191.2554   1.4054845410e+02   3.2908337154e+01    0.1140093   0.08583044 -48.14 0.0003154982    1.607    0.378
       260  -9.5417    205.3421    189.3819   9.4693152766e+01   2.1294089286e+00    0.2430543    0.2229852 -29.59 0.0004690627    1.044    0.042
       261 -10.0676    199.1907    189.2401   9.5909667399e+01   3.2548071776e+00    0.2607739    0.2299455 -13.64 0.0002634778    1.117    0.105
       262  -9.3522    162.0466    190.0794   1.0410586244e+02   9.9992324975e+00    0.2185975    0.2119917 -10.72 0.0003219111    1.031    0.030
       263  -8.7231    140.0496    189.7026   1.0914423696e+02   1.4262188361e+01     0.210146    0.1897067  31.53 0.0004002178    1.137    0.121
       264  -9.4134     64.1953    190.0403   1.2772669930e+02   2.6932234847e+01    0.2293794    0.2084588  27.59 0.0005067081    1.320    0.242
       265  -8.8440     14.1920    190.8799   1.3945788172e+02   3.2549343156e+01    0.1668684    0.1284756 -62.17 0.0005034366    1.317    0.241
       266  -9.4701    185.8443    188.9330   9.8635108120e+01   5.7594831631e+00    0.2291197    0.2053423  16.63  0.000363578    1.136    0.120
       267  -9.1845    172.8698    188.9866   1.0146363897e+02   8.1828528071e+00    0.2215973    0.2101696  -8.48 0.0004741067    1.049    0.047
       268  -9.0879    179.0528    187.9376   9.9897444646e+01   7.2398755959e+00    0.2197271     0.206222 -15.56 0.0004004156    1.047    0.045
       269  -9.0825    134.3413    187.4141   1.1007209292e+02   1.5870407100e+01    0.2923346    0.2582256 -88.87   0.00151678    1.216    0.178
       270  -8.4956     89.9155    188.4841   1.2117184084e+02   2.3447885263e+01    0.2029919    0.1447275  36.52 0.0003541655    1.474    0.322
       271  -8.0980     77.7011    188.7079   1.2422679771e+02   2.5301989015e+01    0.1372999    0.1110647 -32.36 0.0004255358    1.564    0.360
       272  -8.8069      1.7925    187.9503   1.4189561047e+02   3.4342539516e+01    0.1832705    0.1388811 -65.03 0.0009007495    1.291    0.225
       273  -9.3217    193.6162    186.3410   9.6475165501e+01   4.8593390983e+00     0.253469     0.225318  -8.72 0.0003802305    1.140    0.123
       274  -8.9877    157.0275    186.6220   1.0456997504e+02   1.1729488896e+01    0.2497966    0.2052965 -13.89 0.0005091018    1.438    0.304
       275  -8.9696     21.0690    186.2838   1.3746628714e+02   3.2983264185e+01    0.2154119    0.1717947 -45.90 0.0006637935    1.512    0.338
       276  -8.8667    128.4460    185.7056   1.1117388342e+02   1.7377651239e+01    0.2354361    0.1866727   9.90 0.0005310776    1.616    0.381
       277  -8.3422     57.5971    186.7310   1.2887427281e+02   2.8648471077e+01    0.1350539    0.1055108 -28.63 0.0006975442    1.746    0.427
       278  -8.6783    150.9855    185.5163   1.0575329274e+02   1.3141441579e+01    0.2205212    0.1494413  38.50  0.000401844    1.488    0.328
       279  -9.0704     35.1474    184.5647   1.3400145661e+02   3.1922242907e+01    0.3041606     0.173722  15.59  0.001412862    2.707    0.631
       280  -8.6264    173.5899    183.7194   1.0024251869e+02   9.1868346529e+00    0.1906988    0.1791912  18.13 0.0004925113    1.079    0.073
       281  -8.9778    166.9232    184.0098   1.0179026528e+02   1.0406244537e+01     0.227101    0.2111073 -11.73 0.0004706507    1.112    0.100
       282  -8.2493    104.0231    183.9922   1.1689466020e+02   2.2195449817e+01    0.1766662    0.1658643  66.69 0.0009583521    1.050    0.047
       283  -8.7993     27.4097    184.4986   1.3581331917e+02   3.2771625757e+01     0.191401    0.1327524   7.24  0.001020473    2.219    0.549
       284  -8.1394    190.3813    183.5085   9.6575730437e+01   6.0460202897e+00    0.1466283    0.1347001 -28.01 0.0001326917    1.036    0.035
       285  -8.1089    140.2883    183.3249   1.0785386033e+02   1.5701434549e+01    0.1529899    0.1211368 -15.74 0.0002833315    1.609    0.378
       286  -8.4321    134.4779    183.4190   1.0927173245e+02   1.6786019016e+01    0.1492691    0.1483011  51.76 0.0001173289    1.038    0.037
       287  -8.5751     95.4045    182.7969   1.1884971353e+02   2.3954564343e+01    0.2153324    0.1292309 -47.74 0.0007018624    1.733    0.423
       288  -8.5157     67.2194    182.8417   1.2594339736e+02   2.8297158552e+01    0.1870817     0.163059 -40.52 0.0004565897    1.337    0.252
       289 -10.1131    203.5502    180.9590   9.3347398416e+01   4.1366275193e+00    0.2981679    0.2457005 -40.66 0.0004941085    1.143    0.125
       290  -8.5369      9.0832    182.1321   1.3977233534e+02   3.5094475912e+01    0.1855801    0.1260941 -36.79  0.000943969    2.012    0.503
       291  -8.7377    197.6502    180.8903   9.4530250896e+01   5.2349474344e+00    0.1981031    0.1715841 -36.70 0.0004386413    1.088    0.081
       292  -9.1007    183.8721    180.8008   9.7402993950e+01   7.8464607410e+00    0.2178427    0.1933267  -5.15 0.0004300765    1.193    0.162
       293  -8.2051    154.7336    181.6844   1.0411246743e+02   1.3290851225e+01    0.1505434    0.1194112 -15.60 0.0001902448    1.549    0.354
       294  -8.7153     55.1301    180.4130   1.2860638529e+02   3.0544818524e+01    0.2693257    0.1553423 -45.75  0.001235274    1.967    0.492
       295  -8.2491     46.8600    181.3828   1.3078094208e+02   3.1343275680e+01    0.1661782    0.1347858  10.82 0.0005148783    1.665    0.399
       296  -8.0782     90.2909    180.2750   1.1971047012e+02   2.5424308373e+01    0.1401314    0.1157212 -26.50 0.0002081737    1.518    0.341
       297  -8.3175     14.3582    180.3160   1.3839492513e+02   3.5058436851e+01    0.1274514   0.08408845 -46.70 0.0007044091    1.752    0.429
       298  -8.9707    176.9545    179.0486   9.8542355972e+01   9.5537526225e+00    0.2247745     0.208315 -14.98 0.0003915533    1.096    0.088
       299  -7.9950    165.3450    179.2476   1.0117488805e+02   1.1770785097e+01    0.1500383    0.1189512   3.87 0.0002248704    1.575    0.365
       300  -8.1673    160.4104    179.5293   1.0236015852e+02   1.2672578562e+01     0.151149     0.145486 -28.92 0.0001087243    1.039    0.037
       301  -8.4865    145.8189    178.8056   1.0563118399e+02   1.5689348041e+01    0.2026453    0.1779528  73.67  0.000595284    1.248    0.199
       302  -8.1565     83.0268    179.2456   1.2138487244e+02   2.6841435612e+01    0.1755991    0.1251078  37.65  0.000315289    1.479    0.324
       303  -8.4674     35.0013    179.4840   1.3342816841e+02   3.3187452092e+01    0.1702491    0.1345514  30.82 0.0005484878    1.510    0.338
       304  -8.8675     20.7138    179.3964   1.3682283369e+02   3.4683826795e+01    0.1503605    0.1280553   3.86 0.0007700563    1.633    0.388
       305  -9.5042    134.3670    177.2975   1.0809417787e+02   1.8260233451e+01    0.3039774    0.2543338 -87.85  0.001110752    1.355    0.262
       306  -8.3428     42.9558    178.5245   1.3136538808e+02   3.2520394198e+01    0.1748483    0.1176851 -15.39  0.000809649    2.546    0.607
       307  -8.6837     26.8407    177.6915   1.3518020762e+02   3.4491938562e+01    0.1847346    0.1594597 -32.85 0.0008880933    1.485    0.327
       308  -9.4908    190.7207    176.8719   9.5136069406e+01   7.3728617363e+00    0.2486418    0.2105813  39.83 0.0003366335    1.235    0.190
       309  -9.4489    100.8915    175.9891   1.1624717678e+02   2.4716440958e+01    0.3311374    0.2145984  58.32  0.001453085    1.745    0.427
       310  -8.2608     65.4738    177.5179   1.2557936823e+02   2.9876909692e+01    0.1431205    0.1286644 -72.55 8.948858e-05    1.061    0.058
       311  -8.5543      6.7996    177.3577   1.3983555888e+02   3.6428413142e+01    0.1457115    0.1205962  -1.93 0.0006247632    1.741    0.426
       312  -9.9019    205.4588    175.3353   9.1807970667e+01   4.9260648859e+00    0.3222309     0.256554 -13.00 0.0002466896    1.402    0.287
       313  -9.9951    210.6531    173.9667   9.0504046898e+01   4.2500736565e+00    0.3333175    0.2318225 -42.41 0.0003790997    1.327    0.246
       314  -8.5283    169.7104    176.4182   9.9603434420e+01   1.1545197331e+01    0.1974018    0.1465757  28.42 0.0005660095    1.482    0.325
       315  -8.7784    150.0785    175.6129   1.0396719165e+02   1.5597782478e+01    0.2149358    0.1911051  38.31 0.0004950481    1.144    0.126
       316  -9.0555    197.9111    174.8062   9.3217675405e+01   6.4417832006e+00    0.2172716    0.1882914  -9.24 0.0004460464    1.227    0.185
       317  -8.4586    139.8792    175.1229   1.0631273993e+02   1.7710647562e+01    0.2023219    0.1824407 -11.53 0.0002980283    1.256    0.204
       318  -8.8107    187.8077    170.9111   9.4497671623e+01   9.1984122498e+00    0.2388897    0.2032936  22.54 0.0003799933    1.275    0.216
       319  -9.1929    182.6884    173.9142   9.6224039004e+01   9.5513692490e+00    0.2680945    0.2181075  -3.35 0.0004425379    1.463    0.317
       320  -8.6328    183.9834    169.6990   9.5053935583e+01   1.0207455867e+01    0.2024381     0.198264 -20.06 0.0005618102    1.031    0.030
       321 -10.2059    175.8660    172.1638   9.7340786746e+01   1.1271695140e+01    0.4722592    0.4429413 -16.43  0.002556387    1.086    0.079
       322  -9.5023    179.0334    166.4645   9.5430581297e+01   1.1892645497e+01    0.3012862    0.2335066 -26.08 0.0002972734    1.420    0.296
       323  -9.4676    161.3726    173.8623   1.0096467755e+02   1.3765711100e+01    0.2598878    0.2188205  27.71 0.0004274308    1.267    0.211
       324  -8.5055     38.2114    174.5939   1.3202745150e+02   3.4041327834e+01     0.164195    0.1339943   5.09 0.0007268736    1.675    0.403
       325  -8.9269    129.0081    172.7464   1.0850276317e+02   2.0379388669e+01    0.2208905    0.2033542   3.71 0.0003738418    1.230    0.187
       326  -8.0459     51.3594    173.2789   1.2854145883e+02   3.2811580368e+01     0.136424    0.1027656 -34.35 0.0003973245    1.665    0.399
       327  -8.5888      2.8617    173.3758   1.4035777082e+02   3.7697756598e+01    0.1433864    0.1186403 -10.28 0.0007622483    1.732    0.423
       328  -9.3148    193.0599    171.3813   9.3497410787e+01   8.0814777982e+00    0.2571767    0.1936984 -29.68 0.0002769356    1.369    0.270
       329  -8.3597     89.8764    171.8403   1.1833945122e+02   2.7605163620e+01    0.2186386    0.1929024 -32.89 0.0004832276    1.295    0.228
       330  -8.8947     24.2602    172.2000   1.3516504582e+02   3.6095699397e+01    0.1935721    0.1770231 -17.54 0.0007285392    1.433    0.302
       331  -8.1737    107.5159    171.4807   1.1370022351e+02   2.4675334478e+01    0.1523389    0.1458589 -47.36 6.782651e-05    1.098    0.089
       332  -8.1640     76.5458    171.4726   1.2175248943e+02   2.9793153962e+01    0.1466683    0.1342677 -69.54 9.961383e-05    1.050    0.048
       333  -9.0552     33.8721    171.1800   1.3266785521e+02   3.5363703810e+01    0.1829095     0.143554 -50.07 0.0005900333    1.350    0.259
       334  -8.5870    201.3134    169.9120   9.1502999496e+01   6.8113095432e+00    0.2128323    0.1240088 -35.56 0.0005429142    1.728    0.421
       335  -8.1699     62.5153    170.5172   1.2525377878e+02   3.2048973809e+01    0.1436023    0.1281328 -65.29  0.000808858    1.084    0.077
       336  -8.3473     44.9583    170.5208   1.2978065970e+02   3.4281163001e+01    0.1772066     0.118052 -16.01 0.0008093304    2.496    0.599
       337  -8.8095    158.5823    168.3419   1.0044338208e+02   1.5581988538e+01     0.278778    0.1383948 -38.06  0.001011632    2.270    0.560
       338  -7.8368    143.4427    169.5493   1.0429690528e+02   1.8327671553e+01    0.1538745    0.1502261 -35.97 0.0001354318    1.047    0.045
       339  -8.0803     95.2220    169.3938   1.1649660919e+02   2.7331885111e+01     0.153739    0.1085329 -37.91 0.0006150469    1.632    0.387
       340  -9.2884    212.0841    167.9563   8.8977358368e+01   5.1945301168e+00     0.214895    0.1913074 -34.38 0.0003297427    1.027    0.026
       341  -8.4731    197.1319    168.4812   9.2046737690e+01   7.9067153963e+00    0.2019367    0.1477312  40.91 0.0004602008    1.452    0.311
       342  -8.1240    134.9693    167.9444   1.0603691187e+02   2.0379832814e+01     0.183002    0.1759321 -62.44 0.0003774814    1.019    0.019
       343  -8.4876      8.9580    171.7936   1.3878602753e+02   3.7581034221e+01    0.1407077    0.1024269  28.67 0.0004495751    1.701    0.412
       344 -10.5639    218.6823    165.6533   8.7249466017e+01   4.4451543919e+00     0.278289    0.2325342 -28.37 0.0004882926    1.146    0.128
       345  -9.4545    205.0541    167.0393   9.0152727110e+01   6.6943868229e+00    0.2189093     0.197495 -26.30 0.0003367314    1.072    0.067
       346  -8.7938    169.9337    166.6135   9.7475726409e+01   1.3686653174e+01    0.2071767    0.1894717  41.25 0.0003871982    1.127    0.113
       347  -8.5325     85.0646    167.4919   1.1881845094e+02   2.9477610331e+01    0.2032559    0.1498962  33.85 0.0003914276    1.475    0.322
       348  -8.2774    127.8646    166.0873   1.0742521233e+02   2.2210750811e+01    0.2024968    0.1824798 -15.82 0.0002944796    1.266    0.210
       349  -7.9988     59.3184    165.3197   1.2526695740e+02   3.3791734226e+01    0.1442429    0.1038047 -36.39 0.0007042049    1.662    0.398
       350  -8.2189     45.3213    165.2961   1.2893966637e+02   3.5548126939e+01    0.1370242    0.0984088 -39.37 0.0003071704    1.617    0.382
       351  -9.5708    199.7478    162.7347   9.0292962857e+01   8.6010826933e+00    0.3016813     0.193277 -38.73 0.0007833294    1.492    0.330
       352  -8.8023    184.8725    163.7112   9.3579121046e+01   1.1325265114e+01    0.2199662    0.1970941  -5.65 0.0005301879    1.219    0.180
       353  -9.3363    191.9952    162.9501   9.1919369092e+01   1.0073877008e+01    0.2290202    0.2063237 -25.76 0.0004881465    1.112    0.101
       354  -8.0423    159.4845    163.4474   9.9179312476e+01   1.6521158891e+01    0.1548097    0.1497305 -24.51  0.000125179    1.057    0.054
       355  -9.0736    120.1679    163.2262   1.0879028688e+02   2.4383169826e+01    0.2212545      0.21023  -6.11 0.0005076177    1.167    0.143
       356  -8.0177    111.2957    163.3062   1.1110514487e+02   2.6019431088e+01    0.1529941    0.1219468 -20.85 0.0002239187    1.585    0.369
       357  -8.0025     80.6713    163.6795   1.1929646306e+02   3.1132212638e+01    0.1510986    0.1132539 -28.69 0.0006835414    1.689    0.408
       358  -8.4915     17.6070    163.6931   1.3580384671e+02   3.8800153641e+01     0.133474   0.08411391 -42.43 0.0002154543    1.824    0.452
       359  -8.0744    172.5279    162.4497   9.5992875432e+01   1.4091141542e+01    0.1537783    0.1467536 -24.77 7.507203e-05    1.060    0.057
       360  -9.8434    221.4868    160.2922   8.5614049680e+01   4.9934703942e+00    0.2566245    0.2274736 -40.73 0.0003488492    1.022    0.021
       361 -10.2779    213.1129    160.2694   8.7163506736e+01   6.5510105752e+00     0.317435    0.2213707 -47.65 0.0004274437    1.340    0.253
       362  -9.0081      9.2974    161.1481   1.3757212829e+02   4.0121052705e+01    0.2416172    0.1502935  -7.54  0.000563174    2.615    0.618
       363  -8.7527    163.6468    160.0617   9.7477186384e+01   1.6443064979e+01    0.2168903    0.1890231 -42.38 0.0003966855    1.123    0.109
       364  -8.0057    153.2938    160.2604   9.9938030162e+01   1.8519163157e+01     0.149598    0.1240296  -4.00 0.0002013975    1.499    0.333
       365  -8.1136    183.7453    158.6841   9.2724237971e+01   1.2641318406e+01    0.1491029    0.1175258 -15.69 0.0002408674    1.531    0.347
       366  -8.3836    168.1831    157.7900   9.5942732901e+01   1.6023630716e+01    0.2084164    0.1809358 -16.32 0.0004915987    1.293    0.227
       367  -8.2429    158.8658    158.1935   9.8171210778e+01   1.7852587765e+01    0.2066351    0.1828287  -9.36 0.0003848926    1.289    0.224
       368  -8.0126     55.3392    158.3324   1.2519918462e+02   3.6074219943e+01    0.1474703     0.101379 -35.61 0.0007051735    1.745    0.427
       369 -10.5134     23.7042    156.3747   1.3333842695e+02   4.0042262272e+01    0.4099078     0.228382 -33.81  0.001922802    2.471    0.595
       370  -8.0432    191.7012    157.6855   9.0837519701e+01   1.1252635493e+01    0.1506122    0.1180759  -9.18 0.0007016237    1.608    0.378
       371  -9.3481    176.7124    156.8656   9.3841885091e+01   1.4474276820e+01    0.2366807    0.2107133  20.50 0.0003553487    1.237    0.192
       372  -8.0841    136.3017    157.7116   1.0351919824e+02   2.2567242559e+01    0.1566772    0.1238139  82.94   0.00025572    1.562    0.360
       373  -8.3920    128.2039    155.8175   1.0515128065e+02   2.4633697376e+01     0.207551    0.1788102 -25.82 0.0003168638    1.302    0.232
       374  -8.3815     99.4291    156.4107   1.1284809618e+02   2.9864527625e+01    0.1513966    0.1433436 -46.29 0.0002329568    1.085    0.079
       375  -9.6443     18.0463    155.2997   1.3466897251e+02   4.0813967606e+01     0.283906    0.1510384 -88.03  0.001340418    2.017    0.504
       376  -8.9839    221.9622    154.9667   8.4410372467e+01   5.9569366301e+00    0.2116959    0.1875213 -40.78 0.0003277414    1.008    0.008
       377  -9.6063    221.3150    150.7880   8.3643853061e+01   6.9033278895e+00    0.2715423    0.2192317 -30.39 0.0003379006    1.224    0.183
       378  -9.3583    216.0199    154.3523   8.5363830391e+01   7.1921058646e+00    0.2504342    0.1892528 -36.09 0.0003046204    1.242    0.195
       379  -9.6589    197.2601    154.6911   8.9052021534e+01   1.0774646051e+01     0.262192    0.2289298 -28.87 0.0003752119    1.153    0.132
       380  -8.2800    211.6538    154.1579   8.6136617932e+01   8.0640809054e+00    0.2026948    0.1255734 -35.43 0.0002261645    1.592    0.372
       381  -9.9262    205.4625    159.3411   8.8434916865e+01   8.1978077353e+00    0.2679113    0.2420758 -16.40 0.0003246637    1.152    0.132
       382  -8.9752    206.1208    152.3599   8.6802306451e+01   9.5054526946e+00    0.2358065    0.1882653 -33.11 0.0003639912    1.231    0.188
       383  -8.6399    187.8439    153.1516   9.0640246154e+01   1.3002674103e+01     0.208616    0.1697997 -27.08 0.0003701973    1.311    0.237
       384  -8.3829     61.0300    156.4579   1.2333606094e+02   3.5803614997e+01    0.1837175    0.1245106 -12.43 0.0004497715    2.340    0.573
       385  -8.2513    113.3419    155.3002   1.0890306073e+02   2.7619742517e+01    0.1574059    0.1241243 -13.83 0.0003300288    1.672    0.402
       386  -9.5445    144.9437    151.2369   9.9941180543e+01   2.2342759650e+01    0.2650424    0.2469249 -33.85 0.0003899732    1.105    0.095
       387  -9.0470    143.2103    147.1058   9.9426066499e+01   2.3670309452e+01     0.317577    0.2051252 -47.43 0.0008292204    1.508    0.337
       388  -8.4488    107.8797    151.1999   1.0948200543e+02   2.9644956073e+01    0.2039293    0.1816669 -13.58 0.0003844827    1.300    0.231
       389  -8.0901     48.3148    151.3463   1.2597089703e+02   3.8697759307e+01    0.1467157   0.09646963 -38.56 0.0007047565    1.718    0.418
       390  -8.8188    211.8828    150.1795   8.5238313363e+01   8.8258956733e+00    0.2185483    0.1896369 -16.68 0.0003420745    1.262    0.208
       391  -9.7631    214.8980    146.9206   8.3978548764e+01   8.8983746988e+00    0.2386343    0.2231924 -14.86 0.0003765854    1.149    0.129
       392  -8.4205    202.5466    149.9324   8.6965457279e+01   1.0713221843e+01    0.2046901    0.1253796 -22.56 0.0008051279    2.342    0.573
       393  -7.9174    157.3240    150.7363   9.6860598322e+01   1.9883380418e+01    0.1550783    0.1236183  82.64  0.000236229    1.561    0.359
       394 -10.4901    133.2049    146.8655   1.0187652167e+02   2.5782447958e+01    0.6905835    0.3720399 -61.32  0.001974174    2.242    0.554
       395 -10.2988    132.0016    140.0855   1.0061502212e+02   2.7635184075e+01     0.468853    0.3281191 -63.45  0.001524405    1.581    0.367
       396  -9.1268     54.0224    149.4964   1.2407166176e+02   3.8465551097e+01    0.1942267    0.1437245  28.61 0.0007441238    1.551    0.355
       397  -9.4116     50.7977    147.3889   1.2461135430e+02   3.9391399800e+01    0.1979814    0.1429889  30.96 0.0004786936    1.572    0.364
       398  -8.9699      6.4924    149.4970   1.3694545227e+02   4.3147692727e+01    0.1278951    0.1010435 -72.51 4.944571e-05    1.009    0.009
       399  -8.9097    197.1002    148.1609   8.7647916188e+01   1.2177879710e+01     0.215117    0.1925726 -17.65 0.0002785485    1.210    0.174
       400  -9.1615    182.0201    148.0451   9.0725154672e+01   1.5307354586e+01    0.2259545    0.2117497 -33.95 0.0003149779    1.069    0.064
       401  -8.4759    121.9988    148.4553   1.0512966226e+02   2.7636358110e+01    0.2233117    0.1563899  38.59 0.0004459473    1.489    0.328
       402  -9.1909    191.0391    146.3021   8.8455188745e+01   1.3810521290e+01    0.2501934     0.204289 -45.87 0.0003835087    1.150    0.131
       403  -8.6226    161.9668    147.3058   9.4998553797e+01   1.9688838094e+01    0.2090839    0.2009832  33.14 0.0003514402    1.093    0.085
       404  -8.3034    150.1688    146.8472   9.7672048796e+01   2.2278664670e+01    0.2070192    0.1848245  -9.75 0.0002475237    1.284    0.221
       405 -10.0415    223.5702    144.7823   8.1970689908e+01   7.6619767031e+00    0.2723588    0.2290483 -31.06 0.0004308198    1.180    0.153
       406  -8.9827     61.0340    146.4789   1.2155789701e+02   3.8316245037e+01    0.1894249    0.1246357 -10.75 0.0008087012    2.432    0.589
       407  -8.7038      3.0298    146.4869   1.3748718609e+02   4.4116864646e+01    0.1594204   0.08899349 -31.68 0.0008075592    2.370    0.578
       408  -9.3672    208.4068    143.2009   8.4371489563e+01   1.0926914235e+01    0.2503701    0.2161574  -9.80  0.000490052    1.356    0.262
       409  -8.5647    176.1255    144.4731   9.1180205032e+01   1.7324532423e+01     0.214243    0.1543772  44.90 0.0005650802    1.454    0.312
       410  -8.4471     56.2897    144.3103   1.2250946393e+02   3.9478407089e+01    0.1438195    0.1008198 -36.50  0.000228198    1.581    0.368
       411  -8.3981    218.5581    143.0191   8.2477967596e+01   8.9689230084e+00    0.2114154    0.1297832 -41.78    0.0003676    1.474    0.322
       412  -8.7440    200.2145    143.1481   8.5923242769e+01   1.2590191511e+01    0.2106673    0.1893049 -30.84 0.0003542472    1.130    0.115
       413  -8.5308    171.7617    143.0371   9.1806084998e+01   1.8566157399e+01    0.2110603    0.1944567 -44.39 0.0002535711    1.055    0.052
       414  -8.0901    120.2772    143.2772   1.0441183593e+02   2.9225452742e+01    0.1503887    0.1235614 -14.86 0.0001923852    1.498    0.332
       415  -9.5517     73.6363    142.6339   1.1722192710e+02   3.7502052077e+01    0.2217164    0.1626179 -29.31  0.001062657    1.619    0.382
       416  -8.2397    194.4305    141.7879   8.6758344648e+01   1.4062758331e+01    0.2038679    0.1385576 -34.28 0.0004848115    1.528    0.346
       417  -8.9933    214.0580    140.5938   8.2761850904e+01   1.0331959615e+01    0.2567389    0.1876404 -29.62 0.0004969813    1.463    0.317
       418  -8.9438    155.5817    140.8885   9.4998909757e+01   2.2500260938e+01    0.2458048    0.2173635  21.63 0.0004763505    1.272    0.214
       419  -8.1250    147.5374    141.4738   9.7060894334e+01   2.4074181962e+01    0.1571797    0.1523836 -39.90 0.0003807316    1.047    0.045
       420  -9.3539    139.0956    140.9986   9.9031589565e+01   2.5955340818e+01    0.2670358    0.2340799  16.51 0.0003985231    1.307    0.235
       421  -8.2925    203.5068    139.9005   8.4568347208e+01   1.2589347974e+01    0.2126009    0.1377223 -42.67 0.0003889156    1.432    0.302
       422  -9.2619    224.4711    138.4847   8.0474369224e+01   8.7234950023e+00    0.2444328      0.20718 -43.23 0.0005555043    1.062    0.058
       423  -8.3474    186.9727    138.9219   8.7617956022e+01   1.6228964359e+01    0.1844616    0.1660556 -48.34 0.0003854107    1.048    0.046
       424  -8.8861    166.2991    138.5952   9.1991953865e+01   2.0718009829e+01    0.2448569    0.1935907  34.40 0.0005840135    1.395    0.283
       425  -8.3938    152.0215    137.6510   9.5079925934e+01   2.3996499292e+01    0.2086079    0.1995115  49.38 0.0004373532    1.077    0.072
       426 -11.1699     68.8713    136.0603   1.1726387190e+02   3.9828785789e+01    0.4387648    0.3193423  72.85  0.002107225    1.771    0.435
       427  -9.2114    218.1484    131.8155   8.0127099937e+01   1.1264414186e+01    0.2134991    0.1942278 -15.52 0.0003251526    1.256    0.204
       428  -8.7832    146.9086    136.7995   9.6109729415e+01   2.5281739612e+01    0.2284539    0.2094259 -15.88 0.0003756018    1.205    0.170
       429  -8.9858    137.0941    136.1950   9.8398519664e+01   2.7492143747e+01    0.3308544    0.1984119 -24.29  0.001169348    2.682    0.627
       430  -9.6582    208.3058    135.8540   8.2772849390e+01   1.2437415409e+01    0.2346637    0.2317824  16.23 0.0003114967    1.127    0.112
       431  -9.0095    198.3649    134.3286   8.4305342164e+01   1.4796257517e+01    0.2524844    0.2227373 -73.96 0.0007535993    1.181    0.153
       432  -9.6146    192.9407    134.6804   8.5445416531e+01   1.5862049760e+01    0.2722852     0.208816 -42.70 0.0003175694    1.236    0.191
       433  -8.2900    172.0588    135.0490   8.9881529073e+01   2.0255131519e+01    0.1833925    0.1764014 -58.23 0.0003923823    1.010    0.010
       434  -8.8084    188.0063    133.7133   8.6212268709e+01   1.7111529832e+01    0.2689864    0.1908681 -29.38 0.0006125311    1.602    0.376
       435  -8.9350    163.6359    133.4394   9.1375931174e+01   2.2434244897e+01    0.2495966    0.1816158 -27.11 0.0007228949    1.634    0.388
       436  -8.3172    156.0179    134.0740   9.3283044595e+01   2.3944300739e+01    0.1913945    0.1762347 -51.40 0.0004829431    1.053    0.050
       437  -8.3416     21.9784    134.5100   1.3069500988e+02   4.5544684262e+01    0.1695681   0.09818182 -26.12 0.0006947108    2.331    0.571
       438  -9.0425    129.5658    106.6972   9.2897196375e+01   3.5666821423e+01    0.2436941    0.1822018  69.92 0.0003250234    1.647    0.393
       439  -9.8838    136.5030    130.0064   9.7054187597e+01   2.9043382662e+01    0.3567298    0.2826823 -56.32  0.001256813    1.266    0.210
       440  -9.7858    134.7827    124.0087   9.6010891820e+01   3.0769318408e+01    0.4835089    0.2045532 -42.87  0.001676302    2.386    0.581
       441  -9.8741    134.6221    120.2282   9.5102661402e+01   3.1649813677e+01     0.452749     0.336818  57.85  0.002091294    1.459    0.314
       442 -10.3771    133.8398    113.6446   9.3619533726e+01   3.3263669630e+01    0.6086331    0.2324736 -39.07  0.001237305    2.940    0.660
       443 -10.0636    133.8623    107.6297   9.2045478069e+01   3.4546530661e+01     0.469263    0.2445667 -43.86  0.001211411    1.906    0.475
       444  -8.5932    114.4786    131.0133   1.0309528110e+02   3.3289818012e+01    0.2324243    0.1490215 -47.72 0.0004606511    1.507    0.337
       445  -8.0158     32.3266    131.3622   1.2717232692e+02   4.5364986641e+01    0.1461025   0.08557969 -39.20 0.0001658029    1.792    0.442
       446  -9.7936    179.4133    129.8055   8.7073335423e+01   1.9788554521e+01    0.2617746     0.250214   3.59 0.0003956584    1.169    0.145
       447  -9.1275    160.8681    129.8677   9.1150552469e+01   2.3823922768e+01    0.2323057    0.2157757 -12.08 0.0004869166    1.199    0.166
       448  -9.5270    218.8007    136.1028   8.0943416199e+01   1.0291077935e+01    0.3253894    0.2804417 -84.19  0.001550336    1.298    0.230
       449  -8.4478    217.8016    124.3876   7.8566460514e+01   1.2786207884e+01    0.1932527    0.1670929 -22.98 0.0003923233    1.324    0.244
       450 -11.0425    230.6353    113.6615   7.4184290581e+01   1.2256068499e+01    0.6549888    0.2151331 -41.95  0.002377893    2.714    0.632
       451 -10.6149    227.7002    123.2122   7.6677279265e+01   1.1041384780e+01    0.3974697    0.2979811 -51.36 0.0003625059    1.181    0.153
       452 -11.1560    225.8760    115.3174   7.5276103207e+01   1.2893733146e+01    0.5138617    0.2986887 -56.81  0.002378904    1.733    0.423
       453  -8.6641    154.8197    128.2337   9.2154947531e+01   2.5504939388e+01    0.2124646    0.1866556 -14.87 0.0005970359    1.316    0.240
       454  -8.3387     73.3480    128.3085   1.1428378518e+02   4.1071710214e+01    0.1523188    0.1093037 -23.59 0.0007044084    1.706    0.414
       455  -8.8377    192.6406    127.0854   8.3762337192e+01   1.7499795205e+01    0.2126094    0.1788586 -41.05 0.0004683601    1.158    0.136
       456  -8.5789    186.5722    127.2771   8.5009952102e+01   1.8767496535e+01    0.2002945    0.1420985 -35.11 0.0003238406    1.472    0.321
       457  -8.5585    171.8331    127.1545   8.8059130457e+01   2.2009980309e+01    0.2067162    0.1852616  -1.68 0.0004017099    1.325    0.246
       458  -7.9044    165.6755    126.6868   8.9298595550e+01   2.3463741634e+01    0.1555911    0.1258733  -0.12 0.0007041203    1.661    0.398
       459  -9.0071    158.6698    126.2729   9.0783514707e+01   2.5093505053e+01    0.1565626    0.1226821  88.47 0.0003052315    1.590    0.371
       460  -9.4303    124.8170    125.3893   9.8941471184e+01   3.2532979274e+01    0.3382692     0.208662 -64.03  0.001341278    2.020    0.505
       461  -8.2739    121.4914    126.5661   1.0011718011e+02   3.2938343426e+01    0.1540866    0.1506267 -34.96 0.0001328662    1.034    0.033
       462  -8.9236    199.9364    124.8577   8.1857438068e+01   1.6397638940e+01    0.2122587    0.1976539 -17.31 0.0003435763    1.216    0.178
       463  -8.9655    152.0516    124.4437   9.1878399788e+01   2.6945699535e+01     0.247109    0.2016342 -46.62 0.0006068917    1.197    0.165
       464 -10.2779    221.3762    126.6549   7.8456159648e+01   1.1629565534e+01     0.370326    0.3044621  13.29  0.001963058    1.666    0.400
       465  -8.4851    107.9898    123.9763   1.0317600881e+02   3.6192331607e+01    0.2273122    0.1825469 -12.66 0.0003106935    1.528    0.345
       466  -8.1688      5.3226    124.3243   1.3397826709e+02   4.9221486161e+01    0.1328655   0.07343205 -44.37 0.0007047352    1.683    0.406
       467  -8.4396    170.1649    122.8563   8.7386717386e+01   2.3293887052e+01    0.2054584    0.1828359 -14.92 0.0003461158    1.303    0.233
       468  -8.2001    146.4868    123.5260   9.2983184814e+01   2.8362372642e+01    0.1552265    0.1520227 -38.11 0.0001915894    1.049    0.047
       469  -8.9912    179.8330    121.8456   8.5101645736e+01   2.1370526298e+01    0.2268792    0.2076094  -7.76 0.0006201816    1.277    0.217
       470  -8.1390    128.0251    121.9879   9.7248117588e+01   3.2644808249e+01    0.1883575    0.1715693 -49.31 0.0003768315    1.074    0.069
       471  -8.4968      1.7690    121.9703   1.3467422642e+02   4.9993596342e+01    0.1689552      0.08223 -66.94 0.0004139972    1.601    0.375
       472  -9.4535    212.5568    120.4542   7.8597687765e+01   1.4624782205e+01    0.2457005    0.2256367 -37.24 0.0005318352    1.145    0.127
       473  -9.2394    187.9717    121.0384   8.3270791136e+01   1.9750996780e+01    0.2213753    0.2118043 -51.93 0.0003126131    1.059    0.056
       474  -8.5582    116.9859    121.0019   9.9947553254e+01   3.5122165550e+01    0.2455042    0.1895703 -11.35 0.0007582523    1.690    0.408
       475  -8.6724    220.0546    119.0176   7.7016236148e+01   1.3365760019e+01    0.1712334    0.1531065 -57.80 0.0004882431    1.011    0.011
       476  -8.7552    203.0139    119.3475   8.0036336516e+01   1.6845286953e+01    0.1972271    0.1824831  70.38 0.0004180428    1.138    0.121
       477  -8.8416    193.9801    118.8698   8.1601837015e+01   1.8882327184e+01    0.2115922    0.1975446 -13.60 0.0003212684    1.238    0.192
       478  -9.4248    157.1118    118.0175   8.9106950035e+01   2.7221642294e+01     0.230101    0.2255153 -36.12 0.0005136302    1.067    0.063
       479  -7.8435    209.3091    117.2998   7.8456335400e+01   1.5916283635e+01    0.1379897    0.1165053  -1.77 0.0003858875    1.599    0.375
       480  -8.1052    184.2510    117.6980   8.3219254408e+01   2.1250204262e+01    0.1489707    0.1132773 -72.57            0    1.500    0.333
       481  -8.4455    173.9650    117.5242   8.5283756712e+01   2.3568664780e+01    0.2214666    0.1514069  48.95 0.0004964837    1.513    0.339
       482  -8.9904     66.0339    116.7805   1.1390797981e+02   4.4883423050e+01    0.1915866    0.1873184  -6.99 0.0005927759    1.096    0.088
       483  -8.6491    147.4887    116.4221   9.0960509273e+01   2.9693402409e+01    0.1525725    0.1506932 -78.66 0.0001480281    1.023    0.022
       484  -8.4906    199.5491    115.4811   7.9781617593e+01   1.8351559052e+01    0.1476803    0.1366026 -57.14 9.057733e-05    1.034    0.033
       485  -9.3730    219.2485    113.3560   7.5911051267e+01   1.4607478914e+01    0.2959921    0.2218951  21.26  0.001440867    2.060    0.515
       486  -8.3094    163.2097    114.6245   8.6890032143e+01   2.6577017087e+01    0.2057613    0.1442656  39.09 0.0002973351    1.573    0.364
       487  -8.9268    129.5551    114.2411   9.4874211599e+01   3.4046400734e+01    0.2144175    0.1463058 -34.44 0.0006186033    1.588    0.370
       488  -8.4216     21.3547    114.3331   1.2750572025e+02   5.0394290374e+01    0.1412115   0.07909886 -37.55 0.0007044527    1.790    0.441
       489  -9.3266      6.7032    113.3752   1.3189824020e+02   5.1676050396e+01    0.2284684    0.1344211 -76.33  0.001216237    1.643    0.392
       490  -8.2146      1.6788    114.7063   1.3363659816e+02   5.1677511132e+01    0.1278877   0.07200871 -43.24 0.0003122211    1.612    0.380
       491  -9.3375    185.7325    112.9561   8.1798542834e+01   2.1880450109e+01    0.2298882    0.2080374  37.10 0.0003810861    1.249    0.199
       492  -8.8023    121.9417    113.4399   9.6673029696e+01   3.5812306281e+01    0.2147615     0.133535  67.26 0.0008063499    2.439    0.590
       493  -8.7506    114.1852    112.8296   9.8623987152e+01   3.7520161012e+01    0.2116283    0.1787068 -16.17 0.0004441737    1.340    0.254
       494  -9.1433    194.5872    111.2266   7.9706762994e+01   2.0268430853e+01    0.2474668    0.1758271 -38.83 0.0004968977    1.410    0.291
       495  -8.9899    203.2474    113.5700   7.8677797145e+01   1.7930003652e+01    0.2661589    0.1896123 -45.14 0.0005437285    1.307    0.235
       496  -8.6861    208.4966    111.5206   7.7296876988e+01   1.7204742306e+01    0.1456272    0.1321809 -60.49 -9.46755e-05    1.017    0.017
       497  -8.0988    168.3007    110.2901   8.4707962663e+01   2.6326473891e+01    0.1468807    0.1232463   6.08 0.0002431006    1.563    0.360
       498  -8.2707    144.0226    110.0411   9.0162119623e+01   3.1816896217e+01     0.181955    0.1778874  72.34 0.0003779068    1.025    0.024
       499 -10.1751    123.2784    107.8154   9.4840408852e+01   3.6756679722e+01    0.4057151    0.2263608  49.74    0.0016585    1.876    0.467
       500  -8.5704     66.5317    109.4995   1.1202056601e+02   4.6499148557e+01    0.1439687    0.1279601 -35.39 7.807175e-05    1.043    0.041
       501  -8.3559      1.5618    109.2214   1.3282253389e+02   5.2935585524e+01    0.1833257   0.08158032 -55.48 0.0009365277    1.663    0.399
       502  -8.5509    176.5335    108.5035   8.2555060824e+01   2.4830083540e+01    0.1505459    0.1437131 -67.23 3.659567e-05    1.027    0.026
       503  -7.9422    155.3131    108.2853   8.7063525383e+01   2.9664949571e+01    0.1496938    0.1235231   8.44 0.0004673097    1.578    0.366
       504  -8.2275    201.4194    107.4875   7.7606692677e+01   1.9500420091e+01    0.1459127    0.1333202 -59.50 0.0001706094    1.034    0.033
       505  -8.6955    190.1409    107.1381   7.9572248008e+01   2.2050128139e+01    0.2123671    0.2020938 -16.24 0.0004555774    1.219    0.180
       506 -12.0075    202.3245    214.0912   1.0008064525e+02  -2.1062007250e+00    0.6663884    0.4484785 -47.26   0.00182432    1.566    0.361
       507  -8.2022    182.7109    106.7118   8.0890400924e+01   2.3794824350e+01    0.1408547    0.1208011   5.46 0.0001816238    1.538    0.350
       508  -9.1395    160.8639    105.9107   8.5218363189e+01   2.8896540558e+01    0.2192817    0.2053891  -7.64 0.0002893068    1.216    0.177
       509  -8.9330    113.0080    105.6922   9.7065426974e+01   3.9312427321e+01    0.2126933    0.1966714  32.60  0.000438895    1.100    0.091
       510  -8.1807     59.6647    106.7088   1.1354515306e+02   4.8079176181e+01    0.1441009    0.1003661 -22.70 0.0003886629    1.637    0.389
       511  -9.3282     12.8363    106.3867   1.2877395726e+02   5.2863609349e+01    0.1591771    0.1111475 -13.08 0.0006981739    1.672    0.402
       512  -9.0225    166.4129    105.0735   8.3807451667e+01   2.7806478161e+01    0.3168856    0.2033728  71.51  0.001318293    2.010    0.502
       513  -9.0259     65.8473    103.7001   1.1080073841e+02   4.7904869645e+01    0.2223395    0.1710825  -2.59  0.001164151    1.500    0.333
       514  -9.1002    218.8208    103.1767   7.3747874010e+01   1.6594671590e+01    0.1775661    0.1691664  -5.61 0.0004824065    1.318    0.241
       515  -8.3353    205.5373    103.4459   7.5970421327e+01   1.9372975166e+01    0.1431771    0.1323506 -62.63 3.829303e-05    1.052    0.050
       516  -8.9556    190.1461    102.7877   7.8538415717e+01   2.2889322150e+01    0.1928932    0.1780043  -7.18 0.0004430862    1.325    0.245
       517 -10.1566    119.4538    102.1236   9.4339313307e+01   3.8756046672e+01    0.3610958    0.2578987 -30.02 0.0009958487    1.551    0.355
       518  -8.4563     17.3022    103.2943   1.2674134239e+02   5.3239272514e+01    0.1311504   0.07756478 -38.02 0.0003329211    1.574    0.365
       519  -8.4696      6.3120    102.3229   1.3015652939e+02   5.4207345290e+01    0.1320257   0.07080859 -41.11 0.0004193421    1.655    0.396
       520  -8.3317    195.2424    101.5677   7.7325157646e+01   2.1986013190e+01    0.1839255    0.1389178  44.94 0.0004205267    1.489    0.328
       521  -8.1981    141.2901    100.3193   8.8273884541e+01   3.4426908446e+01    0.1502201     0.122004   1.97 0.0003347718    1.601    0.375
       522  -8.9104    129.9098    100.1801   9.1065439592e+01   3.6947356030e+01    0.2051722    0.1787661  11.10 0.0004700833    1.313    0.239
       523  -8.7360     18.9957    100.0126   1.2553139766e+02   5.3845922430e+01    0.1922716    0.1485483  72.80  0.001141362    1.749    0.428
       524  -8.7910    225.3689     97.7841   7.1582563312e+01   1.6212828709e+01    0.1884484    0.1222721 -36.58 0.0005612975    1.597    0.374
       525  -7.8888    167.2993     98.3379   8.1922981411e+01   2.8928844276e+01    0.1482229    0.1217823   5.39 0.0007034549    1.661    0.398
       526  -8.7960     89.8627     98.0482   1.0173318505e+02   4.5307809150e+01    0.2147427    0.1966389 -86.67 0.0006086903    1.302    0.232
       527  -9.6783      6.9638     97.1816   1.2900682898e+02   5.5307953235e+01    0.2583563    0.1013113 -44.33  0.001185066    2.099    0.524
       528  -8.3518    188.9750     97.0137   7.7375808046e+01   2.4245710611e+01    0.1758491    0.1626588 -79.02 0.0003757909    1.017    0.017
       529  -8.3219    203.0644     96.0462   7.4692343317e+01   2.1285313256e+01    0.1737738    0.1524428 -59.58 0.0003916205    1.050    0.048
       530  -8.1088    195.2958     95.3042   7.5844207182e+01   2.3144147497e+01    0.1356915    0.1174686   8.37 0.0003085228    1.581    0.368
       531  -7.9761    135.6873     95.6803   8.8395540555e+01   3.6592596573e+01    0.1517919    0.1205928   5.85 0.0003261673    1.650    0.394
       532 -11.9475    210.7633    213.7402   9.8328820846e+01  -3.4169973921e+00     1.562992    0.3452553 -46.75  0.004488699    5.091    0.804
       533 -11.6809    233.7447    244.4022   9.9436058193e+01  -1.1878173484e+01    0.5846209    0.2719541 -27.85  0.002835226    2.264    0.558
       534  -8.1420     94.3780     94.2520   9.9312490445e+01   4.5291009925e+01    0.1475507    0.1107553   4.27 0.0004577767    1.651    0.394
       535  -8.2285     21.3327     94.3461   1.2355552693e+02   5.4913261929e+01    0.1394373   0.07608183 -34.89 0.0007049589    1.765    0.433
       536  -8.0998     75.7404     93.6548   1.0494993111e+02   4.8594291881e+01     0.144864    0.1022585 -21.35 0.0004285401    1.596    0.373
       537 -10.0840    224.4369     91.4263   7.0351571164e+01   1.7530339249e+01    0.2576617    0.2045067 -75.77 0.0006096159    1.214    0.176
       538  -8.3750    164.6258     92.2438   8.0925668890e+01   3.0703871303e+01    0.1988971    0.1415353 -31.58 0.0003753453    1.581    0.368
       539  -8.7755    127.9602     91.2815   8.9127799964e+01   3.9141658675e+01     0.197803    0.1832742  36.31 0.0001831486    1.082    0.076
       540  -7.8286    103.6859     91.6540   9.5836268804e+01   4.4065900835e+01    0.1523725     0.113927  -4.47 0.0007047283    1.715    0.417
       541 -10.5385    236.5725     88.6833   6.8102438328e+01   1.5523372409e+01    0.2758692    0.2222486   2.84  0.001026321    2.129    0.530
       542  -9.3168    234.5154     85.5049   6.7715780206e+01   1.6477342048e+01    0.2495145    0.1282761  60.67 0.0009977468    2.090    0.522
       543  -8.3993    121.7799     96.9082   9.2292838862e+01   3.9343874919e+01    0.1965254    0.1216696 -41.29 0.0004547423    1.624    0.384
       544  -8.1786    121.2683     90.2898   9.0588699912e+01   4.0765288069e+01    0.1428286    0.1158117   1.92  0.000206349    1.505    0.336
       545  -9.5161      2.3108     90.0243   1.2923024608e+02   5.7137925868e+01    0.1774013    0.1307904 -56.31  0.001165432    1.099    0.090
       546  -8.1075    196.7775     89.9844   7.4341155534e+01   2.3780612656e+01    0.1821302    0.1124062 -43.02 0.0002120505    1.562    0.360
       547  -8.7046    158.1019     88.5168   8.1330419900e+01   3.2899437261e+01    0.2171971    0.1964777 -47.41 0.0004153798    1.120    0.107
       548  -8.1842    183.3042     88.3178   7.6307616118e+01   2.7133723047e+01    0.1395331    0.1177357  13.55 0.0003965272    1.627    0.385
       549  -9.7828     10.0394     85.8390   1.2568142591e+02   5.7563644638e+01    0.2510906    0.1728112  46.12  0.001199515    1.992    0.498
       550  -8.8867    217.7965     83.3943   6.9565450410e+01   2.0321788259e+01     0.176494    0.1251084  52.24 0.0004365192    1.591    0.371
       551  -8.3693    206.1084     82.8455   7.1185528918e+01   2.2959139086e+01    0.1701491    0.1671945  -6.02 0.0002561998    1.283    0.220
       552 -10.2102      2.6190     82.5371   1.2763490520e+02   5.8707720020e+01    0.2343353     0.183733 -78.67  0.001560607    1.485    0.327
       553 -13.4896    222.5497    185.9988   9.0674808034e+01  -1.8686017052e-01     1.564009      1.37796 -13.28  0.009241212    1.084    0.077
       554  -8.5628    185.5154     81.4652   7.4244649473e+01   2.7840723046e+01    0.1424259    0.1329596 -84.17 2.691549e-05    1.040    0.039
       555  -8.2682    159.1690     79.8307   7.8826376340e+01   3.4217430492e+01    0.1922718    0.1719833  21.68 0.0003797606    1.321    0.243
       556  -8.1323    110.7759     80.1885   9.0520975000e+01   4.4855555232e+01      0.22915    0.1135712 -30.15 0.0008710934    2.522    0.603
       557  -8.5885      9.5301     79.4927   1.2447352573e+02   5.8922628412e+01    0.1250527   0.09244991 -40.02 6.726775e-05    1.081    0.075
       558  -8.3641    215.0484     78.4928   6.8884564260e+01   2.1741598073e+01    0.1887271    0.1295681  63.32 0.0005777167    1.486    0.327
       559  -8.4100    206.2746     76.9972   6.9834107613e+01   2.3913907255e+01    0.1884354    0.1594187 -61.89 0.0002759759    1.079    0.073
       560  -8.8263    183.7292     76.7004   7.3395537581e+01   2.9067534680e+01    0.2352874    0.1037618 -50.31 0.0009091863    2.374    0.579
       561  -9.9472    239.1660     75.0881   6.4997685098e+01   1.7258798058e+01    0.1814618    0.1611392 -56.45 0.0003410043    1.195    0.163
       562  -8.5606    150.8142     77.1950   7.9877220605e+01   3.6604120502e+01    0.1944976    0.1683272  26.31 0.0003329411    1.328    0.247
       563  -8.2315    174.5337     75.6011   7.4758023781e+01   3.1379213556e+01    0.1426553    0.1303269  86.38 6.794913e-05    1.021    0.020
       564  -8.3424    234.3183     74.3268   6.5435154492e+01   1.8364964522e+01    0.1173705    0.1063133   9.94 0.0007046083    1.679    0.404
       565  -8.1020    157.4664     73.5388   7.7509960957e+01   3.5690491241e+01    0.1424573    0.1354602  68.23 0.0001793361    1.042    0.040
       566  -8.3284    206.4384     72.4896   6.8791389489e+01   2.4621653852e+01    0.1371257    0.1214279 -75.26 0.0001786928    1.028    0.027
       567  -8.0931    140.2586     72.3001   8.0854763803e+01   3.9849943851e+01     0.136519    0.1118536  13.97 0.0002120581    1.508    0.337
       568 -11.2963    225.5696    170.9560   8.7075169998e+01   2.1809497312e+00    0.3686846    0.2913311  -1.26 0.0003584738    1.490    0.329
       569 -10.2905     92.6051     69.6403   9.2570809511e+01   5.0290593561e+01      0.32561    0.2691564 -38.84 0.0009289099    1.252    0.201
       570 -10.5147      1.6930     68.2825   1.2483713774e+02   6.1652905724e+01    0.4586925    0.1026881 -55.86   0.00141059    2.981    0.665
       571  -8.1282    203.6893     70.2753   6.8692992973e+01   2.5592940836e+01    0.1398543   0.09606638 -76.22 0.0002232163    1.555    0.357
       572  -7.9064    163.3128     69.2837   7.5237458558e+01   3.5034571738e+01    0.1380158    0.1100776  28.29 0.0002998318    1.575    0.365
       573  -8.3462    116.2846     69.3531   8.5829844693e+01   4.5611608868e+01    0.1438311    0.1087575   7.90 0.0004572831    1.663    0.399
       574  -8.8100    170.6761     68.1313   7.3569209257e+01   3.3506406670e+01    0.1897808    0.1746284 -58.48 0.0004235631    1.109    0.098
       575  -9.7272     68.6563     63.9412   9.8440736405e+01   5.5392528268e+01     0.272966    0.2305583 -33.04  0.001182245    1.192    0.161
       576  -8.0304    208.4170     62.5156   6.6279728633e+01   2.5764714588e+01    0.1342366    0.1159308 -76.17 9.052047e-05    1.018    0.018
       577 -12.6920    231.9841    148.4475   8.1295090286e+01   5.3896321548e+00     2.023335     1.169212 -24.07  0.008566315    2.406    0.584
       578  -9.7190      5.5322     33.4998   1.1325623417e+02   6.7599710964e+01    0.4124811    0.1824437  -3.29  0.002040133    2.976    0.664
       579  -9.2081    120.0197    248.6867   1.2312889349e+02   5.0135928652e+00    0.2252206    0.1944036 -47.22  0.000420061    1.345    0.256
       580  -9.1096     11.4280     35.7020   1.1135348342e+02   6.6803147998e+01    0.2313943     0.140079 -40.23 0.0006645785    1.432    0.302
       581  -9.9844     16.4098     40.2053   1.1070525235e+02   6.5673831314e+01     0.388938    0.2117309  33.93   0.00228844    2.238    0.553
       582 -10.0698      9.9513     40.0701   1.1348488719e+02   6.6220304178e+01    0.2481701     0.155733 -23.55 0.0004264605    1.305    0.234
       583 -10.0125      2.0007     45.9177   1.1879406059e+02   6.5782403346e+01    0.2440537    0.1393378 -38.35  0.000371366    1.329    0.248
       584 -10.2096      4.7437     41.5209   1.1625004826e+02   6.6354569341e+01    0.2243053    0.1555473 -31.75 0.0002622716    1.098    0.089
       585  -8.2672    157.5273     59.4699   7.3752386779e+01   3.7917140711e+01    0.1386925    0.1283207  65.55 9.225557e-05    1.048    0.046
       586  -7.9297     19.6178     59.7141   1.1550042350e+02   6.2046329196e+01    0.1282665   0.07288806 -22.16 0.0007012534    1.736    0.424
       587  -8.3527    165.1257     57.8000   7.1912995219e+01   3.6398493220e+01    0.1807671    0.1601011  34.09 0.0004825004    1.317    0.241
       588  -9.4142    124.8111     57.1485   8.0056900832e+01   4.5701751555e+01     0.219841    0.2044292  51.27 0.0003520782    1.028    0.027
       589 -10.9506      2.3389     53.9935   1.2094957725e+02   6.4325428457e+01    0.5376398    0.2331959 -59.92  0.002768666    2.383    0.580
       590 -10.8327    124.2477    246.9087   1.2200280874e+02   4.6772992101e+00    0.3380977    0.2698281  49.55 0.0004640851    1.122    0.108
       591 -10.2906    250.1975     54.4035   5.9743172168e+01   1.8250895186e+01     0.230281    0.1431098 -53.34 0.0006208838    1.337    0.252
       592 -10.8858     78.6825     53.0193   9.1529058882e+01   5.5501932732e+01    0.4279337    0.3268276  55.16  0.002437949    1.623    0.384
       593  -8.8878    146.9255     56.6275   7.5058850577e+01   4.0793543094e+01    0.2102254    0.1934492  -5.17 0.0004465854    1.262    0.208
       594  -8.3107     63.4984     52.9594   9.6591971842e+01   5.7997991659e+01    0.1791851    0.0995506 -16.17 0.0008069651    2.399    0.583
       595  -9.0324     20.4724     50.5060   1.1235927573e+02   6.3609702296e+01    0.1818352   0.08583493 -38.75 0.0001739705    1.753    0.429
       596  -9.0739    172.0684     49.9631   6.8727590088e+01   3.5913644706e+01     0.190739      0.17138  76.51            0    1.044    0.042
       597  -8.5947     38.0000     40.9777   1.0194630098e+02   6.3325300305e+01    0.1969547    0.1221247  -7.37 0.0007709314    1.687    0.407
       598 -11.3973    245.1625     31.7432   5.5984593404e+01   2.2377620525e+01    0.4274283    0.3420804  28.03  0.002647552    2.436    0.589
       599 -10.9880    246.5970     36.2085   5.6682107769e+01   2.1504865950e+01    0.3311529    0.2172011 -49.01  0.002093969    1.391    0.281
       600  -9.7807    249.5094     32.5069   5.5750823811e+01   2.1421411385e+01    0.2585796      0.16385 -34.34  0.001140275    1.965    0.491
       601  -8.4212     23.9829     38.4370   1.0683197624e+02   6.5249252668e+01    0.1551179    0.1000512  17.65 0.0003263634    1.490    0.329
       602  -8.1775     29.4790     37.5107   1.0418044965e+02   6.4819254519e+01    0.1186612   0.09142105 -10.20 0.0004195564    1.024    0.024
       603  -8.5310     53.6919     36.3885   9.4237960908e+01   6.1892420290e+01    0.1075205   0.09887382 -74.02 0.0001080786    1.814    0.449
       604  -9.0310     25.8324     34.1716   1.0450118803e+02   6.5702617470e+01    0.1579611    0.1068222  -9.10 0.0002727625    1.287    0.223
       605  -8.1552    173.7110     33.7276   6.4442942905e+01   3.7660056159e+01    0.1218485   0.09311243  43.88 0.0001660927    1.510    0.338
       606  -8.9853     21.0694     32.7006   1.0601640712e+02   6.6400376536e+01    0.2357316    0.1240232 -39.51  0.001080407    1.723    0.420
       607  -9.4698     23.1885     27.8292   1.0325790216e+02   6.6884864749e+01    0.2248724    0.1499943 -12.52 0.0006387489    1.262    0.208
       608  -8.9908    108.4937    249.0159   1.2557688081e+02   6.7907568762e+00    0.2288236    0.1747243  25.60 0.0005450724    1.495    0.331
       609  -9.0358     30.1048     31.2546   1.0160004762e+02   6.5657214190e+01    0.1941078    0.1421284 -22.28  0.001336349    1.186    0.157
       610  -8.7595     16.9297     31.6747   1.0746406772e+02   6.6943794717e+01    0.1579004     0.116971  -2.15 0.0008270783    1.133    0.118
       611 -10.6980      3.7633     27.7235   1.1204617244e+02   6.8615384514e+01    0.3885839    0.2463157  -1.14  0.002005462    1.406    0.289
       612  -9.2760      4.2225     23.5842   1.1030923860e+02   6.9191646677e+01    0.2138675    0.1180546 -13.33 0.0006325447    1.649    0.394
       613 -10.4967     69.8168     29.4378   8.6090914856e+01   6.0216813236e+01    0.2927434    0.1657377   1.71  0.001382884    2.492    0.599
       614  -9.4721     12.6062     27.4484   1.0784750284e+02   6.7949440134e+01     0.187209    0.1526686 -20.70 0.0008053819    1.229    0.187
       615 -10.3675    250.0338     23.1880   5.4035314067e+01   2.2509063350e+01    0.4069402    0.1325604 -46.52  0.001984423    2.474    0.596
       616  -9.8023     78.6952     22.0950   8.0667417051e+01   5.9461743789e+01    0.2279324    0.2070531 -29.75  0.001175898    1.355    0.262
       617 -11.0713     66.2877     22.4215   8.4614597439e+01   6.1612643322e+01    0.3853752    0.2352215  34.13  0.002298448    1.410    0.291
       618  -9.3116      8.4732    248.3276   1.4490946151e+02   2.0362313858e+01    0.1803429    0.1460514  78.51 0.0002890708    1.169    0.145
       619  -9.8621     31.7688    247.3155   1.4065078824e+02   1.7956586790e+01    0.2127161     0.207367 -32.33 0.0005364355    1.583    0.368
       620 -10.4080    133.1560    245.3148   1.1990058081e+02   3.5310838893e+00    0.2728095    0.2400533  15.28 0.0004096469    1.254    0.202
       621 -10.1802    113.5687    244.1923   1.2389352227e+02   6.9478902670e+00    0.2820764    0.2462028 -23.05 0.0006195614    1.479    0.324
       622  -8.5023     75.7826    246.3975   1.3200276531e+02   1.2310147347e+01    0.1567099    0.1558871   3.59  0.000567961    1.352    0.260
       623 -10.1959     80.4085    244.3300   1.3083617092e+02   1.2064301588e+01    0.3162261    0.2227432  28.99 0.0004863358    1.677    0.404
       624 -10.4370     93.3095    244.5004   1.2818733571e+02   1.0081309833e+01    0.3594159    0.2273555  29.24 0.0007635897    1.816    0.449
       625  -9.3687     41.3127    244.7533   1.3864890806e+02   1.7326569948e+01     0.198047     0.190329  55.29  0.000851822    1.411    0.291
       626 -10.4808    104.6832    241.4629   1.2542141108e+02   8.9296588679e+00    0.3197106    0.2820252  -7.13 0.0006675941    1.518    0.341
       627  -8.4329    101.5343    238.5802   1.2572248078e+02   1.0031487866e+01    0.2092258    0.1831243  50.88 0.0005556085    1.078    0.073
       628 -10.2238     25.1455    239.8664   1.4132519481e+02   2.0298574812e+01    0.3105275    0.2012887 -52.75  0.001143101    2.026    0.506
       629 -10.3958    125.3941    239.9470   1.2079365251e+02   5.8737241726e+00    0.3100412    0.2644323  20.61 0.0004134405    1.300    0.231
       630  -9.7406    129.6286    235.2012   1.1919376987e+02   6.1316693049e+00    0.2611103    0.2276155   2.27 0.0004484716    1.374    0.272
       631 -10.5005     68.4712    240.1726   1.3283669916e+02   1.4675609539e+01     0.256104    0.2312095  33.87 0.0004914961    1.367    0.269
       632  -8.6353     34.3542     20.1943   9.5478285807e+01   6.6594263348e+01    0.1725475    0.1129759  -8.05 0.0005630156    1.375    0.273
       633  -9.1491     47.5851     18.4465   8.9576038823e+01   6.4995882103e+01    0.2484085    0.1355164   8.54 0.0007166835    2.241    0.554
       634  -9.8885     51.5672    240.4978   1.3627652044e+02   1.6916172725e+01    0.2201676     0.214971  73.90 0.0007245589    1.366    0.268
       635 -10.2840    145.6405    230.9699   1.1506073116e+02   4.2739891228e+00    0.3246588    0.2572488   8.31 0.0005269307    1.506    0.336
       636  -9.7922    133.8193    230.3519   1.1754917360e+02   6.4194956538e+00    0.2920449    0.2601642  10.67 0.0006116247    1.258    0.205
       637  -8.8042    130.1593    228.8265   1.1812101823e+02   7.3605203119e+00    0.2128685    0.1845132  18.99 0.0004371336    1.269    0.212
       638 -10.2388    135.1633    238.9672   1.1855389017e+02   4.4455003384e+00    0.2997276    0.2406573  36.21 0.0004471338    1.158    0.136
       639 -10.3879    139.6754    234.7384   1.1694441246e+02   4.5315295854e+00    0.2991377    0.2571363   9.99 0.0004987121    1.308    0.236
       640  -9.8162    143.8457    226.1960   1.1468877400e+02   5.5547176994e+00    0.3325222    0.2560563  12.18 0.0003618194    1.561    0.359
       641  -9.3583    139.0628    227.1283   1.1589232614e+02   6.1881976734e+00    0.2638762    0.2012693  19.75 0.0004559506    1.484    0.326
       642 -10.0917    118.1007    238.5669   1.2216763820e+02   7.3567389210e+00    0.3272789    0.2836054   5.73  0.001044827    1.437    0.304
       643  -8.8729     35.3282    240.2118   1.3942102422e+02   1.9027251846e+01    0.1809245    0.1549453  45.01 0.0005642108    1.378    0.274
       644 -10.1993     63.7090     13.0016   8.1825924448e+01   6.3009146019e+01    0.3275057   0.09172573  37.87  0.001291801    3.438    0.709
       645  -8.5896     57.4745     10.4623   8.2860012872e+01   6.4283137497e+01    0.1173939   0.08888993  21.17 5.761519e-05    1.052    0.050
       646  -8.7527      9.6946    239.4373   1.4413646638e+02   2.2076844859e+01    0.1870797     0.119785 -62.38  0.001182009    1.735    0.424
       647  -9.1844     62.3105    239.0345   1.3397646386e+02   1.5782616330e+01    0.2054954    0.1765492  24.77 0.0005083344    1.532    0.347
       648  -9.2072    112.4726    237.7545   1.2326767214e+02   8.4450459977e+00    0.2337053     0.202372   5.17 0.0005475062    1.473    0.321
