#   1 NUMBER                 Running object number                                     
#   2 MAG_AUTO               Kron-like elliptical aperture magnitude                    [mag]
#   3 X_IMAGE                Object position along x                                    [pixel]
#   4 Y_IMAGE                Object position along y                                    [pixel]
#   5 X_WORLD                Barycenter position along world x axis                     [deg]
#   6 Y_WORLD                Barycenter position along world y axis                     [deg]
#   7 A_WORLD                Profile RMS along major axis (world units)                 [deg]
#   8 B_WORLD                Profile RMS along minor axis (world units)                 [deg]
#   9 THETA_WORLD            Position angle (CCW/world-x)                               [deg]
#  10 FWHM_WORLD             FWHM assuming a gaussian core                              [deg]
#  11 ELONGATION             A_IMAGE/B_IMAGE                                           
#  12 ELLIPTICITY            1 - B_IMAGE/A_IMAGE                                       
         1 -11.3592    223.5788     37.0978   1.1949893129e+01   2.4762452813e+01    0.8240848    0.6357369  31.15  0.004921945    1.702    0.413
         2  -9.6856    248.5083     14.9782   5.0865328744e+00   2.2102521208e+01    0.5905902    0.2383612 -38.75  0.003113027    1.904    0.475
         3  -8.5889    250.3780      8.8134   3.6840444322e+00   2.2353174678e+01    0.3098371    0.1451156 -31.50  0.001729522    1.836    0.455
         4  -8.1922     95.6524     11.9135   2.3706314581e+01   5.9267426486e+01    0.1850039     0.174301   0.10 0.0005079338    1.141    0.124
         5  -9.4998    120.3998      9.1616   1.7010473294e+01   5.3230630438e+01    0.3487067    0.3254559  67.63   0.00165504    1.043    0.041
         6  -8.2105    214.6555      9.6817   6.1239186561e+00   2.9647404742e+01    0.1788098    0.1753135 -76.38 0.0005571791    1.205    0.170
         7  -7.2676     72.3127    240.2950   8.2545776266e+01   1.7135216030e+01    0.1047375   0.08381175   4.34 0.0002507941    1.597    0.374
         8  -9.2085     73.1969    249.3532   8.3023327029e+01   1.5540619829e+01    0.3827563    0.1506215  24.31  0.001480332    2.739    0.635
         9 -11.0935     30.1021    247.7362   9.1542743458e+01   2.0452875892e+01     0.584058    0.4175923  69.20  0.004439111    1.306    0.234
        10 -10.9312      2.9165    214.6250   9.5848849547e+01   2.8853584335e+01    0.5396944    0.2931436  70.67   0.00244844    1.584    0.369
        11 -14.2198     11.6066    236.6194   9.4762165782e+01   2.4087715681e+01     2.880209     1.576644  25.14   0.01396666    1.801    0.445
        12  -8.6150     76.8937    234.0770   8.1092057788e+01   1.7642969291e+01    0.1918585    0.1648665 -72.22 0.0004378521    1.443    0.307
        13  -8.4955    131.5901    233.7037   6.9426759049e+01   1.0548117951e+01    0.1840635    0.1280745   4.81 0.0007347424    1.659    0.397
        14  -7.9773    246.4526    233.5234   4.8098109287e+01  -4.1631934888e+00    0.1088376   0.07364604   4.42 0.0001791959    1.036    0.034
        15  -8.6556    129.3363    229.9003   6.9450520425e+01   1.1446460281e+01    0.1653876    0.1371049  22.41 0.0006449796    1.091    0.084
        16  -9.2450    124.8573    228.7277   7.0261783787e+01   1.2250619023e+01    0.2901708    0.2478435   7.90  0.002002294    1.228    0.185
        17  -7.8624    112.3320    229.3143   7.3009868532e+01   1.3869891428e+01    0.1199631    0.0866922   3.95 0.0005538155    1.681    0.405
        18 -11.0047     11.6732    218.4316   9.4132189698e+01   2.7398470579e+01    0.5130841     0.294954  67.37 0.0004764394    1.494    0.331
        19  -7.6921     97.5216    215.4893   7.4778765571e+01   1.8269748141e+01    0.1278837    0.1031844  38.40 3.453498e-05    1.014    0.014
        20  -8.0923    111.0441    212.1504   7.1325353537e+01   1.6986638793e+01     0.211359    0.1374054   7.14  0.001082122    2.038    0.509
        21 -11.2339     38.9410    242.5410   8.9551299569e+01   2.0447748098e+01      1.07448    0.4499108 -85.76  0.005781466    2.928    0.659
        22 -12.1265     30.8204    192.4567   8.8530264795e+01   3.0827942209e+01     2.003762    0.7063933  30.44   0.00437223    2.378    0.580
        23  -7.4680    135.5047    206.9971   6.5155298498e+01   1.4302029900e+01    0.1568341    0.1144381  83.54 0.0007808601    2.410    0.585
        24  -8.1474    123.9108    205.8698   6.7602015617e+01   1.6229880135e+01    0.1734255    0.1318237  45.47            0    1.265    0.209
        25  -9.7230    119.8135    197.3725   6.7382876647e+01   1.8382491061e+01    0.2285285    0.2107876 -32.58 0.0002252434    1.254    0.203
        26  -8.0654    125.9665    195.0703   6.5619010934e+01   1.7863989796e+01    0.2040368    0.1672762  28.05  0.000307105    1.048    0.046
        27  -9.0406     58.1819    194.0150   8.1952262574e+01   2.7536180234e+01    0.3943771     0.201629  36.46  0.002022715    1.625    0.385
        28 -12.3047     10.2632    207.6033   9.4033718159e+01   2.9608217440e+01     1.046495    0.6699052  44.29   0.00333784    1.242    0.195
        29  -7.5193     67.0712    190.9453   7.9449776218e+01   2.7089506684e+01    0.1480677    0.1275394  52.34 0.0003100515    1.032    0.031
        30  -8.6257      6.2712    188.2887   9.4185573674e+01   3.3861219179e+01    0.2484262    0.1054061  56.28  0.001295686    1.966    0.491
        31  -7.5801    125.7158    188.3127   6.4674035774e+01   1.9159038320e+01    0.1309953   0.09944516  59.87 0.0002272925    1.576    0.365
        32 -11.8620     42.0511    183.2090   8.5071086812e+01   3.1660449459e+01     1.322687    0.8352668  29.90  0.005790597    1.489    0.329
        33  -8.5309     63.1194    181.9185   7.9525072397e+01   2.9506194448e+01    0.1838465    0.1703167  45.70 0.0003168252    1.091    0.083
        34  -7.9703    208.1661    176.8490   4.5204515004e+01   7.7723202699e+00    0.1747282    0.1550098   0.17 0.0004791184    1.172    0.146
        35 -10.4628     20.3332    172.4094   8.9892581530e+01   3.6147855550e+01    0.6406577    0.2634532  73.48  0.002793471    2.734    0.634
        36  -8.8545     11.4557    173.5292   9.2241136110e+01   3.6633171075e+01    0.2284263    0.1618499 -71.17  0.001438555    1.450    0.310
        37  -9.7891     59.2244    168.9147   7.9151920580e+01   3.2871037064e+01    0.4149574    0.3776403 -45.10   0.00172675    1.276    0.216
        38  -9.4388     64.4569    164.5141   7.7190610921e+01   3.3214099529e+01    0.3273731    0.2548267  13.39    0.0012239    1.469    0.319
        39  -8.8088    110.0421    167.8769   6.5342941965e+01   2.5749944878e+01    0.2055214     0.204164   9.24 0.0002880377    1.109    0.098
        40  -7.4950      1.7732    168.5898   9.4474604362e+01   3.8443193217e+01    0.1706317   0.08564284  39.86 0.0009403733    1.712    0.416
        41 -10.6444     14.3772    160.4856   9.0733660124e+01   3.9341383627e+01    0.5278038    0.3582555 -43.60    0.0030626    1.827    0.453
        42  -9.4148      1.7604    161.5766   9.4171901812e+01   4.0011250973e+01    0.2521369     0.173853  58.24  0.001593485    1.244    0.196
        43  -8.0615     81.4214    163.0547   7.2282460463e+01   3.1225466245e+01    0.2850956    0.1651659 -43.75  0.001304699    2.066    0.516
        44  -7.3734     29.0359    163.2699   8.6915909798e+01   3.7439757510e+01    0.1689238    0.1448039  45.83 0.0003236368    1.108    0.098
        45  -7.2445     42.2979    162.6724   8.3182192344e+01   3.6250439133e+01    0.1402837   0.08490317  60.33 0.0007027138    1.635    0.388
        46  -7.8863     34.8304    161.6524   8.5174264037e+01   3.7255904397e+01    0.1768101    0.1604073 -74.62 0.0007922385    1.171    0.146
        47  -9.7462     74.5133    156.8642   7.3337587127e+01   3.3620584630e+01    0.3090454    0.2871813 -70.62  0.001038912    1.142    0.124
        48  -8.9800      5.5256    164.0090   9.3295816991e+01   3.9202545057e+01    0.2330388    0.1570439  49.91  0.000833281    1.294    0.227
        49  -7.3752     32.3291    155.2841   8.5314280606e+01   3.8989183753e+01    0.1240685   0.09615538 -34.27 0.0001918607    1.609    0.378
        50  -8.7347    134.7420    153.0072   5.6355821252e+01   2.4541651450e+01     0.326881    0.2482667 -29.07  0.001291549    1.463    0.317
        51 -10.6203     61.3051    151.9189   7.6484157355e+01   3.6547929302e+01    0.3578896    0.2947401 -34.10 0.0007946169    1.440    0.306
        52  -8.9647     82.1115    150.4386   7.0179328223e+01   3.4005273848e+01    0.5520577    0.3471287 -12.26  0.001814257    2.845    0.649
        53  -7.1490     37.6618    152.7069   8.3525207854e+01   3.9072099053e+01    0.1285079   0.09778763 -32.66 0.0002444716    1.648    0.393
        54  -8.7309      2.7119    152.0588   9.3460732682e+01   4.2121071984e+01    0.2954687     0.120935  40.64  0.001456328    2.114    0.527
        55 -10.6555     68.3596    144.6626   7.3349912271e+01   3.7337990674e+01    0.8125245    0.4739273  58.80  0.003624693    1.979    0.495
        56  -9.0443      4.8285    144.7714   9.2469432776e+01   4.3682843618e+01    0.4018505    0.1431382  27.82  0.001833748    2.577    0.612
        57  -7.9328    244.4839    146.4726   3.3382339591e+01   6.4325105313e+00    0.1217048   0.09895576 -11.22 0.0001068036    1.010    0.010
        58  -7.1472     32.5194    141.5523   8.3933309769e+01   4.2256693618e+01    0.1344645    0.1149296  65.89 0.0008066672    1.083    0.077
        59 -10.0264      8.8660    137.7056   9.0832807698e+01   4.5095568424e+01     1.063194    0.2635181  39.76  0.003124831    3.248    0.692
        60  -8.9622     10.6626    131.8746   8.9859926243e+01   4.6381072558e+01    0.4006244    0.2926433  26.22  0.002409421    1.451    0.311
        61 -10.6190      3.6160    128.9954   9.1865738591e+01   4.7519016773e+01    0.7810141    0.4196232 -89.42  0.004078203    1.701    0.412
        62  -7.5012     96.7574    137.9742   6.3710770936e+01   3.4550751772e+01    0.1898533     0.125908 -55.19  0.000879668    1.590    0.371
        63  -9.6478     84.9575    136.3559   6.6925756185e+01   3.6860171869e+01    0.2753433     0.247872 -42.35  0.000411785    1.189    0.159
        64  -9.9780     57.5122    135.3572   7.5310579337e+01   4.1014450412e+01    0.4683447    0.3321205 -46.10  0.002132468    1.535    0.349
        65  -8.7455     19.9266    136.6248   8.7356484380e+01   4.4550094324e+01    0.3985404    0.1895767  51.10  0.001634182    2.061    0.515
        66  -8.2415     48.9921    236.2753   8.7149645474e+01   2.0474577661e+01    0.1717359    0.1429641  64.83 0.0003708985    1.186    0.157
        67  -9.8897     53.5866    128.1312   7.5484909130e+01   4.3277219788e+01    0.4006143    0.3385129  73.67  0.001245335    1.198    0.165
        68 -10.5820     43.0941    124.4076   7.8433773852e+01   4.5409288551e+01    0.4232562    0.3045471  31.70 0.0005786082    1.394    0.283
        69  -7.2239    108.9941    128.4902   5.8208739951e+01   3.4537193534e+01    0.2039802    0.1321851  10.83 0.0008056072    2.298    0.565
        70  -7.3055    105.9882    118.2131   5.6787346159e+01   3.7412152982e+01    0.1923403    0.1190424  38.72  0.000228895    1.549    0.355
        71  -7.8899    230.2835    115.9266   2.9206150950e+01   1.2947834806e+01    0.3461835    0.1130483 -43.95  0.001257906    3.489    0.713
        72  -6.7585     94.5062    116.4497   5.9899818469e+01   3.9928958836e+01    0.1497821    0.1443025  30.90  0.000104661    1.016    0.016
        73  -7.4263     11.6914    105.3289   8.7142864118e+01   5.2854218919e+01    0.1364898   0.08619125  61.41 0.0004189075    1.661    0.398
        74  -8.3584    189.1744     98.8969   3.1951528602e+01   2.3561333722e+01     0.205172    0.1914075  -8.55 0.0004362875    1.045    0.043
        75  -7.4510    202.1681     96.1816   2.9058608758e+01   2.1260794015e+01    0.1726933    0.1513885 -55.05 0.0002951602    1.232    0.188
        76  -7.4280    122.5574     96.4785   4.6430646606e+01   3.8767258736e+01    0.1543027    0.1471723  17.65  5.37263e-06    1.044    0.042
        77  -8.1724    116.1506     92.9392   4.7277382804e+01   4.0886703926e+01    0.2217052      0.21405  20.42 0.0003023515    1.022    0.021
        78  -7.4004     85.1557     89.9218   5.6384578065e+01   4.7759468631e+01    0.1984766    0.1724718  -6.68  0.001013827    1.272    0.214
        79  -8.6580      3.9953     88.5126   8.8322385845e+01   5.7442934072e+01    0.2955193   0.07785445 -47.05  0.001051705    3.592    0.722
        80  -7.1101    105.6759     84.3018   4.7944321928e+01   4.4934301082e+01    0.1540153    0.1235385  82.11 0.0002902177    1.635    0.388
        81  -8.4602     88.2648     77.9905   5.1820560407e+01   4.9829521050e+01    0.2391428    0.2036593  36.05 0.0004086855    1.148    0.129
        82  -7.4152    156.9851     76.2322   3.2180603623e+01   3.4650820155e+01    0.1962603    0.1892773  54.21 0.0002911312    1.025    0.025
        83  -7.3811     87.0322     62.0131   4.7023931352e+01   5.3407704292e+01    0.1784878     0.165712  29.02 0.0004045971    1.036    0.035
        84  -7.5074    143.8791     59.8674   3.0073135983e+01   4.0551780844e+01    0.2037741    0.1742219 -70.74 0.0005422626    1.300    0.231
        85  -7.7811    138.7762     58.8057   3.0877034352e+01   4.1988904341e+01    0.2100283    0.1955394  26.33 0.0003624855    1.117    0.104
        86 -10.4123    200.8806     53.8544   1.8632296607e+01   2.7670380824e+01    0.4164583    0.2728457  60.04  0.001538889    1.570    0.363
        87 -11.3614    210.8509     47.8573   1.5891507691e+01   2.6215404214e+01    0.8228695    0.7098493  57.64  0.005099503    1.256    0.204
        88  -8.7536    104.5892    247.8184   7.6492241283e+01   1.1947037477e+01    0.2000623    0.1516088  31.08 0.0004692177    1.065    0.061
        89  -8.1137    176.9411     40.0201   1.8122528574e+01   3.5148971609e+01    0.1981827    0.1913575 -84.29 0.0002872258    1.041    0.039
        90  -8.5977     89.9452    244.3383   7.9197578785e+01   1.4330425903e+01    0.3641241    0.1729775 -66.14   0.00200946    2.804    0.643
        91 -12.8879     44.5122    209.1880   8.6406473374e+01   2.6004783714e+01     4.187592     1.071609  39.77   0.01784427    2.648    0.622
        92  -7.4299     79.4426     16.5556   3.0809803720e+01   6.2589216239e+01    0.1405921    0.1245682  33.29 0.0001087972    1.010    0.010
        93  -7.4884     72.3941    245.2213   8.2891137696e+01   1.6306542817e+01    0.1391694   0.09820592  75.25 0.0005056313    1.628    0.386
        94  -7.4932    135.6624    244.2731   6.9805157307e+01   8.4335093521e+00    0.1164452   0.07401863  46.60 0.0002591777    1.605    0.377
