#   1 NUMBER                 Running object number                                     
#   2 MAG_AUTO               Kron-like elliptical aperture magnitude                    [mag]
#   3 X_IMAGE                Object position along x                                    [pixel]
#   4 Y_IMAGE                Object position along y                                    [pixel]
#   5 X_WORLD                Barycenter position along world x axis                     [deg]
#   6 Y_WORLD                Barycenter position along world y axis                     [deg]
#   7 A_WORLD                Profile RMS along major axis (world units)                 [deg]
#   8 B_WORLD                Profile RMS along minor axis (world units)                 [deg]
#   9 THETA_WORLD            Position angle (CCW/world-x)                               [deg]
#  10 FWHM_WORLD             FWHM assuming a gaussian core                              [deg]
#  11 ELONGATION             A_IMAGE/B_IMAGE                                           
#  12 ELLIPTICITY            1 - B_IMAGE/A_IMAGE                                       
         1 -11.2880    222.3544     27.4496   6.7378896525e+01   2.5752731007e+01    0.6113319    0.4775604 -29.77  0.001085489    1.208    0.172
         2 -15.4174    242.1000     95.7734   8.3590573641e+01   1.2997344097e+01     7.210487     1.582714 -25.19   0.02055912    4.555    0.780
         3 -14.7308    205.0283     31.7616   7.0875122678e+01   2.9699795859e+01     1.991347     1.599683 -80.90  0.009780766    1.479    0.324
         4 -13.7074    214.6938     22.4554   6.6770447438e+01   2.8212681050e+01    0.9100189    0.6549552  32.22  0.004509887    1.485    0.327
         5 -13.6352    236.8782     60.0746   7.4905162804e+01   1.8537634436e+01     1.431854     1.072887 -31.71  0.001384726    1.265    0.209
         6 -13.2472    183.0037     80.6304   8.9581616863e+01   2.8568313090e+01     4.085431    0.3835074 -38.06  0.008140038    7.951    0.874
         7 -14.5279    166.2224     50.5123   8.3494650015e+01   3.7301522426e+01     6.031832      2.30152  70.35   0.01297993    6.762    0.852
         8 -10.9239    224.9802     19.9623   6.4875449237e+01   2.5859070199e+01    0.4249948    0.2428252 -57.16  0.001844127    2.094    0.522
         9 -12.0500    137.9547     20.5769   7.8274395826e+01   4.8510210401e+01    0.4857074    0.2486726 -33.23  0.001115178    1.903    0.475
        10 -13.7299    188.5627     14.5645   6.7494760803e+01   3.5854709846e+01     2.448361     1.613262 -60.44  0.007860437    1.831    0.454
        11 -11.7686    150.3846     10.3322   7.1767764394e+01   4.6446497752e+01    0.6103917    0.2301398 -34.97  0.001603364    2.610    0.617
        12 -13.1933     86.0497     10.7491   8.7403481410e+01   6.1583064226e+01     1.307353    0.2011983  47.96  0.003625415    5.532    0.819
        13 -13.4516     92.3594      6.1507   8.3156827780e+01   6.0871297432e+01     1.242331    0.3334131  53.42  0.004206889    3.635    0.725
        14 -13.2848    117.8618      3.2211   7.5170404200e+01   5.5391747653e+01     1.280422    0.3986096  55.43  0.004552753    2.806    0.644
        15 -11.6864    105.2457      2.5181   7.7833835204e+01   5.8436406387e+01    0.5665918    0.2790816  51.49  0.002152105    1.930    0.482
        16 -11.7761    144.5607      7.4582   7.1651497476e+01   4.8252387870e+01    0.4738175    0.2248931 -37.96  0.001873115    2.224    0.550
        17 -12.0989    106.9655      6.3065   7.9220480226e+01   5.7635738998e+01     0.512297    0.2557609  44.53  0.001898069    1.913    0.477
        18 -10.2630     11.0914      9.5074   1.1977563559e+02   7.2031596820e+01    0.1406659    0.1108919   4.39 0.0004327314    1.507    0.336
        19 -11.5788    248.7506      3.4624   5.8113515466e+01   2.1615863388e+01    0.4977235    0.3273692 -65.26  0.002611296    1.659    0.397
        20 -11.6635    135.2659      5.8034   7.2696745623e+01   5.0808866504e+01     0.291117    0.2156847 -47.28  0.001414302    1.565    0.361
        21 -11.4677    232.7751      3.8148   5.9473606689e+01   2.5416651675e+01    0.5282457    0.3680269  66.55  0.002152125    1.481    0.325
        22 -10.6179    154.0769      1.8787   6.7832473300e+01   4.6259640306e+01    0.2297279    0.2024483 -52.91   0.00123773    1.268    0.211
        23  -9.2526    216.3664      1.2225   6.0155260626e+01   2.9760045175e+01    0.1435759   0.09475748  44.46 0.0002520343    1.580    0.367
        24 -12.8802    211.0225    133.7441   9.7818952895e+01   1.4432992050e+01     0.671396    0.2803634  51.35  0.002711456    2.521    0.603
        25 -10.4192    248.9968    249.9734   1.1168681539e+02  -3.8074544735e+00    0.1268686   0.08051604  27.80 0.0004707001    1.041    0.040
        26  -9.6091     15.8711    133.9078   1.4058947395e+02   4.5039878025e+01    0.1467735   0.09753744  74.78  0.001026842    1.260    0.207
        27 -11.8238    209.4885    128.9098   9.7005618794e+01   1.5414686838e+01    0.3262334    0.1736373  36.22  0.001480612    1.822    0.451
        28  -9.9413      1.4119    126.0693   1.4327230860e+02   4.7674911695e+01    0.1554811   0.07935653 -82.00  0.000300934    1.508    0.337
        29 -13.0921    214.9528    117.3049   9.3323146353e+01   1.5903366469e+01    0.4440071    0.4388213 -75.41  0.002707368    1.303    0.233
        30 -12.5460    221.5310    111.5020   9.0784019603e+01   1.5311910086e+01    0.5002646    0.3246078 -57.27  0.002183724    2.592    0.614
        31 -15.0900     47.0251    199.5187   1.3913126424e+02   2.9907563927e+01     1.024042    0.9012628 -36.02  0.006782271    1.901    0.474
        32 -11.5670    219.5087    114.5114   9.1860842940e+01   1.5329774853e+01    0.2678952    0.2134327  24.40 0.0009590613    1.161    0.138
        33 -12.1710    198.6383    119.8773   9.6891519289e+01   1.8975486101e+01    0.5290962    0.2934656  66.43  0.001988614    3.203    0.688
        34 -11.2624    184.8102    118.9713   9.9329962093e+01   2.2045294857e+01    0.2682792    0.2020825  42.74  0.001398789    1.271    0.213
        35 -12.2704    204.6810    110.6778   9.3540027944e+01   1.9041806125e+01    0.5193515    0.3059767  25.53  0.002265267    1.977    0.494
        36 -14.4720     58.0484    187.5533   1.3630362687e+02   3.0727988912e+01      0.83202    0.6394522  66.61  0.002905175    1.018    0.018
        37 -13.0919    170.5566     68.6922   8.8494965185e+01   3.3446355501e+01    0.9170136    0.6819519  11.17  0.001483809    1.541    0.351
        38 -10.4714     37.8612    182.2130   1.3962091681e+02   3.3820747901e+01    0.1552968    0.1053244  68.97 0.0003854547    1.157    0.136
        39  -9.6425    158.1212    105.6043   1.0159643625e+02   2.9999167623e+01    0.2020502    0.1289916  71.83 0.0008009257    2.557    0.609
        40  -9.5805     72.1727    105.1371   1.2288325649e+02   4.5376693803e+01    0.1687649    0.1367757  80.95 0.0003673148    1.278    0.217
        41 -10.5384    123.7613    100.0952   1.0825659129e+02   3.8039373411e+01    0.2808681    0.1940171  13.82  0.001258013    2.162    0.537
        42 -12.1730    225.2771     93.7865   8.5691481110e+01   1.6885767748e+01    0.3690795    0.3388336 -58.69  0.002095976    1.379    0.275
        43 -11.0736    146.4902     93.8373   1.0114481165e+02   3.4624379079e+01    0.3498693    0.2587694 -16.03 0.0009193082    1.586    0.369
        44 -11.7855    176.8636     61.5875   8.5017912200e+01   3.2992145262e+01    0.2965169    0.2642215  15.38 0.0003955096    1.098    0.089
        45 -10.4620    133.3339     92.1174   1.0382061104e+02   3.7706874472e+01     0.257797    0.2261501  85.96 0.0007524381    1.356    0.263
        46 -12.1499    154.2230     85.2229   9.6969040663e+01   3.4488897511e+01    0.5129666    0.3382313   3.39  0.001492725    2.287    0.563
        47 -12.0260    157.4877     82.4966   9.5448866472e+01   3.4228814075e+01    0.3896525    0.3370007 -34.86  0.001011856    1.151    0.131
        48 -11.6445    139.9709     82.0320   9.9374300856e+01   3.8217016682e+01    0.3457647    0.2912501 -36.64  0.001002133    1.161    0.138
        49 -12.8173    153.3939     71.6467   9.3101732714e+01   3.7050286595e+01    0.3917309    0.2914614 -25.08 0.0009514078    1.341    0.254
        50  -9.6859     74.6817     68.9590   1.1380558675e+02   5.2909789630e+01    0.1905195    0.1488831 -57.38 0.0004925087    1.187    0.157
        51  -9.9119    130.5151     66.0538   9.6808357685e+01   4.3218606360e+01    0.2364787    0.1429075 -36.44  0.001032233    1.589    0.371
        52 -10.5910    232.5470     44.1545   7.1006744097e+01   2.1417082202e+01     0.387643    0.2169648  65.51  0.001728737    1.979    0.495
        53 -10.1992    189.4967     35.8963   7.4473823055e+01   3.3255698156e+01    0.3179699    0.2249506 -86.19  0.001414277    1.874    0.466
        54 -12.2667    125.0019     25.9861   8.3434809404e+01   5.0980388372e+01    0.2980673    0.2739904  49.66  0.001642936    1.175    0.149
        55 -10.1807    248.9886     25.3146   6.3974080956e+01   1.9531563937e+01    0.3058431    0.1771833  76.45  0.001449666    2.032    0.508
        56  -9.8981    152.9862     26.0000   7.7347634423e+01   4.4014454233e+01    0.2528391   0.08596668  61.25 0.0008084802    2.984    0.665
        57 -10.7811    228.4938     22.4617   6.5232452925e+01   2.4735071247e+01    0.2621273    0.2202376 -57.58  0.000582536    1.263    0.209
        58 -11.7436     11.6246    206.1149   1.4535816295e+02   3.2228609104e+01    0.2570833    0.1139681  36.62  0.001792962    2.175    0.540
        59  -9.7552    119.1286    208.4899   1.2728254603e+02   1.9444232923e+01    0.1577827   0.08806526  43.17 0.0003762015    1.447    0.309
        60 -10.9530    135.0926    105.1480   1.0674971980e+02   3.4838572241e+01    0.5047207    0.2971156 -31.77   0.00221834    1.972    0.493
        61  -9.7388      5.4192    170.4656   1.4490087896e+02   3.8827834046e+01   0.09971067   0.07048763  76.07 8.064057e-05    1.015    0.014
        62 -10.2494     38.4992     19.4387   1.1034299088e+02   6.7646086496e+01    0.1271181   0.09994984 -33.25 0.0001708903    1.025    0.024
        63  -9.6730    220.6901     12.7513   6.3187307978e+01   2.7634938388e+01    0.1908552    0.1480735 -50.04 0.0006346338    1.319    0.242
        64 -11.7635    229.1395    166.3374   1.0143152980e+02   6.9051155792e+00    0.2263057    0.1754764 -23.05 0.0009214194    1.395    0.283
        65 -10.0161     11.8863    162.3378   1.4327538538e+02   3.9806995234e+01    0.1358152    0.1055541  70.68 0.0004849231    1.110    0.099
        66  -9.9327    202.1256    248.1495   1.1831658679e+02   2.7464235554e+00     0.151281   0.09951477  29.41 0.0003029582    1.163    0.140
        67  -9.1395    138.4716    244.5188   1.2770179304e+02   1.2018801400e+01    0.1024019   0.07345933  46.70 0.0001550868    1.022    0.021
        68 -12.3821    196.5559     26.0883   7.0225905558e+01   3.2537881901e+01    0.5975533     0.313805 -53.43   0.00229614    2.436    0.590
        69 -13.6488     22.0749    227.1529   1.4456615859e+02   2.8044874040e+01    0.5661725    0.2842088 -73.72  0.004410374    2.077    0.519
        70 -13.6278     15.8402    225.6943   1.4544324390e+02   2.8830218364e+01     0.567201    0.2844909 -79.74  0.004487446    1.918    0.479
        71 -12.2508    185.7508     52.2592   8.0409099659e+01   3.2097878372e+01    0.3647619    0.2724147  22.95 0.0006654937    1.434    0.302
        72 -12.6383    190.5575     47.5858   7.8091054965e+01   3.1500337907e+01    0.6104898    0.3259941  30.75  0.002306416    2.339    0.573
        73 -12.3263     67.7504    144.3450   1.3000417636e+02   3.7685300664e+01    0.5675912    0.3058204  62.57  0.002638971    2.023    0.506
        74  -9.8168     20.6185    139.0837   1.3994429646e+02   4.3608320356e+01    0.1497871    0.1075168 -85.59 0.0004332488    1.124    0.110
        75 -11.2487    184.3373    135.1572   1.0310599815e+02   1.9600182145e+01    0.3664511    0.2103056  53.60  0.001114272    1.884    0.469
