#   1 NUMBER                 Running object number                                     
#   2 MAG_AUTO               Kron-like elliptical aperture magnitude                    [mag]
#   3 X_IMAGE                Object position along x                                    [pixel]
#   4 Y_IMAGE                Object position along y                                    [pixel]
#   5 X_WORLD                Barycenter position along world x axis                     [deg]
#   6 Y_WORLD                Barycenter position along world y axis                     [deg]
#   7 A_WORLD                Profile RMS along major axis (world units)                 [deg]
#   8 B_WORLD                Profile RMS along minor axis (world units)                 [deg]
#   9 THETA_WORLD            Position angle (CCW/world-x)                               [deg]
#  10 FWHM_WORLD             FWHM assuming a gaussian core                              [deg]
#  11 ELONGATION             A_IMAGE/B_IMAGE                                           
#  12 ELLIPTICITY            1 - B_IMAGE/A_IMAGE                                       
         1  -9.2519      3.1629     23.2086   2.9187303677e+02   7.4811075942e+00   0.02105969  0.009940824  53.28  0.001677902    2.878    0.653
         2  -8.3346    143.0543     27.9064   2.9030327040e+02   6.6199690212e+00  0.009632312  0.009254668 -24.02 0.0004960932    1.061    0.058
         3  -8.9965     19.5754     19.6138   2.9166397926e+02   7.4282890783e+00   0.01836855   0.01139767 -51.03  0.001095104    1.564    0.360
         4  -9.0973     80.2995     12.7259   2.9092894608e+02   7.1579532798e+00    0.0186296   0.01144911 -85.77  0.001740258    2.141    0.533
         5  -8.9576    247.7085      2.1920   2.8895694160e+02   6.3091032666e+00   0.02143879  0.009098826  41.01  0.001776021    2.397    0.583
         6  -9.7057    242.7148      1.8385   2.8901165097e+02   6.3422234569e+00   0.03686782   0.01873963  73.24  0.002420902    4.656    0.785
         7  -9.9932    235.4743      8.4101   2.8913342142e+02   6.3085898662e+00   0.02352765   0.01603955 -26.60  0.001804624    1.776    0.437
         8 -10.7667    235.4738      2.5945   2.8909859529e+02   6.3756204851e+00   0.03858152   0.02015963  23.63  0.003567793    2.041    0.510
         9  -8.4739     27.4767      9.5036   2.9151336927e+02   7.4995482843e+00  0.006481735  0.006351029 -60.83 3.648996e-05    1.003    0.003
        10  -8.4857     41.2295      8.0410   2.9134742885e+02   7.4372691784e+00   0.01060623  0.007612347  61.06 0.0003675294    1.619    0.382
        11  -7.9575     93.4812      9.5193   2.9075923259e+02   7.1188459861e+00  0.006512621  0.006323881 -45.85  0.000225936    1.020    0.020
        12  -8.4897    178.7372      6.0359   2.8976553664e+02   6.6654730351e+00   0.01166694  0.008821202  -0.78  0.001267992    1.557    0.358
        13  -9.9825     14.2010      3.4289   2.9162893497e+02   7.6460036798e+00   0.02484414   0.01493016 -43.99  0.002467089    1.720    0.419
        14  -8.1506     18.4794      2.5512   2.9157477625e+02   7.6315348976e+00  0.006463564  0.006334259 -48.56 3.320359e-05    1.010    0.010
        15  -8.5191      6.4735      6.5180   2.9173572141e+02   7.6547618758e+00  0.006510761  0.006311898 -45.95 0.0003737297    1.020    0.020
        16 -10.4290     60.0883      2.8221   2.9110073249e+02   7.3888321148e+00   0.01351878   0.01133419  25.46  0.000277646    1.219    0.180
        17  -9.2735    105.7439      3.5252   2.9058337618e+02   7.1171469198e+00   0.01454455   0.01054227 -39.63  0.001580721    1.445    0.308
        18 -10.1891     50.3018     11.7121   2.9126564269e+02   7.3426430324e+00   0.01717538   0.01280458  69.35  0.001857302    1.588    0.370
        19  -8.2203     57.3000      5.7149   2.9114986901e+02   7.3715245311e+00   0.01200394  0.008243979  52.43 0.0001729853    1.609    0.379
        20  -7.7893    116.0130      1.2262   2.9045237965e+02   7.0842910432e+00  0.008876263  0.005436929  26.56  0.000879912    1.669    0.401
        21  -8.2557     67.7294      1.6135   2.9100619614e+02   7.3587137914e+00  0.009159748  0.005867566  38.54 0.0002957133    1.570    0.363
        22  -8.3958     39.7855      1.8351   2.9132690345e+02   7.5172006014e+00   0.01406551  0.005291021  19.32 0.0006887486    3.539    0.717
        23  -7.9706    146.9591    242.4486   2.9153660677e+02   4.1180078880e+00  0.009797895   0.00642668  28.08 0.0005483254    1.545    0.353
        24  -9.9129    248.5730    250.0579   2.9042679244e+02   3.4428389549e+00   0.01973944   0.01249793  17.79  0.001987825    1.752    0.429
        25  -9.1890    230.2152    250.3210   2.9063686718e+02   3.5459739220e+00    0.0104013   0.00850895  -4.09  0.001187661    1.377    0.274
        26 -10.1613    218.4677    248.9084   2.9076193781e+02   3.6302193849e+00   0.02135725   0.01282961 -10.63  0.001879551    2.545    0.607
        27  -9.7928    192.7004    248.5627   2.9105273605e+02   3.7831522004e+00   0.01345929   0.01201442 -37.47 0.0007115917    1.138    0.121
        28  -8.6351    188.1921    250.6418   2.9111633584e+02   3.7851706919e+00   0.01216422  0.006966305  19.47 0.0009998929    1.943    0.485
        29  -9.0964    184.3150    249.2943   2.9115241071e+02   3.8231453436e+00   0.01184832  0.009890284 -30.57 0.0009314077    1.273    0.214
        30  -8.7495    175.8092    249.8475   2.9125240357e+02   3.8658857171e+00  0.009239893   0.00764398  62.51 0.0006549322    1.316    0.240
        31  -8.4978    171.0131    250.5005   2.9131081710e+02   3.8860374739e+00   0.01025597  0.006485371  27.18  0.001039895    1.610    0.379
        32  -7.5539    139.4921    250.4878   2.9166924659e+02   4.0681448832e+00  0.006492039  0.006364502 -60.22 -9.430529e-05    1.001    0.001
        33  -7.9831    113.9570    242.7408   2.9191384775e+02   4.3050205673e+00  0.008519342  0.005725809  25.03 0.0008826501    1.534    0.348
        34  -7.3358     72.3111    242.6787   2.9238750916e+02   4.5456833867e+00   0.00686564  0.004930279  64.62 0.0007037198    1.649    0.394
        35  -8.1605     29.0066    242.5003   2.9287950264e+02   4.7968212344e+00  0.009685473  0.006424475  29.19 0.0004457957    1.521    0.343
        36  -8.5330     99.0051    241.0265   2.9207385727e+02   4.4110388786e+00  0.007865001  0.007661374 -60.15 0.0004832946    1.006    0.006
        37  -8.4252     20.5839    241.1979   2.9296771399e+02   4.8602799935e+00   0.01013084  0.007950437  16.06 0.0004700564    1.361    0.265
        38  -7.7611    206.3478    240.3049   2.9084853682e+02   3.7997079749e+00  0.006978986  0.004884747 -26.48 0.0003407782    1.697    0.411
        39  -8.1046    201.5745    240.1552   2.9090190444e+02   3.8290330027e+00  0.009506716  0.005634047 -49.34 0.0007367392    1.655    0.396
        40  -9.0686    208.1815    249.5908   2.9088288327e+02   3.6817990347e+00   0.01313903  0.008444855  23.50 0.0009156212    1.627    0.385
        41  -8.5514    187.1109    239.1538   2.9106038715e+02   3.9242020135e+00   0.01036095  0.008657889 -29.93 0.0005631017    1.274    0.215
        42  -8.8489    184.6507    234.7140   2.9106198192e+02   3.9897382437e+00   0.01022058  0.009316233 -13.27 0.0007004025    1.160    0.138
        43 -10.1173    188.9780    234.5002   2.9101150592e+02   3.9672005198e+00   0.01831335   0.01392876  78.46  0.001807971    1.554    0.357
        44  -9.4192    188.7810    230.2277   2.9098835464e+02   4.0177241430e+00   0.01324514  0.009335648   8.35 0.0007468206    1.654    0.395
        45  -7.1545    221.2998    237.3317   2.9066093123e+02   3.7476083318e+00   0.00694185  0.004823998 -31.24 0.0004746933    1.648    0.393
        46  -8.0204    167.3270    237.3168   2.9127445748e+02   4.0597363696e+00  0.006968454  0.004865607 -28.53 0.0002166648    1.675    0.403
        47  -7.7805     27.9783    237.4743   2.9286149968e+02   4.8608839341e+00  0.009612204  0.004754433  49.77 0.0004832532    2.404    0.584
        48  -8.3405    159.9653    235.4922   2.9134735856e+02   4.1233485238e+00   0.01484578  0.009407002   1.93  0.001412487    2.096    0.523
        49  -7.4932     60.6320    243.3100   2.9252420738e+02   4.6056006473e+00  0.007107017   0.00481332  60.60  0.000703668    1.762    0.432
        50  -7.9294    178.9412    234.8398   2.9112765646e+02   4.0212754990e+00   0.01078058  0.007148588 -17.42 0.0006442365    1.990    0.498
        51  -8.2852    194.8604    236.9294   2.9095906060e+02   3.9051239486e+00   0.01049417  0.008314474 -35.88 0.0006390198    1.329    0.247
        52  -8.0859    131.0347    234.4760   2.9167048540e+02   4.3020995308e+00  0.009642118  0.006484528  26.96 0.0004791646    1.516    0.340
        53  -8.1870    171.0251    233.4538   2.9120945167e+02   4.0830339490e+00   0.01003424  0.006507478  25.28  0.000586917    1.590    0.371
        54  -7.5285    108.4667    233.4780   2.9192141483e+02   4.4438092103e+00  0.006487596  0.006351168 -60.87 6.987358e-05    1.002    0.002
        55  -7.7857     91.4964    233.5311   2.9211491183e+02   4.5410070785e+00  0.006489003  0.006356295 -54.37  0.000809854    1.006    0.006
        56  -8.5376     10.9926    231.5424   2.9301988347e+02   5.0270861382e+00   0.00979593  0.006508564  24.98 0.0005827366    1.553    0.356
        57  -7.4279    246.2962    230.3307   2.9033529218e+02   3.6838826917e+00  0.006920809  0.004822495 -31.46 0.0002920782    1.638    0.389
        58  -8.7857    241.6501    230.1187   2.9038680775e+02   3.7132179865e+00  0.009876582  0.005366285 -50.62 0.0006922737    1.784    0.439
        59  -9.3626      5.5219    229.6178   2.9307082117e+02   5.0807620553e+00   0.01376646    0.0098614  51.48  0.001054451    1.510    0.338
        60  -7.4726    196.4832    227.5306   2.9088474373e+02   4.0043735919e+00  0.006526927  0.006317039 -43.24 0.0001297993    1.027    0.027
        61  -7.2717     94.6551    227.3262   2.9204217227e+02   4.5945784862e+00  0.007066401  0.004869217  62.69 0.0007050526    1.744    0.426
        62  -9.4820    248.8225    223.7206   2.9026725500e+02   3.7456183792e+00   0.01617007  0.008714188 -41.45  0.001480964    2.037    0.509
        63  -7.9464      3.4973    238.4454   2.9314603188e+02   4.9902327742e+00  0.006459175  0.006349619  87.66 0.0001346582    1.026    0.025
        64  -7.7098    167.9503    224.9586   2.9119395993e+02   4.1990084336e+00  0.007666696  0.007616843 -20.00 0.0004758266    1.022    0.022
        65  -8.3326    127.7663    224.6460   2.9164934957e+02   4.4346385590e+00    0.0101042  0.008293595  -9.12 0.0007854396    1.374    0.272
        66  -7.3423     89.3645    224.6837   2.9208674515e+02   4.6556337696e+00  0.007119329  0.004824917  61.17 0.0006976722    1.770    0.435
        67  -9.4697      7.7322    221.1721   2.9299572657e+02   5.1658038399e+00   0.02778652  0.009272494 -55.55  0.002151558    2.678    0.627
        68  -7.6829    218.4949    223.5591   2.9061089473e+02   3.9229752810e+00  0.006461112  0.006352869 -49.34 0.0004947653    1.010    0.010
        69  -7.7579    175.3083    221.3311   2.9108870447e+02   4.1984302679e+00  0.006974489  0.004831647 -30.60 0.0003181691    1.665    0.400
        70  -7.8542    147.5354    221.4825   2.9140558334e+02   4.3571119302e+00  0.006522431  0.006318187 -47.16 4.895523e-05    1.021    0.021
        71  -7.9946    242.5191    219.9835   2.9031661715e+02   3.8252739900e+00   0.00946271  0.004740064 -40.49 0.0007499412    2.290    0.563
        72  -7.8064    140.8528    219.1342   2.9146768674e+02   4.4228481104e+00   0.00939835  0.007516533 -31.20 0.0007109007    1.347    0.258
        73  -8.0119    152.1656    227.6124   2.9138930047e+02   4.2594966275e+00  0.009020334  0.006358244   9.32 0.0006136713    1.641    0.391
        74  -7.6966    171.4396    217.4791   2.9110981980e+02   4.2653182938e+00  0.006544838  0.006262694 -44.40 3.541125e-05    1.037    0.036
        75  -7.9041    151.2532    216.5276   2.9133384569e+02   4.3929351277e+00  0.008665713  0.006489085   7.97 0.0002931913    1.515    0.340
        76  -9.7255     36.5391    214.7967   2.9262983143e+02   5.0740738548e+00   0.01900611  0.009853431 -88.55  0.001419182    3.431    0.709
        77  -8.7296     32.6385    215.8464   2.9268048152e+02   5.0843524296e+00  0.009469464  0.006199504 -78.28 0.0009411901    1.741    0.426
        78  -9.0486    248.7203    215.0417   2.9021674801e+02   3.8464648148e+00  0.009209784  0.008553177 -55.24 0.0004900205    1.053    0.050
        79  -7.8146    204.5303    215.4876   2.9072163178e+02   4.0970287690e+00  0.006548022  0.006297872 -42.79 0.0001552291    1.034    0.033
        80  -7.6118    144.2919    215.3088   2.9140582723e+02   4.4472281865e+00  0.006780338  0.004857253 -30.66 0.0002716047    1.583    0.368
        81  -8.2415    187.5401    209.8895   2.9088154944e+02   4.2599870762e+00   0.01584027  0.008974886 -32.50 0.0008483739    2.251    0.556
        82  -7.6070    180.6569    211.6819   2.9097050400e+02   4.2790616908e+00  0.007039368  0.004861845 -27.66  0.000556919    1.718    0.418
        83  -8.4064    170.7575    210.6539   2.9107700986e+02   4.3481646488e+00   0.01013032  0.008304824  -7.42  0.000802503    1.377    0.274
        84  -7.6797     78.4617    209.4340   2.9212050039e+02   4.8948560212e+00  0.006465233  0.006316636  79.15  7.42565e-05    1.038    0.037
        85  -7.8224    147.2595    208.3579   2.9133075988e+02   4.5104667175e+00  0.006913782  0.004709039 -35.78 0.0002128839    1.622    0.383
        86  -7.5642    163.3371    207.3051   2.9114153375e+02   4.4297617724e+00  0.006940192   0.00488774 -27.11 0.0007040071    1.672    0.402
        87  -8.7346     11.7036    205.8421   2.9285981514e+02   5.3203924512e+00   0.01671593    0.0085364 -60.83  0.001547045    1.879    0.468
        88  -8.3716    247.8777    205.8945   2.9017185035e+02   3.9570080603e+00   0.01058962  0.008632378 -35.48 0.0009075282    1.284    0.221
        89  -7.7775    140.1950    204.6453   2.9138911419e+02   4.5941924945e+00  0.008851123  0.006276877  11.82 0.0003757337    1.596    0.373
        90  -7.7719      4.6699    204.3174   2.9293095086e+02   5.3784188553e+00  0.006949065   0.00489393  62.96 0.0004915232    1.684    0.406
        91  -8.9032    250.4547    198.1515   2.9009645094e+02   4.0315267764e+00   0.02006796  0.006039094 -56.30  0.001480917    2.917    0.657
        92  -8.6215    243.4966    197.8724   2.9017384900e+02   4.0750482372e+00   0.01589344  0.005196628 -55.56  0.001208081    2.727    0.633
        93  -8.6773    230.7067    197.8848   2.9031927882e+02   4.1489626199e+00   0.01223235  0.009047391  -1.88 0.0006616944    1.621    0.383
        94  -8.1387    150.9740    198.3066   2.9122874741e+02   4.6052333756e+00  0.009241162  0.008240531  18.74 0.0005061459    1.159    0.138
        95  -8.1671    191.6116    196.2036   2.9075382095e+02   4.3946339887e+00  0.009845383   0.00559354 -51.21  0.000476251    1.702    0.412
        96  -8.0173    202.9935    195.0090   2.9061725097e+02   4.3425948585e+00   0.01113761  0.007525163 -27.41 0.0007831812    1.786    0.440
        97  -8.5921    243.4391    187.7239   2.9011404308e+02   4.1926172494e+00   0.01817887   0.00749979 -49.24  0.001426507    2.372    0.578
        98  -7.6917    237.2697    192.0089   2.9020968688e+02   4.1788463074e+00  0.008505738  0.005640616 -62.29 0.0006378843    1.474    0.322
        99  -7.9296    173.0135    188.0157   2.9091670728e+02   4.5968347945e+00   0.01058358  0.007504839 -28.95 0.0006332432    1.630    0.387
       100  -7.1639    215.2978    186.3043   2.9042549609e+02   4.3719771506e+00  0.006776462  0.004872863 -29.78 0.0002681194    1.585    0.369
       101  -8.3868    238.0807    184.9234   2.9015825596e+02   4.2560061374e+00   0.01095703  0.007427201 -32.43  0.001118309    1.691    0.409
       102  -8.8162    230.3140    184.9097   2.9024645867e+02   4.3011464376e+00   0.01155112  0.009564904  10.36 0.0003465856    1.302    0.232
       103  -8.7897    249.9566    182.4961   2.9000882516e+02   4.2152479570e+00    0.0132454  0.008958381 -36.60  0.000882298    1.624    0.384
       104  -7.7042    211.6894    181.6563   2.9043884938e+02   4.4465764450e+00   0.00705098  0.004807189 -30.97 0.0003417712    1.701    0.412
       105  -8.1938    182.7126    180.0125   2.9075870626e+02   4.6332567520e+00  0.009469398  0.008311302 -56.24 0.0004623862    1.111    0.100
       106  -8.2118    242.0000    177.4541   2.9006919768e+02   4.3195879239e+00   0.01460688  0.003674391 -62.76  0.000929805    3.895    0.743
       107  -7.6263    190.0082    176.2242   2.9065313773e+02   4.6348358662e+00  0.008529488  0.005425252  26.66 0.0005361717    1.607    0.378
       108  -8.4878    175.8395    172.8532   2.9079430700e+02   4.7557674515e+00  0.009311127  0.007710758  69.73 0.0009854637    1.337    0.252
       109  -7.7326    193.2925    170.3824   2.9058097866e+02   4.6833480677e+00  0.007165059  0.004703314 -33.44 0.0007017561    1.753    0.430
       110  -9.7205    246.1849    167.1536   2.8996022745e+02   4.4143214872e+00   0.01422286   0.01143791  16.01  0.000459205    1.322    0.244
       111  -7.7518    237.4611    167.4587   2.9006121002e+02   4.4613509152e+00  0.006626057  0.006186251 -35.19 0.0002224408    1.084    0.077
       112  -8.9773     68.8369    145.0826   2.9184822936e+02   5.6946806518e+00   0.01056843   0.00901936  70.02   0.00124019    1.275    0.216
       113  -8.1096    132.0000    138.9969   2.9109200889e+02   5.4005999472e+00   0.01077174   0.00367511 -62.84 0.0005820628    2.872    0.652
       114  -8.1049    248.2968    134.5643   2.8974180834e+02   4.7784603835e+00   0.01218064  0.005745409 -61.65  0.001071796    2.050    0.512
       115  -7.9172    241.5995    132.2323   2.8980403524e+02   4.8442349539e+00  0.009826898  0.005643143 -51.22 0.0009499197    1.684    0.406
       116  -8.5577    239.0984    124.0050   2.8978336783e+02   4.9537504194e+00   0.01500085  0.007540484 -46.05  0.001344223    2.040    0.510
       117  -8.1496    247.7434    117.2452   2.8964470493e+02   4.9816534679e+00   0.01133581  0.006929357 -28.38    0.0010542    2.106    0.525
       118  -8.7801    134.6339    110.7403   2.9089367624e+02   5.7119926530e+00   0.01206782  0.005919503 -62.26  0.001080618    1.985    0.496
       119  -8.4909    134.3138    106.9488   2.9087472762e+02   5.7576603236e+00   0.01078073  0.008878541 -27.95  0.001068588    1.312    0.238
       120  -8.0655    249.4981    107.0085   2.8956361491e+02   5.0896538447e+00   0.01031451  0.004474547 -42.33  0.000810591    2.660    0.624
       121  -8.8520      5.0923    106.5026   2.9234640156e+02   6.5075428529e+00  0.009643016  0.006489077  26.76 0.0004245696    1.517    0.341
       122  -8.0784    241.9880    105.5003   2.8964000911e+02   5.1506514197e+00   0.00932404    0.0056515  -9.39  0.000809963    2.496    0.599
       123  -7.6405    109.6984     99.3452   2.9111007942e+02   5.9877721058e+00  0.006910123   0.00494532  66.91 0.0006844086    1.683    0.406
       124  -8.2080    248.9999     96.0287   2.8950368327e+02   5.2192930555e+00   0.01093754  0.007581478 -31.95  0.001132535    1.645    0.392
       125  -8.0462     22.6936     91.9142   2.9205875356e+02   6.5750700390e+00  0.009146853   0.00828408 -65.79  0.000368346    1.088    0.081
       126  -8.2592    248.6275     91.6741   2.8948189674e+02   5.2717181919e+00  0.007187964  0.004824899 -26.70 0.0002285541    1.820    0.451
       127  -8.0995    212.4966     84.8956   2.8985248423e+02   5.5596445658e+00  0.009839126  0.006365682 -62.72 0.0005528493    1.515    0.340
       128  -8.8503      2.7524     80.9870   2.9222153254e+02   6.8159668553e+00  0.009278776  0.008491186 -64.13 0.0004278908    1.074    0.069
       129  -8.6215    184.2693     77.5415   2.9012999396e+02   5.8082176493e+00   0.01233242  0.008772825 -59.81 0.0007843375    1.364    0.267
       130  -7.7697    167.7135     74.6862   2.9030157528e+02   5.9371093105e+00  0.006783528  0.004843083 -31.35 0.0003295517    1.582    0.368
       131  -8.1942     36.3549     67.8295   2.9175946194e+02   6.7748580952e+00    0.0098531  0.005523756 -52.26  0.000804416    1.712    0.416
       132  -8.4423      1.4111     59.2611   2.9210767026e+02   7.0747492563e+00  0.009006474   0.00632063 -78.66 0.0005113525    1.585    0.369
       133  -9.0618     33.0187     57.5681   2.9173647395e+02   6.9126197879e+00    0.0112705  0.009327801 -62.86 0.0002323209    1.185    0.156
       134  -8.6670     95.0129     52.6936   2.9099949556e+02   6.6115749394e+00   0.01074532  0.008892945 -86.10 0.0005711758    1.305    0.234
       135  -8.4416     44.4255     51.7812   2.9157170410e+02   6.9138164159e+00   0.01166987   0.00886228  26.62 0.0006494469    1.344    0.256
       136  -7.9817     19.3586     51.6905   2.9185754171e+02   7.0590917865e+00  0.007050535  0.004836047  60.94 0.0007041977    1.736    0.424
       137  -8.3267    247.7112     49.3552   2.8923927277e+02   5.7653399250e+00  0.008905613  0.006282108  12.63 0.0006101581    1.602    0.376
       138  -9.1892     95.5709     45.6877   2.9095132443e+02   6.6892622317e+00   0.01693752  0.009820636  42.69   0.00109815    1.781    0.439
       139  -7.6469     74.4416     45.4863   2.9119136263e+02   6.8135364384e+00  0.006557766  0.006244201 -42.32 0.0001200873    1.045    0.043
       140  -8.0576     54.4702     44.4377   2.9141320207e+02   6.9407832917e+00  0.006437615  0.006348574 -58.17 8.186129e-05    1.006    0.006
       141  -8.7552      4.2649     44.5672   2.9198762210e+02   7.2281160801e+00    0.0132715  0.005957677  32.18  0.001156822    2.165    0.538
       142  -7.4763    115.7338     43.7005   2.9070933560e+02   6.5957089879e+00  0.006613372  0.004824906 -32.47 0.0001997771    1.519    0.342
       143  -8.0062    248.3346     41.3123   2.8918405357e+02   5.8544814321e+00  0.006960618  0.004877851 -27.59 0.0007045057    1.683    0.406
       144  -8.8003     21.1281     40.1962   2.9176887318e+02   7.1816904011e+00    0.0107011  0.009114729 -62.68 0.0004120838    1.151    0.131
       145  -7.8559     77.0780     40.0402   2.9112877100e+02   6.8612210749e+00  0.007750887  0.007438778  20.58 0.0004472689    1.065    0.061
       146  -9.3813    202.0970     38.3183   2.8969248602e+02   6.1575643666e+00   0.02101149   0.01147024  65.55  0.001706793    2.927    0.658
       147  -9.6097     52.0391     38.4147   2.9140506672e+02   7.0243493236e+00   0.01238212  0.009145837 -57.09  0.001370284    1.309    0.236
       148  -9.0348    230.1784     37.1201   2.8936556976e+02   6.0083344535e+00   0.01521683    0.0130656 -72.32  0.001815127    1.177    0.150
       149  -8.6138     95.0640     33.6722   2.9088539850e+02   6.8309275765e+00   0.01199918  0.008179651 -44.76 0.0003546152    1.486    0.327
       150  -8.4624     73.1833     36.6508   2.9115302918e+02   6.9228279675e+00   0.01503318  0.007868136 -81.15  0.001228661    2.735    0.634
       151  -8.0223    248.9338     35.5685   2.8914286127e+02   5.9172361690e+00   0.00968207  0.006481314  24.59 0.0006349977    1.548    0.354
       152  -7.4666    124.7152     34.6876   2.9055302164e+02   6.6478273611e+00  0.006766484  0.004839773 -31.42 0.0003714096    1.576    0.366
       153  -8.4065      3.4357     34.4705   2.9193699101e+02   7.3494952433e+00  0.006466451  0.006309599 -77.50 -4.377655e-05    1.024    0.024
       154  -9.3040      9.2513     32.6445   2.9185963854e+02   7.3371738920e+00   0.01382955  0.008046655 -79.31  0.001266641    2.136    0.532
       155  -9.2482     21.5619     31.4400   2.9171175106e+02   7.2803178149e+00   0.01628819   0.01099141  89.36  0.001170422    1.872    0.466
       156  -8.6045     90.1963    249.5980   2.9222489751e+02   4.3626470306e+00  0.009074439   0.00639085   8.88 0.0009419748    1.648    0.393
       157  -9.1365      9.7847     27.3953   2.9182227343e+02   7.3947236490e+00    0.0119146   0.00690651  19.29 0.0006353808    1.914    0.478
       158  -8.7809    210.0487     29.5195   2.8954927910e+02   6.2129105391e+00   0.01005157  0.006447307  28.29 0.0007442263    1.579    0.367
       159  -8.0035     52.9930    250.0000   2.9265075405e+02   4.5721503655e+00    0.0103969  0.003748387  26.86 0.0004447665    2.831    0.647
       160  -8.7985     91.4229     24.9947   2.9087516606e+02   6.9521295618e+00   0.01124506   0.00945534  15.79 0.0004545744    1.251    0.201
       161  -8.9925     84.7645     21.6201   2.9093105671e+02   7.0295264151e+00   0.01150673   0.01012622 -70.18 0.0004629752    1.136    0.120
       162  -7.6552     59.5242     22.5610   2.9122499438e+02   7.1642665550e+00  0.006448081  0.006341499 -50.00  0.000148836    1.009    0.009
       163  -7.8778    242.9346     26.5301   2.8915701438e+02   6.0563283477e+00   0.00979178  0.006491497  26.48 0.0005504467    1.544    0.352
       164 -10.2393    157.2610    245.7272   2.9143887960e+02   4.0206292082e+00   0.02595181   0.01391826 -37.26  0.001721302    2.232    0.552
       165  -8.3165    161.8338     18.8337   2.9003483553e+02   6.6158712860e+00   0.01034981  0.008682663 -23.68 0.0009319226    1.296    0.229
       166  -7.8838     15.8579     19.1082   2.9170346464e+02   7.4554998184e+00  0.009204518  0.007443892 -31.00 0.0004313578    1.325    0.245
       167  -7.5201    217.2813     17.6772   2.8939603915e+02   6.3074808382e+00  0.006694068   0.00496818  67.94 0.0001733552    1.590    0.371
       168  -7.5473    151.7151     17.7242   2.9014360437e+02   6.6873018530e+00   0.00653777  0.004889597 -28.41 0.0002381014    1.509    0.337
       169  -9.0690     75.0350     16.6407   2.9101245826e+02   7.1431530216e+00   0.01067213  0.009152902 -88.75 0.0005857581    1.248    0.199
       170  -9.2680    229.2962     15.8225   2.8924813439e+02   6.2590541381e+00   0.02012176  0.007741337  36.41  0.001222857    2.490    0.598
       171  -8.3252    189.1218     15.2132   2.8970208997e+02   6.4993866407e+00   0.01034011   0.00874884 -33.34 0.0009593419    1.236    0.191
       172  -9.1935    235.6343     13.8601   2.8916423667e+02   6.2448377438e+00   0.01306735  0.009024062  36.72 0.0008453451    1.452    0.311
       173  -8.4762    146.1510     14.2128   2.9018607817e+02   6.7600422169e+00  0.009611127  0.008481036 -27.72 0.0003797299    1.189    0.159
       174  -8.9661    234.6686    247.6720   2.9057052694e+02   3.5508229614e+00  0.007048195  0.004842435 -28.88 0.0007051528    1.714    0.416
       175  -8.2814    151.0395     12.6562   2.9012100197e+02   6.7496832397e+00  0.008997079  0.008199695  19.09 0.0003669188    1.130    0.115
       176  -7.4542     15.7120     10.7003   2.9165501340e+02   7.5533955639e+00  0.006701924  0.004853402 -30.36 0.0001912823    1.558    0.358
       177  -8.4498    226.1137    250.5063   2.9068456333e+02   3.5675496536e+00  0.009608435  0.006518818  25.72 0.0006777999    1.514    0.339
       178  -7.9168     63.9771    247.4778   2.9251078985e+02   4.5381343778e+00    0.0101895  0.006461744  27.62  0.001035525    1.601    0.376
       179  -8.2990     36.2847    247.4603   2.9282595516e+02   4.6976046609e+00  0.009108302  0.005957074  40.33 0.0008047984    1.550    0.355
       180  -8.2070     22.9587    248.0000   2.9298086788e+02   4.7679329709e+00   0.01060842   0.00374773  26.84  0.000794774    2.890    0.654
       181  -8.7392     14.5007    247.4844   2.9307412403e+02   4.8224752943e+00  0.006484187  0.006361502 -80.81 -7.773032e-05    1.020    0.019
       182  -9.9805    211.9978    246.0368   2.9081839099e+02   3.7008071116e+00   0.02110629   0.01116893 -32.51  0.001791439    2.553    0.608
       183  -9.2173    171.8255    245.6217   2.9127261297e+02   3.9377439031e+00   0.01388702  0.008371441   9.90 0.0009320748    2.083    0.520
       184  -9.3754    164.7660    246.0789   2.9135561011e+02   3.9732296998e+00   0.01203889  0.009629377  11.06 0.0003928382    1.360    0.264
       185  -7.9369    136.4251    245.8163   2.9167642790e+02   4.1398589178e+00  0.009327206  0.005682283 -49.45 0.0003095866    1.610    0.379
       186  -8.7533    103.8306    246.3822   2.9205067386e+02   4.3212818850e+00  0.009216982  0.006333499   8.73 0.0004672408    1.713    0.416
       187  -8.3809    206.5701    245.2413   2.9087534956e+02   3.7413767475e+00  0.009476578  0.005746495 -50.59 0.0005558144    1.604    0.377
       188  -8.2294    187.1619    245.0179   2.9109464362e+02   3.8561263401e+00   0.01142282  0.006589668 -39.14   0.00107094    1.941    0.485
       189  -9.0924    201.7845    249.2616   2.9095362981e+02   3.7225776200e+00   0.01895934   0.01137599 -10.62  0.001663836    2.552    0.608
       190  -8.1114     45.0655    244.4549   2.9270821076e+02   4.6818962724e+00  0.009515256  0.006463782  26.86 0.0003837328    1.502    0.334
       191 -10.0021    248.7141    233.7939   2.9032843594e+02   3.6298860753e+00   0.01449133  0.008058979 -49.87  0.001063848    1.754    0.430
       192  -8.0745      5.5339    243.4519   2.9315240840e+02   4.9206131521e+00  0.006533968  0.006267185 -39.63 3.148153e-05    1.043    0.041
       193  -8.8355    169.2686    241.7560   2.9127873649e+02   3.9972020716e+00   0.01299636  0.009224688  11.93  0.001080283    1.592    0.372
