#   1 NUMBER                 Running object number                                     
#   2 MAG_AUTO               Kron-like elliptical aperture magnitude                    [mag]
#   3 X_IMAGE                Object position along x                                    [pixel]
#   4 Y_IMAGE                Object position along y                                    [pixel]
#   5 X_WORLD                Barycenter position along world x axis                     [deg]
#   6 Y_WORLD                Barycenter position along world y axis                     [deg]
#   7 A_WORLD                Profile RMS along major axis (world units)                 [deg]
#   8 B_WORLD                Profile RMS along minor axis (world units)                 [deg]
#   9 THETA_WORLD            Position angle (CCW/world-x)                               [deg]
#  10 FWHM_WORLD             FWHM assuming a gaussian core                              [deg]
#  11 ELONGATION             A_IMAGE/B_IMAGE                                           
#  12 ELLIPTICITY            1 - B_IMAGE/A_IMAGE                                       
         1 -13.2866     35.6883     55.4859   8.6396634394e+01   6.2496908797e+01     1.177722    0.8756415  51.15  0.005919125    2.005    0.501
         2 -12.7953    215.9930     11.6866   3.0295274377e+01   3.0899272842e+01    0.2938613    0.2661648  -2.71 0.0007813081    1.646    0.392
         3 -12.1533    199.8585     11.3392   3.1585865715e+01   3.4391941892e+01    0.5808623    0.2763659 -56.41  0.002999427    2.017    0.504
         4 -12.9031     65.2575     10.4951   5.5556362017e+01   6.4578286766e+01    0.3768328     0.220634  38.74  0.001191944    1.428    0.299
         5 -11.9997     36.6388     11.1044   6.7405390484e+01   6.9356454057e+01     0.206595    0.1548245  19.63 0.0002488407    1.108    0.098
         6 -11.4797    127.8399      5.6748   3.8777894322e+01   5.1464822065e+01     0.323801    0.1651044  56.58  0.001081144    1.619    0.382
         7 -10.7946    189.4769      3.7902   3.0809356107e+01   3.7433074317e+01    0.1670631    0.1435539  72.42  0.000942759    1.220    0.180
         8 -10.9826     64.3786      1.4459   5.1760400447e+01   6.5550197003e+01    0.2945315    0.1056035  55.92  0.001303479    2.591    0.614
         9 -10.9136     10.6285    231.7761   1.2074039359e+02   2.2690731857e+01    0.1980637    0.1564163   6.83   0.00131052    1.894    0.472
        10 -11.1489     70.1975    248.9269   1.0982567354e+02   1.2357662945e+01     0.349016    0.2463083   0.86 0.0009866179    2.310    0.567
        11 -10.6766     50.1180    226.9480   1.1214661865e+02   1.9479521090e+01    0.2947995    0.1419572  62.95  0.001348182    2.269    0.559
        12 -11.3836    149.4751    223.6491   8.9139345220e+01   5.8067141546e+00    0.2895401    0.2188934  72.48  0.001471887    2.002    0.501
        13 -10.8307     35.9752    223.1369   1.1490992586e+02   2.1957055405e+01    0.2239135    0.1580252 -87.85 0.0009292451    1.304    0.233
        14 -10.7597     26.1845    220.3638   1.1681017183e+02   2.3625058271e+01    0.1961525    0.1462434 -73.93 0.0003081931    1.313    0.238
        15  -9.9184     97.6966    220.6793   1.0061806168e+02   1.4439633596e+01    0.1328674     0.105972 -17.52 0.0006409728    1.631    0.387
        16 -11.1297    179.9295    217.2458   8.1412978958e+01   2.2495105822e+00    0.3052346    0.2005563 -45.10 0.0008914669    1.623    0.384
        17 -11.8147    239.2250    215.6815   6.9569396354e+01  -5.9052256951e+00    0.3741951    0.2160656 -51.60  0.001855463    2.658    0.624
        18 -11.8950    234.5112    210.5032   6.9474795097e+01  -4.4858145579e+00    0.3949228    0.3580244 -18.23  0.002702489    1.310    0.237
        19  -9.9791    111.6680    216.3337   9.6735481467e+01   1.3265413465e+01    0.1467271    0.1023043  64.58 0.0007052216    1.730    0.422
        20 -10.1260    156.2528    212.3679   8.5753380783e+01   6.9437642198e+00    0.1918174    0.1227264  40.35 0.0009296815    1.534    0.348
        21 -10.9863     86.6010    207.4428   1.0151953832e+02   1.9049254208e+01    0.3796296    0.2485207 -42.29  0.001849842    1.813    0.448
        22 -10.6866     18.4720    203.3359   1.1725248305e+02   2.8283850149e+01    0.3071395    0.1227719  58.10  0.001339298    2.554    0.609
        23 -10.1392      2.5842    203.2783   1.2075537355e+02   2.9709437932e+01    0.1606496   0.09505024 -71.88 0.0004876312    1.511    0.338
        24 -10.1274    124.0026    197.9715   9.0890536577e+01   1.5352407811e+01    0.2349046    0.1747053  67.53  0.001122935    1.696    0.410
        25 -10.5416    133.3338    195.4347   8.8174470982e+01   1.4348932739e+01    0.2761269    0.1859056 -56.44 0.0009919057    1.598    0.374
        26 -11.4141    162.1978    194.0630   8.1111148075e+01   9.6830471277e+00    0.5172089    0.2830369  49.84  0.002139371    2.250    0.555
        27 -10.5511     67.7625    189.8459   1.0389547693e+02   2.5918424642e+01    0.2374023    0.1981644  13.00  0.001016205    1.432    0.302
        28 -10.5135    230.0226    193.1686   6.7056038196e+01  -1.0195436293e+00     0.191582    0.1617798  73.97  0.001095921    2.098    0.523
        29  -9.7458     34.6663    187.6917   1.1204743486e+02   3.0425837143e+01    0.1314962    0.0960295 -41.25 0.0007041658    1.671    0.402
        30 -12.3944     44.4701    181.2964   1.0885770613e+02   3.0946965099e+01    0.4519348    0.2311947 -82.32  0.001966275    2.085    0.520
        31 -10.8350    191.9068    177.3425   7.1308474329e+01   7.9361962691e+00    0.3504846    0.1861015 -50.65  0.001481245    2.073    0.518
        32 -11.4582     37.4360    176.9047   1.1018905554e+02   3.2824976625e+01    0.3913119    0.1535514 -62.92  0.001385347    2.201    0.546
        33 -12.0560     34.1153    173.0124   1.1062517971e+02   3.4155157827e+01    0.3553998    0.1835137  80.61   0.00149884    2.373    0.579
        34 -10.3291    129.3814    177.1955   8.5794358738e+01   1.9217181994e+01    0.2189943    0.1458814 -64.49 0.0007790251    1.758    0.431
        35 -10.4631    159.4824    175.4891   7.8095532080e+01   1.4131048453e+01    0.2662452    0.1451539 -58.01  0.001030065    2.296    0.564
        36 -10.2877    100.9898    175.9795   9.2983960901e+01   2.4394925617e+01    0.2061794    0.2026611  72.59            0    1.008    0.008
        37 -11.5344     11.9708    172.4678   1.1631296517e+02   3.6313663408e+01    0.4877906    0.1703831 -71.85  0.001833798    2.336    0.572
        38 -10.3993    175.6851    171.4791   7.3576670261e+01   1.2021384748e+01    0.2758411     0.130733 -44.32    0.0010857    2.029    0.507
        39 -11.6980     44.7294    171.3961   1.0758732195e+02   3.3427739867e+01     0.270303    0.1635565 -84.27  0.001273191    1.695    0.410
        40 -10.8436    121.2485    169.2499   8.6345322337e+01   2.2562700206e+01    0.2469935     0.131621 -65.19 0.0008956993    2.442    0.591
        41 -13.5680     49.8630    164.4394   1.0524716270e+02   3.4626248022e+01    0.4499258    0.3594892  28.15 0.0008675488    1.385    0.278
        42 -10.1979     55.4851    159.5100   1.0293157029e+02   3.5227088059e+01     0.229511    0.1425782  30.49 0.0009955722    1.723    0.420
        43 -10.9154     99.6766    163.9069   9.1132132894e+01   2.7624745480e+01    0.3845648    0.2467986 -39.81  0.001667136    1.707    0.414
        44 -11.0858     79.1491    162.6986   9.6676463360e+01   3.1177684772e+01    0.4735176    0.2434761 -85.13   0.00149301    3.727    0.732
        45 -11.0028     93.7333    160.8789   9.2218535877e+01   2.9370526048e+01    0.3078012    0.1875342  58.87  0.001242424    2.088    0.521
        46 -11.3704     31.4901    160.0122   1.0981806065e+02   3.7737822815e+01    0.3306698    0.1280387 -78.28  0.001218476    2.768    0.639
        47 -12.1329    119.1392    157.5702   8.4532059685e+01   2.5784113300e+01    0.7077471    0.3458977  30.61  0.002281129    2.315    0.568
        48 -10.2874     22.6539    151.3331   1.1127168857e+02   4.0774205614e+01    0.1444129   0.09047298  66.52 0.0002524207    1.766    0.434
        49 -10.3934    242.6693    150.6807   5.6525078991e+01   4.4366519380e+00      0.13374   0.09400333 -11.16 0.0007048172    1.690    0.408
        50 -10.6290    189.4729    148.9371   6.5752537574e+01   1.4117594935e+01    0.3845016    0.1256509 -52.13  0.001042987    4.499    0.778
        51 -10.7629    148.4866    144.9942   7.4119833548e+01   2.3097145110e+01    0.2238114    0.1393193 -70.00 0.0008103058    2.549    0.608
        52 -10.7861     55.3851    145.2186   1.0066296405e+02   3.8964705574e+01    0.2147613    0.1324564 -76.97 0.0007769144    1.735    0.424
        53 -11.7985    109.6481    147.5402   8.5010556960e+01   2.9989852495e+01    0.9254417    0.4685103  64.02  0.002424125    5.196    0.808
        54 -10.4746     19.8028    138.8517   1.1056588061e+02   4.4214028627e+01     0.185711    0.1459254  75.49 0.0008323336    1.321    0.243
        55 -11.2389      1.3854    136.3050   1.1575998920e+02   4.6118323123e+01    0.2377928    0.1038069 -75.06 0.0001900265    1.877    0.467
        56 -11.1265     82.8890    131.6137   8.9458010102e+01   3.8593285476e+01     0.320301    0.2087803 -75.37  0.001332809    1.954    0.488
        57 -10.4219    143.3257    131.6709   7.2246069295e+01   2.7189956271e+01    0.1610345    0.1272845 -89.91 0.0004437999    1.702    0.412
        58 -11.7887     97.8472    126.6863   8.3710066082e+01   3.7293326638e+01    0.4851591    0.3390678 -78.44 0.0009502263    1.968    0.492
        59 -10.3098    117.3168    125.6318   7.7727076176e+01   3.3881905542e+01    0.1645117    0.1271376  87.81 0.0007037134    1.781    0.439
        60 -11.1061     58.8217    123.8490   9.5544290406e+01   4.4063872985e+01    0.3975834    0.2240275 -77.91  0.001557458    2.410    0.585
        61 -11.6380     43.4422    123.3340   1.0057186843e+02   4.6019545046e+01    0.4948523    0.2896123  68.42  0.002020557    2.641    0.621
        62 -10.7067    189.1665    124.1502   6.0130056527e+01   1.9198228757e+01    0.2183469    0.2002476 -13.58 0.0006143894    1.153    0.133
        63 -11.0074     28.4958    122.9953   1.0549832272e+02   4.7560887589e+01    0.2000422    0.1103179  84.26 0.0008106567    2.592    0.614
        64 -10.6311    158.3233    120.6604   6.5874781989e+01   2.6445688172e+01    0.1601522    0.1239342 -81.91 0.0007050911    1.722    0.419
        65 -11.1326    108.5041    113.1358   7.7084629481e+01   3.8550291375e+01    0.5946553    0.2877697 -64.00  0.001790636    3.671    0.728
        66 -10.2899    185.5281    113.9615   5.8408755584e+01   2.1975206338e+01    0.2297025    0.1393056 -40.98 0.0005847308    1.545    0.353
        67 -11.6454     92.0764    112.0845   8.1865630935e+01   4.1865459428e+01    0.6391655    0.2639489 -59.17  0.002030612    3.134    0.681
        68 -11.7033     13.7834    110.0126   1.0840430645e+02   5.1957889786e+01    0.4838367    0.2541215  89.79  0.002117633    2.456    0.593
        69 -12.3544    120.7374    107.5233   7.2039881500e+01   3.7356903491e+01    0.5886484    0.3571767  60.29  0.001504197    2.209    0.547
        70 -11.7181    140.7318    105.2848   6.6118977505e+01   3.3551057641e+01    0.4481417    0.3148941 -87.77  0.001799279    2.298    0.565
        71 -11.8887    150.0136    102.6597   6.3155160244e+01   3.2038755653e+01    0.5958784    0.2110859 -48.70  0.001863301    3.088    0.676
        72 -11.5457     45.4287    102.5893   9.5575144659e+01   5.1002243522e+01    0.4796694    0.2698963  68.06  0.001679105    3.910    0.744
        73 -11.3436      7.0557    102.6707   1.0962075044e+02   5.4174601102e+01    0.4524556    0.2154237 -81.43  0.002010092    2.310    0.567
        74 -11.6337    128.7005    102.1312   6.8374470124e+01   3.6841588494e+01    0.4823846    0.2181914 -55.73  0.001567241    3.001    0.667
        75 -12.8151    110.6948     99.5202   7.2710894529e+01   4.1185486446e+01     1.062886     0.683098  79.32  0.003638189    3.397    0.706
        76 -11.2787     78.6472    112.6621   8.6378138272e+01   4.3995096024e+01    0.5529637      0.31152 -75.66  0.001883163    3.251    0.692
        77 -12.0799     63.7866    101.4893   8.8663431943e+01   4.8934684171e+01    0.3375086    0.2803436 -50.50 0.0003303945    1.140    0.123
        78 -11.1156     34.4808     89.4573   9.6645434686e+01   5.5292592679e+01    0.3932995    0.1355948 -63.94  0.001370916    3.201    0.688
        79 -10.9503     86.1121     86.2676   7.6594119591e+01   4.8781300126e+01     0.388532    0.2477074 -76.92  0.001384524    3.405    0.706
        80 -10.1926     79.5297     87.5845   7.9242139162e+01   4.9653947275e+01    0.1469642    0.1368039 -11.51 -3.261993e-05    1.013    0.013
        81  -9.8451    193.8230     85.3612   4.9929353928e+01   2.5471206234e+01    0.1825138    0.1289423  46.61 -0.000275831    1.583    0.368
        82 -11.4893    104.4433     83.2286   6.9786867099e+01   4.5877099870e+01    0.3872871    0.2155289 -61.03  0.001406476    2.844    0.648
        83 -10.3783    203.7395     75.5213   4.6015823720e+01   2.4956388754e+01    0.2199258    0.1298545  55.57  0.001065584    1.794    0.442
        84 -10.5770    157.7464     76.3332   5.4245584122e+01   3.5256447234e+01    0.2801761    0.1713799 -49.22  0.001251133    1.687    0.407
        85 -10.4736     62.8002     75.1968   8.1561149606e+01   5.4976468803e+01    0.2273024    0.1615976  78.09 0.0009578773    2.874    0.652
        86 -11.6463     81.7440     72.1092   7.3638377183e+01   5.2458322198e+01    0.4915219    0.2723992 -60.60  0.001857179    2.995    0.666
        87 -10.2507    105.3333     70.9980   6.5674088680e+01   4.8040805126e+01     0.240325    0.1135827 -58.16 0.0007052178    4.401    0.773
        88 -11.7020     44.4191     64.4867   8.5554912569e+01   5.9688326413e+01     0.574639    0.1793311 -44.61  0.002151081    2.821    0.645
        89 -11.9441      7.3629     65.9429   1.0235351050e+02   6.2694238515e+01    0.3954875    0.2786834  26.84  0.002189257    1.694    0.410
        90 -11.8097     36.5249     62.5110   8.8329300574e+01   6.1009001818e+01    0.3975478    0.2390272 -55.04   0.00203481    1.736    0.424
        91 -10.5466      8.3198    249.6503   1.2209933310e+02   1.9251296348e+01    0.1253474   0.05943812  62.24 0.0007048355    1.739    0.425
        92 -12.3222     24.8036     58.3584   9.2304762394e+01   6.3025325915e+01     0.527589      0.40361 -76.52  0.003027948    1.897    0.473
        93 -12.7725     20.4040     52.0067   9.2375848793e+01   6.4682584428e+01     1.127615    0.5001611 -66.40  0.004246535    4.112    0.757
        94 -10.4208    105.5862     52.7691   5.9540617186e+01   5.1063689985e+01    0.1955534    0.1320133 -44.84 0.0007401641    1.651    0.394
        95 -13.3215      9.4522     49.4006   9.6912636038e+01   6.6022930588e+01    0.3561888     0.241317 -22.32 0.0008603958    1.286    0.223
        96  -9.4758     72.3102     47.2984   6.8268600639e+01   5.8558388192e+01    0.1391812   0.09744878   7.01 0.0002416815    1.598    0.374
        97 -11.3099    141.9755     40.9757   4.7170301538e+01   4.4385538023e+01    0.2282839    0.1621139 -73.70  0.001147637    1.734    0.423
        98 -10.0355     57.3243     41.6386   7.1857335830e+01   6.1997850557e+01    0.1201574    0.1084087 -89.13 0.0007041951    1.784    0.439
        99 -12.5017     75.0625     39.2799   6.4201184077e+01   5.9267601638e+01     0.309251    0.2418217  39.23 0.0007666365    1.221    0.181
       100 -11.2611     72.6658     31.7015   6.2026084290e+01   6.0760450680e+01    0.2442642    0.1995957 -80.35  0.001350681    2.092    0.522
       101 -11.5927      1.8645     28.8057   9.4095153403e+01   7.0385435013e+01    0.4002576    0.1230871 -49.72  0.001882718    2.510    0.602
       102  -9.7010    195.5653     29.4668   3.6172160498e+01   3.3308902663e+01    0.1247506     0.109289 -84.19            0    1.058    0.055
       103 -11.0401    178.8022     25.5041   3.7172282682e+01   3.7586497320e+01    0.2146323    0.1693425 -71.20 0.0003654683    1.187    0.158
       104  -9.9451    192.8197     21.6428   3.4632516300e+01   3.4834607501e+01    0.1655361    0.1027953  85.93 0.0002377021    1.512    0.339
       105 -10.4386     30.8306     20.6029   7.4815234697e+01   6.8932860774e+01     0.274058    0.1167157 -25.15  0.001241331    2.696    0.629
       106 -10.1496     41.9770     20.5208   6.9438574735e+01   6.7403325588e+01    0.1749121    0.1056032  32.62 0.0004289912    1.502    0.334
       107 -11.0572     90.6363     18.7917   5.1294672593e+01   5.8642910285e+01    0.2577918    0.1850763  64.71 0.0003551751    1.490    0.329
       108 -10.7473     37.9080     18.2591   7.0268479021e+01   6.8289990258e+01    0.2371746    0.1583823 -36.28  0.001223462    1.684    0.406
       109 -11.7955     25.5682    246.9130   1.1868999979e+02   1.8046615416e+01    0.2299026    0.1680205  69.36 0.0005016787    1.105    0.095
       110 -11.6500    210.3316    237.4268   7.8699514287e+01  -5.5053932838e+00    0.3018748    0.2581633  52.15  0.001917334    1.844    0.458
       111  -9.8733    135.5219     14.4051   4.0237343723e+01   4.8898703083e+01    0.1290339    0.1091906  66.32 5.081805e-05    1.020    0.019
       112 -12.2404     37.5286    243.8319   1.1612530379e+02   1.7362693980e+01    0.2822587    0.2577561  43.52  0.001114981    1.280    0.219
       113 -13.2801     19.4577    236.5324   1.1926535898e+02   2.0818229107e+01    0.4121629     0.201701  40.56 0.0009985617    1.769    0.435
       114 -10.7537     34.2234    236.6587   1.1629180664e+02   1.9224120525e+01     0.268554    0.1039888  43.20  0.001047953    2.102    0.524
       115 -12.5967     73.0914    228.7406   1.0721901977e+02   1.6162075462e+01     0.337204    0.2882092  85.11 0.0007098492    1.151    0.131
