#   1 NUMBER                 Running object number                                     
#   2 MAG_AUTO               Kron-like elliptical aperture magnitude                    [mag]
#   3 X_IMAGE                Object position along x                                    [pixel]
#   4 Y_IMAGE                Object position along y                                    [pixel]
#   5 X_WORLD                Barycenter position along world x axis                     [deg]
#   6 Y_WORLD                Barycenter position along world y axis                     [deg]
#   7 A_WORLD                Profile RMS along major axis (world units)                 [deg]
#   8 B_WORLD                Profile RMS along minor axis (world units)                 [deg]
#   9 THETA_WORLD            Position angle (CCW/world-x)                               [deg]
#  10 FWHM_WORLD             FWHM assuming a gaussian core                              [deg]
#  11 ELONGATION             A_IMAGE/B_IMAGE                                           
#  12 ELLIPTICITY            1 - B_IMAGE/A_IMAGE                                       
         1  -8.5609     55.8532     10.0579   3.9534411200e+01   6.8242167757e+01    0.1799937    0.1741324 -65.02 0.0005513971    1.337    0.252
         2  -8.3451     90.9029      8.7597   2.7630194935e+01   6.0560404477e+01    0.2492788    0.1584143 -55.32  0.001149319    2.041    0.510
         3  -7.8068     47.5091      9.5601   4.2917539254e+01   6.9919173776e+01    0.1268267    0.1106064  21.79 9.059713e-05    1.053    0.050
         4  -7.7848    101.2628      7.9376   2.4909765925e+01   5.8107030815e+01    0.1565565    0.1182116 -23.86 0.0004607564    1.484    0.326
         5  -7.6517     13.2943      8.6774   6.2941059136e+01   7.5233407767e+01    0.1012031   0.09709928  60.37 0.0005070049    1.616    0.381
         6  -8.2344      5.6044      7.8187   6.8398307087e+01   7.6143935470e+01    0.1475978    0.1064318 -53.69 0.0004878382    1.643    0.391
         7  -8.0279     70.4031      6.2212   3.2164015936e+01   6.5556530797e+01    0.1675136    0.1193462 -34.45 0.0005297915    1.593    0.372
         8  -8.5894     33.3740      4.7814   4.7284113487e+01   7.2997345521e+01    0.3027113    0.1769368 -51.52  0.001434805    3.059    0.673
         9  -8.5058     79.2916      3.7131   2.8272771026e+01   6.3760799376e+01    0.2261484    0.1461862 -34.88 0.0008705024    1.752    0.429
        10  -7.7290     98.7516      3.6672   2.3625301403e+01   5.9093956825e+01     0.133543   0.08985139  34.45 0.0002954499    1.553    0.356
        11  -7.9888     62.5015      1.4258   3.2228415889e+01   6.7732171891e+01    0.1271075    0.1110429  41.34  7.77437e-05    1.060    0.057
        12  -7.4906     39.4703      1.4887   4.1910282385e+01   7.2324835532e+01    0.1239396    0.1046942  19.75  4.11033e-05    1.035    0.034
        13  -9.3026    119.9487    245.0722   7.9200677191e+01   8.5800108664e+00    0.3059026    0.1992833  66.38  0.001684665    2.233    0.552
        14  -9.2040    243.0154    246.2301   5.6244335426e+01  -7.2470425165e+00    0.3454081    0.1359858 -26.54  0.001864371    2.444    0.591
        15 -10.0614    248.7526    243.3162   5.4898730096e+01  -7.5346234042e+00    0.6640954    0.1863059 -34.85   0.00324669    3.409    0.707
        16  -8.6363    247.9728    234.0169   5.3604099239e+01  -6.4184115712e+00    0.2179437    0.1307699 -29.30  0.001018303    1.589    0.371
        17  -9.3969    246.6106    228.9795   5.3033313567e+01  -5.6903182606e+00    0.3663696    0.1591205 -31.96  0.001564765    2.103    0.524
        18  -9.2648    233.1160    246.3945   5.7878327300e+01  -6.1920045829e+00    0.4048417    0.2060992 -29.14  0.001891569    1.878    0.467
        19  -8.4119     94.3374    249.3363   8.4991882483e+01   1.1305348317e+01    0.2971975    0.1515003  62.10   0.00143424    2.706    0.630
        20  -9.4000     11.5260    245.8301   1.0168357661e+02   2.1455187662e+01    0.3720209   0.04904324  50.65  0.001449752    3.898    0.743
        21  -8.4515     67.4987    244.4470   9.0202584183e+01   1.5582128115e+01    0.2085568    0.1160477 -70.53  0.001197946    2.123    0.529
        22  -8.9325    201.9991    243.2202   6.2794297783e+01  -2.1497482372e+00    0.2017632    0.1516108 -38.75 0.0006541111    1.714    0.416
        23  -9.5052    194.1903    240.4513   6.3820461561e+01  -8.0160070515e-01    0.3953185    0.2043605 -33.81  0.001960201    2.063    0.515
        24  -8.6328    139.4069    244.1805   7.5067074560e+01   6.0421255356e+00    0.1438091    0.1195529 -77.84  0.000940962    1.765    0.433
        25  -8.4997    168.9192    243.1183   6.9010862405e+01   2.1635700542e+00    0.1722179    0.1413489  33.25 0.0005163555    1.266    0.210
        26  -8.6695     78.1681    243.1187   8.7837894788e+01   1.4485303278e+01    0.2545954    0.1090428  50.43  0.001230917    2.145    0.534
        27  -9.3486    160.0293    240.0772   7.0356202736e+01   3.8188959947e+00     0.261397    0.2182251 -87.54  0.001222026    2.041    0.510
        28  -8.2319    153.5995    241.8480   7.1883560651e+01   4.4399554649e+00    0.1436846    0.1196329 -66.99 0.0009421647    1.783    0.439
        29  -8.0868     88.1978    242.1393   8.5614323335e+01   1.3361979113e+01    0.1648865     0.120141  59.06 0.0005383507    1.355    0.262
        30  -8.2501    214.4717    241.0181   6.0250721724e+01  -3.4027626816e+00    0.1554304   0.09944886 -28.79 0.0005557159    1.580    0.367
        31  -9.1745    182.9731    239.9387   6.5853431466e+01   7.3226487627e-01    0.2918482    0.2113383  51.27  0.001779366    2.030    0.507
        32  -9.2396    241.8195    237.6033   5.5136807817e+01  -6.1540091208e+00    0.5550525     0.199158 -19.02  0.002102355    5.120    0.805
        33  -8.2881    146.1755    239.2266   7.3052246162e+01   5.8749612248e+00    0.1588423    0.1315438  48.29 0.0005320045    1.371    0.270
        34  -8.9734    135.5926    238.6321   7.5168294254e+01   7.4555197951e+00    0.2257356    0.1482763  56.29 0.0008916114    1.941    0.485
        35  -8.4494    129.2424    238.7935   7.6519372467e+01   8.3219614440e+00    0.1944676    0.1124264  59.58 0.0006620965    2.631    0.620
        36  -8.8812    120.4735    239.2083   7.8421473479e+01   9.4810903889e+00    0.2784269    0.1266972  31.70 0.0004552396    1.829    0.453
        37  -9.1650    231.1852    237.0135   5.6789433379e+01  -4.8888566966e+00    0.2292048    0.2194277  65.73  0.001729448    2.181    0.541
        38  -8.2477    209.1447    238.1504   6.0763381971e+01  -2.3922781609e+00    0.1409711    0.1229019   8.25 0.0004534279    1.320    0.242
        39  -8.6009     25.9902    237.0210   9.8405693701e+01   2.1683850763e+01    0.3030908     0.099623  56.76  0.001391967    2.664    0.625
        40  -9.8980    214.7771    232.9048   5.8970045489e+01  -2.4223824512e+00    0.3974901    0.3307546 -88.76  0.002296314    3.403    0.706
        41  -8.9520    202.9733    234.2813   6.1292436157e+01  -1.1123951651e+00    0.2513584    0.1620864 -47.92  0.000851106    2.263    0.558
        42  -9.7518    175.7315    233.2770   6.6291405529e+01   2.6572420389e+00      0.39924    0.2370758 -55.28  0.002123446    2.669    0.625
        43  -7.9719    170.2877    235.6319   6.7700374723e+01   3.0625032021e+00    0.1105447   0.09212377  56.00 0.0006300668    1.705    0.414
        44  -9.4245    108.8103    234.2377   8.0356329465e+01   1.1970310719e+01     0.362713    0.1941099  56.09  0.001181095    2.269    0.559
        45  -8.8324      8.1720    234.8279   1.0194252385e+02   2.3842534203e+01    0.1350991    0.1244092  79.90 0.0009194828    1.321    0.243
        46  -8.2186    122.9534    233.9790   7.7271043783e+01   1.0020121271e+01    0.1987062    0.1364586  58.65  0.001123598    1.755    0.430
        47  -8.2722     99.7807    234.2076   8.2319568045e+01   1.3228016765e+01    0.2157368    0.1078319  59.75 0.0009517959    2.776    0.640
        48  -9.7166     69.1520    232.8130   8.8901669546e+01   1.7542299680e+01    0.5110934     0.194943  57.23  0.002062573    3.243    0.692
        49  -8.2373    145.2033    233.1906   7.2458425175e+01   6.9720886963e+00    0.2847548    0.1366484  51.57  0.001219349    3.010    0.668
        50  -8.6062    140.2192    230.1291   7.3096226544e+01   8.1909420132e+00    0.2966033    0.1425376  44.32  0.001165618    2.026    0.507
        51  -9.3318    186.5560    230.5718   6.3796241069e+01   1.5656785353e+00    0.2931642     0.228534 -69.11  0.001465674    2.522    0.604
        52  -8.1337    157.6068    231.7899   6.9705773451e+01   5.4237370750e+00    0.1467133    0.1220744 -58.95 0.0004877441    1.663    0.399
        53  -8.1993     92.3237    231.5182   8.3674455993e+01   1.4741621295e+01    0.2691147    0.1333196  59.13 0.0009821713    2.577    0.612
        54  -9.0636    236.2024    230.4075   5.4937004989e+01  -4.6801265751e+00    0.2515589    0.1839522 -28.37  0.001374676    1.478    0.323
        55  -9.0182    151.3077    228.6573   7.0566342391e+01   6.8263733212e+00    0.2212143    0.1918862  76.19  0.001143925    1.665    0.399
        56  -9.4937    148.4651    224.2917   7.0547248449e+01   7.9579658829e+00    0.3711629    0.2651932  70.50  0.001917187    2.418    0.586
        57  -8.1876      1.4294    230.2564   1.0314061500e+02   2.5335577927e+01     0.159978   0.07988589  73.61 0.0009436079    1.727    0.421
        58  -7.9726    229.9570    228.9674   5.5747939167e+01  -3.7735086212e+00    0.1457429     0.141279  11.58  0.001122523    1.770    0.435
        59  -8.7699    162.4520    227.7428   6.8140013162e+01   5.3640741872e+00    0.3372843    0.1917997  48.56  0.001649581    2.162    0.537
        60  -9.0703    127.9022    227.1772   7.5349580362e+01   1.0484699640e+01    0.3165502    0.1921971  60.69  0.001425848    2.393    0.582
        61  -7.7927    223.4505    226.9869   5.6539816921e+01  -2.7396239052e+00    0.1584694   0.09853245 -28.68 0.0005352098    1.540    0.351
        62  -8.6855    206.1559    225.8315   5.9411143011e+01  -3.9324277879e-01     0.225043    0.1613381 -47.69 0.0008883747    2.009    0.502
        63  -7.6333    120.3168    227.6686   7.7066548151e+01   1.1500030467e+01    0.1297301   0.08869681  57.20 0.0007047009    1.686    0.407
        64  -7.6784    111.6570    227.3496   7.8933607908e+01   1.2804475404e+01    0.1352292   0.08647885  57.89 0.0007043248    1.804    0.446
        65  -8.3483     49.5547    226.3767   9.2712469237e+01   2.1187098369e+01    0.2862084    0.1320184  81.59  0.001299072    2.867    0.651
        66  -8.3099    200.1713    226.1320   6.0554513246e+01   3.5593781720e-01    0.1462336    0.1352118   7.79 0.0005316838    1.368    0.269
        67  -7.5554     72.3420    225.3125   8.7527293080e+01   1.8589356541e+01     0.118357   0.09612724  -8.78 0.0007046523    1.702    0.412
        68  -9.0492    216.4020    223.1468   5.7153929719e+01  -1.3593024044e+00    0.2441311    0.1846965 -34.74  0.001014355    1.545    0.353
        69  -9.1223    180.6075    223.4597   6.3866501862e+01   3.4298488301e+00    0.3318712    0.2275997 -27.20 0.0008338448    1.517    0.341
        70  -9.1941    160.2193    220.8799   6.7588476306e+01   6.7847647769e+00    0.6071236    0.2398731  49.60  0.002087955    4.461    0.776
        71  -7.8973    114.1655    224.1024   7.7982522651e+01   1.3035844250e+01    0.1749489    0.1371098  57.58 0.0006487807    1.363    0.267
        72  -8.9005    104.5786    223.4573   8.0051144320e+01   1.4537931498e+01    0.2797354    0.1972038  79.17  0.001539302    1.904    0.475
        73  -8.6151     93.8076    223.5923   8.2498216100e+01   1.6034197039e+01    0.2367815    0.1583758  77.40 0.0009905369    1.943    0.485
        74  -7.6017     38.2273    224.2359   9.5067285591e+01   2.2902952318e+01    0.1780198   0.08430614  84.28 0.0005071324    2.425    0.588
        75  -9.4651    192.3811    221.1597   6.1233581752e+01   2.1196414474e+00    0.2769063    0.2348974 -55.68  0.001128023    1.801    0.445
        76  -8.6007    172.9864    222.6558   6.5253993865e+01   4.6400308722e+00    0.2018149    0.1779898 -62.94  0.000690428    1.666    0.400
        77  -8.5235    194.5871    232.4710   6.2564782851e+01   2.2345159784e-01    0.1871447    0.1773688  54.35 0.0006424272    1.674    0.403
        78  -9.3291    239.0829    220.6157   5.2906478477e+01  -3.8262920265e+00    0.3293097     0.156371 -28.18   0.00156849    1.908    0.476
        79  -9.3591    225.5436    221.6183   5.5324358861e+01  -2.3117851950e+00    0.2121939    0.1892355  21.50 0.0007820128    1.491    0.329
        80  -8.0684    140.4079    222.3099   7.1987199777e+01   9.4864070980e+00    0.1517425    0.1273727 -70.85 0.0005344579    1.608    0.378
        81  -9.2068    120.4962    219.0911   7.5928985016e+01   1.3027989474e+01     0.454204    0.2321516  57.63  0.001885604    2.964    0.663
        82  -8.4500     82.8115    220.4355   8.4667211558e+01   1.8164684514e+01    0.2402073    0.1541439  76.18  0.001104507    1.933    0.483
        83  -8.1039    202.6807    220.1808   5.9149572065e+01   8.4898059984e-01    0.1609441    0.1434013 -26.37 0.0005840603    1.400    0.286
        84  -7.9433     72.8522    220.0219   8.6912855250e+01   1.9576237653e+01    0.2099603    0.1221832  68.39 0.0006056816    2.008    0.502
        85  -7.3339     27.6521    220.6941   9.7179913581e+01   2.4753235225e+01    0.1071841   0.09128468 -29.07 0.0007042325    1.700    0.412
        86  -8.4975    210.3203    219.0854   5.7582029112e+01  -2.1040291910e-02    0.1890671    0.1560573  38.75 0.0007890604    1.576    0.366
        87  -9.5442    248.4504    217.6494   5.0927745573e+01  -4.5546875431e+00    0.2983265    0.2254443  63.47  0.001567559    4.390    0.772
        88  -8.4288     62.4699    217.3500   8.9057899113e+01   2.1453073355e+01     0.366719    0.1268445  52.90  0.001419758    3.068    0.674
        89  -8.7188     51.6974    217.3299   9.1538021052e+01   2.2775450039e+01    0.2204799    0.1384626  77.73  0.001071559    1.667    0.400
        90  -7.6589    179.0000    216.9463   6.3167123844e+01   4.6533994574e+00     0.180845   0.06974355 -42.86 0.0006981635    2.832    0.647
        91  -8.7150    169.3831    215.9980   6.4955080275e+01   6.2170163522e+00    0.2698126    0.2132985 -78.11  0.001060675    2.250    0.556
        92  -8.6191    143.0772    216.5432   7.0586300857e+01   1.0086680392e+01    0.2559704    0.1997356  73.58  0.001388037    1.902    0.474
        93  -8.3446     18.4736    215.4865   9.8920910031e+01   2.6749329223e+01    0.2319485    0.1059697 -81.77  0.001207829    2.160    0.537
        94  -9.3540    132.9747    215.7891   7.2695080730e+01   1.1755274277e+01    0.4917383    0.2952566  67.68   0.00188925    3.322    0.699
        95  -8.6064    232.0856    214.4005   5.3040923647e+01  -2.1931563467e+00     0.228284     0.171475 -46.91   0.00111176    2.032    0.508
        96  -8.1832    154.6778    215.0979   6.7879469336e+01   8.5750733319e+00    0.1856433    0.1669191  81.54   0.00116347    1.555    0.357
        97  -8.4845    185.5518    214.1590   6.1429808007e+01   4.1317777081e+00    0.1875489    0.1645162  37.66  0.001234313    1.373    0.272
        98  -8.8383     93.2402    213.9159   8.1531690837e+01   1.8013176216e+01    0.3427542     0.157603  52.89  0.001400471    2.412    0.585
        99  -7.9088     77.6464    214.3203   8.5229184865e+01   2.0097466521e+01    0.2737282   0.06869428  42.53 0.0009695142    3.141    0.682
       100  -8.9098     72.4905    211.2975   8.6133076743e+01   2.1413518223e+01    0.4946206    0.2065152  60.41  0.001844865    3.436    0.709
       101  -9.3447    214.0484    211.9485   5.5741413150e+01   4.6890206048e-01     0.309525    0.2423854  49.17  0.001617475    1.922    0.480
       102  -8.0687    106.5437    212.7084   7.8284311420e+01   1.6317176713e+01    0.1624262    0.1279088 -88.55 0.0009275973    1.574    0.365
       103  -8.0322    224.7810    212.0785   5.3888970241e+01  -9.6216109116e-01    0.1457815    0.0848993 -32.61 0.0005720318    1.640    0.390
       104  -9.0934    204.1812    210.7009   5.7320995104e+01   1.9966995374e+00    0.2364219    0.1856909 -38.32 0.0006731492    1.504    0.335
       105  -8.6031    161.6560    212.1403   6.5949734488e+01   8.0135707855e+00    0.2132514    0.1628389  41.38 0.0009725198    1.339    0.253
       106  -8.3439    192.3042    210.3679   5.9500436831e+01   3.7325517393e+00    0.1815277     0.151378 -54.39 0.0005716664    1.736    0.424
       107  -9.4443    175.3582    209.5836   6.2714512715e+01   6.3580287910e+00     0.367276    0.2731316  65.38   0.00171098    2.345    0.574
       108  -8.7201    148.0430    210.4879   6.8601769435e+01   1.0390755942e+01    0.2523193     0.201171  73.79  0.001215127    1.854    0.461
       109  -8.6323    116.3923    210.3570   7.5693522927e+01   1.5296916788e+01     0.287525    0.1731451  61.66 0.0006774698    2.277    0.561
       110  -7.8907     32.5001    210.5002   9.5458456290e+01   2.6379898666e+01    0.1307961   0.09488943  58.86 0.0008070343    1.140    0.123
       111  -9.3854    236.6193    207.1374   5.1075855330e+01  -1.8144536048e+00    0.4405487    0.1986512 -36.16  0.001783433    2.100    0.524
       112  -8.3409     85.1135    209.0242   8.2884317940e+01   2.0161551257e+01     0.217856    0.1382195  63.16  0.001036269    1.748    0.428
       113  -7.9935     45.9986    208.9815   9.2197334779e+01   2.5206523796e+01     0.210186    0.1196105  60.31 0.0004772409    1.644    0.392
       114  -8.9000      5.8390    207.0325   1.0132586563e+02   2.9692936157e+01    0.4563272    0.1301069  84.29  0.001683336    4.195    0.762
       115  -9.4896    246.4907    206.9712   4.9464808515e+01  -3.0050512117e+00    0.2555781    0.1634405 -26.81 0.0007351285    1.361    0.265
       116  -9.2790    250.1401    202.0018   4.8053096874e+01  -2.8149161483e+00    0.3116747    0.1516462 -29.22  0.001218028    1.761    0.432
       117  -8.2231    139.0682    207.9653   7.0194953275e+01   1.2242608143e+01    0.2021988    0.1533789  62.18 0.0006037235    1.697    0.411
       118  -8.1282    126.6316    208.3598   7.3061397283e+01   1.4107227721e+01     0.201455    0.1455119  59.05  0.001074378    1.643    0.391
       119  -7.6246    156.3510    207.6751   6.6368984813e+01   9.5936220955e+00     0.129918    0.1002972  60.32 0.0007048329    1.756    0.431
       120  -9.0935     99.4754    206.0629   7.9097010976e+01   1.8697122248e+01      0.36016    0.2165325  69.96  0.001352859    2.408    0.585
       121  -8.4079     56.7681    205.6315   8.9341764218e+01   2.4639198533e+01    0.2559182      0.13786  68.17  0.001216578    2.096    0.523
       122  -8.0969     11.6591    206.7037   1.0000410188e+02   2.9247124584e+01    0.1070444   0.08924817 -40.71 0.0007032187    1.661    0.398
       123  -9.0813    183.7317    203.7520   6.0064815892e+01   6.0326536592e+00    0.2841491    0.2288068  63.19  0.001257359    1.952    0.488
       124  -7.7952    109.3621    205.2260   7.6637399847e+01   1.7379758973e+01    0.1717567    0.1287067 -79.23 0.0006056708    1.680    0.405
       125  -9.3285    194.7795    203.4220   5.7855506089e+01   4.4336863902e+00    0.2728626    0.2479419 -25.63  0.001154493    1.299    0.230
       126  -9.4223    192.4632    197.1509   5.7213630582e+01   5.7622970976e+00    0.3416022    0.2877825 -80.53  0.001424862    2.098    0.523
       127  -9.6243    163.8229    202.8472   6.3995149216e+01   9.2609367734e+00     0.377866    0.2582411  54.34  0.001124518    1.937    0.484
       128  -8.5279    131.4326    203.8403   7.1296602749e+01   1.4216184019e+01    0.2639233    0.1895633  56.07  0.001331829    1.607    0.378
       129  -8.2494     25.2841    204.6681   9.6758317330e+01   2.8384409772e+01    0.1326456   0.07236022  60.61 0.0003157252    1.615    0.381
       130  -8.9913    243.1081    200.7834   4.8944857968e+01  -1.7959583425e+00    0.2785138    0.1415603 -35.83 0.0009828621    1.846    0.458
       131  -8.5727    210.9349    201.6067   5.4540191798e+01   2.3739769389e+00    0.2203849    0.1566376 -49.47 0.0009565499    1.955    0.488
       132  -8.8425    140.7185    201.1378   6.8768833786e+01   1.3248427395e+01    0.3491494    0.2400338  65.38  0.001693551    2.182    0.542
       133  -8.4511     80.1835    201.0344   8.3153746674e+01   2.2542493125e+01    0.3406206    0.1706518  62.83  0.001395885    2.685    0.628
       134  -8.1602     48.6957    202.1288   9.0981995743e+01   2.6380832827e+01    0.2354877   0.09798573  60.64 0.0009510101    2.772    0.639
       135  -8.0301     11.1737    202.3710   9.9901223814e+01   3.0226812802e+01    0.1811361   0.08181136  41.33 0.0009480074    1.795    0.443
       136  -7.9511    222.3041    201.2362   5.2469169971e+01   8.5311083897e-01    0.1585544   0.09842306 -38.52   0.00043911    1.692    0.409
       137  -9.4420    149.6492    198.5118   6.6348375548e+01   1.2297703086e+01    0.4087992    0.2978502  84.70  0.001560994    2.519    0.603
       138  -8.9592    124.0807    199.1118   7.2286075692e+01   1.6304290520e+01    0.3164388    0.2329912  86.29  0.001158015    1.993    0.498
       139  -9.1746    112.9254    198.2651   7.4809965939e+01   1.8240890897e+01       0.4297    0.2427121  61.42  0.001809021    2.558    0.609
       140  -8.8392    237.1182    198.1460   4.9449746748e+01  -6.8552490330e-01    0.2607385    0.1452311 -32.87 0.0009866739    1.628    0.386
       141  -8.4825    177.0535    198.6954   6.0544688115e+01   7.8891560721e+00    0.2021767    0.1783759 -44.29 0.0005525302    1.371    0.271
       142  -8.8294     88.7502    198.4683   8.0731635511e+01   2.1869395439e+01    0.3214163    0.2146319  70.73  0.001289565    1.799    0.444
       143  -8.6535    202.3425    197.6617   5.5426881271e+01   4.2037206455e+00    0.2301152     0.210524  86.74  0.001458879    1.809    0.447
       144  -8.9664     61.4000    196.9672   8.7362543518e+01   2.5959783104e+01    0.4350012    0.2073757  64.26  0.001579885    2.645    0.622
       145  -7.8735     12.5307    197.0647   9.9311448309e+01   3.1270452072e+01    0.1890017   0.07281332  70.06 0.0008087337    2.685    0.627
       146  -8.8066    215.8892    195.3523   5.2557497172e+01   2.5881870942e+00    0.2389112    0.1653735 -47.06  0.001065636    1.868    0.465
       147  -8.7731    224.5061    193.6999   5.0766474586e+01   1.6186613304e+00    0.2812319    0.1449436 -42.33  0.001463185    2.123    0.529
       148  -7.6726    209.3630    195.2427   5.3707413923e+01   3.5425745903e+00    0.1614683    0.1097564 -41.14 0.0005735598    1.624    0.384
       149  -9.1835    185.2918    194.6628   5.8181654710e+01   7.2698515594e+00    0.2274487    0.2188131 -75.35 0.0007064997    1.458    0.314
       150  -9.4147    160.7642    193.9804   6.3151972655e+01   1.1315694736e+01    0.3251972    0.2384738  68.26  0.001121361    2.210    0.548
       151  -7.9101    132.8210    195.5909   6.9696039765e+01   1.5589153684e+01    0.1923891    0.1164823  44.00 0.0004246516    1.574    0.365
       152  -8.9035     44.1433    193.4781   9.1349916292e+01   2.8846872927e+01    0.4564559    0.2192253  68.25  0.002004941    2.413    0.586
       153  -9.4913    245.5133    193.0459   4.7219973402e+01  -1.0805594734e+00    0.2341892    0.1788965 -32.67 0.0007741326    1.399    0.285
       154  -7.9776    231.0029    194.0400   4.9732835990e+01   6.8357276817e-01    0.1588793    0.1444296 -43.63 0.0006036581    1.603    0.376
       155  -8.5578     76.9712    193.8335   8.3100003336e+01   2.4568041539e+01    0.2190659    0.1862867  80.18 0.0004719758    1.194    0.162
       156  -8.3564    199.0622    191.6093   5.4965453224e+01   5.6361963672e+00    0.2015109    0.1694449 -36.25 0.0007322326    1.335    0.251
       157  -8.5320    172.3189    191.7759   6.0312926179e+01   9.8250090485e+00    0.2295056    0.2082842 -82.74  0.001194134    1.564    0.360
       158  -9.1370    139.4843    190.4103   6.7303294448e+01   1.5505367210e+01    0.3584159    0.2620784  74.31  0.001380701    2.103    0.524
       159  -8.1531    179.1435    191.1793   5.8799881345e+01   8.8266477778e+00    0.1631715    0.1608728 -63.32 0.0005142658    1.334    0.250
       160 -10.3331     92.4470    188.7052   7.8511212765e+01   2.3446916733e+01     1.026769    0.2683932  44.74  0.003193336    3.749    0.733
       161  -8.4675    148.6806    189.3528   6.5022376253e+01   1.4172837231e+01    0.2294078    0.1754628 -64.63  0.001212203    1.709    0.415
       162  -7.6644    210.2918    189.6248   5.2530513362e+01   4.2563401454e+00    0.1130695    0.1019435 -66.53 0.0007022382    1.733    0.423
       163  -8.8850    129.2399    188.2933   6.9355837652e+01   1.7635096128e+01    0.2952317    0.2256414  76.91 0.0009400891    1.808    0.447
       164  -8.7204     34.1810    187.9018   9.3392185354e+01   3.1228701791e+01    0.3267392    0.1573272  69.73  0.001468724    2.279    0.561
       165  -8.1507    237.3120    188.1365   4.7647566695e+01   6.5569647827e-01    0.1686279    0.1230936 -24.61 0.0006927063    1.192    0.161
       166  -8.8652    216.3611    187.5068   5.1062428766e+01   3.6834130356e+00    0.2313124    0.1972956 -41.21 0.0008296999    1.454    0.312
       167  -8.8608    191.3997    187.3149   5.5656676841e+01   7.5190984854e+00    0.2755902    0.2185181 -66.25  0.001143263    2.010    0.502
       168  -9.3478    155.9665    187.2252   6.3021527022e+01   1.3351649925e+01    0.3323987    0.2293838 -58.48   0.00102574    1.858    0.462
       169  -9.4540    120.5881    186.0089   7.1070498887e+01   1.9544461749e+01    0.4497326    0.2740893 -75.17  0.001915295    2.575    0.612
       170  -9.1369     54.7797    186.8035   8.7994530339e+01   2.9106650807e+01    0.4357631    0.2167446  70.61  0.001433404    2.605    0.616
       171  -8.8178    249.4332    185.6233   4.5300163294e+01  -5.9277709202e-01    0.2423364    0.1786057 -44.29  0.001312592    1.752    0.429
       172  -8.0836    230.5190    187.0477   4.8560349470e+01   1.7346848647e+00    0.1753819    0.1047235 -34.14 0.0007382638    1.540    0.351
       173  -8.6811    164.9848    186.5488   6.0932748969e+01   1.1963304796e+01    0.2311737    0.1967756 -65.92 0.0006964438    1.562    0.360
       174  -9.1420    109.6194    185.9935   7.3779884139e+01   2.1344765250e+01    0.3858104     0.243269  66.15  0.001401555    2.196    0.545
       175  -8.9854    210.1958    183.9369   5.1505183000e+01   5.1447413353e+00    0.2980343    0.1637903 -33.77  0.000510344    1.714    0.417
       176  -8.7083    202.6745    184.4842   5.2985798442e+01   6.2109546670e+00    0.2202615     0.189154 -60.45 0.0007664599    1.692    0.409
       177  -8.6974    182.9764    184.7582   5.6856873167e+01   9.3026695529e+00    0.2271331    0.1834476 -33.53 0.0007126019    1.263    0.208
       178  -8.8840     66.8849    184.4906   8.4576663416e+01   2.8075085936e+01    0.3973337    0.1948034  54.01 0.0009748386    2.129    0.530
       179  -8.8482    174.3330    183.4707   5.8391508394e+01   1.0953878928e+01    0.2497762    0.2282953 -88.21 0.0008870428    1.523    0.344
       180  -8.5345    224.0488    182.9090   4.8888978500e+01   3.2501493313e+00    0.2235896     0.151718 -31.15 0.0008052084    1.345    0.257
       181  -8.8989     44.6022    182.4410   9.0213352036e+01   3.1346345613e+01    0.3730489    0.1801579  55.43  0.000958028    2.051    0.513
       182  -8.0572      1.7651    183.5942   1.0121115282e+02   3.5206323648e+01    0.1694768   0.09113057  42.05 0.0009404679    1.624    0.384
       183  -9.2585    147.4090    180.3736   6.3725440209e+01   1.6127588277e+01    0.3084864    0.2568565  84.10 0.0008530714    1.659    0.397
       184  -7.6844     90.3658    181.2933   7.7996284408e+01   2.5424059909e+01    0.1411489    0.1102293  -9.85 0.0004401073    1.713    0.416
       185  -9.5359     25.5689    178.6269   9.4875162776e+01   3.4278463212e+01    0.6884224    0.2414144  72.80  0.002226317    4.507    0.778
       186  -8.5063    240.5470    179.7555   4.5611830407e+01   1.3858463431e+00    0.1642608    0.1002556 -39.59 0.0009509659    1.654    0.395
       187  -8.5176    137.6395    179.1624   6.5789852233e+01   1.8063787140e+01    0.2920933    0.2088782  64.13  0.001396861    1.869    0.465
       188  -9.3588    191.5878    178.3398   5.3946499803e+01   8.9850406645e+00    0.2773025    0.2445658  65.22 0.0005947876    1.594    0.373
       189  -9.0551     36.3195    176.9436   9.1889881161e+01   3.3574761614e+01    0.6018667    0.2283287  69.22   0.00196592    4.243    0.764
       190  -8.6765    250.5199    172.5043   4.2754682200e+01   1.0440364373e+00    0.2134299    0.1336974 -29.12 0.0005146458    1.323    0.244
       191  -9.2087    248.9889    177.0541   4.3818734181e+01   6.2402301021e-01    0.2299064    0.2075986 -26.93 0.0004731909    1.376    0.274
       192  -8.7906    247.3093    173.6960   4.3454857950e+01   1.3116568173e+00    0.1839991    0.1412763 -30.17  0.000401576    1.230    0.187
       193  -8.8260    205.0726    177.7282   5.1274706678e+01   6.9161783787e+00    0.2321742     0.170051 -32.14 0.0006973093    1.298    0.230
       194  -8.0284    169.2262    178.2610   5.8497234232e+01   1.2757804478e+01    0.1767481    0.1639211  69.48 0.0006453838    1.376    0.273
       195  -8.6814    129.3104    177.2188   6.7449664804e+01   1.9909460363e+01    0.3319305    0.2239347  77.64  0.001073212    2.535    0.605
       196  -8.6052    231.0960    176.7274   4.6566356979e+01   3.1424335282e+00    0.2046123    0.1475136 -36.44 0.0006137606    1.382    0.276
       197  -8.4736    217.3542    177.0118   4.8939528646e+01   5.1286784943e+00    0.1845922    0.1811281 -83.64 0.0006369291    1.481    0.325
       198  -9.2805    183.1375    175.9641   5.5170701006e+01   1.0799149424e+01    0.2650099    0.2206115 -59.02 0.0007706629    1.571    0.364
       199 -10.6474    101.6333    175.6812   7.4194496174e+01   2.4915430841e+01    0.5068307    0.3103656  24.81            0    1.791    0.442
       200  -8.5973     88.9517    176.3669   7.7645559295e+01   2.6768740093e+01    0.2884709    0.2009805 -81.12 0.0008832127    1.692    0.409
       201  -9.2801     59.1794    175.7814   8.5595820365e+01   3.1141969787e+01    0.5811707    0.2392468  59.85  0.002005121    3.456    0.711
       202  -9.3134     56.0065    170.7694   8.5866224814e+01   3.2754519494e+01    0.4676285    0.2243103  66.54  0.001780931    2.868    0.651
       203  -8.8294     12.8454    176.3414   9.8023290426e+01   3.5984361444e+01    0.2269098    0.1427088  75.78 0.0009963235    1.424    0.298
       204  -9.2227    158.8537    174.9108   6.0123529628e+01   1.5189813685e+01    0.3799292     0.274742  72.76  0.001369378    2.308    0.567
       205 -10.6869     75.8211    170.1433   8.0293157782e+01   3.0201584997e+01       1.2907    0.5081224 -77.11   0.00379069    4.794    0.791
       206  -8.2296    224.3355    174.0600   4.7185567392e+01   4.5280108915e+00    0.1804015    0.1382288 -26.73 0.0006219306    1.169    0.145
       207  -9.5691    175.8286    172.0362   5.5912025810e+01   1.2752708507e+01     0.371318    0.2656909 -46.55  0.001228262    1.517    0.341
       208  -8.3391    142.9688    172.5246   6.3313985935e+01   1.8478163373e+01    0.2063911    0.1959222 -37.92 0.0004502195    1.124    0.111
       209  -8.2941    134.7846    171.6736   6.5114139002e+01   2.0110869641e+01    0.2568291    0.1917791 -89.29  0.001070304    2.010    0.502
       210  -9.5325    121.4351    170.2951   6.8172825260e+01   2.2763070550e+01    0.3882787    0.2883569  88.69  0.001137623    1.890    0.471
       211  -9.1133     45.1223    170.8006   8.8885791030e+01   3.4070135203e+01    0.3971327    0.2144284  80.67  0.001611347    2.186    0.543
       212  -8.4755    237.0824    169.3496   4.4217696399e+01   3.3564365922e+00    0.2049886    0.1560523 -45.65 0.0007361459    1.580    0.367
       213  -8.8580    230.5775    169.6195   4.5308928270e+01   4.2657603928e+00    0.2335491    0.1663742 -23.03 0.0007971483    1.211    0.174
       214  -8.3240    205.9256    170.0195   4.9634835725e+01   8.0270158703e+00    0.1876273    0.1613521 -66.77 0.0005880222    1.700    0.412
       215  -8.6032    198.3283    169.7995   5.1002905609e+01   9.3100674167e+00     0.233065    0.1984997 -57.02 0.0008664144    1.533    0.348
       216  -8.6796    150.0132    169.5032   6.1093813185e+01   1.7825283800e+01     0.310311    0.2331783  65.11  0.001305256    1.781    0.438
       217  -8.2858    244.8472    169.2057   4.2991644943e+01   2.2781840792e+00    0.1899232    0.1800246  79.13  0.001095461    1.676    0.403
       218  -9.1678    167.0267    168.4406   5.7077640034e+01   1.4972260710e+01    0.3276302    0.2383532  64.77  0.001172443    2.003    0.501
       219  -8.1327     88.7223    168.5404   7.6507774392e+01   2.8629242428e+01    0.2483763    0.1743796  80.77  0.001165524    1.774    0.436
       220  -8.4199    218.7867    168.1772   4.6999596098e+01   6.2758060779e+00    0.1831323    0.1586062 -29.86 0.0005329036    1.200    0.167
       221  -7.8395    211.4658    167.9752   4.8237963444e+01   7.4646692756e+00    0.1723399    0.1090904 -56.67 0.0007688161    2.475    0.596
       222  -8.5666    111.5567    167.2164   7.0165870500e+01   2.5163533679e+01    0.3055856     0.206548  66.60  0.001064122    1.939    0.484
       223  -9.2509     21.8689    166.6547   9.4915973515e+01   3.7503238176e+01    0.5992063    0.1289683  44.90  0.002045195    3.779    0.735
       224  -8.9970    191.8646    166.3567   5.1561152959e+01   1.0987891293e+01    0.2975706    0.1826717 -42.75 0.0008048366    1.653    0.395
       225  -8.7406    185.0161    166.4206   5.2925624706e+01   1.2161011245e+01    0.2463583    0.1888863 -54.87 0.0006746815    1.611    0.379
       226  -9.5922    137.3848    164.4476   6.3110847718e+01   2.1160417865e+01    0.7414493    0.3108052  53.42   0.00232653    3.747    0.733
       227  -9.9562     94.9690    162.7175   7.3838178393e+01   2.8999393461e+01    0.8259341      0.43505  70.31  0.002575194    4.168    0.760
       228  -8.1473    233.9846    164.9443   4.3866236913e+01   4.4555730969e+00    0.1789717    0.1422362 -51.58 0.0007264256    1.655    0.396
       229  -8.6506    159.5988    164.2184   5.7873529449e+01   1.7129446512e+01    0.2874703    0.2332343  82.84  0.001216924    1.790    0.441
       230  -9.6884     33.7901    163.1597   9.1267507998e+01   3.7191259957e+01    0.6102389    0.2179706  53.32  0.002257272    3.060    0.673
       231  -8.7710    212.9520    163.3913   4.7072973438e+01   7.9609891010e+00    0.2302258    0.1689723 -45.59 0.0004435178    1.509    0.337
       232  -8.4161     57.2992    163.5130   8.4594001439e+01   3.4362374676e+01    0.4684768    0.2022011  13.27  0.001383365    5.054    0.802
       233  -8.9925    246.0713    162.7337   4.1586511536e+01   3.0248751492e+00     0.198129    0.1406741 -35.15 0.0004977266    1.297    0.229
       234  -8.5513    204.9548    162.5407   4.8333546602e+01   9.4170150113e+00    0.2421847     0.174096 -48.66 0.0007228539    1.602    0.376
       235  -9.4572      3.3259    162.2472   9.9668488259e+01   4.0098552444e+01    0.4382522    0.1682741  53.19  0.001758839    2.398    0.583
       236  -9.2589    177.3456    160.3490   5.3261598365e+01   1.4626161098e+01    0.2909198    0.2345319 -59.37 0.0009550105    1.542    0.352
       237  -8.5805    151.7949    160.8840   5.8978566289e+01   1.9234777194e+01    0.2530051    0.2048971 -74.44  0.001129214    1.634    0.388
       238  -8.7598     60.7902    160.0138   8.3119398585e+01   3.4768952562e+01    0.3988657    0.1961652  53.21  0.001636213    2.197    0.545
       239  -8.8151    227.3499    158.9132   4.3755538042e+01   6.3743518475e+00    0.2897301    0.1853935 -53.13  0.001041055    2.141    0.533
       240  -9.7682    250.1976    157.5469   3.9994701589e+01   3.1776993485e+00    0.3063987    0.1543497 -35.98 0.0008938466    1.675    0.403
       241  -8.9247    246.5685    155.5069   4.0129562396e+01   3.9888347323e+00    0.1809098    0.1249896  -5.27 0.0005857294    1.521    0.343
       242  -8.4016    236.9856    158.7555   4.2198830691e+01   4.9261224825e+00    0.1702268    0.1445142 -13.78 0.0004872199    1.046    0.044
       243  -8.1916    128.2100    159.0480   6.4334298860e+01   2.4006355613e+01    0.2818846    0.1838752  62.05 0.0008011014    2.038    0.509
       244  -9.5339    105.9016    157.8276   6.9971388461e+01   2.8295068208e+01    0.5143199    0.3063044  64.58  0.001338398    2.447    0.591
       245  -8.5148    196.3624    157.7629   4.8960416049e+01   1.1695968339e+01    0.2371856    0.1969057 -58.11 0.0007629745    1.521    0.343
       246  -8.3352    188.2677    157.6088   5.0490683371e+01   1.3155025485e+01    0.2457105     0.156485 -47.65 0.0007665528    1.700    0.412
       247  -9.0526    167.8134    157.2496   5.4641907429e+01   1.6964185660e+01    0.3294661     0.259584  85.24  0.001281911    1.966    0.491
       248  -8.5784    218.0115    156.4592   4.4815143888e+01   8.2483634238e+00    0.2417761    0.1635097 -46.08 0.0006920531    1.604    0.377
       249  -9.2146    157.6589    155.7551   5.6580673933e+01   1.9165643177e+01    0.2809862    0.2222499 -62.59 0.0009377135    1.539    0.350
       250  -9.1679    119.4811    154.7433   6.5739723934e+01   2.6570358222e+01    0.4160767    0.2860495 -82.76  0.001434945    2.179    0.541
       251  -9.3768     81.6992    154.6903   7.6224679008e+01   3.3056774366e+01    0.5011863    0.2780121  60.47  0.001380416    2.321    0.569
       252  -9.2267     49.8382    155.0987   8.5675906183e+01   3.7392145349e+01    0.4570816    0.2050642  56.02  0.001758217    2.626    0.619
       253  -8.9474     33.9818    155.9840   9.0469719476e+01   3.8955498707e+01    0.3478351    0.1798148  28.68  0.001623571    1.960    0.490
       254  -9.6009    241.5555    153.8198   4.0542269161e+01   4.9715706689e+00    0.2996563    0.2341178  88.44  0.001685142    2.547    0.607
       255  -8.1123    204.6777    155.3599   4.6927851525e+01   1.0663345585e+01    0.1838545    0.1586418 -73.54 0.0005316938    1.650    0.394
       256  -8.5037    144.5972    154.5897   5.9384211303e+01   2.1886470651e+01     0.280302    0.2107587  78.27 0.0007470648    1.962    0.490
       257  -8.1661    240.0609    164.0403   4.2744230606e+01   3.6977464598e+00    0.1762808    0.1404016 -51.56 0.0005116899    1.667    0.400
       258  -9.5912    132.7388    152.7304   6.1914619066e+01   2.4539723389e+01    0.4604387    0.3148625  68.40  0.001163947    2.107    0.525
       259  -8.9830    133.5751    148.2171   6.0758490276e+01   2.5364280384e+01    0.3144249    0.2596903 -29.31 0.0008415307    1.302    0.232
       260  -9.4465     68.2018    153.5417   7.9996429568e+01   3.5355998597e+01    0.4743985    0.2369777  56.26  0.001435239    2.411    0.585
       261  -7.8516    232.5225    153.5437   4.1868360386e+01   6.3890230803e+00    0.1264078     0.106434 -19.33 5.069287e-05    1.021    0.021
       262  -9.2962     29.5374    150.5281   9.1208144007e+01   4.0774711071e+01    0.5202948    0.2084216  64.22  0.001828617    3.458    0.711
       263  -8.2755     20.0618    152.5335   9.4220344461e+01   4.1148473671e+01    0.1846052    0.1238472  31.92  0.001005091    1.530    0.347
       264  -8.9874    189.4688    150.0244   4.8668124362e+01   1.4292587376e+01    0.3075852    0.2303295 -66.13 0.0009065656    1.922    0.480
       265  -8.2093    182.2383    150.9855   5.0304885271e+01   1.5453916811e+01    0.2187355    0.1589909 -65.71 0.0009659203    1.991    0.498
       266  -8.3746    162.4771    150.4627   5.4380167396e+01   1.9298542217e+01    0.2419191    0.2010405  88.75 0.0006193334    1.657    0.396
       267  -8.7005     98.2817    150.6337   7.0738395004e+01   3.1313242006e+01    0.3141045    0.2310146  73.81 0.0007624425    1.682    0.405
       268  -9.3776    248.8253    149.1246   3.8567559605e+01   4.5788442970e+00    0.2736979    0.1532646 -35.38  0.000792727    1.495    0.331
       269  -8.4547    243.1734    149.7258   3.9500698688e+01   5.3306046368e+00    0.2257628     0.137857 -39.49  0.001082846    1.489    0.329
       270  -8.2870    213.0304    149.7959   4.4306923557e+01   1.0157093678e+01    0.1859808    0.1728644 -49.09 0.0004609175    1.278    0.218
       271  -8.9283      2.9054    149.7785   9.8998890595e+01   4.3164462303e+01    0.2700372    0.1245709  68.46  0.001240417    2.163    0.538
       272  -8.3753    198.7980    148.5347   4.6582788503e+01   1.2861116454e+01    0.2458495    0.1658847 -51.39 0.0007154933    1.713    0.416
       273  -9.8557     89.2222    146.0338   7.2483144223e+01   3.3961887476e+01    0.6770239    0.3919119  88.03     0.002347    3.257    0.693
       274  -9.8642     40.1400    147.9779   8.7695318236e+01   4.0317486632e+01    0.5511507    0.2306846  54.02  0.002098924    2.749    0.636
       275  -9.3245    233.4874    147.6400   4.0539545343e+01   7.1359949755e+00    0.2365369    0.1534882 -32.26 0.0006356316    1.324    0.245
       276  -8.2939    223.1163    146.8335   4.2012352582e+01   8.9398598534e+00    0.1835402    0.1620257 -39.67 0.0004652176    1.217    0.178
       277  -8.9828    151.1668    135.3180   5.3598500120e+01   2.4612006881e+01    0.3775737    0.1950878  26.95  0.001317876    2.886    0.653
       278 -10.1881    106.6719    143.9752   6.7053506558e+01   3.1406678437e+01     0.792135    0.5056109  84.77  0.002442409    2.780    0.640
       279  -8.9383     78.1704    147.0880   7.5956214892e+01   3.5480166457e+01    0.2885267    0.1710845  57.97 0.0008439016    1.969    0.492
       280  -9.3148     13.6810    146.2530   9.5561886451e+01   4.3250630275e+01    0.4291404     0.158124  44.51  0.001808122    2.546    0.607
       281  -8.4304    175.7831    146.0481   5.0564870612e+01   1.7594124517e+01    0.2141025    0.1944982 -74.88 0.0006105955    1.347    0.257
       282 -10.1553    139.0308    144.5717   5.8608150969e+01   2.5091551236e+01    0.4928226    0.3266556 -71.07  0.001434002    2.245    0.555
       283  -9.3764    241.3411    136.1791   3.7061827052e+01   7.6227625898e+00    0.3022347     0.106769 -34.52  0.001275312    2.440    0.590
       284 -10.0345    241.0898    144.3646   3.8744146146e+01   6.4407384681e+00     0.398301    0.2418617   8.91  0.001699306    2.466    0.595
       285  -7.3522    206.6501    145.7219   4.4568661787e+01   1.1942036514e+01    0.1371121   0.09921438   4.27 0.0004768174    1.642    0.391
       286  -9.8280    125.1177    142.5132   6.1716219713e+01   2.8265356353e+01    0.5603574    0.3879401 -88.02  0.001717212    2.339    0.572
       287  -8.8792    247.0255    143.5969   3.7738775135e+01   5.6476917268e+00    0.2394359    0.1505806 -32.38 0.0004966767    1.318    0.241
       288  -8.0452    194.2951    143.8523   4.6423401643e+01   1.4501485632e+01    0.2126769    0.1645408 -55.32  0.000695664    1.521    0.343
       289  -8.8138    165.6900    143.8854   5.2241609650e+01   1.9970746257e+01    0.3006822    0.2350432  71.47  0.001175227    1.728    0.421
       290 -10.6423     60.7563    125.8319   7.7611935111e+01   4.3431000739e+01    0.9473001    0.5201625  79.32  0.003316836    3.228    0.690
       291 -10.5973     69.5576    140.6428   7.7455962017e+01   3.8397683257e+01    0.7321401    0.4270637  87.90  0.002593652    2.536    0.606
       292  -9.7864     69.9453    133.8376   7.6102697803e+01   4.0061668240e+01    0.3641093    0.2534541   7.69  0.001161821    1.932    0.482
       293 -10.3955     55.3672    144.8755   8.2564670094e+01   3.9284689867e+01     0.833781    0.3798391  63.93  0.002756008    3.618    0.724
       294  -8.4364    182.0563    141.3551   4.8255644217e+01   1.7266256170e+01    0.2502869    0.1951682 -63.84 0.0008016782    1.639    0.390
       295  -9.2334      2.6070    141.4119   9.8507090568e+01   4.5255344511e+01    0.4000789    0.2086767  69.26  0.001348773    1.880    0.468
       296  -8.0871    238.6053    140.7631   3.8385057348e+01   7.3683669905e+00     0.183212    0.1006878 -42.27 0.0007265485    1.695    0.410
       297  -8.0284    250.4909    140.5324   3.6651440863e+01   5.5715672667e+00    0.1226011   0.09961315 -25.94  0.000120406    1.024    0.023
       298 -10.0038     23.3952    137.7193   9.1723961013e+01   4.4601329725e+01     0.545309    0.2477211  62.83  0.002011698    2.650    0.623
       299 -10.7385    148.6037    144.8298   5.6343057962e+01   2.3149353031e+01    0.6284445     0.430586 -72.81  0.001588445    2.250    0.556
       300  -8.4869    197.6157    137.4059   4.4404378053e+01   1.5017204406e+01    0.2601759    0.1894283 -57.35  0.001066808    1.679    0.404
       301  -8.6439    172.2487    137.8934   4.9497275198e+01   1.9839579787e+01    0.2601498    0.2156158 -72.89 0.0006665046    1.545    0.353
       302  -8.3260    207.3858    137.2596   4.2633005411e+01   1.3238560099e+01    0.1938444     0.116641 -45.28 0.0006642565    1.658    0.397
       303 -10.3723     83.3341    133.0890   7.1731913738e+01   3.8134516622e+01    0.5892574    0.3705795 -67.14  0.001479686    1.729    0.422
       304  -8.4395    246.8680    130.0802   3.5058604254e+01   7.6528937969e+00    0.2199912    0.1380368 -40.49 0.0006864803    1.398    0.285
       305  -9.1401    248.4895    134.8434   3.5795962468e+01   6.7020140558e+00    0.2689373    0.1713568 -41.67 0.0009693533    1.430    0.301
       306  -9.7432    250.8762    129.7895   3.4463654055e+01   7.0688558866e+00    0.6510714    0.1295285 -40.12  0.002182689    4.126    0.758
       307  -8.1972    162.6855    136.2243   5.1181451214e+01   2.2084712200e+01    0.2248134    0.1849638 -63.21 0.0007262154    1.418    0.295
       308  -9.6313     56.0292    135.3794   8.0856507816e+01   4.1624386014e+01    0.4591013    0.2693563  -4.67  0.001716836    3.158    0.683
       309  -9.2508     39.2020    135.8406   8.6395583319e+01   4.3526324096e+01    0.2998244    0.2129279  64.92 0.0009378799    1.461    0.316
       310  -8.4154    187.7906    135.5963   4.5848716734e+01   1.7214139806e+01    0.1834175    0.1369991  56.49  0.000534264    1.566    0.361
       311  -8.0819    237.5953    133.7663   3.7107656110e+01   8.5880595506e+00    0.1819466    0.1013996 -43.02 0.0009388863    1.669    0.401
       312  -7.6334    231.2998    134.2842   3.8141962877e+01   9.5464262994e+00    0.1252469   0.09220529  -2.69 0.0002164962    1.551    0.355
       313  -8.7379    179.4722    133.8203   4.7086882730e+01   1.9175897662e+01    0.2655294    0.2220856 -72.64  0.000973086    1.514    0.340
       314  -9.0293    113.0713    133.1577   6.2925623469e+01   3.2742499781e+01    0.4349107    0.2891726  70.59  0.001332393    2.203    0.546
       315 -10.2064    132.1938    131.1776   5.7311022824e+01   2.9380846130e+01    0.5356783    0.3832065 -87.88   0.00158738    2.180    0.541
       316  -9.3399    132.3510    125.3323   5.5879378143e+01   3.0632076709e+01    0.6486624    0.2065891  35.43  0.001701887    4.514    0.778
       317  -9.0757    143.0864    131.5651   5.4662460394e+01   2.7059079460e+01    0.3026318    0.2325125 -75.15 0.0006842876    1.710    0.415
       318  -9.5921    152.9133    128.5691   5.1611174653e+01   2.5643296381e+01    0.5941018     0.269641 -46.24  0.001525075    2.227    0.551
       319 -10.0145     12.7504    128.5330   9.4203008401e+01   4.7807008285e+01    0.6036443    0.2552089  69.80  0.002026568    3.035    0.671
       320  -8.3257    204.7043    130.1494   4.1542781324e+01   1.4941561394e+01    0.2164925    0.1574614 -51.38 0.0005963586    1.487    0.328
       321  -8.3749    192.6720    130.1225   4.3693953381e+01   1.7250025060e+01    0.2211741    0.1620364 -48.00 0.0005569546    1.395    0.283
       322  -9.4446    168.3314    129.2339   4.8336361897e+01   2.2307869714e+01    0.3080263    0.2393539 -68.44 0.0007558406    1.637    0.389
       323  -9.4886     98.0183    128.3183   6.6214769905e+01   3.6732908941e+01    0.6077454     0.224138 -54.60  0.001964072    2.786    0.641
       324  -9.8476     73.1838    129.2098   7.4170748571e+01   4.0738094425e+01    0.3606533    0.2538902 -89.69 0.0008947563    1.749    0.428
       325  -8.1855    234.7225    129.6841   3.6680173941e+01   9.6843135902e+00    0.1258456   0.09103199  -7.30 0.0003571183    1.569    0.363
       326  -7.5004    220.4961    129.5548   3.8804258830e+01   1.2155003062e+01    0.1321219    0.1163819 -27.67 8.334418e-05    1.019    0.019
       327  -8.0559    211.6000    128.8235   4.0082997975e+01   1.3882876485e+01    0.1914563    0.1147449 -45.60 0.0004473178    1.642    0.391
       328  -7.6995    186.3093    129.6348   4.4785674065e+01   1.8590324411e+01    0.1451453     0.112342 -71.46  0.000703841    1.752    0.429
       329 -10.6826     45.2783    123.6901   8.2503344788e+01   4.5975329528e+01     1.200204    0.5656715  70.35   0.00377472    4.168    0.760
       330  -9.9489    117.9040    124.8342   5.9639615161e+01   3.3709126240e+01    0.5923238    0.4249409  89.94  0.001548526    2.081    0.519
       331  -8.4617    228.4657    125.0073   3.6613221476e+01   1.1476687553e+01    0.2050943    0.1125053 -36.05  0.001025536    1.576    0.365
       332  -9.1721    179.1559    124.6258   4.5023657099e+01   2.0959595488e+01    0.3048764    0.2481221  80.87 0.0007825408    1.604    0.377
       333 -10.3905     28.2274    121.0631   8.8033252937e+01   4.8449475416e+01     1.019456    0.4843062  83.80  0.003853476    2.930    0.659
       334  -7.6474    244.2140    123.9651   3.4170449282e+01   8.9820566104e+00    0.1665712   0.08556538 -35.73 0.0003741019    1.616    0.381
       335  -7.8494    188.5248    123.5636   4.2965144294e+01   1.9248718618e+01    0.1410244    0.1333006 -30.60 8.220767e-05    1.025    0.025
       336  -9.5599    158.7186    121.4091   4.8561832671e+01   2.5868316111e+01    0.3897119    0.2665112 -75.39  0.001131096    2.341    0.573
       337  -8.5456     85.0714    122.3827   6.8901999890e+01   4.0492759580e+01    0.4947208    0.2343634  24.30  0.001673881    2.971    0.663
       338  -7.7769    203.0263    121.9265   3.9989201936e+01   1.6667629684e+01    0.1708955    0.1444067 -33.93 0.0004699519    1.081    0.075
       339  -7.9428    194.6434    121.7407   4.1418268493e+01   1.8347841748e+01    0.2006841    0.1210939 -46.19 0.0004064417    1.637    0.389
       340  -9.0113    171.9625    121.4438   4.5724979737e+01   2.3054533491e+01    0.2689378    0.1982508 -56.33  0.000578168    1.509    0.337
       341 -10.2182    141.6848    117.5791   5.1605014508e+01   3.0317209151e+01    0.7469745    0.3643468 -50.60  0.001777868    2.204    0.546
       342  -9.8313    130.6091    118.1736   5.4566651424e+01   3.2563981178e+01    0.5618589    0.3822175 -70.99  0.001885555    2.056    0.514
       343  -9.9932    133.3795    109.2014   5.1534338423e+01   3.3898148764e+01     0.605535    0.3064231 -43.54     0.002151    1.986    0.496
       344  -9.5021     71.2176    119.5878   7.2837338951e+01   4.3470899494e+01     0.348596    0.2444073  81.10  0.001161699    1.864    0.463
       345  -9.3383      2.9761    117.0843   9.6381658039e+01   5.1354305442e+01    0.5388802    0.2216199  64.84  0.002152329    2.979    0.664
       346  -8.2161    231.4125    117.2806   3.4535068386e+01   1.2163856539e+01     0.182439    0.1050112 -43.52 0.0009318336    1.575    0.365
       347  -7.9669    185.6059    115.7436   4.1669948352e+01   2.1258626956e+01    0.2001969    0.1281563 -47.26 0.0004514683    1.555    0.357
       348 -10.0927    109.3518    113.9879   5.9406996906e+01   3.7928890578e+01    0.5186238    0.3529187 -73.11  0.001261481    2.000    0.500
       349  -9.2720    109.6240    107.0580   5.7523066543e+01   3.9456726929e+01     0.409476     0.262152  17.40  0.001560387    2.409    0.585
       350  -9.1667     59.5727    114.8592   7.5852878616e+01   4.6398252109e+01    0.3891055    0.2558721  11.78  0.001718247    1.957    0.489
       351  -8.2612    193.0332    115.0397   4.0143388618e+01   1.9852992093e+01    0.2187264    0.1657323 -65.80 0.0004848981    1.626    0.385
       352 -10.2507     92.7714    112.1958   6.4032609880e+01   4.1585181055e+01    0.6556835    0.3646961 -66.76  0.001414628    2.390    0.582
       353  -8.5097     93.3191    104.3598   6.1843411945e+01   4.3339036750e+01     0.224563    0.1604901  20.64 0.0007921979    1.698    0.411
       354  -8.6947    167.1573    114.1525   4.4943524149e+01   2.5476265961e+01    0.2255788    0.2018931   9.00 0.0005377106    1.224    0.183
       355  -9.8875     79.0323    112.4629   6.8600189716e+01   4.3974086166e+01    0.5396151    0.3756417  79.02  0.001827906    2.022    0.505
       356  -9.6677    122.2216    112.4726   5.5358979143e+01   3.5599637854e+01    0.3130689    0.2567101 -83.86 0.0007296435    1.488    0.328
       357  -9.9621     14.1597    110.8584   9.1709174260e+01   5.2227935425e+01    0.4498256    0.2450731  67.97  0.001708582    2.155    0.536
       358  -8.6367    174.8161    111.5690   4.2737953246e+01   2.4310265386e+01    0.2867917     0.180197 -54.66 0.0006659931    1.801    0.445
       359  -8.8890    159.3766    111.7908   4.6020293934e+01   2.7632355079e+01    0.2744597     0.230922 -80.33  0.000688102    1.419    0.295
       360 -11.0081    248.8595    104.4335   2.9538361820e+01   1.1078976670e+01    0.5966786     0.200964 -37.20  0.002571902    2.371    0.578
       361  -9.0456     67.1783    105.3272   7.1022094518e+01   4.7670076806e+01    0.3308128    0.2064238   7.08  0.001312438    2.455    0.593
       362  -7.7872    149.6277    109.7724   4.7705829285e+01   3.0187829057e+01    0.2112882    0.1408524 -51.47 0.0004279735    1.571    0.364
       363  -7.6185    182.7373    109.3466   4.0660141651e+01   2.3018734151e+01    0.1463379    0.1094446 -64.76 0.0003355842    1.604    0.377
       364  -8.6003     44.0271    108.8559   8.0282550375e+01   4.9942500059e+01    0.2744841    0.1678305  25.88 0.0009564139    1.754    0.430
       365  -8.2539    189.2775    107.7136   3.9063109198e+01   2.1922514467e+01    0.2678063     0.153276 -47.35 0.0006982464    1.737    0.424
       366  -8.6871     78.1361    105.0979   6.7107945989e+01   4.5930480908e+01    0.3269845     0.218183 -17.35  0.001088588    2.271    0.560
       367 -10.5097     45.7975    102.1628   7.8260885160e+01   5.1436409597e+01    0.8422898    0.4392158  64.81  0.003008833    3.297    0.697
       368 -10.7532     23.0387    102.6054   8.7169028378e+01   5.3656933064e+01    0.7773535    0.3954792  62.78  0.002188134    2.675    0.626
       369  -8.6755    166.7759    104.1133   4.2482550303e+01   2.7469794268e+01     0.299199    0.1897199 -51.45 0.0006727424    1.662    0.398
       370  -9.5763    150.6054    102.8953   4.5672251223e+01   3.1342625825e+01    0.4578947    0.2777636 -61.08  0.001220253    2.179    0.541
       371  -9.5710    139.7039    103.9833   4.8550871157e+01   3.3583121551e+01    0.4670685    0.3114942 -59.43  0.001488015    1.764    0.433
       372 -10.9337    109.2811     98.8598   5.5382537431e+01   4.1364348016e+01     1.325172    0.7260565  67.64  0.001752573    3.702    0.730
       373  -9.0488    107.4687     92.5278   5.4111367604e+01   4.3137253854e+01    0.6552312    0.3381936  26.21  0.002102978    3.324    0.699
       374  -9.9943    128.6494    101.8392   5.0783775452e+01   3.6502466388e+01     0.391631    0.2878177 -87.19  0.000953697    1.956    0.489
       375  -9.2026      6.7233    102.6428   9.3470349873e+01   5.4801451212e+01    0.3460345    0.1896376  66.37  0.001135465    2.112    0.527
       376  -7.9511    175.5505    101.7872   4.0139825965e+01   2.5950447260e+01     0.204045    0.1321838 -50.20 0.0005552114    1.579    0.367
       377  -8.5015    159.9079    101.0836   4.3133739269e+01   2.9587333894e+01    0.2327064    0.1991092 -69.29 0.0005305672    1.282    0.220
       378  -9.4168     82.1820    100.0304   6.4402087773e+01   4.6437415241e+01    0.3983382    0.2989005  76.47  0.001133208    1.765    0.434
       379  -9.5245     95.0519     96.7411   5.9202413532e+01   4.4764282467e+01    0.4034242    0.2461151 -56.97 0.0006496441    1.783    0.439
       380 -10.2555     64.0599     95.7115   6.9786557022e+01   5.0519849751e+01    0.5877247    0.3799061  85.61  0.001524197    2.563    0.610
       381  -7.6786    183.7223     96.6845   3.7328265025e+01   2.5055027928e+01    0.1405853    0.1135755   3.58 0.0003239036    1.569    0.363
       382  -8.4327    164.7906     94.0847   4.0258554320e+01   2.9783759525e+01    0.2286449    0.1949207 -58.86 0.0005089036    1.200    0.167
       383  -9.4105     45.5898     92.3639   7.6159304853e+01   5.3921041285e+01     0.456292    0.2616785 -14.50  0.001766548    2.872    0.652
       384  -9.8885     66.3822    110.3165   7.2464539881e+01   4.6547918272e+01    0.3977531    0.2985749  81.96  0.001248717    1.643    0.391
       385  -8.1437    176.2358     93.1530   3.7789528339e+01   2.7344654378e+01    0.2045905     0.165849 -67.15 0.0004998079    1.352    0.261
       386  -9.1004    139.0727     92.1523   4.5432638990e+01   3.6109560586e+01    0.3615058    0.2688979 -89.14 0.0009217698    1.828    0.453
       387  -9.7494    124.7219     90.6083   4.8644353470e+01   3.9721702678e+01    0.4750036    0.3555445 -76.09  0.001259895    1.757    0.431
       388  -9.1241    120.5324     92.4956   5.0333320967e+01   4.0278147319e+01     0.316545    0.2542342 -28.85  0.001518747    1.361    0.265
       389  -9.6584     34.8681     89.8701   7.9989842335e+01   5.5769478379e+01    0.4622918    0.2788813  82.58  0.001645251    2.439    0.590
       390  -9.6386      5.0394     91.7211   9.2737420766e+01   5.7649137722e+01    0.3117344    0.1978407  54.19   0.00141283    1.786    0.440
       391  -7.9875    157.8894     91.3861   4.0956889527e+01   3.1876212269e+01    0.2125684    0.1821382 -61.45 0.0005223031    1.209    0.173
       392  -7.9380    188.7355     93.0145   3.5529084006e+01   2.4585397789e+01    0.1884123    0.1178383 -38.17 0.0005983007    1.500    0.333
       393  -8.0705    150.8192     88.8424   4.1778300050e+01   3.4002878656e+01    0.2106945    0.1755722 -69.32 0.0004805543    1.319    0.242
       394 -10.1423     86.6720     85.9987   5.8870380628e+01   4.8837176259e+01    0.6774139    0.4611714 -69.09  0.001652236    1.938    0.484
       395  -8.9648     65.9165     87.1310   6.6770131604e+01   5.2284704855e+01    0.5214449    0.2588679  11.58  0.001375442    5.718    0.825
       396  -7.9926    164.1441     87.1070   3.8505236548e+01   3.1198189099e+01    0.2077077    0.1701372 -66.30 0.0004799744    1.314    0.239
       397  -8.1020    198.6881     86.0002   3.2172458355e+01   2.3578624275e+01    0.1974288    0.1656111 -42.01 0.0003947983    1.097    0.088
       398  -9.8755     48.6466     84.1540   7.2862384131e+01   5.5539958708e+01    0.5769343    0.3459683  66.90  0.001952782    2.815    0.645
       399  -7.6322    179.3081     85.6341   3.5269526070e+01   2.7951185303e+01    0.1554063    0.1074665 -66.82 0.0007037586    1.751    0.429
       400 -10.0628    104.8018     82.6272   5.1936404417e+01   4.5819962608e+01     0.567538     0.343693 -56.79  0.001846665    1.945    0.486
       401  -8.2922    158.1102     83.8440   3.8822949068e+01   3.3201167434e+01     0.229815    0.1942158 -70.56 0.0004846081    1.270    0.212
       402  -8.6379    126.3560     84.2322   4.6321340249e+01   4.0626925088e+01    0.3253437    0.1743317  24.82 0.0009593565    4.049    0.753
       403  -7.5247    170.6524     83.3247   3.6224593504e+01   3.0344340098e+01    0.1564272    0.1116963 -72.87 0.0007049632    1.747    0.428
       404  -9.0958    141.0677     82.6388   4.2209494753e+01   3.7470851878e+01    0.3131193    0.2273863 -67.59 0.0008233227    1.687    0.407
       405  -9.5037    249.3756     81.3734   2.4653655909e+01   1.4267078745e+01    0.3161067    0.1407503 -56.92  0.001359857    2.932    0.659
       406  -7.7459    211.3579     82.7308   2.9537949035e+01   2.1403947984e+01    0.1375497   0.09724575 -69.07 0.0002139572    1.641    0.391
       407  -9.0535     22.4909     90.3992   8.5276921435e+01   5.6797972549e+01     0.391964    0.2424794 -37.43  0.001532702    1.679    0.404
       408  -9.5330     24.6190     80.4965   8.2363766131e+01   5.9078304827e+01    0.4401656    0.2622286  83.05  0.001332609    2.409    0.585
       409  -8.9440    119.3597     79.8173   4.6844241727e+01   4.3117447157e+01    0.3592466    0.2353429 -50.17   0.00129781    1.612    0.380
       410  -8.7942     74.8228     80.2539   6.1360787748e+01   5.2343537007e+01    0.3285797    0.2115501 -65.78  0.001055089    1.980    0.495
       411  -9.5093      9.5588     80.4328   8.9082237816e+01   6.0202908105e+01    0.3449909    0.1745584  59.04  0.001273284    2.731    0.634
       412  -8.4942    166.9117     79.3476   3.5839421969e+01   3.1906994443e+01    0.2497297    0.1881978 -47.89 0.0005255508    1.296    0.228
       413  -8.1512    150.2185     80.2118   3.9449950023e+01   3.5732993252e+01    0.2141186    0.1732786 -69.02 0.0008356874    1.367    0.269
       414  -8.1493    184.4162     77.9779   3.2395329518e+01   2.8057228110e+01    0.2204183    0.1326717 -37.16 0.0006204767    1.582    0.368
       415  -8.4131    156.9620     76.2044   3.6891547525e+01   3.4822301377e+01     0.218481    0.1513143 -57.37  0.000367006    1.573    0.364
       416  -8.7284    140.3815     75.0533   4.0108147864e+01   3.9028714079e+01    0.3158087    0.2135185 -57.02 0.0008213808    1.667    0.400
       417  -9.2742    128.2059     75.2264   4.3087444457e+01   4.1920065916e+01    0.3604102    0.2431115 -58.52 0.0006969112    1.737    0.424
       418 -10.0141     63.2083     73.4144   6.3725203836e+01   5.5876812691e+01    0.4655932    0.2888885 -63.48 0.0009474051    1.961    0.490
       419  -9.7079     82.4649     72.4670   5.6056551492e+01   5.2592608913e+01    0.4220315    0.3093003 -74.24 0.0009043509    1.917    0.478
       420  -8.4981    163.4431     72.9073   3.4692037665e+01   3.3824317938e+01    0.2762724    0.1346633 -41.11  0.001109606    1.978    0.495
       421  -7.7811    151.2299     72.9752   3.7123802074e+01   3.6765818328e+01    0.1952943    0.1231193 -38.31 0.0004254075    1.586    0.369
       422  -9.0710    115.8195     72.5220   4.5504191653e+01   4.5348378998e+01    0.3349984    0.2155135 -50.12  0.001111294    1.667    0.400
       423  -8.3460     42.7011     72.5580   7.2226505179e+01   5.9058457942e+01    0.2344958    0.1729885 -84.09 0.0009521968    1.777    0.437
       424  -7.8221    175.5941     72.2195   3.2329849366e+01   3.1041531785e+01    0.1946668    0.1386851 -25.45 0.0006045211    1.561    0.360
       425  -9.2751    105.9419     71.4675   4.8004742417e+01   4.7815295660e+01    0.2830087    0.2102408 -59.89 0.0006435576    1.564    0.360
       426  -9.2308     95.1974     71.1350   5.1252476249e+01   5.0245279969e+01     0.356032    0.2471595 -60.04 0.0009081374    1.744    0.426
       427  -9.1659     29.6645     69.8824   7.7486831264e+01   6.1162906163e+01    0.5893925    0.2681352 -17.75  0.001854485    4.740    0.789
       428  -9.4245     51.4769     69.3618   6.7372611520e+01   5.8602027755e+01    0.4329963    0.2628836 -70.76  0.001302834    2.316    0.568
       429  -9.0070     16.8990     69.9524   8.3603332131e+01   6.2263264657e+01    0.2918634    0.2070996  76.44 0.0009178231    1.799    0.444
       430  -8.8084    146.9986     67.8911   3.6489641762e+01   3.8666468635e+01    0.3192737    0.2065067 -49.85 0.0005799831    1.606    0.378
       431  -8.6870    121.6359     65.7677   4.1736719168e+01   4.5214912808e+01    0.2845771    0.2151342 -69.09 0.0006627831    1.620    0.383
       432  -8.6678     37.4523     64.4083   7.2222609484e+01   6.1575862769e+01    0.2867725    0.1974557  69.04  0.001345123    2.269    0.559
       433  -9.0018    110.0736     63.3375   4.4054157229e+01   4.8389865405e+01     0.308728    0.2289992 -63.84 0.0005953197    1.649    0.394
       434  -8.6764     65.5924     62.3420   5.9016827468e+01   5.7851549364e+01    0.4052337    0.2223317  11.03  0.001290588    4.114    0.757
       435  -8.7470    138.7928     65.9152   3.7658243111e+01   4.1015704811e+01    0.2838993     0.194717 -57.21 0.0007705866    1.635    0.388
       436  -9.0584     97.5275     60.2848   4.6734768961e+01   5.1814425543e+01    0.3267436    0.2267103  60.13 0.0007650538    1.580    0.367
       437  -9.6900     73.3217     59.0647   5.4753133781e+01   5.7091942549e+01    0.5150899    0.2608598 -51.51  0.001443576    2.253    0.556
       438  -8.0374    147.0134     58.9508   3.3751248712e+01   4.0126366044e+01    0.1781344    0.1687917 -59.73 0.0004218449    1.057    0.054
       439  -7.8026     89.2862     59.6322   4.9186709344e+01   5.3739261941e+01    0.1488909    0.1183559 -78.62  0.000702048    1.701    0.412
       440  -8.4869    130.8461     57.5904   3.6789130701e+01   4.4360763058e+01    0.2852412    0.1801861 -53.33 0.0006271136    1.781    0.438
       441  -9.7864     23.5583     56.2229   7.6661465359e+01   6.4903034834e+01    0.4561917     0.294537  80.34  0.002011943    2.678    0.627
       442  -9.5354      7.7297     57.0568   8.5264007635e+01   6.5912702067e+01    0.3400594    0.2229714  70.25  0.001185982    2.122    0.529
       443  -8.3787    140.0775     55.6338   3.4128049710e+01   4.2377573876e+01    0.2530445    0.1926085 -47.99 0.0006067522    1.342    0.255
       444  -8.8996    119.1276     55.3787   3.8875431446e+01   4.7600383042e+01    0.3808174    0.2150317 -48.88  0.001278581    1.972    0.493
       445  -8.6909     44.0753     55.2967   6.6024812125e+01   6.2721271003e+01     0.284895    0.1906022 -60.96  0.001173961    1.723    0.420
       446  -9.0977     62.8817     54.3731   5.7198757025e+01   5.9935445445e+01    0.3222292    0.1998903 -51.40 0.0007688467    1.761    0.432
       447  -8.9100     54.0577     53.7374   6.0803003123e+01   6.1549611437e+01    0.3566153    0.2021378 -59.60   0.00129421    2.319    0.569
       448  -8.6735    250.5013     54.5115   1.8903317254e+01   1.7659195615e+01    0.1211557   0.09706924 -49.79 -8.403333e-05    1.012    0.012
       449  -8.7987    105.7679     52.9330   4.1602617211e+01   5.1207819378e+01    0.2656497    0.1986787 -56.56 0.0006417943    1.545    0.353
       450  -9.4169     92.4356     50.3461   4.4673718347e+01   5.4706510039e+01     0.402813    0.2463334 -50.66  0.001266364    1.917    0.478
       451  -8.6116    144.7044     48.9713   3.1073989781e+01   4.2226395990e+01    0.2060423    0.1812839 -41.80 0.0005277305    1.171    0.146
       452  -8.4021    129.7206     48.9890   3.4172227901e+01   4.5989726236e+01     0.203134    0.1903615 -43.23 0.0004666232    1.115    0.103
       453  -8.1667    120.7039     47.1076   3.5598974783e+01   4.8518663856e+01    0.2295463    0.1740821 -54.05 0.0006574518    1.443    0.307
       454  -8.2631    112.4641     46.9301   3.7589981000e+01   5.0568070209e+01    0.2130514    0.1436436 -38.55  0.001003818    1.549    0.354
       455  -8.9884     82.2602     46.3227   4.6514522112e+01   5.7611859129e+01    0.3008246    0.2357293 -55.96 0.0008307049    1.522    0.343
       456  -8.6888     45.0538     44.5025   6.1415455747e+01   6.4769531322e+01    0.2403853    0.1886036 -60.03 0.0007118861    1.557    0.358
       457  -8.9043     16.8857     44.5620   7.6641622659e+01   6.8061245050e+01    0.2340362    0.1665691 -79.45 0.0006761099    1.851    0.460
       458  -8.4709    132.8286     43.0646   3.1501715206e+01   4.6074177227e+01    0.2226958     0.189237 -72.70 0.0004833373    1.240    0.193
       459  -8.4451     92.8579     42.7154   4.1560238071e+01   5.5855346604e+01     0.252116    0.1489779  19.34 0.0009552394    2.796    0.642
       460  -9.2444     69.6625     41.2742   4.9113822539e+01   6.1056776762e+01    0.4029253    0.2763662 -60.87  0.001519649    2.114    0.527
       461  -9.0353     58.2389     42.2835   5.4318749045e+01   6.3028351991e+01    0.3171262    0.2296495 -58.71 0.0009854794    1.814    0.449
       462  -9.9426      5.2408     41.7796   8.2664624139e+01   6.9496123578e+01    0.3693195    0.2254155 -82.77  0.001919466    2.152    0.535
       463  -7.7693    140.3749     41.2089   2.9391456680e+01   4.4421624481e+01     0.199262    0.1264429 -44.99 0.0004795958    1.619    0.382
       464  -8.7259    106.0503     40.7613   3.6982111108e+01   5.3049094714e+01    0.2444236    0.1924551 -47.94 0.0004343175    1.383    0.277
       465  -8.7630     36.8845     40.6412   6.4002378622e+01   6.6676787573e+01    0.2448992    0.1909386 -53.78 0.0007681639    1.429    0.300
       466  -7.5133    160.5274     39.5165   2.5422118413e+01   3.9555158920e+01    0.1437517    0.1273855 -78.26 -2.706613e-05    1.060    0.057
       467  -8.6814     95.7423     37.9013   3.8759339764e+01   5.5916699766e+01     0.253935    0.1864647 -53.04 0.0007051101    1.602    0.376
       468  -8.2335     80.5333     36.5013   4.3042162092e+01   5.9560240522e+01    0.2314949    0.1275663 -45.58  0.000745983    2.097    0.523
       469  -7.7476    133.6800     36.3123   2.9037860804e+01   4.6779145267e+01    0.1495483    0.1058479 -70.84 0.0005637205    1.649    0.394
       470  -9.2444     26.1752     35.2139   6.7699216475e+01   6.9063402464e+01    0.2749489    0.2155279 -69.21 0.0008950224    1.720    0.419
       471  -8.0814    126.0226     35.3258   3.0238121696e+01   4.8850753333e+01    0.1987574    0.1749183  69.11  0.000422162    1.062    0.058
       472  -8.4651    111.9866     34.5430   3.3103525629e+01   5.2469527482e+01    0.2658847    0.1871422 -50.24 0.0005737562    1.589    0.371
       473  -7.8530     88.6842     34.3290   3.9434447849e+01   5.8063761787e+01     0.140513    0.1117152 -75.86 0.0006339447    1.678    0.404
       474  -8.4818    119.1544     32.7457   3.0780035564e+01   5.0918045867e+01    0.2493729    0.1830788 -46.17 0.0005759655    1.461    0.315
       475  -8.7662     60.6134     32.1514   4.8766462555e+01   6.4300443057e+01    0.2453836    0.2019868 -47.81 0.0008347624    1.428    0.300
       476  -8.6733     48.7095     33.1289   5.4649920855e+01   6.6266022074e+01    0.2078814     0.179453  41.18  0.000553192    1.277    0.217
       477  -8.5888     72.1921     30.9788   4.3602410863e+01   6.2163753840e+01    0.2005392    0.1876655 -71.65 0.0006509828    1.313    0.239
       478  -8.8521     12.9752     30.2024   7.3781873286e+01   7.1366835425e+01    0.2943809    0.1825534 -71.05  0.001521663    2.254    0.556
       479  -8.0085     42.0000     29.9549   5.6521632840e+01   6.7887428554e+01    0.2051504   0.07147211 -42.61 0.0004875409    2.861    0.651
       480  -8.5329    101.8081     29.1581   3.3548121037e+01   5.5667803586e+01    0.2154583    0.1881187 -77.44 0.0006344235    1.302    0.232
       481  -8.1839    182.9663     27.7567   1.9116448626e+01   3.5486218446e+01    0.1853662    0.1554635 -84.13  0.000232539    1.076    0.070
       482  -8.9409     81.6421     27.2371   3.8612502055e+01   6.0636344974e+01    0.2940048    0.2187246 -60.04 0.0009967571    1.788    0.441
       483  -9.0923      3.9135     27.4560   7.8786336009e+01   7.2593506204e+01    0.2096678    0.1662053 -75.71 0.0008628213    1.580    0.367
       484  -8.8221     91.8636     26.2355   3.5047397834e+01   5.8415896511e+01    0.2909923    0.1824802 -45.71   0.00100623    1.851    0.460
       485  -8.0486     34.5904     22.8259   5.6995931745e+01   7.0197264757e+01     0.162631    0.1183245 -47.84 0.0006083919    1.615    0.381
       486  -8.1027    104.5123     22.5197   3.0192191619e+01   5.5812276096e+01    0.1401207    0.1272005  56.44 6.589592e-06    1.004    0.004
       487  -8.8168     63.7364     21.0306   4.2111307709e+01   6.5297593114e+01    0.2804783    0.1934286 -51.08  0.001188562    1.930    0.482
       488  -8.7948     48.4955     21.3098   4.8916574739e+01   6.8173123150e+01    0.2240444    0.2064889 -41.70 0.0006420597    1.336    0.251
       489  -7.9422    120.7635     21.0156   2.6114470348e+01   5.1909729673e+01    0.1709382    0.1188197 -27.16 0.0004951206    1.584    0.369
       490  -8.1085     19.5470     21.0526   6.5318686709e+01   7.2446768964e+01    0.1504503    0.1122465 -75.74 0.0006815267    2.408    0.585
       491  -8.7186     74.0831     19.4429   3.7527814708e+01   6.3305909659e+01    0.2380559    0.1807055 -46.55 0.0006585813    1.579    0.367
       492  -8.0598     38.7048     18.1736   5.2237004810e+01   7.0293198559e+01    0.1831167    0.1550556 -39.43 0.0005259474    1.385    0.278
       493  -8.2816     87.5492     17.1169   3.2270867841e+01   6.0509428280e+01     0.192203    0.1339793 -26.72  0.001014362    1.561    0.359
       494  -7.9289     30.4022     16.1727   5.5857536644e+01   7.1865402795e+01     0.161714    0.1145336 -45.26 0.0005947202    1.649    0.393
       495  -8.0367     97.1574     15.1543   2.8901105618e+01   5.8418451212e+01    0.1844335    0.1568534 -65.32 0.0004995838    1.356    0.263
       496  -8.1963      7.5266     15.0408   7.0767743386e+01   7.4709949920e+01    0.1453347    0.1077064 -83.03 0.0008090907    2.476    0.596
       497  -7.5168     17.2931     13.7071   6.2962356718e+01   7.3962127193e+01     0.103084   0.09755231  52.05 0.0003091891    1.554    0.357
       498  -7.5204    119.6986     11.2907   2.2688494121e+01   5.3170845133e+01    0.1365414   0.09774209 -69.94 0.0003798667    1.566    0.361
       499  -8.3523    191.7886    249.6075   6.5565717839e+01  -1.6903227960e+00    0.1601083   0.08761678  36.43 0.0005950175    1.703    0.413
       500  -9.0437    175.5684    247.3374   6.8298648847e+01   6.9046577668e-01    0.2722276    0.2288766 -79.81   0.00134832    2.250    0.556
       501  -9.0223    132.4996    248.0085   7.6941281638e+01   6.3929642602e+00    0.2437548    0.1783886  60.61 0.0008951627    1.773    0.436
       502  -8.3020    113.1654    248.6598   8.1003489181e+01   8.9145754165e+00    0.1855917    0.1576752  83.57  0.001115551    1.503    0.335
       503  -9.2638    103.8663    246.6786   8.2739942218e+01   1.0493829202e+01    0.3862048    0.2279561  89.92  0.001944611    2.993    0.666
       504  -8.5219    218.7626    247.5567   6.0468224831e+01  -4.6989486603e+00    0.2206025    0.1322732 -33.52 0.0009653536    1.804    0.446
       505  -8.8857    156.2647    247.8340   7.2126944878e+01   3.1893710354e+00    0.2001853    0.1689801  52.25 0.0007814254    1.523    0.343
       506  -9.2733    224.4940    245.5076   5.9189530245e+01  -5.1196668441e+00    0.2414274    0.1553305 -17.19  0.001056831    1.399    0.285
       507  -9.6051    223.6623    242.3404   5.8861252857e+01  -4.6508295651e+00    0.2067794    0.1892607 -28.61  0.001247744    1.745    0.427
       508  -9.2640    210.9633    246.1267   6.1617394408e+01  -3.6072820001e+00    0.2172735    0.1524789 -36.80  0.001039557    1.757    0.431
       509  -9.5361    146.9694    245.2359   7.3658381712e+01   4.8392277741e+00    0.2471889    0.2415896 -17.73  0.001124679    1.319    0.242
