#   1 NUMBER                 Running object number                                     
#   2 MAG_AUTO               Kron-like elliptical aperture magnitude                    [mag]
#   3 X_IMAGE                Object position along x                                    [pixel]
#   4 Y_IMAGE                Object position along y                                    [pixel]
#   5 X_WORLD                Barycenter position along world x axis                     [deg]
#   6 Y_WORLD                Barycenter position along world y axis                     [deg]
#   7 A_WORLD                Profile RMS along major axis (world units)                 [deg]
#   8 B_WORLD                Profile RMS along minor axis (world units)                 [deg]
#   9 THETA_WORLD            Position angle (CCW/world-x)                               [deg]
#  10 FWHM_WORLD             FWHM assuming a gaussian core                              [deg]
#  11 ELONGATION             A_IMAGE/B_IMAGE                                           
#  12 ELLIPTICITY            1 - B_IMAGE/A_IMAGE                                       
         1 -15.5603      6.1161     67.5264   1.1062830018e+02   6.1640588175e+01     2.028187     1.062363 -64.25   0.01123235    1.576    0.366
         2 -15.6327    218.3592     16.5522   3.6348379621e+01   2.8736927119e+01     1.924883     1.589872 -33.90   0.01228407    1.355    0.262
         3 -14.5246    189.1622     26.2893   4.1975738786e+01   3.4589701399e+01      1.59198    0.6836361 -56.30  0.006112786    2.965    0.663
         4 -13.5431    131.8818     32.9479   5.3767890927e+01   4.8089065181e+01    0.8747094    0.4893306 -32.49  0.003531673    1.914    0.478
         5 -14.2361    121.7889     37.6385   5.7778350409e+01   4.9906623759e+01    0.9939387    0.5500883  33.26  0.002605112    2.049    0.512
         6 -14.6369     41.3442      5.8701   7.1646443282e+01   6.9505182763e+01     2.478837     1.141685  -6.31  0.009857761    3.824    0.738
         7 -13.5466      2.6772     10.7726   9.5314967987e+01   7.2879495149e+01    0.7502039    0.3887245 -50.88  0.004520577    1.881    0.468
         8 -13.1885      8.3329      2.6567   8.8007199230e+01   7.3720805834e+01    0.5255699    0.4318658  45.74  0.002549435    2.314    0.568
         9 -15.9981     12.2580     21.7975   9.4402090207e+01   7.0379095986e+01     1.874063    0.9148397 -28.81  0.009361303    1.770    0.435
        10 -14.9090    166.6372     29.4561   4.6094807524e+01   3.9838889889e+01     1.124751    0.9471093  66.22  0.003955737    1.080    0.074
        11 -15.0123    147.0924     29.6744   4.9561616561e+01   4.4726515779e+01     1.504059     0.906659  59.65   0.00574378    1.485    0.326
        12 -14.2092     24.8216     13.9192   8.4061961439e+01   7.0513713674e+01    0.7046559    0.3295864  27.43   0.00385189    2.111    0.526
        13 -15.5202     97.6854     12.3548   5.4414645081e+01   5.8332463836e+01     1.831926    0.7419183  50.60  0.006065401    2.028    0.507
        14 -12.3040     60.1524     17.5189   6.9164692980e+01   6.5141700794e+01    0.3603058     0.192289 -33.42   0.00187177    1.940    0.485
        15 -12.3107    232.5310      2.2606   3.2028279041e+01   2.7091136374e+01    0.4327296    0.2314695  65.31  0.002170094    1.828    0.453
        16 -14.4002    187.3636     11.5119   3.8302549276e+01   3.6639533990e+01     1.146194    0.6576601 -55.79   0.00578541    1.819    0.450
        17 -11.7693     46.5902     13.2595   7.2936082111e+01   6.7828084101e+01    0.2966021    0.2122397  35.02    0.0015872    1.442    0.307
        18 -12.7734    202.9332     10.7983   3.6471772232e+01   3.2957931258e+01    0.4640471    0.2828325 -39.99  0.002543973    1.632    0.387
        19 -13.5998    139.7268     22.1385   4.8507185029e+01   4.7412334694e+01    0.9162955     0.310319  60.90  0.002244811    2.536    0.606
        20 -12.2032    153.1035      9.0833   4.2073538078e+01   4.5376628416e+01    0.2561175    0.2278958  13.11    0.0010428    1.314    0.239
        21 -11.2734     68.2121      9.5661   6.2371048105e+01   6.4627830777e+01    0.2394221    0.1160308  52.46  0.001141208    2.169    0.539
        22 -11.0238     58.9464      6.9940   6.4625767760e+01   6.6565369876e+01     0.168108    0.1598769 -79.36  0.001135257    1.708    0.414
        23 -10.7394    160.8677      6.3883   4.0162394161e+01   4.3685291314e+01    0.2034499   0.09791059  57.99 0.0009427387    1.767    0.434
        24 -13.0686    120.3854     26.0500   5.3969998623e+01   5.1678818952e+01    0.8540324    0.5987225  24.63  0.004400373    1.551    0.355
        25 -11.7910     78.0895      2.7737   5.5922697770e+01   6.3357788850e+01    0.3419351    0.2261725  37.37  0.001617616    1.247    0.198
        26 -11.0868     83.0161      1.0000   5.3655597182e+01   6.2495065463e+01    0.2637033    0.1313618  53.38  0.001327735    1.721    0.419
        27 -12.1901     61.7650      2.0355   6.1106427792e+01   6.6560797033e+01    0.3234243    0.1955898  49.91  0.001172432    1.659    0.397
        28 -12.3814    118.9934      3.0149   4.5890321236e+01   5.4248531627e+01    0.4796094    0.2830122  84.35  0.002226711    2.169    0.539
        29 -12.3135     71.3667     17.5181   6.4879001733e+01   6.3155678866e+01    0.3777787    0.2379747 -21.96  0.001237721    1.602    0.376
        30 -13.1767    124.8730    168.5123   9.3071332008e+01   2.2476718664e+01    0.7646523    0.3153017 -53.39  0.002789739    2.552    0.608
        31 -11.9541     51.8097    248.6720   1.1929263003e+02   1.6637749154e+01    0.3812047    0.2023646 -76.66  0.002296156    1.966    0.491
        32 -12.5813     57.0946    246.9064   1.1818226127e+02   1.6311210536e+01    0.4545703    0.1628057  36.52   0.00220403    2.425    0.588
        33 -11.8797      2.8406    249.7777   1.2791604079e+02   2.1718140743e+01    0.3098801    0.1643755  42.26  0.001785567    1.634    0.388
        34 -13.8196      9.0629    245.6191   1.2670795540e+02   2.1874721098e+01    0.7470663    0.3535545  55.49  0.003534728    1.571    0.364
        35 -12.2163     13.8908    158.9697   1.2037193641e+02   3.9709900922e+01    0.4672381    0.1957354 -57.76  0.002269712    2.190    0.543
        36 -11.8387     77.4935    157.0026   1.0349048279e+02   3.3112015927e+01    0.3659256    0.2572001  26.64  0.001299359    1.599    0.375
        37 -13.0828     73.8692    153.1290   1.0384543116e+02   3.4579262437e+01     0.633055    0.4866504  26.43  0.002832075    1.454    0.312
        38 -10.9244    112.4995    157.4956   9.4153710520e+01   2.7277506309e+01    0.1493299    0.1446225  66.09 0.0008106515    1.012    0.012
        39 -12.5993    209.0431    154.9119   7.0911086279e+01   8.7044259985e+00    0.6188405    0.3537385  41.10  0.002797511    1.787    0.440
        40 -11.7167     85.9258    152.8855   1.0048188554e+02   3.2849011364e+01    0.3817522    0.1852713 -49.05  0.001550428    2.089    0.521
        41 -11.7150    103.1752    150.1706   9.5229266909e+01   3.0669024268e+01    0.4256572    0.2727608 -33.86  0.001826683    1.950    0.487
        42 -12.5212     60.9991    148.0738   1.0660708710e+02   3.7552858073e+01    0.3799516    0.2773291 -18.38  0.001183493    1.913    0.477
        43 -12.6624    163.5019    194.9850   8.8817548774e+01   9.7661202156e+00    0.3848341    0.2852443 -77.36  0.001836768    2.135    0.532
        44 -10.6833     62.8537    138.7970   1.0455829793e+02   3.9609645959e+01    0.1921237    0.1563589  82.73 0.0005134306    1.294    0.227
        45 -12.1501     45.2492    135.4159   1.0915246894e+02   4.2525140664e+01    0.3246105    0.2348776  72.60  0.001746123    1.527    0.345
        46 -14.3690    230.7374    129.5774   6.1245548787e+01   9.0006251326e+00      1.15041    0.9132884  54.29  0.006325917    1.459    0.315
        47 -10.5166     10.9827    134.2421   1.1875707790e+02   4.5787403304e+01    0.1354198     0.106293  25.42 0.0006725018    1.545    0.353
        48 -13.4486    120.1896    102.4029   7.9020282381e+01   3.8584134032e+01    0.7380924    0.3440141  39.17   0.00269692    2.212    0.548
        49 -14.3494    105.7598    121.7270   8.8269715222e+01   3.7024239788e+01     1.661278     1.181186  32.36  0.007685526    1.473    0.321
        50 -14.9476    106.8759    105.3727   8.3761129852e+01   4.0609801052e+01     1.794478     1.426205   9.28  0.007830452    1.478    0.323
        51 -11.3283     59.9039    125.4595   1.0304905979e+02   4.3289078807e+01    0.3310966    0.2035338  -0.42  0.001341188    2.604    0.616
        52 -12.8560     28.6041    122.4599   1.1218039075e+02   4.7302963658e+01    0.3788262    0.2448809 -67.17   0.00208824    1.306    0.234
        53 -11.6087    182.1579    121.9643   6.8741642793e+01   2.0652656765e+01    0.4815311    0.3084755  88.19  0.001586263    3.660    0.727
        54 -12.4993     77.0815    117.2124   9.5974774390e+01   4.2948799073e+01    0.5134214    0.4449878 -85.19  0.002766513    1.273    0.214
        55 -13.1597     84.9123    115.2234   9.3052494958e+01   4.2208811036e+01     0.722886    0.4194966  32.36  0.002452063    1.835    0.455
        56 -12.1875     88.1478    109.7081   9.0695978651e+01   4.2991753741e+01    0.4259173     0.282994 -62.29  0.001840209    1.639    0.390
        57 -11.8635      3.6537    119.9274   1.1929936620e+02   4.9649053701e+01    0.4631856    0.1724526  14.25  0.002094646    3.517    0.716
        58 -14.6881     26.5043     93.9925   1.0812103416e+02   5.4326940496e+01     1.324925     1.091633  11.58  0.008364137    1.408    0.290
        59 -13.3417      6.1920     43.7883   1.0494145288e+02   6.6640864874e+01    0.7935069    0.3346708  13.31  0.004110791    2.648    0.622
        60 -13.4564     28.4386    246.1866   1.2337421888e+02   1.9780632773e+01    0.4270758    0.2704641  65.80  0.002977418    1.220    0.180
        61 -11.4488    121.5183    112.3650   8.1338696279e+01   3.6093787198e+01     0.263561    0.1490896  41.83 0.0006925278    1.775    0.437
        62 -12.0739     62.0467    109.3418   9.9084536361e+01   4.6964641887e+01    0.5901237    0.3729252 -74.97  0.002693332    1.908    0.476
        63 -11.6362    177.0967    110.2714   6.6861821032e+01   2.4110071165e+01    0.3733922    0.2312756 -22.98  0.001490072    2.033    0.508
        64 -12.3417     32.4097    110.3592   1.0906679140e+02   4.9922614506e+01    0.2586759    0.2222193 -84.94  0.001595213    1.179    0.152
        65 -14.2501     17.7940    111.0348   1.1388063454e+02   5.0897874501e+01    0.8545442    0.6247274 -44.53  0.003759292    1.325    0.245
        66 -14.2865     10.8971    101.9809   1.1479780841e+02   5.3494144579e+01    0.7538815    0.7071474 -49.19  0.004900886    1.173    0.147
        67 -12.1272    136.2858    103.0960   7.4757413987e+01   3.4946023170e+01    0.6612542    0.2493228  46.14  0.002163713    2.651    0.623
        68 -12.4764     62.6833     99.5077   9.6606943001e+01   4.9234540536e+01    0.6378012    0.3979298  82.30  0.002454199    3.204    0.688
        69 -12.5809     49.2627     94.5427   1.0012987202e+02   5.2044325279e+01    0.5821922    0.4343518 -39.96  0.002906973    1.236    0.191
        70 -13.1309    249.3082     97.6521   5.1238770060e+01   1.0695217223e+01    0.6359761    0.1787053 -38.05  0.002267304    2.980    0.664
        71 -12.2653    136.7179     95.4008   7.2470568202e+01   3.6454134241e+01     0.478569     0.301743  55.31  0.001484298    1.734    0.423
        72 -11.5242     65.9668    126.6162   1.0140391766e+02   4.2217715920e+01    0.3045816    0.2475332  40.00 0.0008949356    1.312    0.238
        73 -11.7627     42.7113     90.7729   1.0161797186e+02   5.3629089956e+01    0.3282701    0.2160363 -66.40 0.0008643741    1.519    0.342
        74 -11.8540     90.4526     88.3501   8.4174696444e+01   4.7466343223e+01    0.4400052    0.3065574  47.39  0.002078382    1.588    0.370
        75 -11.4488     34.3615     86.8813   1.0380551708e+02   5.5334032914e+01    0.2350402    0.1839511  -9.56 0.0009448779    1.403    0.287
        76 -12.4157     51.4326     98.7246   1.0032144013e+02   5.0809811044e+01    0.7025276    0.3798196  -4.82  0.002687826    3.336    0.700
        77 -13.3324    237.1725     80.2318   4.8949905551e+01   1.5893160036e+01    0.5086169    0.3210432  73.93  0.002523757    1.925    0.481
        78 -12.6637    188.3644     84.3975   5.7745054160e+01   2.6262470000e+01    0.7448804    0.3163063  42.24  0.002580008    2.839    0.648
        79 -12.0740    149.2773     85.1132   6.6299912600e+01   3.5559707893e+01    0.5427384     0.301095  34.28  0.002054997    2.196    0.545
        80 -13.8252    160.8268     80.9566   6.2413172459e+01   3.3546282316e+01     2.098886     1.322714   4.42  0.007385957    3.097    0.677
        81 -14.5881    169.5357     77.1197   5.9448746793e+01   3.2099523249e+01     1.880479     1.327249 -81.57  0.008105949    1.999    0.500
        82 -13.5505     66.1402     49.0011   7.9935288074e+01   5.9383009977e+01    0.7998919    0.5330243 -29.88  0.001476951    1.418    0.295
        83 -12.9130     60.3451     60.7166   8.6385988778e+01   5.8051808513e+01    0.7670681    0.4004932 -17.49  0.002750527    3.200    0.687
        84 -13.3094     57.6583     66.7657   8.9414821832e+01   5.7198446853e+01    0.6096171    0.5406091  12.72  0.003695707    1.165    0.142
        85 -12.9202     51.5096     69.1011   9.2557611634e+01   5.7495898647e+01    0.7010738    0.4859809 -81.58  0.003280374    2.521    0.603
        86 -13.9375     60.9260     75.7775   9.0907701730e+01   5.4854009593e+01    0.6800737    0.4465799 -34.97  0.001451218    1.442    0.307
        87 -13.0496    213.1977     78.5673   5.2003416360e+01   2.1419105836e+01     1.010335    0.5949106  78.98  0.004258503    2.365    0.577
        88 -12.3133    218.2825     74.5609   5.0251238777e+01   2.0904392440e+01    0.3352044     0.266064  66.94  0.001550468    1.316    0.240
        89 -12.2059    214.4972     71.9891   5.0177172584e+01   2.2171047639e+01    0.3524098     0.321352  67.81  0.001505827    1.137    0.121
        90 -12.8819    135.1373     80.1491   6.8373356057e+01   3.9833603894e+01    0.7420738     0.391819  44.05  0.002766471    1.867    0.464
        91 -12.0152    114.1667     80.2400   7.4249322914e+01   4.4501320654e+01    0.3891188    0.3373549 -52.71 0.0009228271    1.261    0.207
        92 -13.6198      2.1947     97.2589   1.1700579940e+02   5.5060893817e+01     0.828221    0.2318918 -73.31  0.003235151    3.052    0.672
        93 -13.6304     87.6119     65.3184   7.7866971989e+01   5.2705693459e+01     1.087526    0.6315515  12.03  0.004039047    2.830    0.647
        94 -13.1025     91.7189     58.4038   7.4076293376e+01   5.3205117350e+01     0.548223    0.4777671 -54.04  0.002465526    1.386    0.279
        95 -12.9270     70.3736     75.8109   8.7407599313e+01   5.3487984077e+01    0.5648909    0.4256512 -20.55  0.002129061    1.363    0.266
        96 -12.3463     77.0044     73.7241   8.4357295132e+01   5.2879583702e+01    0.4867384    0.3318578 -24.00  0.001462387    1.581    0.368
        97 -10.5699     38.9634     80.4418   1.0056229054e+02   5.6379072882e+01    0.1754067    0.1295487  18.59 0.0004170397    1.502    0.334
        98 -11.7539     41.9894     76.4872   9.8384702561e+01   5.6962316370e+01    0.2940786    0.2020105 -56.31  0.001452896    1.353    0.261
        99 -11.2746     27.3671     77.2289   1.0428048753e+02   5.8130743972e+01    0.2550309     0.185116 -89.46  0.001050454    1.825    0.452
       100 -10.9229     22.9791     75.4984   1.0560460898e+02   5.8853883399e+01    0.1641711     0.123654   6.68 0.0003402584    1.497    0.332
       101 -13.7003    199.1572     69.7727   5.1995997015e+01   2.6115180754e+01    0.8077131    0.5025813  46.38  0.002501226    1.738    0.425
       102 -12.1326    199.8492     62.3123   4.9943410266e+01   2.7110595116e+01     0.406806    0.2982571 -28.55  0.001318124    1.462    0.316
       103 -12.0683    241.7271     71.3601   4.6346376045e+01   1.6296793614e+01    0.4039965    0.2567427 -71.20  0.002007936    1.917    0.478
       104 -13.3610    133.5970     65.8297   6.4295921907e+01   4.2788932823e+01      0.83357     0.698649  -2.49    0.0030246    1.330    0.248
       105 -12.4747     37.8165     68.2502   9.7818826504e+01   5.9186868107e+01    0.7250717    0.2551479  25.43  0.002966555    3.086    0.676
       106 -11.6120     43.3107     64.8974   9.4602173875e+01   5.9330566838e+01    0.1877275     0.164318 -43.27 0.0005723418    1.143    0.125
       107 -11.5440    100.4764     64.6882   7.3394217120e+01   5.0329763277e+01    0.3918369    0.2578485 -14.36  0.001725362    1.924    0.480
       108 -13.9266    178.0415     57.6480   5.2293709474e+01   3.3161719995e+01    0.9017617    0.6793154 -45.89  0.002734795    1.345    0.257
       109 -12.5259     79.6991     61.0337   7.9177835517e+01   5.4935230546e+01    0.5624042     0.464946 -26.10  0.002368046    1.141    0.124
       110 -12.9937     82.4895     54.4856   7.5854551538e+01   5.5634321398e+01     0.478288    0.3627656   4.01  0.001823857    1.392    0.282
       111 -11.7282     77.9536     54.0038   7.7310982800e+01   5.6528704842e+01    0.3127957    0.2372044  22.59 0.0008445771    1.286    0.222
       112 -12.2718     24.6945     60.0237   1.0104248831e+02   6.2100952391e+01    0.3714036    0.1879055 -50.85  0.001931748    1.594    0.372
       113 -10.7419     38.4940     60.0071   9.5131882636e+01   6.0858690541e+01    0.2012041    0.1158691 -52.76   0.00103095    1.607    0.378
       114 -14.5626    119.6505     54.4366   6.4201524493e+01   4.7935752955e+01    0.9749518    0.7116806  31.33  0.003522481    1.395    0.283
       115 -13.2209     55.2333     82.0827   9.4827395203e+01   5.4206081328e+01    0.5596995    0.4398228 -17.33  0.002263916    1.308    0.235
       116 -13.0271    248.1908     51.9921   4.1327110914e+01   1.7738286782e+01    0.6502993    0.3854757 -33.28   0.00346683    1.646    0.393
       117 -11.6450    230.9057     55.5006   4.4034213225e+01   2.0940668493e+01    0.4002922    0.1319263  65.32  0.001486563    3.269    0.694
       118 -12.6804    135.4550     50.4972   5.8848348619e+01   4.4813636569e+01    0.5568619    0.3348454  32.63  0.002382053    1.941    0.485
       119 -13.6824    103.0437     50.5473   6.7629534689e+01   5.2232837536e+01    0.8679132    0.6403916 -73.26 0.0007736339    2.289    0.563
       120 -12.2340     97.7877     50.5737   6.9278252291e+01   5.3328356351e+01    0.3824036    0.3322848 -73.55  0.001577925    1.588    0.370
       121 -11.2071     22.9811     50.3476   9.9006496473e+01   6.4232149701e+01    0.2294311    0.1365581  -7.57 0.0008958307    1.844    0.458
       122 -13.2731    158.0334     44.1409   5.2008057929e+01   4.0130155584e+01    0.7337012    0.5505322  31.53  0.003377986    1.511    0.338
       123 -13.3484    170.9028    242.7975   9.5019847524e+01   2.7442718674e-01    0.5160221    0.3510359  13.08  0.002949987    1.577    0.366
       124 -15.0035    212.7869     41.1766   4.2807635984e+01   2.7037830159e+01     2.531961     0.754034  71.40  0.007962871    4.311    0.768
       125 -14.1311     96.5865    238.9703   1.0972573009e+02   1.2431018112e+01    0.6246336    0.4330162  55.68  0.003088264    1.266    0.210
       126 -11.7799     40.1560    243.5393   1.2110052185e+02   1.8964452118e+01    0.2927374    0.1432416 -84.73  0.001678021    2.074    0.518
       127 -12.1102     14.4215    223.8101   1.2470454032e+02   2.5512128100e+01    0.3784375    0.1979668  70.99  0.001853005    1.613    0.380
       128 -13.0294    113.7257     38.2541   6.0085648022e+01   5.1697240597e+01    0.3974589    0.3607742  35.68  0.001449594    1.027    0.027
       129 -10.6073     55.4624     41.0847   8.1244318169e+01   6.2368916561e+01    0.1818549    0.1174685 -35.40 0.0003718906    1.442    0.306
       130 -12.7215     75.9879     37.3661   7.1651364299e+01   5.9628221165e+01    0.3578266    0.2565605  40.81 0.0009219407    1.397    0.284
       131 -12.2249     69.6214     36.6532   7.3750758408e+01   6.0858229230e+01    0.4185478    0.2153995  32.94   0.00101673    1.905    0.475
       132 -13.6211    241.9270     34.9066   3.8239635982e+01   2.1315665733e+01    0.7678332    0.5162497  76.08  0.002905802    1.482    0.325
       133 -11.2306    104.4816     36.9851   6.2189687850e+01   5.3944191119e+01    0.2102544    0.1375497 -28.09  0.001037538    1.606    0.377
       134 -12.0747     24.8466    217.6776   1.2235504601e+02   2.5707209895e+01    0.5187907    0.3945043 -84.77  0.003666929    1.228    0.186
       135 -13.6748     25.8758    227.3842   1.2275984204e+02   2.3647052028e+01    0.6083894    0.3389964 -59.91  0.003670145    2.097    0.523
       136 -13.1906     20.6794    225.3360   1.2361859210e+02   2.4588802176e+01    0.4234492    0.3275055  50.09  0.002510667    1.256    0.204
       137 -13.3274     66.3332    223.0503   1.1437999894e+02   1.9736659668e+01    0.6974259    0.5606106  33.13  0.004519873    1.378    0.274
       138 -12.4469     46.3081     33.7153   8.2268308995e+01   6.4865778927e+01    0.4759758    0.3021069 -20.97  0.002647254    1.490    0.329
       139 -13.9825     63.3362    214.6223   1.1421471940e+02   2.1864743683e+01    0.7263289     0.411244  55.99  0.003926801    1.600    0.375
       140 -12.7940     94.6720    218.3902   1.0783869513e+02   1.6691385994e+01    0.3477301    0.2123652  44.64  0.001548742    1.412    0.292
       141 -11.8231    185.6107    213.7921   8.7397010570e+01   2.5212811913e+00    0.1747806    0.1294612 -50.47 0.0009549952    1.707    0.414
       142 -13.0050     56.1842     27.4896   7.5299810746e+01   6.4423695942e+01    0.6409189    0.2931828  40.98   0.00213084    2.245    0.555
       143 -12.8875     68.0380     24.6678   6.9290998884e+01   6.2858703410e+01    0.6651622    0.3179647  40.40  0.003170183    1.938    0.484
       144 -10.9537     97.9621     27.1676   6.0293999302e+01   5.6642355063e+01    0.2041152    0.1856323  61.58  0.001223283    1.279    0.218
       145 -12.2047     46.5083     21.0384   7.6655887530e+01   6.6788656649e+01    0.3208746    0.2221473 -13.86 0.0007841839    1.292    0.226
       146 -11.6016     53.4528     20.0245   7.3114544262e+01   6.5898655718e+01    0.4428874    0.1530441  32.16  0.001750505    3.122    0.680
       147 -13.0793      9.7429    211.2448   1.2490851683e+02   2.8494898789e+01    0.6468812    0.2678823  40.26  0.003624145    2.111    0.526
       148 -10.9691    136.5259    211.1052   9.7565154761e+01   1.1407750978e+01     0.190145    0.1386512 -54.14  0.001021083    1.562    0.360
       149 -12.3701     41.2430    206.1328   1.1816491739e+02   2.6360100864e+01    0.2374117    0.1421728  78.91  0.001335886    1.596    0.373
       150 -10.8082    150.5719    206.6318   9.3721863146e+01   9.8441434239e+00    0.2837913    0.1186168  27.06 0.0009546825    3.339    0.701
       151 -12.3462     57.3057    203.0494   1.1439747022e+02   2.5111076182e+01    0.4721193    0.2423259 -87.48  0.002243996    2.229    0.551
       152 -12.5125     17.0141    195.0213   1.2244816172e+02   3.1264546275e+01    0.9576389    0.2878588 -76.02   0.00415471    2.897    0.655
       153 -13.5410     29.9510    169.0934   1.1739222603e+02   3.5918073355e+01    0.7388978    0.4306156 -45.83  0.002279073    2.087    0.521
       154 -13.2104     22.2304    181.3016   1.2029022790e+02   3.3831687628e+01    0.6433444    0.3898678 -58.08  0.002795712    1.710    0.415
       155 -14.7315      8.5842    183.4050   1.2346025210e+02   3.4558371063e+01      1.03655     0.889933  73.75  0.007619778    1.142    0.125
       156 -14.6709     16.0604    175.7598   1.2124883443e+02   3.5646372838e+01     2.105383    0.6680515  52.80  0.008780852    3.222    0.690
       157 -12.6941     40.5729    195.3813   1.1738424572e+02   2.8785802794e+01     0.366827    0.1668663 -88.86  0.001657025    2.472    0.595
       158 -12.3365    201.0336    192.0090   8.0215664079e+01   3.5654640793e+00    0.3382782    0.2398451 -20.96  0.001433263    1.444    0.307
       159 -11.7401     49.0275    181.6108   1.1408570260e+02   3.0948140102e+01     0.365549    0.2242893 -49.89  0.001914375    1.870    0.465
       160 -13.2533    197.4149    180.1968   7.8623078306e+01   6.2957351534e+00    0.6575159    0.4394464 -71.91  0.002569472    3.417    0.707
       161 -12.4033     85.4580    180.6444   1.0505543648e+02   2.6297428999e+01    0.3302124    0.2079956  73.05  0.001516532    1.974    0.493
       162 -11.8470     95.6964    171.0261   1.0098016132e+02   2.6950302923e+01    0.2088658    0.1922888 -71.26  0.001184816    1.090    0.083
       163 -12.9169    109.7217     42.2468   6.2644960503e+01   5.2041802042e+01    0.5866121    0.2398637  46.06  0.001444853    2.233    0.552
