#   1 NUMBER                 Running object number                                     
#   2 MAG_AUTO               Kron-like elliptical aperture magnitude                    [mag]
#   3 X_IMAGE                Object position along x                                    [pixel]
#   4 Y_IMAGE                Object position along y                                    [pixel]
#   5 X_WORLD                Barycenter position along world x axis                     [deg]
#   6 Y_WORLD                Barycenter position along world y axis                     [deg]
#   7 A_WORLD                Profile RMS along major axis (world units)                 [deg]
#   8 B_WORLD                Profile RMS along minor axis (world units)                 [deg]
#   9 THETA_WORLD            Position angle (CCW/world-x)                               [deg]
#  10 FWHM_WORLD             FWHM assuming a gaussian core                              [deg]
#  11 ELONGATION             A_IMAGE/B_IMAGE                                           
#  12 ELLIPTICITY            1 - B_IMAGE/A_IMAGE                                       
         1 -12.7494     48.9466     98.1645   1.0298258108e+02   5.1070779616e+01     3.258663     1.816438 -76.89   0.01405304    2.376    0.579
         2 -13.5227     15.0983    113.9742   1.1663310468e+02   5.0303536114e+01     3.091856     1.424209 -73.04   0.01432944    1.812    0.448
         3 -11.1321     80.0639     12.3314   6.1484708655e+01   6.2042061418e+01    0.3205866    0.3122384 -65.25  0.001457037    1.407    0.289
         4 -10.2749     66.1300      8.6308   6.4451176844e+01   6.5084615225e+01    0.2132066    0.1643703 -22.76  0.001071792    1.367    0.269
         5  -8.9138     97.6402      7.3259   5.4290853951e+01   5.8829044478e+01    0.1267427    0.1014511 -69.61 0.0007042881    1.783    0.439
         6 -10.1240     93.4924      6.5140   5.5020483199e+01   5.9807929243e+01    0.2576655    0.1254497 -19.29  0.001220016    2.197    0.545
         7  -9.5771     54.5100      6.0025   6.7548373158e+01   6.7387951641e+01    0.1864621    0.1084308 -21.29  0.001048794    1.639    0.390
         8  -9.7288     47.8482      2.9692   6.8716425525e+01   6.8793411977e+01    0.4323506    0.1929132  -0.53  0.001546419    4.597    0.782
         9 -10.5813     17.4704      3.1506   8.3821060385e+01   7.2753668252e+01    0.2722407    0.2255104  -4.19   0.00108619    1.268    0.211
        10 -10.6576    106.0829      2.2665   5.0200951826e+01   5.7354753480e+01     0.476247    0.1893301  58.48  0.002083213    2.107    0.525
        11  -8.1091    248.7032      2.6542   3.2893563866e+01   2.3235999445e+01    0.1066369   0.09059951  39.77  0.000703394    1.673    0.402
        12  -8.3869    122.6551      6.3307   4.8325176924e+01   5.3132477372e+01    0.1346288   0.09928466 -68.46 0.0007050383    1.756    0.430
        13  -9.9044     78.0092      2.5223   5.7611305423e+01   6.3392511324e+01    0.1967603    0.1106014  51.32  0.001039819    1.614    0.380
        14 -10.3234     28.9844      2.6553   7.7365134182e+01   7.1506780396e+01    0.3567711    0.1274334  40.15  0.001662242    3.171    0.685
        15  -8.5138    236.9935      8.0299   3.4857976004e+01   2.5191540140e+01    0.1744016    0.1422547  43.73 0.0005652486    1.630    0.386
        16 -10.8601    219.7132    218.3643   8.4563739435e+01  -3.7235992393e+00    0.9069239    0.4989123   1.80  0.004067956    2.690    0.628
        17  -8.6180    188.0757    249.2698   9.5513315704e+01  -3.1033420547e+00    0.2381532    0.1790026  10.98   0.00155463    1.281    0.219
        18  -9.8275    164.7768    249.1141   9.9910059225e+01   5.1811170632e-01    0.4579812    0.3089586  38.12  0.002833512    1.194    0.163
        19  -9.4608    153.4055    249.7493   1.0217168364e+02   2.1985986540e+00    0.4617265    0.1118644  35.55  0.001551766    4.066    0.754
        20 -10.5862    230.7343    213.0830   8.1583288974e+01  -4.6893708136e+00    0.5026006    0.2454298 -19.48  0.002303547    2.498    0.600
        21 -10.4221    237.2562    207.9693   7.9464992052e+01  -4.9742947817e+00    0.6569377    0.3426679 -38.12   0.00339377    2.037    0.509
        22  -8.3526    219.1650    207.7741   8.2757108504e+01  -2.1033093091e+00    0.2628102    0.1667853 -38.59 0.0009443126    1.724    0.420
        23 -11.2015    212.0126    217.0723   8.5787196344e+01  -2.3196628313e+00    0.8201808    0.4953321   6.33  0.004107088    2.024    0.506
        24 -10.5645    206.4571    215.1703   8.6516545238e+01  -1.1390609276e+00    0.5996324    0.3331583  10.36  0.002643399    2.587    0.613
        25 -10.1214    230.8846    203.7986   7.9840364816e+01  -3.3945503211e+00    0.3713252    0.3003381   8.99  0.001233743    1.037    0.035
        26 -10.7518    177.8635    242.4441   9.6461008235e+01  -5.6571397228e-01    0.8388453    0.2573036  42.45  0.003385682    2.827    0.646
        27  -9.7233    185.0474    214.2889   9.0588209815e+01   2.5787785978e+00    0.3175516    0.1926679  33.51  0.001646568    1.457    0.314
        28  -8.3781    174.4858    214.6024   9.2786662376e+01   4.3363151051e+00    0.2022043    0.1701333 -18.71 0.0007275524    1.282    0.220
        29  -9.2539    202.0720    208.4169   8.6165300221e+01   6.2570534780e-01    0.2440096    0.1711943 -12.77 0.0008023805    1.536    0.349
        30  -9.4789    187.3299    207.9366   8.9021839308e+01   3.2263669400e+00    0.3275299    0.2048439  18.56   0.00160428    1.793    0.442
        31  -7.9688    128.3488    208.3201   1.0155603745e+02   1.3443555541e+01    0.1341758    0.1052455   1.60 0.0007048676    1.738    0.425
        32  -8.6491    197.9881    206.2515   8.6580238734e+01   1.6636391078e+00    0.1994088    0.1634159  21.87  0.001185757    1.063    0.059
        33 -10.3758    167.4541    204.9363   9.2609336427e+01   7.2380428983e+00     0.323722    0.3014951  -7.71  0.000561195    1.127    0.113
        34  -7.6312    157.5259    203.6045   9.4494037536e+01   9.2480454269e+00    0.1383659    0.1211571  35.17 0.0001368118    1.025    0.025
        35  -7.3524    136.6376    203.6971   9.9041313517e+01   1.2920046328e+01    0.1382824     0.105986   4.97 0.0004685656    1.729    0.421
        36 -10.3497    205.8322    199.1082   8.3708010051e+01   1.4643675989e+00    0.4458448    0.2779758 -48.19  0.002223904    2.019    0.505
        37 -10.2086    224.9754    209.2782   8.1947166563e+01  -3.2529970320e+00    0.7362323    0.2704965  26.46  0.002536352    4.032    0.752
        38  -9.1204    220.4957    189.2942   7.8980251156e+01   5.1304628682e-01    0.2537821    0.2170125 -68.14 0.0008491014    1.852    0.460
        39  -9.7262    226.9552    196.7994   7.9233028172e+01  -1.7287717425e+00    0.3273491    0.2176061  22.64 0.0009012728    1.420    0.296
        40  -7.6373    191.0075    191.2099   8.5182429001e+01   5.4163363963e+00     0.185557    0.1043626  38.72  0.000453236    1.661    0.398
        41 -10.3214    207.3839    188.6256   8.1381228893e+01   2.9089134497e+00    0.2921091     0.203066 -13.79  0.001509472    1.545    0.353
        42  -9.4493    237.1972    185.2654   7.5102500330e+01  -1.6592502177e+00    0.2597824    0.1692187 -39.30  0.001052127    1.624    0.384
        43  -8.8721    226.9945    183.5030   7.6607492451e+01   3.1967554513e-01    0.2062067    0.1254341  37.67  0.001046265    1.631    0.387
        44  -8.5781     17.0578    178.1801   1.2275305312e+02   3.5101918388e+01    0.3435972    0.1663443  69.81  0.001773943    2.049    0.512
        45  -9.5362    212.3737    176.2777   7.7909705617e+01   4.0884870485e+00    0.2886082    0.1977557   2.04 0.0007588603    1.711    0.416
        46  -8.4640     27.7219    175.8964   1.2020630954e+02   3.4608962661e+01    0.1833385    0.1725391  41.25  0.001215196    1.349    0.258
        47  -8.8063    228.3120    174.6442   7.4554835825e+01   1.5089720408e+00    0.1275881    0.1103017 -66.75 0.0007044041    1.735    0.424
        48  -9.7023    224.8113    171.9589   7.4643392404e+01   2.5656229723e+00    0.2100398     0.144982  12.86  0.001063968    1.580    0.367
        49  -9.2598    194.6220    171.8301   8.0542722710e+01   8.2061347081e+00    0.1976449    0.1338201 -48.08 0.0002571132    1.664    0.399
        50  -9.1103     19.1374    170.4650   1.2166487541e+02   3.6655796946e+01    0.2131837    0.1414444 -80.68 0.0003814872    1.237    0.192
        51  -9.9585      7.3552    167.6796   1.2407941944e+02   3.8283847239e+01    0.3925818    0.2666623  81.59  0.002094504    1.208    0.172
        52  -8.8050     11.9966    167.5121   1.2303030605e+02   3.7945198784e+01    0.2152796    0.1402087 -81.39 0.0005634908    1.234    0.190
        53 -10.4110    202.5246    166.4740   7.7795668119e+01   7.6558982700e+00    0.4469408    0.2811135  33.93  0.002111583    1.592    0.372
        54 -10.9828     59.0403     81.4079   9.5269745923e+01   5.3721149708e+01     1.047175    0.6322184  12.84  0.003950766    2.164    0.538
        55 -12.6258     30.6033    121.7267   1.1314567229e+02   4.7211515859e+01     2.059726    0.9062567  56.85  0.008271324    3.328    0.699
        56 -12.8323     72.2121    102.8867   9.6398960298e+01   4.6947941184e+01     2.013711     1.341878  20.50  0.004507681    1.807    0.447
        57 -12.0767     69.3315     89.4144   9.3874736165e+01   5.0497601132e+01     1.429725    0.9174834  21.14  0.001380043    1.843    0.457
        58  -8.9613    109.7284    246.8053   1.1022241105e+02   9.3862130796e+00    0.3133022    0.1639182 -75.08  0.001570533    2.814    0.645
        59 -11.9109      3.5587    126.5020   1.2139958382e+02   4.8083728553e+01     1.587884    0.4360632 -77.27  0.001154396    3.186    0.686
        60 -11.2445     10.1191    125.0628   1.1944919210e+02   4.8002765641e+01    0.5944344    0.3297871 -87.53 0.0004726844    1.678    0.404
        61 -13.3854     69.4072    121.6822   1.0150307019e+02   4.2813649228e+01     3.125509     1.929302  -9.74   0.01238744    3.023    0.669
        62 -11.2085      8.9322    158.5399   1.2300346630e+02   4.0240989299e+01    0.8773972    0.4451752  39.57  0.004381978    2.046    0.511
        63  -9.0916    220.0175    161.0022   7.3206438111e+01   5.2885534870e+00    0.2357607    0.1638551   5.76  0.001065937    1.698    0.411
        64  -8.8505     29.4741    159.4940   1.1820090443e+02   3.8236058455e+01    0.1267167    0.1043092 -84.91 -5.799458e-06    1.027    0.027
        65  -9.6292    204.4619    156.3642   7.5201490531e+01   9.1137349681e+00    0.3077245    0.2274598  86.86  0.001331523    2.529    0.605
        66 -13.0970     26.9344    136.8625   1.1625797170e+02   4.3871907086e+01     2.442978     1.923246 -59.80   0.01540569    1.199    0.166
        67  -8.4710    183.3147    154.3267   7.9134669224e+01   1.3785557440e+01    0.1565221    0.1160522   1.51 0.0003813966    1.670    0.401
        68  -8.7214     39.3902    153.0168   1.1498820025e+02   3.8777983956e+01    0.2104252    0.1628268  60.60 0.0005846787    1.290    0.225
        69 -10.2909    194.7865    150.8596   7.5928936232e+01   1.2093750972e+01    0.4200452    0.1650999 -48.11  0.001409975    3.007    0.667
        70  -9.5188     46.0297    150.5283   1.1295189747e+02   3.8658346189e+01    0.2727712    0.1679215 -86.24  0.001383901    1.636    0.389
        71  -8.7585     15.7002    143.9901   1.2001608133e+02   4.3106145498e+01     0.339356    0.1319665 -73.87   0.00142974    2.095    0.523
        72  -7.7025    167.3061    145.7053   8.0726245019e+01   1.8885483323e+01    0.1501798    0.1248344  88.60 0.0003304869    1.583    0.368
        73  -9.2409     62.1171    144.9058   1.0782687334e+02   3.8091154802e+01    0.2176519    0.1741915  77.37 0.0005683898    1.274    0.215
        74  -9.6383     56.9270    143.9480   1.0908972690e+02   3.8980611602e+01     0.341842    0.1726459 -62.36 0.0006026395    1.748    0.428
        75 -12.6953     39.4079    100.7443   1.0672351076e+02   5.1458067523e+01     1.777588     1.034606  24.38  0.005901121    2.017    0.504
        76  -9.2242     48.0151    143.6873   1.1147110979e+02   4.0096465689e+01    0.2183372    0.1597395 -70.86 0.0005580414    1.195    0.163
        77  -8.7212     51.1686    140.8483   1.1018905186e+02   4.0428378867e+01    0.2579544    0.1735205 -58.67 0.0007720632    1.343    0.256
        78  -9.6226     47.0944    139.6564   1.1113088012e+02   4.1183570527e+01    0.2664259    0.1864008  72.84 0.0007829036    1.553    0.356
        79  -8.8308    183.3061    142.3212   7.6378080087e+01   1.6161558903e+01    0.1573153    0.1187729   1.62 0.0003693554    1.638    0.390
        80  -8.6812     83.3590    139.2793   1.0096454668e+02   3.6453800269e+01    0.3455209    0.2253515  33.92  0.001196669    1.653    0.395
        81  -8.5057    203.6584    138.3339   7.1236464637e+01   1.2615144879e+01    0.1500698    0.1204026 -76.10 0.0007050988    1.755    0.430
        82 -10.0750     84.0080    134.8934   9.9920792702e+01   3.7423025675e+01     0.277459    0.2311215 -63.83 0.0002747696    1.133    0.117
        83  -9.7550     83.4409    129.7144   9.9026410806e+01   3.8775022178e+01    0.2672437    0.2469791 -65.95 0.0002313673    1.012    0.012
        84  -8.3762     90.8411    126.8480   9.6273491308e+01   3.8278005001e+01    0.1992756    0.1708334  78.72 0.0002852399    1.292    0.226
        85  -9.9375     93.6476    123.0417   9.4603733235e+01   3.8723360961e+01    0.4745798    0.2761892 -64.34  0.001524894    1.924    0.480
        86  -7.9201    199.4748    124.5523   6.8745654671e+01   1.6103365133e+01    0.1509823    0.1436571 -22.20 0.0001749645    1.016    0.016
        87  -9.4594    107.9440    120.3751   8.9849893798e+01   3.6789500028e+01    0.3181531    0.2480204 -52.52 0.0003588036    1.249    0.199
        88 -12.2591    101.5299    112.5119   8.9746882583e+01   3.9827091788e+01     1.466877     0.856581  42.87  0.006271861    1.788    0.441
        89 -10.9968     90.7490    106.4759   9.1451004811e+01   4.3155781687e+01    0.7605991    0.4183332 -59.68  0.001730832    1.988    0.497
        90 -11.7087    129.0802    102.7244   7.9288197483e+01   3.6490033929e+01     1.669462     1.128834 -36.04  0.006408488    1.509    0.337
        91  -9.4826    103.5963     80.9105   8.0159586227e+01   4.6440931198e+01    0.7312559    0.4790904   8.02 0.0009783442    2.348    0.574
        92 -11.9471    120.9085    106.7351   8.2646783770e+01   3.7347450546e+01     1.333674     0.780029 -38.93  0.005472562    1.740    0.425
        93  -9.7589    104.9033     86.9728   8.1628226777e+01   4.4912991010e+01    0.8864553    0.5852395 -17.94  0.002922634    2.029    0.507
        94 -11.7178    120.8200     95.8977   7.9619181408e+01   3.9736360041e+01     1.431469     1.292187 -38.78  0.007403869    1.084    0.078
        95 -10.7411     97.2478    101.9031   8.8250832652e+01   4.3065794045e+01     0.812864    0.4748068 -41.86    0.0026198    1.671    0.402
        96 -10.2611    108.4697    100.2860   8.4433938315e+01   4.1305538258e+01    0.7544608    0.5045908  12.51  0.002423939    2.202    0.546
        97 -11.1130    105.3866     96.4265   8.4260968864e+01   4.2766821322e+01     1.086326    0.7272712 -11.07  0.001559958    2.271    0.560
        98 -10.3575     96.2168     92.5838   8.5966383243e+01   4.5353743036e+01     0.584463    0.5328339  13.75  0.001644928    1.136    0.120
        99 -10.9127    103.9369    104.4554   8.6923399681e+01   4.1239980402e+01     1.175882    0.3430855  40.38  0.002569852    3.560    0.719
       100  -9.8628    125.2109    116.3408   8.4019277075e+01   3.4296029924e+01    0.2839497    0.2797727  31.81 0.0006558631    1.033    0.032
       101  -8.4891    147.3047    115.3371   7.7991501691e+01   2.9736561103e+01    0.1634956    0.1265364  -1.43  0.000703971    1.671    0.402
       102  -8.5730    151.4865    114.4801   7.6730817823e+01   2.8979088118e+01    0.1577271    0.1549455 -14.67 0.0002708959    1.001    0.001
       103  -9.6281    139.2848    112.2812   7.9212745298e+01   3.2179741287e+01    0.2699578    0.2674209  -5.28 0.0002585712    1.013    0.013
       104  -9.3043    153.4812    110.0500   7.5057886256e+01   2.9458524736e+01    0.2554709    0.1555742 -40.66  0.001043954    1.626    0.385
       105  -8.7438    158.9919    109.0000   7.3457263159e+01   2.8406458140e+01    0.2661857   0.09072707  48.15 0.0006745248    2.969    0.663
       106  -9.5919    145.9557    102.3320   7.4784625874e+01   3.2795457835e+01    0.4907061    0.1385808  43.61  0.001351966    3.724    0.731
       107  -7.9331    151.9928     98.0401   7.2090004467e+01   3.2273849805e+01    0.2151846    0.1898815  85.42 0.0005624391    1.312    0.238
       108  -9.0630     37.3850    247.7994   1.2355975338e+02   1.8836193824e+01    0.1383179   0.08824886 -70.74 0.0003997346    1.701    0.412
       109  -9.4584     79.8050     86.2250   8.9435548244e+01   4.9606004734e+01    0.4716688    0.2904239 -18.89 0.0007471013    2.343    0.573
       110  -9.2119     82.2562     80.0963   8.6784295774e+01   5.0535773125e+01    0.4423774    0.3061928 -16.59  0.001425128    1.767    0.434
       111  -8.7590    112.1596     82.3336   7.8030710158e+01   4.4403659247e+01    0.2669775    0.2030047 -37.78 0.0001607433    1.285    0.222
       112 -11.9641     45.5538    119.4131   1.0829289977e+02   4.6309224156e+01    0.9129773    0.7211263 -78.24  0.001970411    1.201    0.167
       113  -7.6182    184.7460     77.9793   5.9348781977e+01   2.8084051951e+01    0.1928785    0.1290283 -35.04 0.0004234432    1.478    0.324
       114  -7.6503     94.5585     52.4716   7.3310136063e+01   5.3613184413e+01    0.1436052    0.1311639   0.31 0.0001139107    1.013    0.013
       115  -7.9929     18.1002     27.1817   9.4678955005e+01   6.8922553069e+01    0.1417492     0.127377 -23.51 0.0003274018    1.291    0.225
       116 -10.0772     84.6303     21.0654   6.3900284742e+01   6.0153035983e+01    0.3176373    0.2242496 -29.37  0.001771894    1.486    0.327
       117  -8.5159     30.4650     22.4701   8.6486850397e+01   6.8520601639e+01    0.1219121      0.09559 -15.78  6.74875e-05    1.027    0.026
       118  -8.7235    131.2082     20.7725   5.1853225313e+01   4.9677301114e+01    0.1942309     0.146666  34.12 0.0004032625    1.314    0.239
       119 -10.3504     75.1848     17.8739   6.5601590944e+01   6.2373277189e+01     0.296666    0.2669106  -6.53 0.0006427059    1.186    0.157
       120 -10.3372    185.5949    238.1372   9.4330391304e+01  -1.1640417584e+00    0.8211785    0.4615626  61.96  0.003088955    4.761    0.790
       121 -11.9785     39.3540    111.7653   1.0884060366e+02   4.8810046858e+01     1.084011    0.7734982  14.18  0.004564582    1.744    0.427
       122  -9.1119    103.9900     12.0000   5.4628476940e+01   5.6980810911e+01    0.2239221   0.06904403  58.57 0.0005569081    2.950    0.661
       123 -10.8314    178.2163    239.1854   9.5913211877e+01  -1.4617029660e-01    0.6434929    0.3685728   3.32  0.002784217    3.264    0.694
       124  -9.0743    104.5868    249.2597   1.1145613940e+02   9.7319233555e+00    0.2868463    0.1908231 -32.58  0.001600577    2.615    0.618
       125  -7.5647    115.0000    241.9330   1.0867005374e+02   9.4219021338e+00    0.1625972   0.07054584 -58.39 0.0005014754    2.758    0.637
       126  -8.9283    144.5638    238.2094   1.0238435670e+02   5.4072938950e+00     0.282542    0.1666842  56.17  0.001467336    1.911    0.477
       127  -8.4834    165.5805    235.2641   9.7808561150e+01   2.4800768935e+00    0.2242899    0.1947113 -85.23  0.001435951    1.615    0.381
       128  -7.8030    225.4926    239.5176   8.7093448697e+01  -7.4031829278e+00    0.1209298   0.09384283  14.23 0.0001924898    1.030    0.029
       129 -10.1779    190.4991    233.8093   9.2714950019e+01  -1.3159958138e+00    0.4754502    0.2457777  36.11  0.002471538    1.624    0.384
       130  -7.9689    225.4471    229.4763   8.5430125136e+01  -6.1103374395e+00    0.1259238   0.09594119  10.01 0.0001357241    1.063    0.059
       131  -8.2194    140.3556    227.6471   1.0179746885e+02   7.8719293717e+00    0.2054058    0.1444103  63.76  0.001128456    1.683    0.406
       132  -7.5545    112.4500    226.5325   1.0737327924e+02   1.2566942842e+01    0.1264402    0.1094438  47.60 7.225369e-05    1.065    0.061
       133  -9.9582    183.2636    224.2184   9.2598646995e+01   1.3006094762e+00    0.3562856    0.2388423  49.56  0.001952221    1.643    0.392
