#   1 NUMBER                 Running object number                                     
#   2 MAG_AUTO               Kron-like elliptical aperture magnitude                    [mag]
#   3 X_IMAGE                Object position along x                                    [pixel]
#   4 Y_IMAGE                Object position along y                                    [pixel]
#   5 X_WORLD                Barycenter position along world x axis                     [deg]
#   6 Y_WORLD                Barycenter position along world y axis                     [deg]
#   7 A_WORLD                Profile RMS along major axis (world units)                 [deg]
#   8 B_WORLD                Profile RMS along minor axis (world units)                 [deg]
#   9 THETA_WORLD            Position angle (CCW/world-x)                               [deg]
#  10 FWHM_WORLD             FWHM assuming a gaussian core                              [deg]
#  11 ELONGATION             A_IMAGE/B_IMAGE                                           
#  12 ELLIPTICITY            1 - B_IMAGE/A_IMAGE                                       
         1 -10.7575     36.4238     10.2036   1.0166713099e+02   7.4097815746e+01    0.8823583     0.588954 -35.20  0.002708947    1.435    0.303
         2 -10.6546     19.4635      6.7959   1.1333276478e+02   7.6879777382e+01     1.100497    0.7913015  66.23  0.005010391    2.715    0.632
         3 -11.1399     23.6495     32.4202   1.2259648095e+02   7.1044345032e+01     1.600688    0.4666114 -46.81   0.00302083    2.821    0.645
         4 -10.3873     10.0903     18.9187   1.2788742271e+02   7.5036602559e+01     1.494001    0.3386734 -32.67  0.003955562    6.847    0.854
         5 -10.1072      4.8512     41.8381   1.3795212076e+02   6.9803917557e+01    0.7917514    0.3612066 -83.07  0.003524795    2.188    0.543
         6 -10.6419     89.4150     37.9069   8.9788263310e+01   5.8876659883e+01     1.183121    0.4827281  37.11   0.00378666    3.125    0.680
         7 -10.0302     69.4484     40.6635   9.9404407897e+01   6.2695126393e+01     1.060752    0.4421929 -40.50  0.002369806    2.432    0.589
         8 -10.2555     76.1493     31.9497   9.2242813125e+01   6.2922982662e+01    0.8206862    0.5633933  82.76   0.00169727    2.732    0.634
         9  -9.3163    102.8056     22.2675   7.8083115813e+01   5.7906924050e+01    0.8246527      0.35648 -22.18  0.002963734    2.761    0.638
        10  -8.8183    104.2283     15.4944   7.4480895281e+01   5.8362762650e+01    0.5398408    0.2757912   2.94  0.001835327    3.451    0.710
        11  -9.6548     63.8123      2.9343   8.0891051600e+01   6.9840338239e+01    0.5168156    0.3317377 -31.66  0.001737659    1.669    0.401
        12  -9.8552     60.7025     31.9511   9.9515190641e+01   6.6058381922e+01    0.9377444    0.4221429 -32.34  0.003172835    2.620    0.618
        13  -9.7354     63.0767     21.2547   9.2580940973e+01   6.7480354817e+01     0.543338    0.3150158 -52.50  0.001235372    2.419    0.587
        14 -10.2153     64.3787     13.4908   8.7377055899e+01   6.8383153522e+01    0.4186045    0.3709749   1.52  0.002183682    1.085    0.079
        15  -9.9118     52.7270     13.1912   9.3188292647e+01   7.0802049806e+01    0.7375735    0.4315909  19.82  0.003265651    2.166    0.538
        16 -10.0966     46.2500     29.9091   1.0657056118e+02   6.8911773970e+01    0.4732971    0.3729102 -67.02 0.0008320169    1.679    0.405
        17  -9.3837    110.2093     31.7330   8.0286521310e+01   5.4645741709e+01     0.797772    0.2425235 -34.06  0.002043176    3.240    0.691
        18  -9.9835    152.3625     28.5056   6.9891616278e+01   4.3550787556e+01    0.7186254    0.4646756  -3.40   0.00307366    2.112    0.527
        19  -9.5062    118.8851     21.4419   7.3621648598e+01   5.3686883981e+01    0.4910968    0.3428406 -20.92  0.001332594    1.584    0.369
        20  -8.3829    125.1321     12.9524   6.8704066135e+01   5.2917358402e+01    0.2497396    0.2147217 -35.37 0.0005246119    1.248    0.198
        21  -8.6424    126.5201      9.4526   6.6982007438e+01   5.2882657140e+01    0.3005363    0.1724097  38.23 0.0005491211    1.956    0.489
        22  -9.0108    115.2514      4.4562   6.6865523554e+01   5.6480668139e+01    0.3337486    0.2157745 -41.65 0.0007284929    1.674    0.403
        23  -8.9000    112.1503     15.3504   7.2471780928e+01   5.6240246348e+01    0.3996633    0.2092809 -31.21  0.000805601    1.991    0.498
        24  -9.1191    114.2165      9.9408   6.9557958619e+01   5.6247754977e+01     0.392401    0.2081033  45.63 0.0003119106    1.844    0.458
        25  -9.9603     73.5162     17.0518   8.5442599442e+01   6.5852643043e+01    0.9706199    0.3070632 -29.02  0.003194769    3.499    0.714
        26  -8.1536     71.9774      8.4501   8.1014336669e+01   6.7324365302e+01    0.2231127    0.1869523 -30.24 0.0003191511    1.297    0.229
        27  -9.2475     78.0706      4.0939   7.6148696507e+01   6.6339501731e+01    0.5068443    0.3146933   1.18  0.001452515    1.937    0.484
        28  -8.7711    132.7372     17.4566   6.9142228741e+01   5.0312898850e+01    0.3511767    0.2283933 -35.91  0.001279177    1.595    0.373
        29  -9.2768    133.8541     12.4975   6.6966249862e+01   5.0529052550e+01    0.3497951     0.222327 -42.29  0.001616233    1.638    0.389
        30  -9.4709    132.5712      6.4005   6.4728549975e+01   5.1478531681e+01    0.4908307    0.3442509  19.81  0.002085741    1.759    0.431
        31  -9.1936     96.1916     14.8142   7.6346621605e+01   6.0562870935e+01    0.6419492    0.3032102 -14.52   0.00239325    2.766    0.638
        32  -9.5748      2.2687     14.5639   1.3320050501e+02   7.6329927143e+01    0.5547197      0.24757 -84.39   0.00217849    2.915    0.657
        33 -10.1301      5.8240      5.1362   1.2584194166e+02   7.8252384113e+01     0.466244    0.3055143 -49.84  0.001955865    1.276    0.217
        34  -8.7446      2.5222      3.5025   1.2854759157e+02   7.8745063381e+01     0.255127    0.1668578 -68.93   0.00107845    1.579    0.367
        35  -8.3890     88.7544      2.7745   7.2107375297e+01   6.3762860666e+01    0.3179868    0.2035536 -18.28 0.0009277242    1.706    0.414
        36  -8.2979     84.7511      6.8396   7.5554341457e+01   6.4387348353e+01    0.4656017    0.2073507  31.47  0.001651271    2.997    0.666
        37  -9.4902     84.9498     12.9005   7.8844438844e+01   6.3655873151e+01    0.4373481    0.2993676 -59.98  0.001434893    2.001    0.500
        38  -7.7581     80.6542     12.9769   8.0379142282e+01   6.4703900545e+01    0.2994277    0.1810956 -53.53 0.0009280296    2.308    0.567
        39  -7.9870    141.4827     12.2987   6.5670299876e+01   4.8415421515e+01    0.2031893    0.1297663 -41.80 0.0009352059    1.603    0.376
        40  -9.4359     47.7829     18.6474   9.9470708365e+01   7.0797319098e+01    0.7240813    0.3148862 -25.33  0.002432189    3.778    0.735
        41  -7.4421    174.0134      8.0612   6.0198768464e+01   3.9899189213e+01     0.165645    0.1488616 -70.44 0.0003315476    1.034    0.033
        42  -8.9274    125.3409      5.5025   6.5523725670e+01   5.3582075000e+01    0.4487916    0.2499036  28.91  0.001848808    2.300    0.565
        43  -8.0597    110.0498      7.9446   6.9524655161e+01   5.7587598959e+01    0.2008421    0.1892094  62.22  0.000398707    1.040    0.039
        44  -8.7207    110.8618      4.4047   6.7700445292e+01   5.7695006393e+01    0.2806699    0.1685455  39.95 0.0009152896    1.711    0.416
        45  -9.0726    101.6864      7.8778   7.1411652945e+01   5.9860560491e+01    0.2741936    0.2252373 -59.60 0.0007578657    1.384    0.277
        46  -8.2254     95.9685      3.2227   7.0452583757e+01   6.1828599030e+01    0.2654606    0.1919598 -41.47 0.0005047402    1.550    0.355
        47  -8.1132    120.6581      5.8206   6.6473645451e+01   5.4858388903e+01    0.2129133    0.1653677  60.79 0.0003122604    1.158    0.137
        48  -8.5048    142.8466      5.0098   6.2710798829e+01   4.8729583003e+01    0.2470983    0.1349509 -51.18 0.0006140307    1.934    0.483
        49  -8.3622    104.2312      2.3600   6.8103392436e+01   5.9685489753e+01    0.2921259    0.1991577  35.84 0.0008951215    1.506    0.336
        50  -8.3599     97.3633      6.2878   7.1687283903e+01   6.1170409954e+01    0.2790681    0.1845976  28.28 0.0008142526    1.657    0.397
        51  -8.9236     92.6458    103.2178   1.1130433484e+02   4.3812093955e+01    0.6712904    0.3897596  25.59  0.002592873    2.094    0.523
        52  -8.8075    220.3680    249.8546   1.0786299203e+02  -3.4908379548e+00    0.1900442    0.1098265  28.59  0.001317708    1.402    0.287
        53 -10.0855    203.0939    248.5793   1.1068495534e+02  -1.3192305649e+00    0.4797011    0.2811929   5.49  0.003137053    1.596    0.374
        54  -9.9474    196.6834    248.7553   1.1185238350e+02  -5.5543945710e-01    0.4028917    0.2588684  -3.05  0.002778619    1.519    0.342
        55 -11.0390    191.0057    247.4413   1.1271016383e+02   2.9664308027e-01    0.5254692    0.3582951 -17.56   0.00375088    1.581    0.368
        56 -10.3671    168.0841    247.6172   1.1701706031e+02   3.2084483140e+00    0.3293365    0.2359364 -42.42  0.002319332    1.920    0.479
        57 -10.1787    158.9199    249.6104   1.1901372652e+02   4.1539186401e+00    0.4036553    0.1471901  31.61  0.002023166    2.024    0.506
        58 -10.2722     14.0353    111.5133   1.4192234441e+02   5.1430446992e+01    0.4769466    0.3130837  74.32  0.001602717    1.420    0.296
        59  -8.7865     14.1257    105.0984   1.4135114563e+02   5.3097645234e+01    0.2679711    0.1607666 -46.45 0.0006647746    1.779    0.438
        60  -8.4337    152.8025    115.3782   9.6835184659e+01   2.8302076260e+01    0.2118357    0.1978666 -46.50 0.0006353424    1.127    0.113
        61  -7.7474    167.3875    114.2456   9.3138350202e+01   2.5295940942e+01    0.2113456    0.1416024 -47.91 0.0004784104    1.605    0.377
        62  -9.4454     67.6021    103.7212   1.2048784124e+02   4.7936584140e+01     0.671216    0.4444968 -18.75  0.002775322    2.254    0.556
        63 -10.3682     62.8561     95.6982   1.2054405255e+02   5.0725972310e+01    0.6851041    0.4114797  81.43  0.001628404    2.561    0.610
        64  -9.3610     64.6978     85.1578   1.1721774039e+02   5.3178729436e+01    0.7494406    0.5618911 -41.23   0.00362441    1.379    0.275
        65  -9.8629     59.1095    109.5933   1.2485498389e+02   4.7597779052e+01    0.5560176    0.3620926 -42.72  0.002110552    1.710    0.415
        66  -8.0891    158.6287    112.0231   9.4578253432e+01   2.7674729508e+01    0.2411834    0.2175054  62.75 0.0004212349    1.209    0.173
        67  -9.2661     34.6283    111.4881   1.3432324364e+02   4.9857703366e+01    0.4453322    0.2734843 -60.34  0.002057805    1.538    0.350
        68  -9.4053     32.3303    107.7956   1.3471176089e+02   5.1044227559e+01    0.4485722    0.1956025 -42.38  0.001718526    2.822    0.646
        69 -10.8861     20.8719    100.6403   1.3829854737e+02   5.3839352961e+01     1.363571    0.5345348  78.84  0.004763849    3.379    0.704
        70  -9.8793     20.1294     84.5545   1.3662147049e+02   5.8140400631e+01    0.9398231    0.3172721 -73.07  0.003089081    2.556    0.609
        71 -10.4286     25.5483     77.9161   1.3312390023e+02   5.9518242985e+01    0.7377158    0.3692043  67.88   0.00184349    2.716    0.632
        72 -10.6039     31.8781     64.8791   1.2734532991e+02   6.2398454291e+01      1.65175    0.5915213 -34.91  0.005092273    4.268    0.766
        73  -7.9729     23.1305     69.1112   1.3271838245e+02   6.1994225477e+01    0.2298037    0.1941335  45.92 0.0003807447    1.298    0.230
        74  -7.8554    149.8223    110.1413   9.6218396663e+01   3.0033025738e+01    0.2167304    0.1828743  -9.36 0.0005158993    1.327    0.246
        75  -9.5387    149.4067    103.2297   9.4475079277e+01   3.1534212866e+01     0.472117    0.3578572 -44.56   0.00105695    1.352    0.260
        76  -8.2748    149.8366     97.0178   9.2648668945e+01   3.2683781248e+01    0.3166152    0.2169443 -10.72  0.001264161    2.100    0.524
        77 -10.9069     44.1600    102.2638   1.2928604052e+02   5.1351056728e+01     1.064631    0.5587642  57.95  0.003101222    2.270    0.560
        78  -8.7368     39.9916    106.9286   1.3165512797e+02   5.0547745429e+01    0.2551345    0.1962455  82.27  0.000545832    1.292    0.226
        79  -9.6018      6.0885    104.1410   1.4429949672e+02   5.3774295426e+01      0.51732    0.3019767  54.47   0.00177306    1.674    0.403
        80  -8.8057    165.9427    104.1924   9.0851446344e+01   2.7530573339e+01    0.3315208    0.2193656 -40.63 0.0006949074    1.511    0.338
        81  -7.7008    196.0382    103.4997   8.4631490032e+01   2.0930554236e+01    0.2208325    0.1778055 -30.41 0.0003368071    1.172    0.147
        82  -9.1056     63.8454    101.8425   1.2151298602e+02   4.8977929528e+01    0.5313094    0.3484265  -7.64  0.002176509    2.348    0.574
        83  -9.2897    158.8962    100.1891   9.1369396581e+01   2.9928905997e+01     0.473606    0.2472136 -39.75 0.0009762808    1.920    0.479
        84  -9.4056     94.2126     97.2353   1.0919579950e+02   4.4981290655e+01    0.3512452    0.2873822 -76.19  0.000567733    1.383    0.277
        85  -8.8833     95.8966     90.8911   1.0683888393e+02   4.6181667742e+01     0.525161    0.3461962 -10.36  0.001898779    2.715    0.632
        86  -8.2196    239.4432     96.5538   7.6260062404e+01   1.3264223847e+01    0.1307547    0.1106119 -20.03 9.366259e-05    1.054    0.051
        87  -8.7675    164.4111     94.5811   8.8574779363e+01   2.9698075658e+01    0.2745373    0.2320241 -47.96 0.0006474051    1.217    0.178
        88 -10.0158     34.4914     90.7072   1.3130178795e+02   5.5394101006e+01    0.5926744    0.2903102  87.75  0.001803258    2.650    0.623
        89 -10.0082     36.7922     81.1559   1.2851979048e+02   5.7706436577e+01    0.6751145    0.3323036 -25.29  0.002474035    3.153    0.683
        90  -9.2379    138.5598     92.4458   9.4209547478e+01   3.6290185072e+01      0.41832    0.3010415 -72.53 0.0007712035    1.936    0.483
        91  -8.1881    139.5177     87.4941   9.2490659216e+01   3.7073015052e+01    0.3599941      0.25158  27.16  0.001437518    1.743    0.426
        92  -9.0574    140.3423     83.0416   9.0924095612e+01   3.7764504483e+01    0.4661978     0.271486 -46.93  0.001258809    1.798    0.444
        93  -9.4218    139.9648     75.5437   8.8669377987e+01   3.9323594731e+01    0.7872386    0.3772941 -44.60  0.001995178    2.158    0.537
        94  -9.1680    209.5800    249.3750   1.0965130941e+02  -2.1818567678e+00    0.2184078    0.1012037  27.66   0.00082583    1.595    0.373
        95  -8.3541    106.7650    249.1665   1.2935588689e+02   1.1039633669e+01     0.176464    0.1198261  42.90  0.000542051    1.177    0.150
        96 -10.6776     15.5357     65.7864   1.3599983314e+02   6.3317824062e+01     1.558049    0.5424599 -73.67  0.003941345    2.524    0.604
        97 -10.2775      4.3553     89.8416   1.4394539065e+02   5.7555330824e+01    0.7046489    0.3000323  73.87  0.001748098    2.463    0.594
        98  -9.6621      5.4388     78.8620   1.4253720795e+02   6.0365292866e+01    0.7310306    0.2895997 -33.48  0.002995537    2.966    0.663
        99 -10.2529     78.0446    112.9798   1.1867513450e+02   4.3911696609e+01    0.5898332    0.3691134  89.40  0.001724519    2.293    0.564
       100  -8.3605     77.9397    105.3026   1.1701731404e+02   4.5897256354e+01    0.4320031    0.2844414 -17.30  0.001695938    2.418    0.586
       101 -10.8147     22.0364     53.8884   1.3008634620e+02   6.5969080284e+01    0.8775777     0.432301  77.21   0.00266644    3.554    0.719
       102 -10.2631     12.4313     45.7073   1.3394754942e+02   6.8566282220e+01     1.039902    0.4249955 -10.14  0.003211127    3.153    0.683
       103  -9.1884     81.4242    100.2767   1.1455038491e+02   4.6585796068e+01    0.8472158    0.3552119 -53.86  0.001093161    2.337    0.572
       104  -9.6908      6.7811     32.6697   1.3469991390e+02   7.1975104501e+01     0.333499    0.2237582 -29.99 0.0009919205    1.407    0.289
       105 -10.0952      7.1525     28.4234   1.3333119464e+02   7.2972527006e+01     0.383891    0.2993282  25.07 0.0009556369    1.487    0.327
       106  -7.7203    236.3047     91.6277   7.5533995000e+01   1.4537985716e+01    0.1376867   0.09038212 -53.71 0.0006578599    1.759    0.432
       107  -8.2470    107.3368     91.3236   1.0309133253e+02   4.3686983838e+01    0.3423447    0.1887182  31.83  0.001256939    2.122    0.529
       108  -9.3222    112.6661     89.3303   1.0078600363e+02   4.2971489264e+01    0.5267655    0.4396616  11.74  0.002463525    1.411    0.291
       109  -8.9553    150.4257     88.9889   9.0198569484e+01   3.4127511453e+01    0.4003314    0.2374148 -36.58  0.001409505    1.724    0.420
       110  -7.7913     78.0177     90.0271   1.1317899805e+02   4.9765122831e+01    0.2509186    0.1897863  77.15  0.001125536    1.667    0.400
       111 -10.5272     48.1756     83.0829   1.2381256397e+02   5.5967717909e+01     1.202424     0.488662 -58.62  0.002886034    2.193    0.544
       112 -11.9934    249.7704    234.4061   1.0085369453e+02  -5.2696704488e+00    0.2065961    0.1410471  -0.21 0.0002534355    1.102    0.093
       113  -9.1794     87.6735     57.1396   9.8582273804e+01   5.5565875122e+01    0.8666057    0.3967583 -33.03  0.002918785    2.788    0.641
       114 -10.2397     85.0978     48.2021   9.5977553938e+01   5.7946615773e+01    0.4481393    0.3632765 -75.44  0.001007444    1.622    0.383
       115 -10.1892     73.1694     57.8334   1.0486021160e+02   5.8351722499e+01     1.065449    0.4782053 -41.34   0.00306214    2.318    0.569
       116  -9.2093     79.6900     46.4901   9.7457414479e+01   5.9449780122e+01    0.5428433    0.3731532 -15.57  0.000995069    1.894    0.472
       117 -10.8436     55.1829     69.8420   1.1715557992e+02   5.8453571350e+01     1.037824    0.6916953 -77.70  0.002676612    1.862    0.463
       118 -10.0319     61.8077     60.8837   1.1115600740e+02   5.9637658732e+01    0.6792111    0.3212588  26.85 0.0007608277    2.467    0.595
       119 -10.1416     85.2019     86.5463   1.0946641732e+02   4.9323645159e+01    0.5260043    0.4053104 -87.05 0.0009647618    1.653    0.395
       120  -9.4164     87.2931     78.8494   1.0634875980e+02   5.0772242865e+01    0.6381416    0.3850545  18.56  0.001803308    2.487    0.598
       121  -8.1309    174.4985     88.5191   8.4761908352e+01   2.8400342071e+01    0.1510656    0.1477785 -25.24 -9.44506e-06    1.005    0.005
       122  -8.8450    163.5943     86.7727   8.6541331085e+01   3.1341382576e+01      0.45501    0.2276585 -33.03  0.001319171    2.084    0.520
       123  -8.9677    157.4382     91.5791   8.9297089273e+01   3.1931741055e+01    0.5598526    0.2470933 -28.45  0.001792371    3.026    0.670
       124 -10.3424    103.8010     82.4261   1.0156331060e+02   4.6495895533e+01    0.5962924    0.3418644 -56.54 0.0009974581    2.011    0.503
       125  -9.5333    104.6656     71.7424   9.7759420572e+01   4.8670445301e+01    0.9081356     0.468725 -31.49  0.002718904    2.498    0.600
       126  -9.6367    109.6845     63.8007   9.3301836955e+01   4.9150215949e+01    0.6652508    0.2896512 -46.68  0.002278484    2.467    0.595
       127  -9.0618    110.5169     58.2639   9.0992665008e+01   5.0039869194e+01    0.4863686    0.3149138  28.16  0.001541073    1.960    0.490
       128  -8.1174    170.1842     83.7331   8.4280971252e+01   3.0285092916e+01    0.2677384    0.2037936 -48.49 0.0006198534    1.347    0.258
       129  -8.7959    157.5113     83.5298   8.6937491062e+01   3.3430838580e+01    0.3963091    0.2359446 -45.69 0.0009998091    1.729    0.422
       130  -9.1919    156.8168     76.0064   8.4826275376e+01   3.4982586718e+01     0.512131    0.2586681 -38.83  0.001763601    1.957    0.489
       131  -8.9736    149.9688     80.0585   8.7632474715e+01   3.5954073363e+01     0.540526    0.2334119 -37.76   0.00154667    2.330    0.571
       132  -8.9765    118.9952     80.5109   9.6089772192e+01   4.3453422445e+01    0.4208244    0.2836616 -58.63  0.001137571    1.750    0.429
       133  -8.0684    119.8344     76.1738   9.4429257439e+01   4.4167764824e+01    0.2573276     0.221547   3.94 0.0006693926    1.354    0.261
       134  -8.2026    180.7071     81.0359   8.1465772439e+01   2.8204143803e+01    0.2089212    0.1921094 -37.84  0.000400768    1.053    0.051
       135  -9.0733     74.0296     80.1196   1.1196181075e+02   5.2927618465e+01    0.4865787    0.2851666 -68.86  0.001073492    2.171    0.539
       136  -8.2154     74.9679     74.3486   1.0981223563e+02   5.4172846542e+01    0.4427013    0.1567104  29.37  0.001253476    3.928    0.745
       137 -10.4184     65.4116    111.1338   1.2282473007e+02   4.6321837210e+01    0.7385383    0.4087242  39.01  0.001268619    1.753    0.429
       138  -8.3882    166.1758     78.9325   8.3707212033e+01   3.2118075831e+01    0.2390214    0.2019135 -61.03 0.0005589614    1.273    0.215
       139  -8.3030    184.2188     77.9532   7.9961270801e+01   2.7872653142e+01    0.2492562    0.2188135  51.70 0.0006652513    1.178    0.151
       140  -7.3760    174.3140     78.6947   8.2010604370e+01   3.0152206276e+01    0.1560813    0.1179879 -69.90 0.0005199666    1.621    0.383
       141  -9.4587    127.3359     75.2424   9.1945502707e+01   4.2531941497e+01    0.4363851    0.2980697 -62.62 0.0007944978    1.857    0.462
       142  -8.8375    129.2686     69.0382   8.9341143646e+01   4.3274529575e+01    0.5149179    0.2977367  27.83  0.001789581    2.629    0.620
       143  -8.6175    130.4347     64.7292   8.7552211368e+01   4.3797576998e+01    0.5163646    0.2757006 -33.67  0.001426768    1.998    0.499
       144  -9.8355     81.6118     72.5586   1.0652931093e+02   5.3364759179e+01    0.4744075    0.3407052 -80.28  0.001018181    1.973    0.493
       145  -8.9787     83.2018     65.0247   1.0329805678e+02   5.4783974613e+01    0.6640535    0.4120321 -10.64   0.00226307    3.178    0.685
       146 -10.1980    236.6439     71.0090   7.0634141997e+01   1.7298219088e+01    0.3552966    0.2425653 -37.28 0.0006714396    1.244    0.196
       147  -9.5592    240.8915     66.6874   6.9139816799e+01   1.7027681414e+01    0.2489471    0.2078086 -17.20 0.0006969903    1.214    0.176
       148  -8.1198    162.5607     72.8948   8.2645987782e+01   3.4082090876e+01    0.3008958    0.2140964 -60.56 0.0007754026    1.641    0.391
       149  -8.2368    169.3260     71.0655   8.0733278350e+01   3.2685720085e+01    0.2229648     0.190961 -40.96 0.0005545103    1.147    0.128
       150  -9.8011    144.4320     37.1777   7.4438352896e+01   4.4583223930e+01    0.9337417    0.4175418 -52.36  0.002488856    2.863    0.651
       151  -9.4569    141.9184     48.5988   7.9071659867e+01   4.3560964030e+01     0.697084    0.3547227 -20.49  0.001965983    2.622    0.619
       152  -9.6963    153.4234     41.4016   7.4215914488e+01   4.1529025922e+01    0.5034965    0.3673892 -61.81  0.001565733    1.492    0.330
       153  -9.6308    146.9589     68.3022   8.4631865474e+01   3.8887688511e+01    0.7539478     0.323906 -36.71  0.001568365    2.335    0.572
       154  -8.5174    146.6340     59.1263   8.1669339477e+01   4.0576524802e+01    0.3376098    0.2319967 -63.73 0.0007789475    1.786    0.440
       155  -8.8282    147.4754     53.7573   7.9660885352e+01   4.1244503831e+01    0.5687304     0.279473 -20.27  0.001659175    2.885    0.653
       156  -9.0061    149.4328     47.5522   7.7115952640e+01   4.1698383912e+01    0.7107762    0.1877671 -29.86  0.001944419    4.110    0.757
       157  -9.4513    138.1693     65.0561   8.5672079231e+01   4.1746377789e+01    0.7943299    0.2983686 -34.93  0.001396768    2.785    0.641
       158  -9.3478    138.9329     57.1273   8.2763130038e+01   4.2949927718e+01    0.6456959    0.2348488 -40.02    0.0017937    2.723    0.633
       159  -8.8054    156.4946     69.2396   8.2796737518e+01   3.6266133525e+01    0.4105706     0.155249 -34.56 0.0009990555    2.671    0.626
       160  -9.7125     94.7193     68.3836   1.0008265200e+02   5.1621601477e+01    0.4640833    0.2941537 -52.33 0.0008709198    1.689    0.408
       161  -9.0999     96.7320     59.0621   9.5936175719e+01   5.3154411077e+01    0.8362727    0.5325186 -24.85  0.003383178    1.980    0.495
       162  -8.8104    169.8914     66.0421   7.9107922211e+01   3.3375540303e+01    0.3456802    0.2954574 -20.00  0.001753133    1.247    0.198
       163  -9.2437    121.1018     65.9770   9.0587579766e+01   4.5918422059e+01    0.4426707    0.3072343 -50.96  0.001057699    1.558    0.358
       164  -8.1910    122.3163     61.3229   8.8586240993e+01   4.6506764441e+01    0.3269951    0.2217402  32.59 0.0008749183    1.711    0.415
       165  -8.2986     75.6650     66.4778   1.0691444819e+02   5.5912721078e+01    0.2682411    0.1423007 -50.30 0.0008403822    1.879    0.468
       166  -8.3676    157.2800     62.7917   8.0583126765e+01   3.7165926003e+01    0.3358108    0.2487312 -36.32  0.001149203    1.352    0.260
       167  -8.3126    164.4059     60.9022   7.8562496605e+01   3.5622293812e+01     0.342685    0.1472029 -33.38  0.001070884    2.306    0.566
       168  -9.2716    115.3715     72.2278   9.4467222240e+01   4.6059618788e+01    0.6092736    0.3218775 -34.64  0.001160895    2.114    0.527
       169  -8.7048    238.0151     60.1861   6.7901134844e+01   1.8446752836e+01    0.2017084    0.1386902  29.26 0.0008195523    1.997    0.499
       170  -8.2920    231.5571     59.7812   6.8490323379e+01   1.9826802210e+01    0.2911202    0.1762049  27.44  0.001141816    2.619    0.618
       171  -9.1490    129.8973     56.5741   8.4815182319e+01   4.5420485717e+01    0.6223784    0.2330665 -36.65  0.001556611    2.698    0.629
       172  -9.0821     53.0860     38.8870   1.0689122415e+02   6.5984981352e+01    0.5536739    0.2416601 -41.55  0.002035325    2.270    0.559
       173 -10.0540     43.3841     51.8825   1.1741123419e+02   6.4416250346e+01    0.8541839     0.491297 -85.32   0.00313041    3.345    0.701
       174 -10.0904     49.8854     54.4620   1.1482624985e+02   6.2949097816e+01    0.6674111    0.4414417 -80.19  0.002552909    2.185    0.542
       175  -9.8010     55.3498     43.9086   1.0786425924e+02   6.4543039120e+01     1.036889    0.5695513  -8.12  0.003107315    4.731    0.789
       176  -9.8458     37.9753     42.4533   1.1711057483e+02   6.7287474032e+01    0.4579948    0.3247948  85.24  0.001376607    2.182    0.542
       177 -10.4726     35.8676     37.9839   1.1665984177e+02   6.8556714173e+01    0.6134235    0.3306805 -29.23 0.0004134084    2.159    0.537
       178  -8.8567    162.6915     53.7178   7.6599201584e+01   3.7207565286e+01    0.5119856     0.217292 -23.06  0.001661152    3.113    0.679
       179  -9.3888    118.0950     54.7349   8.7372923098e+01   4.8801547895e+01    0.4777479    0.3395725 -37.43  0.001297999    1.451    0.311
       180  -7.7635    168.4146     55.2466   7.6042602778e+01   3.5469779866e+01    0.2247878    0.1328069 -43.99 0.0009459285    1.674    0.402
       181  -7.4378    178.9967     54.6973   7.4077434727e+01   3.2818467176e+01    0.1817941    0.1345298  65.05 0.0004608364    1.368    0.269
       182  -9.3855    157.9166     50.6482   7.6495862184e+01   3.8947377573e+01    0.6668841    0.2014222 -34.18  0.002075161    3.117    0.679
       183  -8.8618    152.4927     53.0276   7.8360830727e+01   4.0023292870e+01    0.4013649    0.2570437 -24.05  0.001705597    1.751    0.429
       184  -9.0531    111.8908     45.7497   8.5688424420e+01   5.1977836248e+01    0.6222959    0.3455262 -26.78  0.001548805    2.088    0.521
       185  -9.1351    105.3032     53.1965   9.0719365714e+01   5.2284674580e+01    0.7432073    0.2693081 -47.32  0.002260766    3.284    0.695
       186  -8.0909    105.7812     48.8221   8.8820755389e+01   5.2976988868e+01    0.3569821    0.2645068  39.34  0.001319645    1.355    0.262
       187  -8.0435    152.4740     60.0414   8.0698781250e+01   3.8884481778e+01    0.2414959    0.1538342 -35.54   0.00102649    1.579    0.367
       188  -7.3343    172.5919     50.8113   7.3935574284e+01   3.5046789651e+01    0.2206069    0.1292011 -43.66 0.0009388964    1.667    0.400
       189  -7.6377    227.3154     49.3124   6.6350130808e+01   2.2083063475e+01    0.1273001    0.1011757  18.62 0.0003786136    1.639    0.390
       190  -9.6346    130.5248     45.9477   8.0742123132e+01   4.7045876612e+01    0.8640261    0.3640191 -21.19  0.001529772    3.769    0.735
       191  -8.9481    139.0291     39.8074   7.6508244274e+01   4.5684925464e+01    0.4733493    0.3749138 -47.72   0.00172193    1.304    0.233
       192  -9.1038    120.9959     46.7982   8.3518168197e+01   4.9436432261e+01    0.4391116    0.2379629 -36.41 0.0005653634    1.893    0.472
       193  -8.2204    123.7620     39.8422   8.0061967661e+01   4.9818999553e+01    0.4090374    0.2134484  28.48  0.001311828    3.283    0.695
       194  -8.1167    162.1652     46.1773   7.4240108466e+01   3.8481425802e+01    0.2149203    0.1727845 -70.70 0.0006114903    1.315    0.240
       195 -10.0970    188.0889    234.1606   1.1147589645e+02   2.2404191318e+00    0.2819412    0.2451905  28.70    0.0018796    1.445    0.308
       196  -8.7671     16.2844    234.2644   1.4700979572e+02   2.3785667858e+01    0.1624767     0.160265 -51.25 0.0004377001    1.529    0.346
       197 -10.1127     79.4268     23.9478   8.6802646801e+01   6.3485122712e+01    0.9223641    0.3428408  39.53  0.002877934    3.073    0.675
       198  -8.8107     84.6663     21.6231   8.3596106818e+01   6.2584139599e+01    0.2955107    0.2243731 -40.29 0.0008009091    1.437    0.304
       199  -9.2887    104.8407     41.1015   8.5920053449e+01   5.4561064305e+01    0.4861375    0.2521837 -42.88  0.001231416    2.052    0.513
       200  -8.2295    106.3212     36.3340   8.3416399057e+01   5.4959918973e+01     0.280819    0.2476551  40.34 0.0007599089    1.097    0.088
       201  -8.0842    159.6694     40.1255   7.2665083138e+01   4.0016039014e+01     0.209534    0.1448293 -15.68 0.0007704785    1.715    0.417
       202  -8.7498    132.7123     35.9827   7.6436425449e+01   4.7965016526e+01    0.3025867    0.2249945 -33.01 0.0004720738    1.402    0.287
       203 -10.6117    134.0484     30.8998   7.4184739685e+01   4.8301868244e+01    0.4126616    0.3132989   3.32            0    1.647    0.393
       204  -8.8668    118.9072     35.1025   7.9383419309e+01   5.1836394525e+01    0.3750209    0.2156488 -34.99 0.0007399244    1.796    0.443
       205  -9.2441    101.0085     32.7688   8.3474542766e+01   5.6875243990e+01    0.5878199    0.2796334 -31.24  0.001467158    2.226    0.551
       206  -7.0648    128.6759    222.3508   1.2199971806e+02   1.2232618041e+01    0.1273441   0.08321334  54.34 0.0007048406    1.754    0.430
       207  -7.0038     14.3287    220.3504   1.4702668960e+02   2.6506297379e+01   0.09674084   0.08364875 -37.53 0.0007048286    1.765    0.434
       208  -8.6355    153.4294     34.3572   7.1768858925e+01   4.2501314052e+01    0.2793939    0.1817042 -41.62  0.001258747    1.537    0.349
       209 -10.1625    162.9124    213.1584   1.1348675033e+02   8.6355986105e+00    0.2097108    0.1715337  20.05 0.0002671727    1.055    0.052
       210  -7.5342     36.8060    212.2122   1.4181871681e+02   2.5895522451e+01    0.1401551    0.1274918  40.13 0.0003595076    1.277    0.217
       211  -9.9746     10.6000    207.3496   1.4746201282e+02   2.9346105586e+01    0.5011603    0.2494159  20.06  0.002772794    2.262    0.558
       212  -9.3118    192.1534    194.9195   1.0467950074e+02   6.9003240061e+00    0.6641783    0.3722647 -58.29  0.002545532    4.998    0.800
       213  -7.9782    163.7871    198.2373   1.1104329886e+02   1.0810439128e+01    0.2472925     0.151628  48.38  0.001077871    1.882    0.469
       214  -7.1659     39.0610    171.1955   1.3875416588e+02   3.4434561196e+01     0.161561   0.09388581  28.83 0.0003769933    1.654    0.395
       215  -7.4930    179.6154    163.4935   1.0149005503e+02   1.3895314845e+01    0.1390692     0.119759   6.35 0.0001069907    1.043    0.041
       216  -7.5557     23.4619    157.4492   1.4213499897e+02   3.9172917347e+01    0.1290298    0.1090649  67.22 0.0008071446    1.021    0.021
       217  -9.0673     91.2580     26.1784   8.3572120803e+01   6.0314289361e+01    0.3995031    0.2518868 -51.22  0.001234478    1.965    0.491
       218  -8.5403     92.1613     21.0412   8.0720590206e+01   6.0811721636e+01    0.4003444    0.2275867  27.35  0.001280697    2.292    0.564
       219  -8.5557    144.0759     25.9760   7.0390477512e+01   4.6157338803e+01    0.2835645    0.2106707 -31.41  0.000943597    1.406    0.289
       220  -8.7545    128.7738     24.5953   7.2787010031e+01   5.0574149175e+01    0.5342997     0.330939  -5.62  0.001732846    2.171    0.539
       221  -8.2023    176.2540    150.5606   9.9576169542e+01   1.6754970270e+01     0.219883    0.1859318 -22.55 0.0003376475    1.179    0.152
       222  -8.4069    120.8863     15.2515   7.0520151386e+01   5.3850858852e+01     0.358108    0.2369396  31.25  0.001616893    1.747    0.428
       223  -8.7632    133.6087    146.4301   1.0887049641e+02   2.5784697503e+01    0.6857821    0.1826865 -53.81  0.001779203    5.344    0.813
       224 -10.3423    222.8272    144.8030   8.9422491748e+01   9.2816143038e+00     0.244628    0.2141058  10.38 0.0004150166    1.121    0.108
       225  -9.4707    229.4890     22.3669   5.9461662425e+01   2.4806471286e+01     0.352134    0.2407097 -31.46 0.0009838218    1.344    0.256
       226  -7.5735    151.0000     21.9978   6.7790099438e+01   4.4711155925e+01    0.2416024   0.08588662 -24.97 0.0008086274    2.986    0.665
       227  -8.4809    111.3226     21.3021   7.5366053868e+01   5.5761295348e+01    0.3126084    0.2378818 -21.74  0.001536535    1.431    0.301
       228  -9.6821     66.8928    144.3069   1.2782101664e+02   3.7596097212e+01    0.5795186    0.3201278  56.50  0.002508765    1.916    0.478
       229  -8.1483    239.4962    141.0112   8.5952430972e+01   7.0781348928e+00    0.1670552   0.09653635 -48.11 0.0008084489    2.403    0.584
       230  -8.4934    112.2829    133.7502   1.1212496916e+02   3.2700713875e+01    0.3346801    0.2353141  67.43  0.001457858    1.808    0.447
       231  -8.7441    134.7759    131.9121   1.0544126298e+02   2.8672237641e+01     0.474165    0.4239322  -2.18  0.002458186    1.203    0.169
       232  -7.4277     86.9663    134.0000   1.1986167329e+02   3.7140725115e+01    0.2542214   0.08278804  33.73 0.0008015832    2.937    0.659
       233  -9.7140     98.5975    128.7871   1.1520701442e+02   3.6416565983e+01    0.6461514    0.3734684  66.61  0.002318074    2.703    0.630
       234  -8.6358     40.9051     20.5627   1.0496976755e+02   7.1550688881e+01    0.2428532    0.1760024 -29.16 0.0001071838    1.310    0.237
       235  -7.8551    129.1401     16.3707   6.9368002594e+01   5.1435702890e+01    0.2783231    0.2040198  77.06 0.0007394186    1.314    0.239
       236 -10.5176     70.4035    126.1614   1.2384582767e+02   4.1699646922e+01    0.6795744    0.6420579   1.55  0.001618818    1.197    0.164
       237 -10.0767     58.1641    124.6012   1.2775697274e+02   4.3787717795e+01     0.706733    0.3546477  68.65  0.002201949    2.889    0.654
       238  -7.4733    169.9826    127.9705   9.5915998924e+01   2.2139652464e+01    0.1747968    0.1628516  12.09            0    1.007    0.007
       239  -9.2913    241.3469    126.5291   8.2632949031e+01   8.7648786966e+00    0.2313302    0.1935017 -24.87 0.0002687524    1.123    0.110
       240  -9.7652    117.1332    125.5691   1.0891918109e+02   3.3658617080e+01    0.6346111    0.4149586 -88.92  0.001335528    2.759    0.637
       241 -10.0069    108.4782    114.4731   1.0891630905e+02   3.7992933968e+01    0.5967294    0.3957981 -78.15  0.001467205    2.216    0.549
       242 -10.1151    139.4216    103.2540   9.7040115675e+01   3.3830606385e+01    0.8406785    0.4049558 -45.79  0.002032919    2.151    0.535
       243  -7.8882    202.0817     16.2907   6.0054217945e+01   3.1848879171e+01     0.189187    0.1556751 -78.18 0.0003845062    1.121    0.108
       244  -8.0395     45.0785     15.8863   9.9473895106e+01   7.1735941297e+01    0.2221522     0.153193  -3.13 0.0008605059    1.673    0.402
       245  -7.3822    188.7166     15.3792   6.1003663976e+01   3.5305126006e+01    0.1554764   0.08718978 -55.77 0.0007012142    1.722    0.419
       246 -10.2911    140.5723    117.5386   1.0047965497e+02   3.0541213850e+01    0.9142113    0.4139438 -52.05  0.001249441    2.611    0.617
       247 -10.2086    128.3987    101.3012   9.9524117083e+01   3.6762417789e+01    0.9787343    0.5242021 -30.00  0.002386591    2.552    0.608
       248 -10.5892    123.7048     91.0551   9.7938086660e+01   4.0077403178e+01     1.262168    0.6967065 -33.67  0.003122591    2.130    0.531
       249 -10.5556    131.3152    119.2904   1.0340384095e+02   3.2154764711e+01    0.9642725    0.6015619  72.27  0.002233002    2.930    0.659
       250 -10.6507    133.6221    109.5484   1.0029313878e+02   3.3789822842e+01    0.9202023    0.4878512 -46.68  0.002418061    1.959    0.489
       251  -8.1855    227.1156    125.8238   8.4639405723e+01   1.1315136884e+01    0.1943206    0.1690238 -41.26 0.0007963006    1.305    0.234
       252  -9.3188     41.3409    122.1447   1.3326456948e+02   4.6388947013e+01    0.5008206    0.2327913 -88.02  0.001567145    2.511    0.602
       253  -9.5202     27.3420    123.0030   1.3823933241e+02   4.7474950698e+01    0.5824057     0.239637  59.02  0.002072663    2.678    0.627
       254 -10.6542    108.6494    100.8013   1.0534571641e+02   4.1197078526e+01     1.051656    0.7899376 -84.27  0.004539502    1.793    0.442
       255  -7.4646    174.1507    123.3426   9.3898218052e+01   2.2127326239e+01    0.1967086     0.137573  53.40 0.0002390075    1.571    0.363
       256 -11.2080    120.6363    110.4403   1.0421980275e+02   3.6420393138e+01      1.57633    0.7615863 -46.62  0.004453124    2.138    0.532
       257  -8.8500     42.3008     28.2913   1.0820254796e+02   6.9824212976e+01     0.273226     0.183222 -32.88 0.0001471415    1.444    0.307
       258  -8.2884    157.4488    122.2953   9.7437033829e+01   2.5898822749e+01    0.2664857    0.1920433  63.99 0.0008813292    1.760    0.432
       259  -7.6610    100.6498    119.3252   1.1251645960e+02   3.8342710398e+01     0.167024    0.1198043  70.24 7.575846e-05    1.755    0.430
       260  -8.0256      1.4277    116.3843   1.4666050994e+02   5.0858139210e+01    0.2687537    0.1082692 -84.73 0.0008318257    2.130    0.531
       261 -10.0334     91.7677    112.9786   1.1396322939e+02   4.1550277745e+01    0.6189189    0.4247933  86.55  0.001673647    2.060    0.515
