#   1 NUMBER                 Running object number                                     
#   2 MAG_AUTO               Kron-like elliptical aperture magnitude                    [mag]
#   3 X_IMAGE                Object position along x                                    [pixel]
#   4 Y_IMAGE                Object position along y                                    [pixel]
#   5 X_WORLD                Barycenter position along world x axis                     [deg]
#   6 Y_WORLD                Barycenter position along world y axis                     [deg]
#   7 A_WORLD                Profile RMS along major axis (world units)                 [deg]
#   8 B_WORLD                Profile RMS along minor axis (world units)                 [deg]
#   9 THETA_WORLD            Position angle (CCW/world-x)                               [deg]
#  10 FWHM_WORLD             FWHM assuming a gaussian core                              [deg]
#  11 ELONGATION             A_IMAGE/B_IMAGE                                           
#  12 ELLIPTICITY            1 - B_IMAGE/A_IMAGE                                       
         1 -14.4620    201.3448     39.4378   4.4698975955e+01   3.0069953407e+01     1.833979     1.354688  32.29  0.006076841    1.875    0.467
         2 -14.3788    212.9688     27.7832   4.0841204724e+01   2.8944009587e+01     1.081134     0.868548  17.99   0.00396243    1.839    0.456
         3 -11.4063      2.3281      3.0852   9.2805329902e+01   7.6169459312e+01    0.4015105    0.1819049 -46.20  0.002135209    2.219    0.549
         4 -13.0591    238.0387      3.8606   3.4061355012e+01   2.6425194691e+01    0.6995915    0.3786592  81.32  0.004415707    1.778    0.438
         5 -14.6775     68.5744    144.2582   1.0406384525e+02   3.7392157190e+01     3.401346     2.097363  75.70   0.01099425    2.536    0.606
         6 -11.9626    139.8732    248.5674   1.0134583866e+02   4.6091921344e+00    0.3637044    0.3527376 -64.79  0.002578916    1.428    0.300
         7 -13.8225     69.4382    172.8969   1.0840596077e+02   3.0066531152e+01     2.605107     1.130944 -30.20  0.006497714    6.843    0.854
         8 -15.7869     45.9384    195.1266   1.1745542758e+02   2.7559734832e+01     6.082926     3.107752  45.68   0.02915627    1.813    0.448
         9  -8.8913     37.9297    215.8628   1.2119642939e+02   2.3758141776e+01    0.1676597    0.1171583  54.07 0.0003863635    1.266    0.210
        10 -16.3602      7.1986    245.7427   1.2945975680e+02   2.0621456883e+01     1.676211     1.458514  49.86   0.01326828    1.183    0.155
        11 -11.8474    194.4557    197.7980   8.1649250106e+01   5.3274776222e+00     1.208132    0.6284056 -57.16  0.004304277    4.649    0.785
        12  -9.6432    113.5087    206.4695   1.0160276708e+02   1.6094881470e+01    0.1403573    0.1244815  25.51 0.0001713839    1.013    0.013
        13 -11.6526    109.4075    201.5415   1.0189317243e+02   1.7740504937e+01    0.5463447    0.2974645 -36.64  0.001910006    2.256    0.557
        14 -11.3494     61.8532    199.5318   1.1381153134e+02   2.4703737595e+01    0.3791278    0.2435364 -61.40 0.0006471397    1.625    0.385
        15  -9.9170     66.0581    194.4726   1.1214322903e+02   2.5347368717e+01    0.3338436    0.2257057  26.06 0.0007447617    1.454    0.312
        16 -11.5539    203.0669    198.8015   8.0120110815e+01   3.9111417140e+00    0.3861521     0.229552  36.52  0.002037668    1.778    0.437
        17 -11.3118    207.5788    194.4088   7.8431845325e+01   3.9737367823e+00    0.3732323    0.1612414 -32.78  0.001671484    2.192    0.544
        18  -9.2093    134.1742    196.3841   9.4912986534e+01   1.4988349405e+01    0.2019906    0.1207562  40.53 0.0004604353    1.635    0.389
        19 -14.3986     57.4996    240.1542   1.1862826427e+02   1.6631586054e+01    0.8822079     0.697981  64.19  0.004455838    1.218    0.179
        20  -9.1050    120.1555    194.1445   9.8021737829e+01   1.7668902893e+01    0.1840071    0.1625554  54.35 0.0003120147    1.274    0.215
        21 -16.0648      6.7275    172.9999   1.2589136789e+02   3.6399185680e+01     8.309443     1.637162 -72.55   0.02839585    3.909    0.744
        22  -9.3216     72.1995    188.2012   1.0973113778e+02   2.6021855730e+01    0.1883548    0.1491544  62.90  0.000463314    1.322    0.244
        23 -16.2672     35.1537    249.2725   1.2400574156e+02   1.7306642181e+01     12.45034      3.55087  19.11   0.02682939   13.747    0.927
        24  -9.3381     69.8336    184.0467   1.0982887910e+02   2.7315573749e+01    0.2101953    0.1710705  65.27 0.0003892431    1.282    0.220
        25  -8.9301     91.0182    182.4743   1.0381059685e+02   2.4740012461e+01    0.2064971    0.1359248  30.43  0.000179811    1.437    0.304
        26  -9.9944     99.4557    180.8727   1.0126362772e+02   2.3842650432e+01    0.2627405    0.2024836  20.19 0.0005391733    1.297    0.229
        27 -10.1793    144.0360    178.8271   8.9321998622e+01   1.6984006626e+01    0.2576905    0.2109437 -30.45  0.001362871    1.224    0.183
        28  -9.4604    149.5128    177.0892   8.7653388489e+01   1.6406650568e+01    0.2057922    0.1431477 -43.73 0.0003753646    1.488    0.328
        29 -10.1566    187.8742    173.7508   7.8360770284e+01   1.0547912037e+01    0.2586534    0.1921911 -64.40  0.001254993    2.202    0.546
        30 -13.1918     10.6557    188.6218   1.2589123863e+02   3.2401466041e+01     0.348702    0.2827886  17.24   0.00105592    1.421    0.296
        31  -9.8270     34.6284    171.7305   1.1817017353e+02   3.4365055592e+01    0.2545456    0.1895326  52.60 0.0007744744    1.307    0.235
        32 -10.4653    137.5898    168.2702   8.8862125211e+01   2.0339169864e+01    0.3719433    0.2627361  47.92  0.001747784    1.576    0.366
        33 -10.1855    230.4981    167.4963   6.9103472454e+01   4.9552047574e+00    0.2369925    0.1050824 -45.11  0.001038534    2.489    0.598
        34  -9.2287     37.6480    161.7351   1.1621054655e+02   3.6571599018e+01    0.1373541    0.1004696 -30.79 0.0004746385    1.620    0.383
        35  -9.9615    156.0746    158.0081   8.2158022593e+01   1.9173334168e+01    0.3789441    0.2603228 -69.15  0.001584507    2.415    0.586
        36 -12.2707     87.7813    154.2196   9.9942248833e+01   3.2052935782e+01    0.6811448    0.4551819 -21.59  0.002922988    1.969    0.492
        37 -11.1734    133.7665    144.5007   8.4782756823e+01   2.6274509660e+01     1.160846    0.3102039 -53.10  0.002751172    5.691    0.824
        38 -10.3078    174.6400    149.0563   7.5947717877e+01   1.7524635236e+01    0.2585422    0.2472194  27.65 0.0008218535    1.172    0.147
        39  -9.2466    111.1345    149.3176   9.2095978570e+01   2.9347470075e+01    0.3378094    0.1710461  54.88  0.001124576    3.032    0.670
        40 -10.7429     37.4895    145.8238   1.1427825280e+02   4.0665970606e+01    0.3874624    0.1925575  41.04  0.001100615    2.052    0.513
        41 -10.1002     34.2495    139.1776   1.1442591093e+02   4.2703302153e+01    0.2514097    0.2194254  73.60  0.000444491    1.177    0.151
        42 -11.9232     29.6332    143.5927   1.1649582667e+02   4.1979200912e+01    0.6630787    0.3813875  29.09  0.003204181    1.792    0.442
        43 -11.5421     25.5820    137.4232   1.1703838421e+02   4.3924968595e+01    0.4175661    0.2885308  39.98  0.001431167    1.518    0.341
        44 -11.0316     82.1628    141.9425   9.9305867567e+01   3.5991957009e+01    0.3751079    0.2696409  59.37  0.001048067    1.682    0.405
        45 -10.8828    102.0380    139.5061   9.2653169079e+01   3.3304755319e+01    0.6184542     0.378571 -18.86   0.00229663    2.520    0.603
        46 -12.3078     89.1765    139.4778   9.6598423846e+01   3.5493803587e+01    0.3105226    0.2664315 -25.83 0.0004771038    1.211    0.174
        47 -11.4607     46.7414    136.3037   1.0985375997e+02   4.2172860632e+01    0.3640903    0.2602844 -83.74  0.001788005    1.522    0.343
        48 -10.4238    105.9700    130.8764   8.9501416046e+01   3.4672933218e+01    0.3546979     0.330093 -57.86  0.001219303    1.148    0.129
        49 -10.1241    111.3624    130.0684   8.7695600455e+01   3.3859118527e+01    0.3447692    0.2498828   3.72  0.000850506    1.747    0.427
        50 -11.9230     44.2207    129.7710   1.0963744549e+02   4.4150861501e+01    0.3551516    0.2943495  68.58  0.001586939    1.335    0.251
        51  -9.9599    161.0136    128.2339   7.4160991981e+01   2.4321141228e+01    0.2881065    0.1973222 -53.74  0.001294689    1.673    0.402
        52 -10.7943     98.5021    126.1411   9.0679800580e+01   3.7168135645e+01    0.3329599    0.2592879 -19.08  0.001162573    1.448    0.309
        53 -11.0077    135.6384    126.6274   8.0036089836e+01   2.9853097026e+01    0.7011235    0.1481238 -48.55  0.001607217    5.654    0.823
        54 -10.0396    117.1370    124.1851   8.4560942268e+01   3.4112728034e+01    0.2503588     0.208997  -5.52 0.0008251499    1.309    0.236
        55  -9.7235     89.4295    122.5371   9.2728115598e+01   3.9640885293e+01    0.4818702    0.2755706  65.64  0.001524792    3.686    0.729
        56  -9.9176    107.8015    119.0320   8.6041133328e+01   3.7122036734e+01    0.2249494    0.2123231  -8.42  0.000392765    1.028    0.027
        57 -10.3320     59.5303    220.5166   1.1649281335e+02   2.0370927081e+01    0.3211374    0.2189055  17.81  0.001256248    1.592    0.372
        58 -14.4288     24.6240    226.8973   1.2494459883e+02   2.2753380135e+01     1.422208    0.6848573  58.45   0.00361851    1.915    0.478
        59  -9.2631    168.2121    113.0170   6.8783357772e+01   2.5810431154e+01    0.2520359    0.1740232 -66.77  0.001077767    2.102    0.524
        60 -10.2257    205.5329    110.1878   6.1033002533e+01   1.8697706800e+01     0.275346    0.1976155  38.94 0.0008427674    1.556    0.357
        61 -10.4291    117.0767    109.4518   8.0737927035e+01   3.7447356176e+01    0.5412411    0.2650458  55.60  0.001781182    2.984    0.665
        62  -9.8954    134.6211    106.4944   7.5053545766e+01   3.4364166270e+01    0.3898273    0.1453602 -46.49   0.00125985    2.816    0.645
        63  -9.3614    139.8064    106.2247   7.3638889829e+01   3.3292446192e+01    0.2296736    0.2113184 -80.71 0.0007858112    1.267    0.211
        64 -10.6448     33.1459    100.2795   1.0834056967e+02   5.2885029661e+01    0.3218684    0.2470701  44.04  0.001223148    1.487    0.328
        65 -11.1102     37.9962    102.5105   1.0686059573e+02   5.1846238803e+01    0.3041508    0.2184933  30.84 0.0007605769    1.487    0.328
        66 -11.0688    247.7290    102.2995   5.3285531739e+01   1.2339984083e+01    0.2173469    0.1591316  89.46  0.001283229    2.001    0.500
        67  -8.9497    131.3236     97.6659   7.3465318993e+01   3.6895878258e+01    0.1573662    0.1265118 -84.86  0.000705073    1.709    0.415
        68  -9.7053    127.6092     94.6492   7.3596153212e+01   3.8326601976e+01    0.3033652    0.1861713  65.36  0.001056857    2.415    0.586
        69 -11.0673     41.3109    103.6919   1.0579961163e+02   5.1201107740e+01    0.2642879    0.2154968 -43.77 0.0007048526    1.124    0.110
        70 -10.2271     53.1222     90.5273   9.7914275170e+01   5.3062459307e+01    0.2599298    0.1877178 -33.19 0.0008423721    1.350    0.259
        71  -9.2918    156.4813     88.4650   6.4813532404e+01   3.2968273975e+01     0.272174    0.1299382 -48.48 0.0006047834    2.330    0.571
        72  -9.5390    234.6683     86.3044   5.1506843181e+01   1.6952017502e+01    0.1286314   0.08647814 -61.63 0.0007037104    1.658    0.397
        73  -9.3171     74.9223     85.1194   8.7747727998e+01   5.0994054981e+01    0.2119772     0.201929  53.29 0.0003016726    1.214    0.176
        74  -9.3207    114.9952     84.2233   7.4024645832e+01   4.3198630574e+01    0.2494576    0.1849716  78.47 0.0008564932    2.020    0.505
        75  -9.4479    158.9898     82.0500   6.2498362832e+01   3.3522171831e+01    0.1756319    0.1749609 -45.81 0.0004900679    1.004    0.004
        76  -9.5917     70.0007     81.7864   8.8615381726e+01   5.2572283509e+01    0.2139641    0.1953484  48.60  0.000521836    1.262    0.208
        77  -8.8951    184.4075     77.2663   5.6497964287e+01   2.8532077228e+01    0.1431053    0.1055514  26.38  0.000629613    1.751    0.429
        78  -9.5001     54.0427     65.2889   8.9881681949e+01   5.8670623796e+01    0.1981041    0.1718119  15.24 0.0003857406    1.124    0.110
        79 -10.8282     13.3872     59.8747   1.0804802980e+02   6.4238062486e+01    0.2567647    0.2323141 -53.79 0.0004869289    1.191    0.160
        80 -12.9688    191.7662     46.2063   4.7485070244e+01   3.1343867087e+01    0.6546873    0.5677041  34.46  0.001051986    1.401    0.286
        81 -13.7129     68.6160    156.4540   1.0613721333e+02   3.4280045222e+01     0.634504    0.5391249 -27.26  0.001557111    1.279    0.218
        82 -11.3133    140.7071     46.1429   5.5543754479e+01   4.3486368520e+01     0.350914    0.2664683 -80.90 0.0007678425    1.571    0.363
        83 -10.3939    144.0814     41.0354   5.3294711633e+01   4.3333756306e+01    0.2273017    0.1950648  82.18 0.0003277624    1.164    0.141
        84 -11.2015    125.0893    245.1171   1.0412200385e+02   7.1582076558e+00    0.2384452    0.1642575 -43.84  0.001077672    1.704    0.413
        85 -10.1983      1.6416     29.0046   1.0543066326e+02   7.1558166296e+01    0.1771983     0.131641 -38.70 0.0004659226    1.117    0.105
        86 -11.2979      3.2735     24.5520   1.0261701030e+02   7.2333196128e+01    0.2606779    0.2266859 -87.82  0.001690016    1.797    0.444
        87  -9.4642    189.6680     14.9926   3.9934821380e+01   3.5396378991e+01    0.1722134    0.1457106 -56.47 0.0005392903    1.127    0.112
        88  -9.4803    105.3048    246.3300   1.0862633881e+02   9.5705630353e+00    0.1227873   0.09015615  -5.27  0.000499375    1.655    0.396
        89 -15.4202      9.3866    207.8611   1.2729351580e+02   2.8159767357e+01     1.692934     1.183651 -76.10   0.01064789    1.404    0.288
