#   1 NUMBER                 Running object number                                     
#   2 MAG_AUTO               Kron-like elliptical aperture magnitude                    [mag]
#   3 X_IMAGE                Object position along x                                    [pixel]
#   4 Y_IMAGE                Object position along y                                    [pixel]
#   5 X_WORLD                Barycenter position along world x axis                     [deg]
#   6 Y_WORLD                Barycenter position along world y axis                     [deg]
#   7 A_WORLD                Profile RMS along major axis (world units)                 [deg]
#   8 B_WORLD                Profile RMS along minor axis (world units)                 [deg]
#   9 THETA_WORLD            Position angle (CCW/world-x)                               [deg]
#  10 FWHM_WORLD             FWHM assuming a gaussian core                              [deg]
#  11 ELONGATION             A_IMAGE/B_IMAGE                                           
#  12 ELLIPTICITY            1 - B_IMAGE/A_IMAGE                                       
         1 -13.8944    119.5556      9.9545   5.3557201636e+01   5.4635696634e+01     8.449629     3.217066 -44.61   0.02712472    3.027    0.670
         2  99.0000    214.7968     19.3870   4.3389232219e+01   2.7727101583e+01     1.915969     1.187028 -33.36  0.007959165    1.475    0.322
         3 -13.0114    248.6463     59.1321   5.0885751822e+01   1.5451225155e+01     1.696887    0.7403027 -28.74  0.005864254    1.958    0.489
         4 -14.2598    243.0024    114.4611   6.4903208466e+01   1.0447655216e+01      8.42848     1.389978 -28.26    0.0251791    5.208    0.808
         5 -14.4695    215.6981     73.9181   5.8925356609e+01   2.1146153483e+01      6.14744      4.30157 -56.06   0.03006804    1.750    0.428
         6 -13.1621    250.2752     23.6845   4.1494671824e+01   1.8707897753e+01     1.150398    0.5191657 -16.20  0.002926256    2.170    0.539
         7 -15.0414    244.5069     39.4167   4.6167628514e+01   1.8455479757e+01     3.370851      1.20066  59.10     0.013514    2.804    0.643
         8 -14.2334    173.6967     75.2253   6.6262646592e+01   3.1103852275e+01     3.776496     2.558977 -77.50  0.001111335    2.242    0.554
         9  -9.4181    231.9891     18.4425   4.1557136799e+01   2.3509572785e+01    0.3144484    0.1764656 -20.52 0.0008640164    1.668    0.400
        10 -10.5167    207.6210     13.9771   4.2435426879e+01   3.0129038903e+01    0.5345259     0.305495 -25.25  0.001628733    1.640    0.390
        11  -3.3475    234.5373      9.6058   3.8877605119e+01   2.3712141324e+01    0.2249299    0.1429241  26.73 0.0008135401    1.972    0.493
        12  -9.7592     92.4603     11.6231   6.1166133201e+01   6.1137355662e+01    0.2784571    0.2495903 -39.21 0.0006606707    1.137    0.121
        13 -10.7953    240.2599      6.4309   3.7597613403e+01   2.2617588835e+01    0.2640435    0.1986833   0.52 0.0007349956    1.452    0.311
        14  -9.9459    236.4135      2.8281   3.6863548675e+01   2.3852876973e+01    0.3785077    0.2322761  40.79  0.001851338    1.941    0.485
        15  -8.9500    179.6344      5.3199   4.2454933569e+01   3.8549169382e+01    0.3482665    0.2160676   3.04  0.001500969    1.934    0.483
        16 -10.1642    217.0288      4.4729   3.8725179307e+01   2.8555924175e+01    0.2419812    0.1887941  -9.50  0.000474799    1.329    0.248
        17  -7.5666    209.9868      5.1004   3.9484477309e+01   3.0332995693e+01    0.2232702    0.1441692 -53.04  0.001062871    1.529    0.346
        18  -9.3842    137.8285      2.5542   4.6888117457e+01   5.0487105073e+01    0.3463199    0.2453929 -26.53  0.001662728    1.408    0.290
        19 -12.6860    249.2576      4.1349   3.6404369389e+01   2.0709344827e+01     1.765115    0.7587505   7.08  0.004731399    4.492    0.777
        20  -8.3222     79.5222      3.8698   6.0982388692e+01   6.5072121656e+01    0.2540697    0.1322391 -21.24  0.001108857    1.956    0.489
        21  -9.0174    207.0867    166.4492   8.0936148642e+01   1.1077030469e+01    0.1875232    0.1676819 -16.10 0.0003878878    1.278    0.217
        22  -8.4260     72.1032    164.2383   1.0719870560e+02   3.4033826808e+01    0.1589097    0.1364766  58.67 0.0003364363    1.162    0.139
        23 -11.8661     67.2808    144.4399   1.0610926547e+02   3.8551600629e+01     1.102381    0.8647397  43.06  0.005825401    1.312    0.238
        24 -11.7570     39.8683    160.1503   1.1393557006e+02   3.8754774755e+01    0.4443071    0.3410605  46.45  0.001277381    1.294    0.227
        25 -11.9723     46.8644    156.1120   1.1204597701e+02   3.8759280395e+01    0.7207778    0.4846626  72.23   0.00280052    1.239    0.193
        26  -8.2145    203.8043    160.8178   8.0479863829e+01   1.2333148604e+01    0.1562554    0.1375801  51.79 0.0004842255    1.316    0.240
        27 -11.3114     22.9623    159.7066   1.1763265361e+02   4.0573062836e+01    0.3603512    0.2373848  84.29  0.002552697    1.258    0.205
        28  -8.3124    204.3239    152.6491   7.8880387844e+01   1.3246282686e+01    0.1167559    0.1008895 -88.64 0.0007048363    1.753    0.430
        29  -9.1263    136.0259    141.0089   8.9798568181e+01   2.7994783814e+01    0.2608306    0.1581471  56.69  0.001299802    1.646    0.393
        30  -9.6925    133.6094    145.5790   9.1128621582e+01   2.7639483743e+01    0.6878458    0.1809318 -54.41  0.002065965    5.722    0.825
        31  -8.2430    149.5809    146.7945   8.8006924628e+01   2.4459277331e+01    0.1699761    0.1254856 -63.25 0.0007490836    1.685    0.407
        32  -8.2977    209.6512    241.6868   9.1443588883e+01   3.1744600226e+00    0.1047034   0.05647974  23.64 0.0004969533    1.720    0.419
        33  -7.6687    121.5775    229.4801   1.0406977954e+02   1.6839754450e+01    0.1054763   0.07553723  47.51 6.579971e-05    1.015    0.015
        34  -8.2398    192.0379    144.0352   7.9353012432e+01   1.6696197927e+01    0.1824041    0.1585217  89.67 0.0004456569    1.596    0.374
        35  -8.2475    172.3065    144.0103   8.2992000945e+01   2.0532888388e+01    0.1968585     0.105792 -15.06 0.0006285233    4.128    0.758
        36  -8.6493    164.3893    139.2396   8.3603262932e+01   2.2819489666e+01    0.1710304    0.1275361 -52.79 0.0004995467    1.590    0.371
        37 -10.0313    210.9624    136.2863   7.4528078536e+01   1.4048017212e+01    0.3222705    0.2044485  32.48  0.001734302    1.489    0.328
        38 -12.6635    238.0815     70.6185   5.5057151037e+01   1.6475106533e+01     1.065728    0.6085786 -34.09   0.00135264    1.626    0.385
        39 -10.1229    182.1334    134.5130   7.9239569123e+01   2.0001878482e+01    0.2232404    0.1824092  12.09  0.001294128    1.307    0.235
        40 -10.1303    136.0316    127.4501   8.7205788971e+01   3.0426250362e+01    0.5183172    0.2366094 -52.71  0.002167015    2.526    0.604
        41 -11.0814    204.7290    128.4061   7.3916882116e+01   1.6301048042e+01    0.5592054    0.2884246  28.76  0.002424137    2.375    0.579
        42  -9.5966    205.5794    123.1800   7.2634458737e+01   1.6826020878e+01    0.2470941    0.1239008 -34.80  0.001057641    2.066    0.516
        43 -10.3268    160.4526    129.2530   8.2373098685e+01   2.5220811344e+01    0.4047456    0.2926133  43.71  0.002182514    1.264    0.209
        44 -12.2027    184.6980    121.4207   7.5950820060e+01   2.1417155423e+01      1.08254    0.5116148  39.73  0.004593734    2.124    0.529
        45  -8.3624    219.0245    123.5018   7.0494873369e+01   1.4070336335e+01    0.1973307    0.1218435  48.41 0.0006395312    1.567    0.362
        46 -10.0951    162.8464    120.5993   8.0025257076e+01   2.6156950083e+01    0.3844758    0.2690327 -67.10  0.001847311    2.021    0.505
        47  -9.4317    130.0372    117.4659   8.6496493691e+01   3.3468820897e+01    0.2530999    0.1933392 -73.55 0.0006459917    1.535    0.349
        48  -9.9439    214.8080    116.9396   6.9712142502e+01   1.5753843696e+01    0.3176168     0.226993  54.80  0.001330549    1.488    0.328
        49  -8.6127    152.5874    115.8163   8.1097463066e+01   2.9134966519e+01    0.2273514    0.1776483  40.05 0.0003771794    1.242    0.195
        50 -11.5961     53.3426    152.5808   1.1024786343e+02   3.8693477664e+01    0.6219612    0.3774494  83.41  0.001728073    1.564    0.361
        51  -7.3651    175.6482    114.7217   7.6145885064e+01   2.4376558138e+01    0.1454601    0.1034683  22.95 0.0007009786    1.646    0.393
        52  -9.9190    167.5875    113.6451   7.7487033569e+01   2.6292660389e+01     0.300653    0.2669553  76.50  0.001519427    1.261    0.207
        53  -9.5764    135.1074    108.4575   8.3306683897e+01   3.4144108692e+01    0.4924326    0.2663626 -42.90  0.002173368    1.973    0.493
        54 -10.7795    122.7460    101.3642   8.4597920574e+01   3.8065261366e+01     0.643767    0.4177836  75.92  0.002797093    2.190    0.543
        55 -10.8951    124.8327    109.5295   8.5985779338e+01   3.6036936434e+01    0.5494514    0.5090216 -37.53  0.002530865    1.209    0.173
        56  -9.1294    148.4423    102.1242   7.8758272157e+01   3.2457695866e+01    0.2846095    0.2263918  42.22  0.000747809    1.236    0.191
        57  -8.3302     35.9462    101.6977   1.0916739192e+02   5.1563482809e+01    0.1669789    0.1427568  71.13 0.0004373935    1.112    0.100
        58 -10.4833    166.4955     95.9655   7.3367204870e+01   2.9460237913e+01    0.7935099    0.5286225  74.62  0.003494467    2.045    0.511
        59 -10.0684    158.5237     96.9936   7.5281479469e+01   3.1107600413e+01    0.5537433    0.2807668  37.87  0.002175005    2.286    0.563
        60  -9.1479    134.6752     98.2336   8.0937229107e+01   3.6172819382e+01    0.3200945     0.214433  64.20 0.0008524872    1.668    0.400
        61  -8.6505    230.9238    219.1174   8.5435186842e+01   2.0914622016e+00    0.1588789    0.1080487  27.79 0.0003636429    1.037    0.036
        62  -8.9103    229.0995    201.4782   8.3162610442e+01   3.8804543268e+00    0.1879962    0.1653157  57.02 0.0009134833    1.736    0.424
        63  -9.7244    142.1430     92.4495   7.7703437319e+01   3.5617363270e+01    0.3219067    0.2851132 -70.52 0.0006574822    1.209    0.173
        64  -8.0498     97.6274     92.0203   8.8968228829e+01   4.4884465759e+01    0.1857421    0.1635282 -68.28 0.0005179752    1.098    0.089
        65 -10.5205    174.3954     88.6217   6.9864377279e+01   2.8816817923e+01    0.6164181    0.3825069  36.27  0.002463933    1.775    0.436
        66 -10.8776    156.7248     87.6973   7.3196108435e+01   3.3126516429e+01    0.3505033    0.2901121 -18.34  0.000520209    1.347    0.257
        67  -9.3345    209.7402     86.8525   6.3232395482e+01   2.0825548698e+01    0.3572969    0.2806841 -87.17  0.001466461    1.727    0.421
        68  -9.5052      6.8642     83.1405   1.1631405485e+02   5.8233374892e+01    0.1784942    0.1286372  73.35 0.0004579468    1.219    0.180
        69  -8.2631    124.7218     82.9785   7.9330505202e+01   4.1272707889e+01    0.2028618    0.1843734 -57.89 0.0002931336    1.100    0.091
        70  -8.5825    160.8918     79.6512   7.0070094375e+01   3.3506360617e+01    0.2492949    0.2038952 -20.72  0.000666583    1.319    0.242
        71 -10.5049    248.5667    194.0824   7.9170172677e+01   1.6426393407e+00    0.2086145    0.1542444  22.50   0.00158534    1.046    0.044
        72 -10.9430    127.9592     76.8899   7.6765988384e+01   4.1730596345e+01    0.6555458    0.5625873 -72.82  0.002269072    1.254    0.202
        73 -10.1395    122.2315     75.0005   7.7664299571e+01   4.3373288097e+01    0.3720776    0.3004497 -33.35  0.000731746    1.326    0.246
        74 -13.5507    226.5904     62.2388   5.4300568282e+01   2.0050495433e+01     1.927085     1.031482  36.07  0.008303313    2.193    0.544
        75 -10.3487    112.8608     71.4172   7.9080632692e+01   4.6119938483e+01    0.2543912    0.2329235 -44.44 0.0002207977    1.104    0.094
        76  -9.6251    108.6700     74.1174   8.1051076605e+01   4.6461923629e+01    0.3252386    0.1465001 -44.90  0.001197062    2.196    0.545
        77 -12.4487    194.5414     77.8626   6.3295400580e+01   2.5631748870e+01       2.4313    0.9508089  38.20  0.007784379    3.534    0.717
        78  -8.8479    195.7482     63.4909   5.9028727923e+01   2.7345848398e+01    0.2520303    0.1958706 -29.48 0.0005506476    1.251    0.201
        79  -7.8231     70.7542     40.3678   8.1873826857e+01   6.0658715297e+01    0.1387277    0.1034422 -71.23  0.000591415    1.618    0.382
        80  -8.8854    198.6258     35.9873   5.0308035816e+01   3.0129673679e+01    0.2116492    0.1717142 -22.76 0.0004346796    1.203    0.169
        81  -8.6478    190.1052     35.8493   5.1408891996e+01   3.2397433199e+01    0.2267444    0.2137081 -10.28  0.001018982    1.070    0.065
        82  -8.0506     54.0000     30.9582   8.4864144639e+01   6.5284344244e+01    0.2276186    0.0685501 -49.04 0.0008033838    2.949    0.661
        83  -8.1410    199.9795     30.3388   4.8373486990e+01   3.0426259292e+01    0.1873037    0.1794869  77.89 0.0003384276    1.073    0.068
        84  -9.0042    217.2000    196.0829   8.4162738907e+01   6.2078294762e+00    0.1875175    0.1272435  39.33  0.001288096    1.232    0.189
        85  -9.3524    191.9702    192.9640   8.7756032896e+01   1.0563355760e+01    0.4256454    0.2509472 -63.50  0.001826028    5.257    0.810
        86  -8.4348    160.5268     28.9624   5.3574161533e+01   4.1263042646e+01     0.231467    0.1510703 -23.77  0.000659246    1.548    0.354
        87  -8.6985     57.2591     25.9439   8.1235020641e+01   6.5763466119e+01    0.4726699    0.1563414 -49.27  0.001721779    2.933    0.659
        88  -7.8071    177.5542     25.5446   4.9744585333e+01   3.7014867098e+01    0.1489445     0.146212  25.37 0.0001596387    1.045    0.043
        89  -8.0060    159.4650     22.2073   5.1267104666e+01   4.2385097638e+01    0.2118335    0.1361734 -38.16 0.0004089895    1.528    0.346
        90  -9.2420    218.1219    191.3270   8.3285520378e+01   6.5356905272e+00    0.1735494     0.149126  -4.73  0.000331982    1.294    0.227
        91  -8.7779    203.2061     18.4495   4.4275086387e+01   3.0850582901e+01    0.3900824    0.2419602 -87.54  0.001548441    1.858    0.462
        92  -9.7307    218.9333    186.9585   8.2468033869e+01   6.8472152815e+00    0.2200947    0.1485249  18.35 0.0007223976    1.360    0.264
        93  -7.9854    177.1510     13.6359   4.5660352364e+01   3.8429888649e+01    0.2149702    0.1284792  58.14 0.0009308248    1.631    0.387
        94  -8.2250    166.6084     13.2445   4.6892985690e+01   4.1403097927e+01    0.3492428    0.1593843  61.99  0.001342602    2.052    0.513
        95  -7.8543    232.5330     12.5517   3.9854987474e+01   2.3931699664e+01     0.137492    0.1249727 -39.22 0.0001381251    1.004    0.004
        96 -10.0861    186.4614    182.7577   8.7136218810e+01   1.2679895273e+01    0.2086934    0.1738002  41.97 0.0004209261    1.140    0.123
        97 -12.7674      7.9365    176.4832   1.2154175655e+02   3.8800608309e+01    0.7396141    0.5222922  71.62  0.003929299    1.071    0.066
        98  -8.0790    138.9884    183.2802   9.5819344625e+01   2.0588688803e+01    0.1598812    0.1230062  46.01 0.0002324687    1.044    0.042
        99  -9.9383    244.6062    181.4429   7.7683080665e+01   3.3388029479e+00    0.2066314    0.2000576  60.91 0.0006769515    1.699    0.411
       100  -8.7500     71.9099    179.9567   1.0875900828e+02   3.1192724092e+01    0.1602708    0.1274115  63.38            0    1.051    0.049
       101  -9.8440    221.7820    177.6115   8.0487920551e+01   7.3456127703e+00    0.4353669    0.2626357  60.05  0.002317038    2.606    0.616
       102  -7.5799    204.6681    175.2634   8.2850348956e+01   1.0471899707e+01    0.1080066    0.0882609  60.17 0.0002148788    1.576    0.365
       103  -8.5101    220.1304    171.0990   7.9634981263e+01   8.3095856164e+00    0.1888476    0.1331213  19.45 0.0008772842    1.276    0.217
       104 -10.1355    119.1139    243.7133   1.0569316354e+02   1.5424188629e+01    0.1635145     0.134614  49.79 0.0003840801    1.216    0.177
