#   1 NUMBER                 Running object number                                     
#   2 MAG_AUTO               Kron-like elliptical aperture magnitude                    [mag]
#   3 X_IMAGE                Object position along x                                    [pixel]
#   4 Y_IMAGE                Object position along y                                    [pixel]
#   5 X_WORLD                Barycenter position along world x axis                     [deg]
#   6 Y_WORLD                Barycenter position along world y axis                     [deg]
#   7 A_WORLD                Profile RMS along major axis (world units)                 [deg]
#   8 B_WORLD                Profile RMS along minor axis (world units)                 [deg]
#   9 THETA_WORLD            Position angle (CCW/world-x)                               [deg]
#  10 FWHM_WORLD             FWHM assuming a gaussian core                              [deg]
#  11 ELONGATION             A_IMAGE/B_IMAGE                                           
#  12 ELLIPTICITY            1 - B_IMAGE/A_IMAGE                                       
         1 -14.5149     68.7258    144.4216   9.8635083857e+01   3.7615810870e+01     4.819169      2.47221  70.06   0.00878266    4.007    0.750
         2 -13.3008    200.7515     42.4546   4.1691013167e+01   3.0077721866e+01     1.126645    0.9896303 -49.84  0.003786476    1.188    0.158
         3 -13.5626    211.0579     32.5637   3.8227699436e+01   2.9042748047e+01    0.8945017    0.8436582  12.27  0.001745787    1.477    0.323
         4 -12.9071    236.5855      6.6879   3.0614917008e+01   2.6626100377e+01     0.810743    0.6049501 -78.42  0.004815321    1.065    0.061
         5 -10.3389     43.8383      6.9816   6.5663308511e+01   6.8588946064e+01    0.2002245    0.1159213   4.05  0.001088478    2.018    0.505
         6 -10.2402    142.1777    208.7868   9.0793019511e+01   1.0448004874e+01    0.2149593    0.1852986  56.64 0.0007744113    1.220    0.181
         7 -11.1728    140.0454    249.1185   9.7123988510e+01   3.2721798333e+00    0.3869243    0.2670004  29.21  0.002267575    1.292    0.226
         8 -11.5089    107.6110    203.8071   9.8022541863e+01   1.7285582447e+01     0.508696    0.2091631 -54.00  0.002033843    2.539    0.606
         9  -9.1303     31.4538    204.3355   1.1587555601e+02   2.7648048262e+01    0.3193302     0.140958  66.36  0.001403628    2.521    0.603
        10 -10.2385    202.9800    200.5097   7.6427174409e+01   1.7629987335e+00      0.20368    0.1244706  34.54  0.001035921    1.600    0.375
        11  -8.3128     96.2938    201.6562   1.0040665227e+02   1.9572902330e+01     0.146432    0.1004614  69.72 0.0003101053    1.662    0.398
        12 -11.2254    192.7191    194.8434   7.7422479794e+01   4.4658110644e+00     1.027823    0.5558238 -64.11  0.003450753    4.633    0.784
        13 -10.9490    122.2888    198.6927   9.3758307547e+01   1.5961103477e+01    0.3611785    0.2747843 -80.34  0.001070017    1.590    0.371
        14  -9.1399     21.0597    195.2085   1.1747317551e+02   3.0815790972e+01    0.2402632    0.1365585  55.01 0.0009996722    1.604    0.377
        15 -14.7181      9.2199    207.5373   1.2092591079e+02   2.9171116783e+01     1.149096     1.069379 -52.06  0.008479785    1.453    0.312
        16 -10.7030    148.3059    189.6463   8.6104215579e+01   1.3324726234e+01    0.7313638    0.4558537  85.84  0.002468437    4.083    0.755
        17  -9.7510    146.4782    186.0244   8.5865290152e+01   1.4424364759e+01     0.296298    0.2092799 -69.50 0.0006980735    1.830    0.453
        18 -10.9171    111.0826    203.3537   9.7134402874e+01   1.6818272276e+01    0.3311214    0.2476336  58.09 0.0004170452    1.353    0.261
        19  -9.2046     79.5869    182.0869   1.0174031771e+02   2.6702667577e+01    0.3135677    0.2066884  83.77  0.001462338    1.820    0.451
        20  -8.9589     85.1451    185.7534   1.0086399424e+02   2.4986043510e+01    0.3795605    0.1996565  62.97 0.0009763952    2.555    0.609
        21  -8.5230     82.5338    182.4249   1.0103705973e+02   2.6178286817e+01    0.2157252    0.1955478  69.45 0.0002241239    1.026    0.025
        22 -13.6520     20.1699    221.0549   1.1952182210e+02   2.5160808689e+01    0.9402599    0.6505596  54.29  0.003362912    1.232    0.188
        23  -8.2107     76.2538    184.6286   1.0295108069e+02   2.6584633955e+01    0.1463399    0.1000168  75.84 0.0003528017    1.640    0.390
        24 -10.2297     99.4246    180.8779   9.6487094496e+01   2.3871012144e+01    0.2701164    0.2631282 -74.07 0.0005993315    1.081    0.075
        25 -10.8244     41.4199    176.6543   1.1080563098e+02   3.3058618316e+01    0.5002164    0.3144752 -30.45  0.002359586    2.484    0.597
        26 -14.7816     38.1726    192.2523   1.1324010628e+02   2.9693546716e+01     9.366065     3.568291  77.97   0.01437282    6.146    0.837
        27  -9.5567    118.4207    173.3243   9.0344022466e+01   2.2371524048e+01    0.2984876    0.1389367 -49.49  0.001151174    2.192    0.544
        28 -12.4163     80.8570    158.8241   9.7713277239e+01   3.2211208773e+01     1.424378     0.698438  59.77 0.0005910189    3.020    0.669
        29 -12.8970     69.3223    153.7426   1.0007883672e+02   3.5191262740e+01    0.6639994    0.4265064 -56.21  0.001166641    1.484    0.326
        30 -12.8283     54.1199    186.1235   1.0870592707e+02   2.9243096004e+01     1.943333     1.142403  82.13  0.009186294    1.938    0.484
        31 -15.0914      3.3749    185.7412   1.2078100613e+02   3.4597633905e+01      11.0895          nan -71.75    0.0234323    8.629    0.884
        32 -10.4278    186.8518    174.9280   7.4767255151e+01   9.2624193361e+00    0.3890348    0.2999529 -50.31  0.001176685    1.385    0.278
        33  -8.4121    193.2464    169.9833   7.2453619481e+01   9.0501714755e+00    0.1835611    0.1164093 -41.72 0.0004940166    1.528    0.346
        34  -9.1866    110.8944    168.0562   9.1302138521e+01   2.4954910207e+01    0.2370379    0.1981079  76.58 0.0005348617    1.309    0.236
        35 -11.3977     72.6417    167.0492   1.0130610276e+02   3.1396987973e+01    0.3929543    0.3176436 -59.12  0.001441467    1.223    0.182
        36  -8.0752    120.4859    165.4911   8.8339366186e+01   2.3828580573e+01    0.1503918    0.1453732  67.44  0.000159925    1.016    0.016
        37 -11.3447    111.8184    196.7928   9.5957698014e+01   1.8147272966e+01    0.9947877    0.5568584   4.75  0.002573527    7.018    0.858
        38 -11.4838     88.3197    152.0670   9.4414630777e+01   3.2705455987e+01    0.6936448    0.4780623 -19.07  0.002981903    2.205    0.547
        39 -10.5318    133.7267    145.0326   8.0683672813e+01   2.6053130379e+01     1.327977    0.3055387 -54.20  0.002836856    6.744    0.852
        40  -9.2527     58.4336    151.4179   1.0280066375e+02   3.7259155106e+01     0.336164    0.2272085 -19.31  0.001008967    2.229    0.551
        41 -10.7590     53.9178    146.9073   1.0338728660e+02   3.8969377665e+01    0.7556864    0.3546749 -52.87  0.003216576    2.004    0.501
        42 -10.2258     58.6533    146.1139   1.0187721484e+02   3.8564995569e+01    0.3201839    0.2565922 -74.89  0.001521427    1.181    0.153
        43  -9.8391     48.6966    144.9251   1.0460040769e+02   4.0102781242e+01    0.3444518    0.2463464  28.91   0.00132819    1.546    0.353
        44  -9.2794    174.8566    149.1468   7.1889022699e+01   1.6781482701e+01    0.2308742    0.2091665 -81.66 0.0006420172    1.262    0.207
        45 -10.7574     28.8121    143.6663   1.1021321963e+02   4.2534131305e+01    0.3551993    0.3446451  54.79  0.002331259    1.173    0.147
        46 -10.3433    102.0278    138.4759   8.7789544238e+01   3.3690071069e+01    0.5646362    0.3663566 -20.07  0.002198094    2.500    0.600
        47 -10.0957    105.9132    130.9414   8.5007216207e+01   3.4791933072e+01    0.4013812    0.3193447 -65.43  0.001669502    1.320    0.242
        48 -11.5829     89.5357    137.7881   9.1240122144e+01   3.6036885450e+01    0.2949673    0.2655114 -35.10 0.0005270928    1.178    0.151
        49 -10.7629     25.7073    137.3762   1.1028939571e+02   4.4384454756e+01    0.3410911    0.2142868  38.50  0.001240628    1.717    0.417
        50 -10.1367    135.3800    128.8051   7.6510781581e+01   2.9417722873e+01    0.4331361    0.2356633 -47.26  0.001727249    1.828    0.453
        51  -9.5640    111.5160    129.2104   8.3021995107e+01   3.4139190257e+01    0.2922001    0.2466056  13.90 0.0008088832    1.372    0.271
        52 -11.4297     68.2193    171.6980   1.0318741506e+02   3.0878275535e+01    0.4715615    0.3051089 -32.60  0.002137518    2.196    0.545
        53 -10.9109     28.4034    129.0785   1.0830372813e+02   4.6199765933e+01    0.2833277    0.2603135 -38.95  0.001797745    1.183    0.154
        54  -9.0482    160.6733    128.3325   7.0267242543e+01   2.4129389173e+01    0.2449241    0.1885946 -85.69  0.001107663    1.725    0.420
        55 -10.1344     98.6848    124.9760   8.5721465019e+01   3.7552723386e+01    0.3147178    0.2644136 -14.82  0.001174273    1.404    0.288
        56  -9.7989    118.2215    123.3552   7.9755675984e+01   3.4186831181e+01    0.4162085    0.1961468  33.09  0.001380868    2.558    0.609
        57  -8.8080    163.3974    121.1823   6.7925277575e+01   2.5040397708e+01    0.2163864    0.1409285 -54.61  0.000496328    1.635    0.388
        58  -8.8011     86.8150    120.3721   8.8220268748e+01   4.0744646941e+01    0.2726727    0.1991835 -87.94  0.001226922    1.831    0.454
        59 -11.3318     32.7334    118.2474   1.0519878498e+02   4.8469795949e+01    0.4582749    0.2559082 -53.86  0.002263731    1.559    0.359
        60 -11.2239     33.8265    109.3821   1.0324530069e+02   5.0527228330e+01    0.4891059    0.2609264 -65.76  0.002321294    1.712    0.416
        61  -9.2816    107.7211    118.2793   8.1472131137e+01   3.7434841550e+01    0.2351131    0.2081557  31.25 0.0002839183    1.170    0.145
        62 -10.6558    240.1753    169.3309   6.3697954044e+01   1.1541895942e+00    0.2457771    0.1654009 -16.48 0.0007809486    1.591    0.372
        63  -9.8526    231.2495    113.7444   5.3676765564e+01   1.2275272006e+01    0.2556418    0.2400953 -73.57 0.0008114152    1.125    0.111
        64  -9.8088    244.0000    109.9914   5.1064002883e+01   1.0532176546e+01    0.2271218   0.06510235 -39.40 0.0008088344    2.987    0.665
        65  -9.4233    205.3694    110.2697   5.7046181745e+01   1.8084147919e+01    0.2835278    0.1998684  48.44 0.0008546987    1.536    0.349
        66 -10.3841    115.2426    108.6650   7.6868030503e+01   3.8122786290e+01    0.3948866    0.2296905 -31.76  0.001542437    2.153    0.535
        67  -9.1540    134.5831    105.3285   7.0777586661e+01   3.4733641362e+01    0.3111846    0.1473609 -48.87  0.001146628    2.181    0.541
        68 -10.6356     40.7054    103.8399   9.9762326819e+01   5.1159151937e+01    0.3913737    0.2503023  52.41  0.001932117    1.950    0.487
        69 -10.5351     33.0703     99.6551   1.0160448278e+02   5.2928662181e+01    0.3175458    0.2329952  44.32  0.001599197    1.579    0.367
        70 -17.0959     14.3326    242.6636   1.2192697845e+02   2.1315939537e+01     7.320276     5.746268  50.98   0.05408303    1.235    0.191
        71  -8.8068     74.9648     85.1519   8.2964228917e+01   5.0786686821e+01    0.2072824    0.1891897  68.58 0.0005122533    1.299    0.230
        72  -9.1252    159.1629     82.8619   5.8958985450e+01   3.3523946110e+01     0.200478    0.1796611  14.24 0.0003896302    1.322    0.244
        73  -9.0403    150.9413     82.9119   6.0745129841e+01   3.5442964301e+01      0.22551    0.2108637  88.37 0.0004606512    1.069    0.065
        74  -9.3328    112.1272     81.8152   7.0222428651e+01   4.4406818946e+01     0.505464    0.2990152  75.08  0.001642211    3.876    0.742
        75  -8.9985     69.8529     81.6743   8.3745457882e+01   5.2350745951e+01    0.1885948    0.1735782  38.10 0.0006064452    1.171    0.146
        76  -9.1368     55.2234     65.9216   8.4396723475e+01   5.7760796357e+01    0.1841097    0.1771081 -36.51 0.0004233016    1.179    0.152
        77 -11.2740     12.4744     59.6338   1.0060402348e+02   6.3505779254e+01    0.3876728    0.2731304  25.58  0.002432798    1.624    0.384
        78 -12.7557    190.1940     50.3950   4.5015588961e+01   3.1418333599e+01    0.8801379    0.6982675  50.81   0.00111419    1.399    0.285
        79 -10.4128    164.3957    211.6937   8.6377110641e+01   6.1213973828e+00    0.2807989    0.2038745 -58.34  0.001480829    1.689    0.408
        80 -10.0766     14.6197     32.1355   9.0996886629e+01   6.8580815710e+01    0.1869987    0.1233612   5.81 0.0006252663    1.467    0.318
        81  -9.5012    184.3258    212.3261   8.2291510079e+01   2.7131058372e+00    0.1398532    0.0977839  -1.52 0.0007049488    1.695    0.410
        82  -8.0770    234.2980     45.3079   3.8621892518e+01   2.2379289922e+01    0.1086242   0.09901612  28.29 0.0003335001    1.593    0.372
        83  -8.9207    189.7097     15.0013   3.6395978985e+01   3.5953994796e+01    0.1738846    0.1513719 -76.67  0.001001469    1.084    0.077
        84  -8.9879     88.9392    210.1712   1.0328266440e+02   1.8806999750e+01    0.2062915    0.1625425  65.50  0.000378792    1.222    0.182
