#   1 NUMBER                 Running object number                                     
#   2 MAG_AUTO               Kron-like elliptical aperture magnitude                    [mag]
#   3 X_IMAGE                Object position along x                                    [pixel]
#   4 Y_IMAGE                Object position along y                                    [pixel]
#   5 X_WORLD                Barycenter position along world x axis                     [deg]
#   6 Y_WORLD                Barycenter position along world y axis                     [deg]
#   7 A_WORLD                Profile RMS along major axis (world units)                 [deg]
#   8 B_WORLD                Profile RMS along minor axis (world units)                 [deg]
#   9 THETA_WORLD            Position angle (CCW/world-x)                               [deg]
#  10 FWHM_WORLD             FWHM assuming a gaussian core                              [deg]
#  11 ELONGATION             A_IMAGE/B_IMAGE                                           
#  12 ELLIPTICITY            1 - B_IMAGE/A_IMAGE                                       
         1 -12.5626    119.9971     37.3878   3.4549829223e+01   5.0067215608e+01    0.8403665     0.446585 -48.39  0.001583429    2.116    0.527
         2 -12.5591    160.0536     29.6954   2.5161535492e+01   4.1023418138e+01    0.4355757    0.3904869 -23.48 0.0004465896    1.191    0.160
         3 -12.2560    104.9317     12.9006   2.7884605177e+01   5.6804467142e+01    0.5770044    0.4276221 -15.01  0.002578735    1.524    0.344
         4 -10.8213    105.5414      2.5995   2.3286830096e+01   5.7565755066e+01    0.4522285    0.2560308 -51.43  0.002076635    1.984    0.496
         5 -12.2543    105.8889     20.8554   3.1089112882e+01   5.5714484691e+01    0.3899768    0.3278886 -58.65 0.0007813663    1.284    0.221
         6 -11.7921     26.4707     28.3066   6.9037797337e+01   7.1478027152e+01    0.5588925    0.3357452 -51.93  0.001988517    1.700    0.412
         7 -12.0313     20.2290     21.8402   7.0424561292e+01   7.3572773011e+01     0.620373    0.3324217 -41.93  0.001694621    1.769    0.435
         8 -10.0353    120.0486     15.9582   2.6332425968e+01   5.2579667873e+01    0.2851552    0.1988077 -16.59 0.0004728246    1.626    0.385
         9 -10.2109    121.5096     11.6812   2.4424938795e+01   5.2615940267e+01    0.4376137    0.2196498  73.78  0.001579979    1.898    0.473
        10 -11.8676    135.5085     22.1478   2.6123508833e+01   4.7961257822e+01    0.9347683    0.3987717  57.91  0.003887593    2.130    0.531
        11 -10.3863    127.3295     11.6618   2.3534500963e+01   5.1110439137e+01    0.3408518    0.2120855 -73.70  0.001282533    1.812    0.448
        12 -11.3831    134.7544     14.8348   2.3633894950e+01   4.8899338443e+01    0.6181127    0.2708657  65.02  0.002638119    2.038    0.509
        13 -10.9044    127.5522     16.1632   2.5183501814e+01   5.0619727622e+01    0.3489707    0.2778888  28.02  0.001310337    1.449    0.310
        14 -11.9486     48.5775     12.9864   4.6394664208e+01   7.0370668906e+01    0.7722012    0.3010655  50.24  0.003070201    2.426    0.588
        15 -11.7162     35.4663     18.3326   5.7373842371e+01   7.2022018980e+01    0.6033841    0.2792408 -31.44  0.002330205    2.517    0.603
        16 -11.5439     68.1779     18.5768   4.0983014817e+01   6.5304409511e+01    0.4361504     0.403255  31.18   0.00130886    1.025    0.024
        17 -13.1442    164.0222     18.7408   2.1346018664e+01   4.1221325503e+01    0.4662697    0.2997376  40.44  0.002389185    1.887    0.470
        18 -11.1336      6.7824      9.8113   7.5782419231e+01   7.7399436336e+01    0.5211906    0.3607007  17.97  0.002186653    1.408    0.290
        19  -9.9637     12.4207      8.3124   6.9262220237e+01   7.7125496321e+01     0.421392    0.3051563  88.51  0.002069596    2.858    0.650
        20 -12.1010     15.8775     14.8116   7.0137487100e+01   7.5481892870e+01    0.6816051    0.3894947 -22.69  0.003077827    2.002    0.500
        21 -11.5926     22.8532     11.0918   6.1902653520e+01   7.5267521000e+01    0.4491962    0.2975898   7.13  0.001750885    1.678    0.404
        22 -11.6539    228.6921     15.9741   1.5588789531e+01   2.7511141522e+01    0.3368581    0.1990688  63.46 0.0003965427    1.941    0.485
        23 -11.1386    225.5793     13.7970   1.5272934492e+01   2.8306381230e+01    0.2609936    0.1663784 -42.32 0.0007027892    1.262    0.208
        24 -10.3863    148.1245     16.1188   2.2328794412e+01   4.5387392150e+01    0.3630819     0.185765  51.86  0.001057533    2.004    0.501
        25 -10.0265     87.8042      7.5261   2.9177581664e+01   6.1731558497e+01    0.5733935    0.2876749  61.77   0.00231584    1.739    0.425
        26 -10.6357    186.9107     14.9436   1.8142489127e+01   3.6257516749e+01    0.1986681    0.1756592 -61.81 0.0003044003    1.013    0.013
        27 -11.8589    192.7813      8.3276   1.5954064862e+01   3.5559762964e+01    0.5759258    0.3511641  14.23  0.002080632    2.629    0.620
        28 -11.6683    212.1060      8.9491   1.4907279192e+01   3.1412806338e+01    0.5780305    0.3216583   0.59  0.002846743    2.933    0.659
        29 -10.8984    218.5287      3.6924   1.3329656615e+01   3.0582107642e+01    0.2801194    0.1939245  83.78  0.001092371    1.491    0.329
        30 -11.2661    223.8258      2.6457   1.2838842150e+01   2.9633115886e+01    0.2300427     0.174639 -61.13 0.0003415538    1.123    0.109
        31 -11.3518     85.8983     13.8934   3.2815197478e+01   6.1570688918e+01    0.4599039    0.3446515 -18.96  0.001856052    1.469    0.319
        32 -11.5197    169.8443      9.2220   1.7948098451e+01   4.0724637536e+01     0.434415     0.199636  61.71  0.002045408    2.116    0.527
        33 -10.9633    163.6086      5.6856   1.7430939350e+01   4.2524765681e+01    0.4037294    0.2366358  24.77  0.001366529    2.549    0.608
        34 -10.1574    145.1446      9.8404   2.0587132573e+01   4.6722720352e+01    0.2141811    0.1895672  30.49 0.0005360951    1.302    0.232
        35 -10.0457      1.0000      9.0381   8.1415181654e+01   7.7999078944e+01    0.3321565    0.1053233 -62.26  0.001040273    3.063    0.673
        36 -11.0146      2.4854      2.1473   7.5679484067e+01   7.9287656870e+01    0.3914048    0.2322316 -30.65  0.001680424    1.557    0.358
        37 -11.6328    184.6436      6.1091   1.5922448889e+01   3.7568325923e+01    0.4381877    0.2434282 -43.23   0.00169017    1.576    0.365
        38 -10.3914    152.1557      7.3742   1.9023567509e+01   4.5185046174e+01    0.3701716    0.1283634  62.01   0.00149278    2.558    0.609
        39 -10.7077    157.4857      7.5300   1.8551961168e+01   4.3855945044e+01    0.2302208    0.1726904  -5.43  0.001299631    1.608    0.378
        40  -9.7231    157.3164      3.6628   1.7357266207e+01   4.4224732619e+01    0.2195152    0.1252079 -57.79  0.000921463    1.717    0.418
        41 -11.3695    122.3466      5.4876   2.1894630355e+01   5.2946880606e+01    0.3114282    0.2399802 -21.71 0.0004770769    1.429    0.300
        42  -9.7126     62.3021      7.5992   3.6963843912e+01   6.7999296841e+01    0.2273949    0.1562354  11.95 0.0007560315    1.705    0.413
        43 -11.3304    232.8377      7.2799   1.3450038437e+01   2.7519026657e+01    0.2455147    0.1550507 -79.13  0.001566999    1.588    0.370
        44 -11.9238    233.6527      2.7940   1.2436849383e+01   2.7755810505e+01    0.4366319    0.2068011 -61.35  0.002526938    1.918    0.479
        45 -10.0650     76.5300      3.4903   2.9984821743e+01   6.4952439367e+01    0.2973087    0.2045674  35.36  0.001485849    1.459    0.315
        46 -10.2789     73.1683      2.8449   3.0574922851e+01   6.5848125353e+01     0.357696    0.2152601  40.09  0.001387576    1.608    0.378
        47 -11.1548    247.3071      5.5005   1.2441860883e+01   2.5064405769e+01    0.2324495    0.1669139  -7.95  0.001278754    1.736    0.424
        48 -11.0648    176.7366      5.9007   1.6438256538e+01   3.9397863141e+01    0.3597996    0.1892515  84.53 0.0009150711    1.875    0.467
        49 -10.0275     41.4234      3.8735   4.4078774530e+01   7.3044807635e+01    0.3179396    0.2230715  -5.53   0.00171589    1.578    0.366
        50 -11.3487    206.0519      2.7357   1.3742147402e+01   3.3202195131e+01    0.3793047    0.2515142 -81.53  0.002379988    1.447    0.309
        51 -10.8942    141.6259      3.4778   1.8812942175e+01   4.8154995223e+01    0.3395244    0.2324996 -88.32  0.001831884    1.391    0.281
        52 -11.8046    133.3665      2.6832   1.9444017858e+01   5.0326712856e+01     0.567955    0.2870338  79.88  0.002512479    1.871    0.466
        53 -10.4643     22.0534      3.1919   5.6820854236e+01   7.6698359447e+01    0.2127753    0.1775217 -26.50 0.0004219621    1.222    0.182
        54  -9.5839     77.9823      7.5194   3.1755390866e+01   6.4210345802e+01    0.2623824    0.1690938  85.43 0.0005998447    1.920    0.479
        55 -10.9693    114.2259      2.8083   2.1999632535e+01   5.5281097266e+01    0.4060674    0.2169894  75.64  0.001720045    1.730    0.422
        56 -10.9607    242.4977      3.4750   1.2215437214e+01   2.6087320848e+01    0.1621521     0.156335 -26.81  0.001348966    1.309    0.236
        57  -9.7118     13.0009      1.6738   6.3892262589e+01   7.8250595728e+01    0.1786213    0.1439127   9.95 0.0005430597    1.106    0.096
        58 -10.1265    152.5082      1.4350   1.7078526371e+01   4.5590085844e+01    0.2493131    0.1178927  78.19 0.0005493777    1.970    0.492
        59  -9.6863     39.3842    133.4487   8.8757435156e+01   4.4111546781e+01    0.2355011    0.1378243  15.98  0.001074263    1.828    0.453
        60  -8.9623    249.3480    250.3237   5.7628318061e+01  -2.2789483214e+00    0.1050813   0.05156577  -0.67  0.000704944    1.745    0.427
        61 -10.8760     51.2677    249.7896   9.5236203653e+01   1.8283353689e+01    0.2310403    0.1300927  19.12  0.001416877    1.601    0.375
        62 -10.3700    103.9441    131.3028   6.7159434781e+01   3.5515445665e+01    0.2269054    0.2095701 -43.58  0.001160817    1.134    0.118
        63  -9.4784     93.4844    129.9667   7.0030644317e+01   3.7593388498e+01    0.2213262    0.1478383 -53.61 0.0008626228    1.570    0.363
        64 -11.3056     10.1992    127.7026   9.8558750776e+01   4.7959550166e+01    0.4647707    0.2644057 -52.71  0.001786506    1.797    0.443
        65 -10.1366     26.8132    126.7487   9.2455640368e+01   4.6993896517e+01    0.3285419    0.1373709 -67.74 0.0009817226    2.228    0.551
        66  -9.6056     22.7436    127.0251   9.3967866582e+01   4.7255147635e+01    0.1836007    0.1647349 -86.81 0.0003406047    1.076    0.071
        67  -9.5467     47.2451    134.9922   8.6227794071e+01   4.2882864526e+01    0.1831485     0.119008 -69.83 0.0006755226    1.574    0.365
        68  -9.9293      2.1253    125.9277   1.0132580150e+02   4.8861175267e+01    0.2154649    0.1559452  60.81 0.0009654121    1.314    0.239
        69 -11.9566    103.8350    122.4058   6.5227283733e+01   3.7511195218e+01    0.3591903    0.3164661  24.29  0.001034663    1.099    0.090
        70  -9.5443     78.4787    123.4165   7.3508823013e+01   4.1556924625e+01    0.1479418    0.1398681  36.77 0.0003066516    1.031    0.030
        71 -10.4841     49.4872    123.1851   8.3661699135e+01   4.5610874292e+01    0.2874272    0.1909322   0.01  0.001204786    1.879    0.468
        72  -9.0322     78.6850    128.6878   7.4495283257e+01   4.0260311705e+01    0.1513948    0.1131279 -18.12 0.0002429348    1.638    0.389
        73 -10.7230     44.7638    119.9922   8.4896056949e+01   4.6970227387e+01     0.299293    0.2287459  89.51 0.0008020351    1.421    0.296
        74 -10.3060     43.7018    116.3534   8.4713329023e+01   4.8023454154e+01    0.2371571    0.2272401  67.09 0.0005776865    1.038    0.036
        75  -9.4591     33.2942    119.3254   8.9127196435e+01   4.8328605436e+01    0.1463286   0.09993707 -37.44 0.0004152023    1.622    0.383
        76  -9.1296     14.4799    119.4377   9.6295369598e+01   4.9809338232e+01    0.1348752    0.1230981  67.94 0.0001529994    1.053    0.051
        77 -12.5123      2.5263    111.4904   1.0024550716e+02   5.2538833275e+01    0.6987169    0.3682937  66.39  0.001977031    1.963    0.491
        78 -11.3177      4.9580    105.1468   9.8781186290e+01   5.4067934487e+01     0.444637    0.3176548  15.90  0.002318511    1.491    0.329
        79  -9.7885     79.1704    114.5926   7.1385382129e+01   4.3566091771e+01    0.2731065     0.215108 -53.05  0.001272447    1.301    0.231
        80  -9.2190     67.4773    114.9497   7.5587779920e+01   4.5292499624e+01    0.2042914    0.1303956  84.44 0.0008078829    2.419    0.587
        81 -11.5223     25.1296    107.4847   9.0742090200e+01   5.2135747649e+01    0.7651268    0.4327661 -39.37  0.003464512    1.946    0.486
        82 -11.3847     21.4660    114.6531   9.3108288803e+01   5.0554750408e+01    0.5326653    0.2723219   3.05  0.002024444    2.402    0.584
        83 -11.1916     28.2724    113.2016   9.0248216058e+01   5.0376182788e+01    0.4213201    0.3211381  -0.59  0.001372332    1.465    0.318
        84 -10.0832     48.8944    112.3823   8.2035860296e+01   4.8439369723e+01    0.2768592    0.2429131  30.32 0.0009809316    1.130    0.115
        85  -9.8947     66.8830    110.8311   7.4932784037e+01   4.6398562368e+01     0.229827    0.2037982  -9.81 0.0006539952    1.210    0.173
        86  -9.6371    102.0278    109.4841   6.2678519006e+01   4.0714460769e+01    0.2297752    0.1459539  37.19  0.000433788    1.531    0.347
        87 -11.1135     80.0136    108.2632   6.9633188841e+01   4.4939886955e+01    0.5295606    0.3041112  27.28 0.0009540098    1.839    0.456
        88 -10.4207     15.3793    108.5729   9.4855629912e+01   5.2575251289e+01    0.3558396    0.2246213   5.67  0.001533474    1.765    0.433
        89  -9.1987    143.6193    106.3089   5.0594156541e+01   3.3049574488e+01    0.1476504    0.1180172 -89.87 0.0007024716    1.794    0.443
        90  -9.4197    182.5455    104.4738   4.2214686390e+01   2.5555782592e+01    0.1346454     0.122807 -20.21 6.720001e-05    1.013    0.013
        91  -9.9016     85.7534    103.8165   6.6549422096e+01   4.4994226520e+01    0.2228722    0.2040565 -10.88 0.0007230151    1.138    0.122
        92 -10.3405     34.3266    103.8287   8.6388350398e+01   5.2256843991e+01    0.6155237    0.2813134 -15.32  0.001869985    4.544    0.780
        93  -9.3872     39.6995    103.3491   8.4075686261e+01   5.1823583836e+01    0.2149515    0.1481393  85.61  0.001005958    1.711    0.416
        94 -11.2667     29.7518     97.8739   8.7340400645e+01   5.4247088118e+01    0.7774749    0.4256423 -34.79    0.0033371    2.123    0.529
        95 -11.7515      6.9717     88.8284   9.6312063887e+01   5.8231506242e+01    0.8320744    0.4114518   3.88  0.003710492    2.283    0.562
        96 -11.6996     27.4648     85.1314   8.6099068400e+01   5.7773784624e+01    0.7874784    0.5681641   2.90  0.002769536    1.518    0.341
        97 -10.7568     35.4174     92.9055   8.3953757943e+01   5.4984688884e+01    0.3721741    0.2662084 -73.97  0.001072192    1.432    0.302
        98 -12.0452     42.8071     85.3011   7.8995775890e+01   5.6100058589e+01    0.9866879    0.4026408  17.88  0.002932325    3.054    0.673
        99 -11.8116      9.7934     97.5365   9.6008016606e+01   5.5804046050e+01    0.6379811     0.516871  -4.53   0.00171696    1.347    0.258
       100 -13.0248     17.6141    100.3112   9.2950726101e+01   5.4587435210e+01    0.3806897    0.3474237  14.41 0.0005284781    1.156    0.135
       101 -11.4093     23.2331     94.6345   8.9688514494e+01   5.5655796334e+01    0.3925022    0.3071831  -7.57  0.001095028    1.400    0.286
       102 -11.1805     17.9646     90.9735   9.1519944076e+01   5.7011822129e+01    0.4805487    0.3052213  77.96  0.001814229    1.786    0.440
       103  -9.5491     50.5425    102.4932   7.9471459394e+01   5.0761300250e+01     0.205106    0.1454176 -79.73 0.0001796307    1.602    0.376
       104 -10.4801     52.5621     98.2943   7.7751828296e+01   5.1563410482e+01    0.4996275    0.2413635 -47.97  0.000962633    2.076    0.518
       105  -9.3344     64.7105    101.7035   7.3700278370e+01   4.8980106792e+01    0.1501815    0.1136235 -21.86 0.0001693525    1.554    0.357
       106 -12.1831     68.7241     95.8874   7.0732935029e+01   4.9774960982e+01    0.3830475    0.2993443  13.76 0.0003801585    1.398    0.285
       107 -10.2328     82.9616     93.4396   6.4783220891e+01   4.7899058729e+01    0.3264795    0.2326622  27.81 0.0006280624    1.451    0.311
       108 -11.1152     79.4941     93.5081   6.6055713230e+01   4.8509437853e+01    0.5728476     0.552662 -85.08  0.003143116    1.115    0.103
       109 -10.8763     42.5990     94.3310   8.1094446101e+01   5.3822540497e+01    0.4067378    0.3245367  41.91  0.001506822    1.282    0.220
       110 -11.7847    125.7995     94.7696   5.1915248735e+01   3.8982629594e+01    0.2597637    0.2426605  20.27 0.0002333294    1.060    0.056
       111  -9.6291    121.7677     93.9959   5.2773775435e+01   3.9992663784e+01    0.2427281    0.1893663   5.40 0.0006370253    1.580    0.367
       112 -11.0645     89.8676     89.7438   6.1314458486e+01   4.7432509925e+01    0.5795019    0.3481952 -34.55  0.002413498    1.913    0.477
       113 -10.5045     49.3530     91.3878   7.7530788918e+01   5.3732662987e+01    0.2927648    0.2598719  50.60  0.001589125    1.178    0.151
       114 -10.7194     98.3049     90.9725   5.8858760809e+01   4.5496063151e+01    0.2768915    0.2166729  40.94 0.0002837951    1.249    0.199
       115  -9.9646     65.7941     88.9915   7.0078532794e+01   5.1911994380e+01    0.4072685    0.2578709  -4.12  0.001579416    2.530    0.605
       116  -9.9049    104.3517     87.0647   5.5798622347e+01   4.5081042119e+01    0.2535149    0.2050481  29.40 0.0006172684    1.267    0.211
       117 -10.8899    143.2010     84.6135   4.4802287328e+01   3.7063091857e+01    0.2475509     0.232154 -23.98 0.0002858405    1.055    0.053
       118  -9.8227    121.3273     84.5121   5.0138274672e+01   4.1933676240e+01    0.3319567    0.1772111 -44.36  0.001354277    1.919    0.479
       119 -10.4546     80.2064     83.9520   6.3059158903e+01   5.0570316667e+01    0.4039546     0.370261  53.61  0.001838597    1.143    0.125
       120 -10.2742     72.3463     77.8838   6.4225899752e+01   5.3390296673e+01    0.4322489    0.2964592  47.11  0.001721586    1.518    0.341
       121  -9.8730     76.4898     80.9803   6.3562784990e+01   5.1931899650e+01    0.3128651    0.2387714 -48.76 0.0008469999    1.335    0.251
       122 -10.3573     76.4776     76.9720   6.2319237639e+01   5.2833429642e+01     0.378674    0.2580572 -72.86  0.001472101    2.120    0.528
       123  -8.8343    133.3261     84.7015   4.7129192423e+01   3.9241080388e+01    0.1479457    0.1187802 -82.47 0.0003392641    1.633    0.387
       124 -10.2892    113.0306     82.4748   5.1824470307e+01   4.4149540132e+01    0.2622979    0.2492682   6.66 0.0006363464    1.063    0.059
       125 -10.0833     66.9657     81.6510   6.7536601691e+01   5.3462679597e+01    0.3306938    0.2368075   7.00  0.001494622    1.747    0.428
       126 -11.3068     53.5300     76.6503   7.1851303587e+01   5.6791922483e+01    0.5283169    0.4020808 -66.79  0.002625673    1.440    0.306
       127 -11.1640     58.4443     77.9571   7.0049985036e+01   5.5727264068e+01    0.4170966     0.366696 -25.99  0.001928996    1.162    0.139
       128 -10.4381     94.0618     76.7996   5.5922364927e+01   4.9366162874e+01    0.5233085    0.2761683  36.94  0.001601696    1.969    0.492
       129 -11.5820     13.1459     74.0551   9.1217871658e+01   6.1740044496e+01     1.262208    0.7320635  79.89  0.005737884    2.095    0.523
       130 -12.2914      5.2458     62.2499   9.3573424350e+01   6.5196813625e+01    0.4971759    0.4122061  37.89  0.001996922    1.326    0.246
       131 -11.4709      9.7001     62.6710   9.1079808372e+01   6.4864999178e+01    0.5287015    0.2423748 -50.32 0.0009011467    1.916    0.478
       132  -9.9671    233.4918     77.5138   2.8918564249e+01   1.9943505633e+01    0.1194249   0.09787962 -34.21 -2.81333e-05    1.027    0.026
       133 -10.7227     78.6890     67.6461   5.8364312524e+01   5.4425481457e+01    0.4912319    0.3545502  70.37  0.002174577    1.957    0.489
       134 -11.5602     85.9129     73.2283   5.7580487495e+01   5.1795197113e+01    0.7427725    0.5032638  38.66   0.00341727    1.448    0.309
       135  -9.5219     92.1493     72.1116   5.5025775421e+01   5.0731238815e+01    0.2052784    0.1832361  83.62 0.0005299303    1.313    0.238
       136  -8.7649    112.6618     75.3310   4.9694070964e+01   4.5610871700e+01    0.1554122    0.1215826 -84.80 -7.826687e-05    1.739    0.425
       137  -9.3067    103.8642     75.3392   5.2299459643e+01   4.7559934654e+01    0.2294571    0.1342385  37.09 0.0009442835    1.796    0.443
       138  -9.8471     24.3263     74.0657   8.5410458614e+01   6.0904540005e+01    0.2799593     0.179413 -46.37 0.0007660771    1.483    0.326
       139  -9.9951     28.6220     71.7459   8.2664125964e+01   6.1097621974e+01     0.291961    0.1856621  16.20 0.0006612118    1.648    0.393
       140 -10.7850     34.9961     71.8068   7.9408059407e+01   6.0411580266e+01    0.5177899    0.2276473  38.93  0.002050264    2.357    0.576
       141 -10.3027     41.0135     73.0177   7.6726996945e+01   5.9395563510e+01    0.2519488    0.2111636  21.97 0.0007645524    1.203    0.169
       142 -11.2971     40.4542     69.1090   7.5911122429e+01   6.0425826636e+01     0.357701    0.2640742  24.94   0.00120018    1.364    0.267
       143 -10.9852      2.0222     71.7196   9.6722993375e+01   6.2897820970e+01    0.3692535      0.19934 -70.30  0.001288491    1.642    0.391
       144 -10.7333    187.0626     71.2264   3.3161461210e+01   2.9588125497e+01    0.3789056    0.2510954 -31.87  0.001420601    1.396    0.284
       145  -9.1309    153.5093     72.5611   3.9172042413e+01   3.6748991772e+01    0.1418003    0.1350875  11.29 0.0008058662    1.089    0.082
       146  -6.0616     14.2507     67.5214   8.9443392224e+01   6.3350820035e+01    0.9157442    0.2176325  16.31  0.002888797    4.238    0.764
       147 -11.0351    122.9104     68.8178   4.4834559197e+01   4.4453991391e+01    0.4453147    0.2666073  50.03  0.001482704    1.633    0.387
       148 -10.5161    219.9875     66.9191   2.7983444922e+01   2.3640603307e+01    0.3417051    0.1852472  69.65   0.00179574    2.323    0.569
       149 -11.0042     92.3820     62.9336   5.1758537817e+01   5.2498172469e+01    0.6122758    0.3163959  61.50  0.002168102    2.804    0.643
       150 -10.4912     60.2379     62.7146   6.4329840763e+01   5.8941830363e+01    0.6606048    0.3536741  29.51  0.002717771    1.989    0.497
       151 -10.9660     40.5680     56.9728   7.2046665059e+01   6.3305967522e+01    0.7484486    0.4577502 -16.22  0.003167569    2.259    0.557
       152 -12.2214     43.9462     61.5308   7.1801912696e+01   6.1775371381e+01    0.9389079    0.5349321 -24.34 0.0009006147    2.457    0.593
       153 -10.1806     50.9537     61.1899   6.8170461083e+01   6.0815374633e+01    0.3264472    0.2811513  54.08  0.001337591    1.307    0.235
       154 -11.4951     44.0396     43.9855   6.5192183847e+01   6.5681960053e+01    0.7523041     0.404088 -60.18            0    2.404    0.584
       155 -11.1188     39.7968     44.1101   6.7638815133e+01   6.6301629172e+01    0.4482518    0.3034918  -5.38  0.001269739    1.855    0.461
       156 -10.1142    158.0236     63.2076   3.5602441079e+01   3.7142869555e+01    0.3853317    0.1549302  48.49  0.001470746    2.583    0.613
       157 -11.2676    234.8367     60.8899   2.5144492444e+01   2.1678100988e+01    0.3017977     0.258954  75.71  0.002176786    1.387    0.279
       158 -10.6891     32.0716     52.7556   7.5363936557e+01   6.5375075021e+01    0.6243407    0.2501332  16.42  0.002164349    3.301    0.697
       159 -10.2801     20.4860     55.4752   8.3066258783e+01   6.5907447983e+01    0.2844502    0.2439778 -62.08 0.0008737775    1.155    0.134
       160 -10.8381     24.7639     59.6234   8.1683437088e+01   6.4499074692e+01    0.8439041    0.2284948  25.68  0.002863309    3.395    0.705
       161 -10.8459     25.0161     56.0188   8.0522859589e+01   6.5357817919e+01    0.4249293    0.3086333 -18.11  0.001535937    1.453    0.312
       162  -8.9624    154.7660     60.6834   3.5436558245e+01   3.8270316637e+01    0.1342212    0.1084325   8.70            0    1.503    0.334
       163 -10.5604    110.2093     40.9694   3.8207205670e+01   5.2013019468e+01    0.5459042     0.489864   4.48  0.002680819    1.226    0.184
       164 -11.0270    118.0532     55.7407   4.1658710959e+01   4.7814433714e+01    0.9374066     0.501563 -66.64   0.00287189    4.303    0.768
       165 -10.4653    112.3837     50.7939   4.1342636777e+01   4.9980713400e+01    0.3370415    0.2399952 -31.01 0.0007263777    1.477    0.323
       166 -11.0757    115.9967     49.0053   3.9769156074e+01   4.9381074352e+01    0.3380269    0.3196807  -2.35 0.0004180954    1.121    0.108
       167 -11.5213    117.8142     44.0756   3.7524468793e+01   4.9673752958e+01    0.5533072    0.4197899  85.90  0.002167691    1.544    0.352
       168  -9.0517    113.3147    249.3452   8.1997580146e+01   1.1896401102e+01    0.1146529   0.07538133  -2.85 0.0007047584    1.715    0.417
       169  -9.8911    106.3721     58.6282   4.5838351771e+01   5.0105548808e+01    0.2296717    0.1812395 -79.39  0.001092859    1.641    0.391
       170 -12.4999     74.2901     51.4511   5.4015212952e+01   5.8583293284e+01    0.8291126    0.4060573 -52.51  0.002023762    2.567    0.610
       171 -11.2448     72.5386     47.5312   5.3107467509e+01   5.9690109336e+01    0.2811636     0.239435 -25.01 0.0006267909    1.220    0.180
       172 -10.1392     87.8036     56.4535   5.0930649571e+01   5.4734702404e+01    0.4161862    0.2239942 -34.68  0.001463134    2.019    0.505
       173 -10.0137     91.7288     57.2020   4.9871742078e+01   5.3722782112e+01    0.2832167    0.2049505  51.58 0.0009720306    1.366    0.268
       174  -9.1933    125.4240     56.4706   4.0118540753e+01   4.5918652699e+01    0.1442564    0.1416031  40.73 0.0001144234    1.024    0.023
       175  -9.9357    158.6347     55.0022   3.3068659971e+01   3.8176869369e+01    0.4098242    0.2088029  86.93  0.001363536    3.981    0.749
       176 -10.0878    247.3153     54.3088   2.2663918230e+01   2.0278564453e+01    0.1048035   0.08181668   6.51  0.000702971    1.631    0.387
       177 -11.3611     60.9209     48.2686   5.8453823606e+01   6.1865730411e+01    0.8643951    0.3370563 -41.29   0.00313388    2.678    0.627
       178 -10.8569    240.3580     50.6243   2.2431084895e+01   2.1864051026e+01    0.2059362    0.1722284  31.07  0.001442992    1.526    0.345
       179  -9.4372     81.5377     50.5211   5.0854802207e+01   5.7209650780e+01     0.240393    0.2213334 -82.13 0.0005906625    1.261    0.207
       180 -10.3470     82.9766     46.8026   4.8812378203e+01   5.7558480533e+01    0.2845517    0.2365413  17.02 0.0006078754    1.308    0.236
       181 -10.2106     51.8727     48.3231   6.2854262624e+01   6.3483742565e+01    0.2553484    0.2282288 -18.84 0.0006203594    1.101    0.091
       182  -9.6408      1.7658     49.0096   9.3364739094e+01   6.8677782209e+01    0.1869435    0.1625439 -53.25 0.0008430541    1.027    0.026
       183  -9.9216    146.3100     47.2418   3.2786308087e+01   4.2193483730e+01    0.2434039    0.1746736 -27.30 0.0007969343    1.446    0.309
       184 -10.1670     23.0278     37.8963   7.5661806280e+01   6.9814811553e+01    0.5506101    0.3430649  55.20  0.002536355    2.331    0.571
       185 -10.8902     20.5324     46.0095   8.0226111233e+01   6.8188742983e+01     0.526772    0.2543765 -34.81  0.001095967    2.237    0.553
       186 -10.1706     26.3128     42.9990   7.5432865501e+01   6.8298513649e+01    0.2384533    0.1962373  14.03 0.0006462975    1.203    0.169
       187  -9.8541     13.5329     46.5775   8.5000692291e+01   6.8629449980e+01    0.2901626    0.1349611 -39.46 0.0009058517    2.082    0.520
       188 -10.2530    200.6786     45.0290   2.4742947742e+01   3.0075674486e+01    0.3299198    0.1797947  87.10  0.001583916    2.410    0.585
       189 -10.2394    138.1848     44.5938   3.3405333651e+01   4.4546586017e+01    0.5155947    0.2065422  43.72  0.001812453    3.012    0.668
       190 -10.0384     30.3348     45.2940   7.3754664294e+01   6.7307652430e+01    0.1470712   0.09935313 -20.93 0.0006648178    1.642    0.391
       191  -9.6282    160.2599     43.4846   2.9347122590e+01   3.9325972292e+01     0.234672    0.1356376  73.18 -0.0002338703    1.868    0.465
       192 -10.1788    155.9196     42.2919   2.9638550035e+01   4.0517173297e+01     0.262154    0.2061428 -18.48  0.001155085    1.389    0.280
       193 -10.1905     92.3243     41.7290   4.3556434046e+01   5.6249247276e+01    0.4095082    0.2058814  55.59  0.001661376    1.947    0.486
       194  -9.3643     17.4871     41.9783   8.0931539918e+01   6.9413263146e+01    0.2115906   0.08033244 -42.18 0.0008093391    2.552    0.608
       195  -9.7928     57.2642     41.6067   5.7293832094e+01   6.3862580753e+01    0.2811725    0.1328383  45.33  0.001124431    2.132    0.531
       196 -10.6281     78.8336     38.0077   4.6534107015e+01   5.9984042604e+01     0.557422    0.3733867  88.41  0.002226976    2.760    0.638
       197 -11.2751     80.1161     33.0489   4.3820758955e+01   6.0472913434e+01    0.6364758    0.3465901  37.26  0.002671625    1.989    0.497
       198 -11.1746     60.9856     36.5073   5.3182833718e+01   6.4079719635e+01    0.4453991    0.3349295 -30.48  0.001465584    1.383    0.277
       199 -10.1627    231.5260     38.4430   2.0438656844e+01   2.4749505738e+01    0.2532276   0.09605421 -29.01  0.001221891    2.209    0.547
       200 -11.4257      4.8084     36.2498   8.8274565215e+01   7.1653930605e+01    0.4207441    0.3350042 -24.19  0.001957086    1.170    0.145
       201  -8.6975    206.3132     37.3157   2.2260964336e+01   2.9780181053e+01    0.1175057   0.09293882  23.18 0.0007034569    1.641    0.391
       202 -10.7139    176.2239     35.0657   2.4767027347e+01   3.6596066620e+01     0.478156    0.2016393 -44.87  0.001544336    2.234    0.552
       203  -9.5561    132.1035     36.7419   3.1860242522e+01   4.7104135599e+01    0.2976069    0.1663414 -87.07  0.001131744    2.767    0.639
       204  -9.4190     12.9905     36.7624   8.2355261914e+01   7.1003421171e+01    0.1873692    0.1587647 -40.28 0.0006923823    1.064    0.060
       205  -9.2876     94.0142     35.9604   4.0612138604e+01   5.6727524146e+01    0.2224315    0.1750473 -76.75 0.0006134487    1.605    0.377
       206  -9.5046    213.4890    248.4938   6.2965618121e+01   1.2100249279e+00    0.1061852    0.0716467   4.88 7.011721e-05    1.001    0.001
       207 -12.2579    164.3584     27.6788   2.4011303907e+01   4.0209464029e+01    0.3233055     0.272231 -68.38 0.0004298503    1.137    0.120
       208 -11.1061     47.7066    245.6552   9.5773457289e+01   1.9304387885e+01    0.3097632    0.1951187  87.10  0.002039174    1.991    0.498
       209 -11.7859    126.5728    241.8486   7.8453944543e+01   1.1499276422e+01    0.2706891    0.2261168  36.56  0.001833728    1.332    0.249
       210 -11.1284    147.1317    238.0906   7.3796895749e+01   9.6609405639e+00    0.3469861    0.2446116  35.80  0.001733328    1.449    0.310
       211 -11.4955    106.6265     32.2079   3.5629167734e+01   5.4129329397e+01    0.6546318    0.3735871  17.46  0.002413908    3.117    0.679
       212 -12.0605    113.9291     25.0274   3.1077538573e+01   5.3170599600e+01    0.7348062    0.3086492  59.30  0.001765681    2.115    0.527
       213  -9.2811     70.5319     34.4965   4.8111823150e+01   6.2411599362e+01     0.199945    0.1397708 -46.49 6.486354e-05    1.600    0.375
       214 -10.0997     67.8619     31.8548   4.7935333006e+01   6.3425568584e+01    0.2630879     0.207233  30.55  0.000908899    1.249    0.199
       215 -10.2443    239.7164     32.9531   1.8652589670e+01   2.3833762157e+01    0.2186687    0.1473999  50.65  0.001181087    1.887    0.470
       216 -11.2016     57.3506     30.7786   5.2079791368e+01   6.5812564998e+01    0.4686198    0.3209107 -18.28   0.00126969    1.722    0.419
       217 -11.5145     48.9508     30.4445   5.6162827805e+01   6.7497115641e+01    0.6736348    0.2798868  36.98  0.002035374    2.409    0.585
       218 -10.3953     43.0559     28.0633   5.8209817112e+01   6.8990043168e+01     0.204604    0.1826717   6.83   0.00119312    1.032    0.031
       219  -9.2455    183.3108     32.2973   2.3207277850e+01   3.5292468826e+01    0.1246571    0.0970412  31.60 0.0002651733    1.598    0.374
       220 -11.0744     32.3879     30.8482   6.6243351151e+01   7.0152796255e+01    0.3335235    0.2352436 -54.60 0.0003711118    1.570    0.363
       221 -10.3470     11.8520     30.2534   8.0873964351e+01   7.2587898169e+01    0.3972379    0.1695412 -44.73  0.001378513    2.085    0.520
       222 -10.1300      7.5765     30.2810   8.4269333403e+01   7.2891561704e+01     0.309372    0.1876891  -8.26  0.001231698    1.716    0.417
       223  -9.7513    230.0169     30.7034   1.8812345676e+01   2.5828824766e+01     0.152237    0.1341003 -61.27  0.000418578    1.119    0.106
       224  -9.9340    167.5081    238.0464   6.9781022326e+01   7.3233521090e+00    0.1465475    0.1034614 -29.23 0.0006936428    1.547    0.353
       225  -9.9365    199.5285    234.5496   6.3433293478e+01   4.2010753237e+00    0.1112976   0.07894725   5.97  9.54932e-05    1.004    0.004
       226 -11.0142    189.0094     27.9954   2.1469342732e+01   3.4483045931e+01    0.3452925    0.2678334 -10.38  0.001544016    1.493    0.330
       227 -12.2680    126.4033     28.6892   3.0029041077e+01   4.9545478497e+01    0.5174469    0.3927678 -88.46  0.002685064    1.415    0.293
       228 -10.0981     88.2773     29.3688   3.9450925351e+01   5.9065606721e+01    0.4448316    0.2043585  45.12  0.001765586    2.117    0.528
       229 -10.0117    197.5031     29.0483   2.0965611106e+01   3.2520223913e+01    0.2601518    0.1584794  57.57  0.001434629    1.790    0.441
       230 -11.1686    183.6027     25.2538   2.1242070778e+01   3.5980726137e+01     0.446078    0.2163945  54.26  0.002121959    2.222    0.550
       231 -10.6336    155.2547     24.4220   2.4127904888e+01   4.2770378410e+01    0.3591256    0.2057023 -80.49   0.00118376    2.091    0.522
       232 -10.9660    143.4459     25.1878   2.5984492769e+01   4.5623146373e+01    0.3845883    0.2046301  69.44  0.001751524    1.805    0.446
       233 -11.0413    148.3188     22.5564   2.4427526990e+01   4.4685858368e+01    0.3360727    0.1508834  64.12  0.001447596    2.056    0.514
       234  -9.6199    213.8168     24.6169   1.8549458365e+01   2.9583021954e+01    0.1652157    0.1030126 -82.40 0.0009539162    1.735    0.423
       235  -9.1529     15.4829    233.5148   1.0227069826e+02   2.4227148880e+01    0.1101272   0.08718246  39.67 0.0008097027    1.052    0.050
       236 -10.6188     72.8834    237.8277   8.9719686389e+01   1.8115513530e+01    0.2944589    0.2145851  27.55  0.001999493    1.082    0.076
       237 -11.6590     67.6742    240.9160   9.1106053528e+01   1.8137535107e+01    0.4555306    0.1762963  30.16  0.002343863    1.880    0.468
       238 -10.3169    246.5811    230.8728   5.5314622504e+01  -1.5108803105e-01    0.1587542   0.09777162  20.64  0.001214635    1.459    0.315
       239  -9.6392     75.4931    224.4868   8.8028561754e+01   2.0152688452e+01    0.1226315   0.09787031  30.51 0.0008105083    1.001    0.001
       240  -9.7342    234.4384    223.5044   5.6071721831e+01   1.7947485881e+00    0.1064373   0.07344979  -1.49 8.461306e-05    1.012    0.012
       241  -9.9744     59.7042     23.7571   4.7309957426e+01   6.6458251502e+01    0.2176248    0.1705735 -28.49 0.0004521848    1.335    0.251
       242 -10.4862     90.9507     22.1973   3.5385555196e+01   5.9345004764e+01    0.3254648    0.2517163 -12.35  0.001621223    1.458    0.314
       243  -9.9455    174.6603    246.5639   6.9524145576e+01   5.4545571825e+00    0.2191151   0.08370972  24.27  0.001142689    2.131    0.531
       244 -10.8566     38.8374     22.2045   5.7514379038e+01   7.0772609753e+01    0.2491087    0.2229967  18.43  0.000449158    1.053    0.050
       245  -9.7794    164.7730    212.0471   6.6715072913e+01   1.1239292972e+01    0.1703717    0.1449155  19.31 0.0005771913    1.240    0.193
       246  -9.4080    223.7628     22.2063   1.7301167509e+01   2.7860304733e+01    0.1384769    0.1319663   0.13 0.0004498531    1.289    0.224
       247 -10.9435    179.1089     20.6224   2.0383528918e+01   3.7478570539e+01    0.4758863    0.2246018  43.01  0.002047117    2.882    0.653
       248  -9.9016      5.7965     22.0065   8.2664317173e+01   7.4881770281e+01    0.2117331    0.1708242  -6.74 0.0006151383    1.172    0.146
       249  -9.9905    152.5904    206.8319   6.8453943248e+01   1.3602302996e+01    0.2055795    0.1616692 -58.09  0.001274193    1.890    0.471
       250  -9.4034    216.5199     20.4892   1.7377736275e+01   2.9447766057e+01    0.1172544   0.09945596 -49.45 9.551422e-05    1.025    0.024
       251 -10.2939    156.5038     20.5258   2.2743442039e+01   4.2870290794e+01    0.2842209    0.1253782  71.40  0.001215942    2.188    0.543
       252  -9.6971     74.5428     19.7558   3.9288014262e+01   6.3658051821e+01    0.2307559    0.1690307  34.90 0.0006380887    1.354    0.261
       253  -9.8433     46.9520     19.2364   5.1068235858e+01   6.9771067030e+01    0.2584104    0.2093778  18.45  0.001452208    1.196    0.164
       254  -9.1035     61.5002    206.5011   8.9846346770e+01   2.5070790496e+01    0.1264023    0.1052238  34.84 0.0008106984    1.000    0.000
       255  -9.9887    246.3000     19.3562   1.5368038094e+01   2.3994350826e+01   0.09994137   0.08047207  11.78 0.0007036894    1.706    0.414
       256  -9.2503     78.4899    203.5497   8.5306353672e+01   2.3725669086e+01    0.1296106     0.107046  33.23 0.0001727381    1.031    0.030
       257 -10.0431    139.5082    199.0139   7.0127866675e+01   1.6623564658e+01    0.1557593    0.1179802 -86.94 0.0008105903    2.593    0.614
       258 -10.8105      6.1570    198.6703   1.0330222078e+02   3.1680163550e+01    0.2151422    0.1263495 -70.61  0.001265697    1.874    0.466
       259  -9.7450    233.6910    196.5455   5.1980683843e+01   4.9079788122e+00    0.1867223    0.0824135 -31.41  0.001070054    1.994    0.498
       260 -11.7386      4.8461    185.6519   1.0319500939e+02   3.4533677031e+01    0.4213215    0.3609253  37.25  0.002212535    1.105    0.095
       261 -10.9798      3.3045    181.3455   1.0345274094e+02   3.5578422026e+01    0.2356419    0.2028721 -19.72  0.001216088    1.429    0.300
       262  -9.2529     86.2281    185.5825   8.1241481001e+01   2.6374674407e+01    0.1923115    0.1186572  17.52 0.0009500685    1.640    0.390
       263 -10.0268    250.3845    177.2020   4.6292606639e+01   5.2707599153e+00    0.1487957   0.08229075 -33.49 0.0009521339    1.669    0.401
       264  -9.5452     28.3714    175.7965   9.6257551322e+01   3.4909484289e+01    0.1704324    0.1125799 -65.74 0.0006122954    1.614    0.381
       265  -8.9583    113.6498    175.6716   7.2681097538e+01   2.4577658732e+01    0.1440931    0.1001393  -7.29 0.0007048463    1.764    0.433
       266  -9.3995     74.8384     13.5856   3.5952654261e+01   6.4338122126e+01    0.1972973    0.1306327  72.72 0.0009406841    1.686    0.407
       267  -9.4803     51.6082    173.7819   8.9443127436e+01   3.3095353344e+01    0.1749715     0.123847  86.19 0.0006208922    1.593    0.372
       268 -10.5336     14.0456    159.3073   9.9387865636e+01   3.9893247319e+01    0.2418485    0.1909231 -44.68 0.0007451413    1.454    0.312
       269 -11.7835      9.0855    166.9295   1.0125903575e+02   3.8449500982e+01    0.3590424    0.2418293  23.73  0.001278365    1.433    0.302
       270 -11.5952     11.5045    162.9884   1.0035376142e+02   3.9202552257e+01     0.356443    0.2080539 -85.58  0.001895447    1.697    0.411
       271 -10.6708     18.9393    164.8728   9.8264140970e+01   3.8211973603e+01    0.3029002    0.1807552   2.09  0.001522505    2.032    0.508
       272 -10.0290    205.0088    163.3443   5.0826399569e+01   1.2853295043e+01    0.2196531    0.1591961 -30.82 0.0006380335    1.322    0.244
       273 -10.3357     28.1696    161.1056   9.5227509161e+01   3.8345275050e+01    0.1989152    0.1821721 -28.85  0.001249017    1.249    0.199
       274  -9.5632     66.3214     10.4336   3.7138294987e+01   6.6737591759e+01    0.2763779    0.1156521  53.57  0.001130583    2.065    0.516
       275 -11.0289      9.3221    155.4607   1.0060785019e+02   4.1137976268e+01    0.2537112    0.2148925  75.24  0.001088537    1.096    0.088
       276 -10.1091    104.3396    154.7795   7.1632246277e+01   3.0309135157e+01     0.279741    0.2398106  19.00  0.001558843    1.100    0.091
       277 -12.6245     22.6965    149.1622   9.5986472936e+01   4.1691282700e+01    0.6367623    0.3366551 -36.39  0.002845465    2.452    0.592
       278 -11.0762     16.4817    148.0198   9.7900195067e+01   4.2446969840e+01    0.3313664    0.2372738 -81.68 0.0004510926    1.368    0.269
       279 -10.4129      4.2013    153.6656   1.0208570614e+02   4.1892265966e+01    0.2824856    0.1185248  32.28  0.001081923    2.066    0.516
       280  -8.9850    142.6948    152.6871   6.1365710845e+01   2.4436697642e+01    0.1431752    0.1025592  -3.29 0.0003232333    1.618    0.382
       281 -10.2595     30.4182    152.0259   9.3758545013e+01   4.0336471570e+01     0.252204    0.1877065  -6.13  0.001128677    1.592    0.372
       282 -11.0831     47.1596    146.9504   8.7817722472e+01   3.9922526798e+01    0.5814971    0.3424407 -37.09   0.00264172    2.095    0.523
       283  -9.7577     66.8196    149.2760   8.1840739517e+01   3.7002359681e+01    0.2375272    0.1772498  14.82 0.0006317572    1.403    0.287
       284 -10.5280      3.1834    147.4057   1.0210694875e+02   4.3463584114e+01    0.2087705    0.1645811 -72.08 0.0008944891    1.274    0.215
       285 -11.2025      5.7989    142.2076   1.0099880827e+02   4.4584211545e+01    0.4829327    0.2200166  64.06 0.0003392598    2.217    0.549
       286 -11.4309      2.0914    140.2695   1.0211051872e+02   4.5273218143e+01    0.4511492    0.2573868  75.37 0.0008119032    1.685    0.407
       287  -9.2927     74.2390    146.0558   7.9017661034e+01   3.6768223811e+01    0.1770401    0.1210866 -59.47 0.0004683069    1.541    0.351
       288 -11.0319     33.1801    144.2893   9.2114743135e+01   4.1991454119e+01    0.2817705    0.2668386  78.33 0.0007412157    1.043    0.041
       289  -9.9161     16.0225    141.0003   9.7540871173e+01   4.4217678889e+01    0.1987526    0.1387636  57.04 0.0004131105    1.368    0.269
       290 -11.5270     12.5487    136.4107   9.8376119323e+01   4.5605618567e+01    0.5090185    0.3366811 -59.04  0.002734169    1.527    0.345
       291  -9.5916    217.4803    138.9448   4.4032164828e+01   1.4444836763e+01    0.1817694    0.1036629 -31.43 0.0004525916    1.519    0.342
       292 -10.2185     79.7607    138.2584   7.5945091160e+01   3.7819365824e+01    0.3254211    0.2225505  39.50  0.001273012    1.389    0.280
       293 -10.5707     40.1212    137.8799   8.9054613859e+01   4.2918849062e+01    0.2982095    0.2157178  48.38 0.0007740546    1.345    0.257
       294  -9.9576     32.0682    137.5218   9.1776492649e+01   4.3788092489e+01    0.3070075    0.1910901  33.61  0.001011237    1.509    0.338
       295 -11.5100     22.7209    136.3561   9.4879669841e+01   4.4880375713e+01    0.7131855    0.3375541  32.75  0.003235132    1.931    0.482
       296 -11.1387     29.8518    133.2411   9.2081877193e+01   4.5071497214e+01    0.3927218    0.2739426 -28.70  0.000670617    1.701    0.412
       297  -9.8772     72.9615    133.3000   7.7247208852e+01   4.0000255196e+01    0.2120171    0.1902903  28.88 0.0007952431    1.069    0.065
