#   1 NUMBER                 Running object number                                     
#   2 MAG_AUTO               Kron-like elliptical aperture magnitude                    [mag]
#   3 X_IMAGE                Object position along x                                    [pixel]
#   4 Y_IMAGE                Object position along y                                    [pixel]
#   5 X_WORLD                Barycenter position along world x axis                     [deg]
#   6 Y_WORLD                Barycenter position along world y axis                     [deg]
#   7 A_WORLD                Profile RMS along major axis (world units)                 [deg]
#   8 B_WORLD                Profile RMS along minor axis (world units)                 [deg]
#   9 THETA_WORLD            Position angle (CCW/world-x)                               [deg]
#  10 FWHM_WORLD             FWHM assuming a gaussian core                              [deg]
#  11 ELONGATION             A_IMAGE/B_IMAGE                                           
#  12 ELLIPTICITY            1 - B_IMAGE/A_IMAGE                                       
         1 -13.3023     66.6238    107.5488   5.2886073781e+01   4.6821066553e+01     2.369799     1.454131 -73.39   0.01005533    1.851    0.460
         2 -12.5444    149.9319     99.9392   2.6637672777e+01   3.2352491312e+01     1.346692    0.6226148 -48.81   0.00512126    2.220    0.549
         3 -10.2092     40.9788     13.7054   2.8819420490e+01   7.1642619393e+01    0.2309321    0.1991184   5.04 0.0001850909    1.088    0.081
         4 -10.0274     97.6682     11.8482   7.6424301143e+00   5.9173021378e+01    0.2878385    0.1755208  -4.49  0.001054184    2.120    0.528
         5  -9.3696     67.5688      1.3129   9.9133041976e+00   6.7484880500e+01    0.2114328     0.110958  61.29 0.0001933565    1.747    0.427
         6  -9.8273    107.4530    247.7558   6.2300290070e+01   1.0302737498e+01    0.2368199    0.1885343  59.13  0.001437868    1.457    0.314
         7 -11.2155     54.0624    248.8421   7.3377704722e+01   1.6088614710e+01    0.4751685    0.2932159   9.21  0.001978626    2.134    0.531
         8 -10.3561     38.9426    249.2432   7.6489643970e+01   1.7549639598e+01    0.3186212    0.1025781  47.57  0.001589259    2.323    0.569
         9 -10.2523     34.8065    246.6064   7.7206053226e+01   1.8418968920e+01    0.2344839   0.09275778  47.63  0.001108363    1.904    0.475
        10 -10.8644      3.8140    247.7347   8.3447392236e+01   2.1011069108e+01    0.4820517    0.1852484  72.49  0.002652388    2.466    0.595
        11 -11.7361      7.6508    242.3846   8.2549217540e+01   2.1652958099e+01    0.4939573    0.3192718  77.49  0.003485814    1.453    0.312
        12 -10.6168     13.0643    250.0828   8.1699330641e+01   1.9806310578e+01    0.3565375    0.1505859  39.56   0.00128192    1.640    0.390
        13 -12.4490     19.3655    248.0723   8.0385629998e+01   1.9602855918e+01     1.043588    0.4057142  24.11  0.005435737    2.453    0.592
        14 -10.9870    107.7452    239.0262   6.1377310498e+01   1.1681041293e+01    0.3736023    0.2323882 -52.55  0.002298122    1.928    0.481
        15  -9.3459    247.4807    247.9411   3.7241452121e+01  -5.0137432905e+00    0.1518856    0.1069037  10.94 0.0006872278    1.257    0.204
        16  -9.1157    196.0133    248.4978   4.5556041543e+01   1.0132751467e-02    0.1622975   0.08446804  26.87  0.001030627    1.592    0.372
        17 -10.9268     73.6859    244.4321   6.9004334337e+01   1.4734571224e+01     0.240035    0.2043105  35.47 0.0005903432    1.088    0.081
        18 -11.4592     98.0597    241.5737   6.3652245307e+01   1.2415072015e+01    0.3974393    0.2516771  25.25  0.001088591    1.365    0.267
        19  -9.1610    250.5011    241.5130   3.5894254361e+01  -4.6291480902e+00    0.1008076   0.06913014  -3.33 -6.639334e-05    1.031    0.030
        20  -8.4609    235.4499    240.4860   3.8008703970e+01  -3.1037201932e+00    0.1038249   0.07284747  -1.67 6.548846e-05    1.014    0.014
        21  -9.4256    220.9476    239.6175   4.0173352020e+01  -1.5595153645e+00    0.1696483    0.1117676  -8.84 0.0004778835    1.222    0.182
        22  -8.9034    238.3158    239.3222   3.7403458077e+01  -3.2543093596e+00    0.1079797   0.05892188  -3.41 0.0003817494    1.662    0.398
        23  -9.9490    169.5592    224.8609   4.7135750043e+01   6.2168891745e+00    0.3583451    0.2030895  46.70  0.001915394    2.392    0.582
        24 -11.6779    169.5723    233.9944   4.8390575955e+01   4.9024102419e+00     0.562651    0.4393536  31.87  0.003435466    1.330    0.248
        25 -10.8298    162.5383    230.7599   4.9298836795e+01   6.2217756837e+00    0.2799509    0.2324466 -38.29 0.0009473836    1.438    0.305
        26 -11.7451    162.3017    225.7526   4.8663074402e+01   6.9926411893e+00    0.6405098    0.3906257  -9.90  0.003139444    1.990    0.497
        27  -9.9954    106.4884    243.4615   6.2081360449e+01   1.1104985597e+01    0.1863355    0.1665167 -21.11 0.0008150148    1.314    0.239
        28 -11.0671    101.3124    233.8548   6.2212344447e+01   1.3334220242e+01    0.4305595    0.2666014  66.62  0.001949956    2.309    0.567
        29 -11.6000     98.7305    225.5012   6.1911554920e+01   1.5125335513e+01    0.3990275    0.3701354   5.13  0.001608521    1.173    0.147
        30 -12.1239     95.0977    217.7513   6.1895809919e+01   1.7011981100e+01    0.6392013    0.4504173  21.94  0.002678739    1.359    0.264
        31 -10.5092     99.9868    217.4879   6.0763951281e+01   1.6438122491e+01    0.2904939    0.2488096  55.63  0.001915613    1.212    0.175
        32 -10.0770    231.4026    234.6237   3.7795140778e+01  -2.0522256238e+00    0.2029638    0.1521198   0.06 0.0007582485    1.117    0.104
        33 -11.2958     90.8418    231.0144   6.4189947147e+01   1.5101991416e+01    0.4113984    0.2651236 -58.06  0.001760621    1.834    0.455
        34 -10.5080     12.9728    244.0076   8.1530108188e+01   2.0899783116e+01      0.22756    0.1604818  66.66  0.001661461    1.235    0.190
        35 -10.8491    238.3387    230.1414   3.6065322626e+01  -2.2414536188e+00    0.2631171    0.1714063   3.52  0.001889202    1.198    0.165
        36  -9.3579    145.1528    227.7923   5.2346028504e+01   8.8459296365e+00    0.1656973    0.1232333   3.35 0.0005894288    1.319    0.242
        37  -9.7848    116.8143    227.3222   5.8191308046e+01   1.2528759513e+01    0.1752816     0.150242  69.52 0.0006509977    1.453    0.312
        38  -8.9837    191.6882    226.9748   4.3337733354e+01   3.2354266758e+00    0.1519337     0.120087  -6.45 0.0003000404    1.102    0.092
        39 -11.3318    126.4740    221.1628   5.5385176658e+01   1.2341322336e+01    0.3492569    0.2639736  72.23 0.0007595823    1.955    0.489
        40  -9.8795    121.7570    222.6181   5.6575316779e+01   1.2703987565e+01    0.2319407    0.1356854  20.74  0.001248012    1.664    0.399
        41 -11.0210    107.5343    222.9762   5.9703880897e+01   1.4469486712e+01    0.4413253    0.1881879  22.14  0.001901216    2.634    0.620
        42  -8.7958     66.6175    223.7498   6.8908962825e+01   1.9308787748e+01    0.1549341    0.1092806  83.55 0.0008099654    1.613    0.380
        43  -9.4093    157.5099    221.9120   4.9074684985e+01   8.1861757431e+00    0.2168237    0.1716059   6.19  0.001451253    1.115    0.103
        44  -9.7015     27.4489    225.1387   7.7743753686e+01   2.3151533694e+01     0.246977    0.0900671  52.43  0.001190198    2.264    0.558
        45  -9.5417     75.0221    219.0980   6.6598538629e+01   1.9227390005e+01    0.1986268    0.1574665  44.16 0.0007094359    1.073    0.068
        46 -10.4225    131.1897    215.1704   5.3600749996e+01   1.2752804437e+01    0.2904373    0.1662256 -55.55  0.001532754    2.107    0.525
        47  -9.9104     24.7280    216.8179   7.7945339743e+01   2.5079133050e+01    0.3147015   0.09406187  39.80   0.00140447    2.327    0.570
        48  -9.6083    190.7900    214.7315   4.1673432920e+01   5.0358760480e+00    0.3252931    0.1788931  -2.27  0.001655211    2.380    0.580
        49 -10.1344    170.7041    215.1616   4.5511001523e+01   7.5218463918e+00    0.2410949    0.1864332   8.12 0.0007811231    1.110    0.099
        50  -9.2237    151.5256    216.1489   4.9472275402e+01   9.8793435549e+00    0.2470918    0.1421925  14.42 0.0009212802    1.901    0.474
        51 -10.4283    112.9559    213.0854   5.7332862750e+01   1.5561821674e+01    0.4832082    0.2870162  -9.37  0.002157704    2.939    0.660
        52  -9.8321     64.7561    213.6858   6.8488327570e+01   2.1511324490e+01    0.4900717    0.1436082  42.73   0.00198055    2.733    0.634
        53  -9.3785    228.4795    214.4850   3.5218655050e+01   6.4295828691e-01    0.1112189    0.0825763  -4.92  0.000171921    1.007    0.007
        54 -10.0671     55.9859    216.8724   7.0786771148e+01   2.1864363373e+01    0.1788296    0.1564467  75.08            0    1.165    0.142
        55  -9.7676     78.1264    211.3085   6.5135251705e+01   2.0390545901e+01    0.2556261    0.1108719  22.42  0.001084065    2.556    0.609
        56 -10.0507     21.1898    210.6681   7.8455376657e+01   2.6680550513e+01    0.3445258     0.102843  23.83   0.00140044    3.269    0.694
        57 -11.2918     12.7745    204.7143   8.0142525999e+01   2.8688075735e+01    0.5628513    0.2215234 -70.63  0.002667167    2.564    0.610
        58 -11.7079     16.3254    196.7118   7.8932591540e+01   3.0126685877e+01    0.5631531    0.2925167 -39.63  0.001701635    3.129    0.680
        59 -10.5180    211.9271    207.7273   3.6859841831e+01   3.4217606327e+00    0.3011792    0.2479205  23.35  0.002188585    1.371    0.271
        60  -9.4749    124.0428    205.9517   5.3923052961e+01   1.5376408818e+01     0.180424    0.1600051  19.64            0    1.022    0.021
        61  -8.9339    224.4733    205.4809   3.4424382185e+01   2.2377509601e+00    0.1133945   0.08701637  -6.30 5.123339e-05    1.028    0.027
        62  -9.0000      1.4351    207.0452   8.2842163670e+01   2.9119115709e+01    0.1654701   0.09998002  86.63 0.0005137911    1.534    0.348
        63 -10.6537    250.1419    200.1469   2.9628538779e+01   3.9638531100e-02    0.2222224    0.1211978 -28.91 0.0008054829    1.494    0.331
        64 -11.2124    178.5351    196.9227   4.1135345083e+01   9.3167588379e+00    0.6495296    0.3684696 -23.21   0.00237668    1.962    0.490
        65  -9.7112    166.1761    199.1606   4.3934165416e+01   1.0669196970e+01     0.196528    0.1538772  -1.85 0.0007528877    1.204    0.170
        66  -8.2077    139.2377    199.2836   4.9605649932e+01   1.4461408882e+01    0.1209476   0.09164588  -9.91 0.0006795275    1.450    0.310
        67  -9.0315    133.0020    198.9868   5.0934965987e+01   1.5405637086e+01    0.1873481    0.1405307  -1.98            0    1.489    0.328
        68  -8.6662    113.2131    198.4216   5.5362383027e+01   1.8321085148e+01    0.1963523    0.1062647  41.80 0.0009479432    1.724    0.420
        69  -9.2082    105.2217    197.5533   5.7125447711e+01   1.9610018897e+01    0.2361786    0.1573393 -36.90 0.0008866979    1.782    0.439
        70  -9.0480     43.9507    198.4528   7.2247279059e+01   2.7060491531e+01    0.1951908    0.1081531  33.56  0.001016899    1.582    0.368
        71  -9.7829    126.9255    196.7425   5.1968530662e+01   1.6696582381e+01    0.1967196    0.1624925   0.20 0.0006013497    1.260    0.207
        72  -8.6656    113.4293    194.4347   5.4757636800e+01   1.9079667206e+01    0.1309638    0.1184272  30.00 8.627238e-05    1.011    0.011
        73 -10.1647     93.9377    181.4878   5.7716737689e+01   2.4580139641e+01    0.3561184    0.3017478 -59.66  0.001247754    1.262    0.208
        74 -11.8303     98.1014    189.1861   5.7729671176e+01   2.2331755960e+01    0.5552636    0.3668374  64.94  0.001817584    1.908    0.476
        75 -10.0460    104.0453    189.4898   5.6313452102e+01   2.1426770972e+01    0.3169945    0.2203508  34.86  0.001116528    1.305    0.234
        76  -8.5384    223.0273    187.9958   3.1726224210e+01   4.7554981379e+00    0.1335809    0.1050629  -5.98            0    1.035    0.033
        77  -9.4526    204.1679    188.0019   3.4898143308e+01   7.1998582374e+00    0.2533835    0.1608187  49.11   0.00138453    2.347    0.574
        78  -9.4760      1.4397    163.0729   8.1210729517e+01   3.9159347512e+01    0.2291121    0.1065204 -78.98 0.0007573763    1.939    0.484
        79 -11.1706     10.9145    187.2043   7.9817454382e+01   3.2725589064e+01     0.420814    0.2118313  52.79 0.0008159677    1.664    0.399
        80 -12.0764     13.4441    180.4700   7.8835917493e+01   3.4076728608e+01     1.181178     0.509001  26.24   0.00562733    2.213    0.548
        81 -12.7893      4.8121    173.7093   8.0774544646e+01   3.6353003060e+01    0.5505936    0.3361339  78.01 0.0003660968    1.441    0.306
        82 -11.3775      4.9924    166.4655   8.0388358541e+01   3.8081579491e+01    0.5564002    0.3086282  -6.66  0.002495752    2.804    0.643
        83 -11.6207    249.7071    183.4181   2.6882868232e+01   2.1561460726e+00    0.7426564    0.1596707 -33.86  0.002892937    3.951    0.747
        84 -12.6762    246.7101    134.8787   1.8328882727e+01   9.0435082062e+00     1.222599    0.4679755 -41.76  0.005783773    2.348    0.574
        85 -13.0017    248.5743    157.0941   2.2328443083e+01   5.7419134153e+00     1.746274    0.4247718 -33.14  0.006764105    3.531    0.717
        86 -11.5178    245.4546    144.5225   2.0373708285e+01   7.8749125695e+00    0.6590878    0.2997291 -32.39  0.003496862    1.758    0.431
        87 -11.1534    172.6699    195.3735   4.2024081264e+01   1.0381964903e+01    0.3300414    0.2485998 -47.13 0.0009014008    1.556    0.357
        88 -10.1585    175.9651    184.9576   3.9605007757e+01   1.1631510991e+01    0.1780214    0.1606935  72.88 0.0004716291    1.653    0.395
        89  -9.4933    109.4696    184.9042   5.4331461792e+01   2.1598794904e+01     0.347185     0.200779  24.00   0.00163016    1.814    0.449
        90  -9.4417     46.7922    182.3003   7.0168159522e+01   3.0415041918e+01    0.2834278    0.1736987 -63.51 0.0008179641    1.689    0.408
        91  -9.4099     48.0000    177.4622   6.9390885541e+01   3.1419559843e+01    0.3550482    0.1380526 -69.37  0.001465985    2.537    0.606
        92  -9.1762    214.2965    181.5585   3.2029244406e+01   6.7956058133e+00    0.1623215    0.1022134  18.29 0.0009467377    1.626    0.385
        93  -9.4820    158.4005    176.7631   4.1746710110e+01   1.5713751805e+01     0.305517    0.2122224 -21.41  0.001525637    1.563    0.360
        94  -9.3528     70.1172    177.6606   6.3447283961e+01   2.8695368948e+01    0.2413941    0.1894584 -57.97 0.0008274475    1.358    0.263
        95 -10.4547    204.7910    175.6884   3.2590795818e+01   8.9731414222e+00    0.3004819    0.2078688 -20.49  0.001810675    1.301    0.231
        96  -9.0156    100.9991    176.4632   5.5185235002e+01   2.4658171296e+01    0.2017336    0.1784864 -57.69 0.0005305461    1.200    0.167
        97  -8.8924    118.0117    175.9875   5.0856352275e+01   2.2181660109e+01    0.1635237    0.1537176 -44.36 0.0006415755    1.124    0.110
        98 -10.2150    152.4822    174.5341   4.2620382582e+01   1.7054179484e+01    0.2369007    0.2181377 -35.50 0.0008484706    1.155    0.135
        99 -10.0513    148.9838    174.7685   4.3429864208e+01   1.7562010044e+01    0.2917682     0.219592  47.98  0.001254372    1.489    0.328
       100  -9.2031     93.2146    174.1325   5.6849462281e+01   2.6320872515e+01     0.379337    0.1766543 -69.57  0.001282781    2.806    0.644
       101  -8.2510     77.3073    175.6587   6.1271936725e+01   2.8207806545e+01    0.1471631   0.09714072  63.20 0.0006314207    1.687    0.407
       102  -8.6821    105.3224    174.6593   5.3807573544e+01   2.4406635860e+01     0.145185    0.1039618  65.54 0.0007050642    1.723    0.420
       103 -10.0188     29.2660    171.8820   7.4032783050e+01   3.4714117777e+01    0.4025011    0.2355283  84.87  0.002034921    1.693    0.409
       104  -8.2012    193.3522    172.3338   3.4014882416e+01   1.1152165843e+01     0.136501   0.08898694  -4.04 0.0007046015    1.784    0.440
       105  -9.2974    121.7335    169.9062   4.8924925192e+01   2.2880686962e+01    0.2517777    0.1992477 -86.51  0.001311716    1.668    0.401
       106  -9.3999     51.1197    168.3105   6.7591783409e+01   3.3266145893e+01    0.3140686     0.189004 -41.56  0.001467783    2.107    0.525
       107  -9.4362     54.2392    164.0094   6.6220024980e+01   3.3952732205e+01     0.278992    0.2370419  -3.84  0.001245707    1.445    0.308
       108 -10.1252    207.0642    167.3128   3.0639973388e+01   9.9405422174e+00    0.2549667    0.1879762 -14.22  0.001500507    1.231    0.188
       109  -9.0867    177.0033    167.6960   3.6252989195e+01   1.4424810202e+01    0.1865988    0.1616285   7.34 0.0007299406    1.079    0.073
       110  -9.1347    200.0522    166.9558   3.1794813990e+01   1.1024210205e+01    0.1931837    0.1337167  -3.26 0.0004386065    1.550    0.355
       111  -9.3088    161.0211    167.5330   3.9493838950e+01   1.7000611510e+01     0.202552    0.1278881  35.73 0.0008158108    1.568    0.362
       112 -10.6746    217.6462    165.1093   2.8457325984e+01   8.7650853112e+00    0.5046182    0.3146035  37.80  0.002955145    1.785    0.440
       113 -10.3097    149.7852    164.0440   4.1276248658e+01   1.9501644522e+01    0.3412522    0.2596723  14.11  0.001128444    1.400    0.286
       114  -8.8958    139.0351    165.4945   4.3997738746e+01   2.0988156753e+01    0.1981771    0.1137266  56.45 0.0007895043    2.539    0.606
       115  -9.8217     48.4967    163.9899   6.7867636586e+01   3.4630447189e+01    0.3044341     0.134469 -79.93  0.001209025    2.537    0.606
       116  -9.6182     99.8523    158.9811   5.2676265525e+01   2.8780978105e+01    0.3436244    0.2050984 -57.97  0.001570375    1.732    0.423
       117 -11.1239     23.0528    156.2902   7.4577349557e+01   3.9155608418e+01    0.9398772    0.1983192 -71.98  0.003042423    3.896    0.743
       118  -9.2211     13.8912    145.5222   7.6519853702e+01   4.2668146384e+01    0.2306906    0.1623234  79.46  0.000684787    1.280    0.219
       119 -10.4172     25.4856    147.8488   7.3113683740e+01   4.1096018240e+01    0.5852176     0.266398  39.34  0.002522779    2.015    0.504
       120  -9.7753     19.2753    145.5414   7.4844612576e+01   4.2232059526e+01    0.4378422     0.247039 -46.57  0.002073454    2.057    0.514
       121 -11.5712     12.9628    130.3644   7.5606156811e+01   4.6697838500e+01     1.253939    0.4785652  88.09  0.004673763    2.827    0.646
       122  -9.8399     14.0210    140.9695   7.6130891996e+01   4.3837241223e+01    0.3875987    0.1813661 -48.40  0.001671534    2.442    0.591
       123 -10.7653     24.2675    138.6489   7.2624956787e+01   4.3602080335e+01    0.5286096     0.241188  52.29  0.001487803    2.209    0.547
       124 -10.3983     19.8962    138.9927   7.4077034027e+01   4.3885995802e+01    0.2727346    0.2201721  53.67 0.0005030532    1.184    0.155
       125  -9.9260    144.0544    158.7806   4.1561718911e+01   2.1505964898e+01    0.3483286    0.1889568  40.71  0.001564143    1.842    0.457
       126  -8.6633     92.3549    159.6652   5.4832705523e+01   2.9783308595e+01    0.1556011    0.1055407  65.14 0.0007043708    1.795    0.443
       127 -10.4706    205.3739    152.8201   2.8112315671e+01   1.2481127718e+01    0.4831816    0.3130868 -49.70  0.002594433    1.819    0.450
       128 -10.4544      5.2453    152.6298   7.9598021134e+01   4.1488299242e+01    0.4700561    0.2509691  78.74  0.002330685    1.715    0.417
       129 -10.1476    134.8796    153.7741   4.2737122230e+01   2.4108108674e+01    0.4626004    0.3096963  58.05  0.001775385    1.920    0.479
       130  -9.4393     68.6055    154.2448   6.0754571041e+01   3.4537970511e+01    0.2955064    0.1570971  47.53 0.0009054572    1.877    0.467
       131 -10.1856     40.9147    153.5600   6.8960168475e+01   3.8096205941e+01    0.2599772    0.2306587  44.31 0.0005081249    1.126    0.112
       132  -9.1467    190.1997    150.6092   3.0354086347e+01   1.5263208553e+01    0.2393006     0.126459  45.30    0.0011298    2.147    0.534
       133 -10.0808    223.4190    147.8638   2.4203097743e+01   1.0520999293e+01    0.3498318    0.2239183  31.77  0.001803318    1.748    0.428
       134  -9.5380     39.7673    147.6673   6.8651329514e+01   3.9732895426e+01    0.3849826    0.1622466  55.72  0.001448839    2.704    0.630
       135  -8.9068    105.1684    157.4104   5.0976148426e+01   2.8295881069e+01    0.2022793    0.1269223  46.08 0.0005202211    1.605    0.377
       136  -9.9538    149.3748    145.4022   3.7630860139e+01   2.3281771517e+01    0.4444187     0.296991  83.40  0.001685791    3.381    0.704
       137  -9.8644     55.5932    144.6826   6.3322382710e+01   3.8665758057e+01    0.4082905    0.2262029  66.51  0.001677576    2.249    0.555
       138  -9.6032    118.9616    144.3982   4.4844686798e+01   2.8930180271e+01     0.524108    0.2087698  55.34   0.00132394    5.822    0.828
       139  -9.1508    106.6560    144.5317   4.8167738100e+01   3.1031007265e+01    0.3373554    0.2162361  80.70  0.001302615    2.717    0.632
       140  -9.7461    125.4035    143.3137   4.2959697593e+01   2.8029588257e+01    0.3780566    0.2560591 -80.40  0.001587372    2.350    0.574
       141  -9.9715    197.2762    136.6193   2.6156461826e+01   1.6460605401e+01    0.3123238     0.241413   0.35  0.001778198    1.418    0.295
       142  -9.0365    202.6113    136.3034   2.5175391530e+01   1.5615577683e+01    0.1994275    0.1515599  31.92 0.0005811672    1.440    0.305
       143  -9.0904    162.5920    136.7713   3.2861354045e+01   2.2588591831e+01     0.198813    0.1299289 -51.12 0.0009403528    1.623    0.384
       144  -9.0501    107.4860    137.4990   4.6516899824e+01   3.2534827477e+01     0.146738    0.1456793  80.95 3.026557e-05    1.005    0.005
       145 -10.8273    228.1737    183.7287   3.0162458670e+01   4.6980192115e+00    0.4627696    0.3012538  49.38  0.002717539    2.472    0.595
       146  -9.4346     41.6961    135.6738   6.6550837401e+01   4.2658207444e+01    0.3028657    0.1837267  20.96  0.001403713    1.842    0.457
       147  -8.7663    180.7823    134.6006   2.8722819618e+01   1.9689941433e+01    0.1836482    0.1330285  55.75 0.0008148158    1.712    0.416
       148  -9.8755    132.0791    131.6904   3.8748469923e+01   2.9350435722e+01    0.3753809    0.2521529 -65.82   0.00140626    1.895    0.472
       149 -10.9713     84.1634    100.3842   4.5001682182e+01   4.5702345839e+01    0.6850504    0.4825267  51.10  0.002311617    1.516    0.340
       150 -12.5665     83.3706     87.7286   4.1754506515e+01   4.8902267655e+01      2.09728    0.9165121  49.04  0.005792463    2.615    0.618
       151 -10.8774     75.7504     98.4836   4.7422163580e+01   4.7649807614e+01    0.6175175    0.4155164 -17.26  0.002256224    2.284    0.562
       152 -11.6310     58.4612     90.8489   5.1939816479e+01   5.2351346557e+01     0.778941    0.4680996  -1.11  0.002741404    3.032    0.670
       153 -11.8361     64.1842    126.0905   5.7520781215e+01   4.2353638326e+01     1.489187    0.5327259  33.88  0.005255783    2.696    0.629
       154 -10.9061     75.5743    122.1586   5.2973931456e+01   4.1669941873e+01    0.5988837    0.3833901 -24.92  0.002429056    2.323    0.570
       155 -11.8513    166.3646    242.1442   5.0062219512e+01   4.1504490574e+00    0.3838926    0.2187471  33.10  0.001465587    1.540    0.351
       156  -8.9789    110.4985    131.4579   4.4389945540e+01   3.3412580434e+01    0.2469316    0.2030956  28.90 0.0009881097    1.273    0.214
       157  -9.3447    112.4818    128.4552   4.3173179123e+01   3.3749160057e+01    0.2713478    0.1453595 -50.73  0.001101674    1.842    0.457
       158  -9.0883    169.0681    130.2025   3.0044492560e+01   2.2644995175e+01    0.2205198    0.1691514  78.01  0.001078011    1.953    0.488
       159 -10.2612    162.3717    128.3715   3.1011607929e+01   2.4257549026e+01    0.3609601    0.2458409 -37.94 0.0008510526    1.390    0.280
       160  -9.3151    153.6341    129.0340   3.3055298635e+01   2.5794019349e+01    0.2141353    0.1841346 -40.27 0.0008014113    1.114    0.102
       161  -9.8319     99.0254    127.6713   4.6844001271e+01   3.6367154306e+01    0.5059729    0.3106136  87.53  0.001771303    3.156    0.683
       162 -10.4648    118.5724    125.7318   4.0887244277e+01   3.3236347049e+01     0.479486    0.3891343  74.07  0.001419379    1.494    0.330
       163  -9.7601    119.5666    118.2186   3.8830142946e+01   3.4750179319e+01    0.4477418    0.3093031 -48.95  0.002067903    1.418    0.295
       164  -9.5704     25.5558    127.1663   7.0968279832e+01   4.6531110847e+01    0.2237371     0.168991  17.24  0.001195062    1.505    0.335
       165 -10.5964    181.0925    123.2021   2.6095250014e+01   2.1686990569e+01     0.577448    0.3784091 -49.40  0.002865813    1.570    0.363
       166  -9.3923    104.4271    123.7702   4.4391587578e+01   3.6332091608e+01    0.2862168    0.2200914  31.81  0.001043437    1.366    0.268
       167  -9.2498    109.0255    121.2530   4.2485136720e+01   3.6073939117e+01     0.377996    0.2602126 -24.19  0.001019079    1.939    0.484
       168 -10.0653     28.1427    122.4060   6.9483099111e+01   4.7570919443e+01    0.3606656    0.2678982  68.26  0.001362693    1.339    0.253
       169  -8.6605    226.5239    123.5472   1.8762360259e+01   1.3716013834e+01    0.1273367    0.1040799 -27.15  0.000522008    1.006    0.006
       170 -10.9903    159.6098    122.2734   3.0170363170e+01   2.5978265561e+01    0.4505235    0.2951913 -79.84  0.001710196    3.159    0.683
       171 -10.4108    153.8600    114.8710   2.9617349875e+01   2.8581994830e+01    0.2839819    0.2093268 -43.33  0.001106525    1.287    0.223
       172  -8.6487    194.3411    120.6498   2.3139147340e+01   1.9688170304e+01    0.1382625    0.1035496 -66.18 0.0007043955    1.800    0.444
       173 -10.5673    140.9735    117.2317   3.3148105537e+01   3.0702787356e+01    0.8436489    0.3836161 -58.12  0.002742994    3.334    0.700
       174 -12.0097    158.7241    109.8542   2.7317950222e+01   2.8576179096e+01    0.7977596    0.4706162 -53.74  0.003363857    1.878    0.468
       175 -10.7176    145.8402    109.4680   3.0053926598e+01   3.1310546181e+01    0.6316429    0.3464743  28.79  0.002368124    2.690    0.628
       176 -11.2731    166.5825    248.2288   5.0786974244e+01   3.3040311923e+00    0.3157239    0.2039501  23.88  0.001507595    1.233    0.189
       177 -11.6286     45.2256    124.6831   6.3767214454e+01   4.5174815899e+01     1.194728    0.5855539 -88.84  0.004389158    2.744    0.636
       178  -9.7396    185.6725    114.6851   2.3271909778e+01   2.2336681212e+01    0.3003043    0.2081528 -45.14 0.0008767033    1.363    0.266
       179 -11.1127    107.7987    112.9781   4.0829362248e+01   3.8245117259e+01    0.8106201    0.4552813 -44.58  0.003338119    1.779    0.438
       180 -10.4728     92.4277    111.6763   4.5162201264e+01   4.1441381594e+01    0.5770721    0.3427848 -64.14   0.00191655    1.894    0.472
       181  -9.4926     92.9114    104.8538   4.3292849625e+01   4.3009163356e+01    0.2831468    0.2148228 -26.77 0.0009882102    1.583    0.368
       182  -9.2169    175.0576    112.2480   2.4641654002e+01   2.4834690005e+01    0.2659675    0.1705117 -51.19 0.0009267348    1.626    0.385
       183 -10.5616     16.5975    112.4178   7.2513803984e+01   5.1223257859e+01    0.4492359    0.2491484  36.41  0.002140024    1.832    0.454
       184  -8.9542    121.6519    112.3327   3.6800810984e+01   3.5658314449e+01    0.2353642    0.1833885  89.98  0.001003913    1.691    0.409
       185 -12.9374     50.7012    107.1859   5.8673665833e+01   4.9165488071e+01     2.030646    0.9612879  55.83   0.00726431    2.882    0.653
       186  -9.7083     22.1379    109.9600   7.0095925684e+01   5.1448599897e+01     0.344851    0.1836882  89.88  0.001488007    1.976    0.494
       187 -10.3030    133.9758    109.4937   3.2892004677e+01   3.3762115429e+01    0.2961638    0.2525063 -77.95  0.001145471    1.356    0.262
       188 -11.4688    133.0685    103.0793   3.1425630900e+01   3.5307748598e+01    0.7796126    0.5514457  47.05  0.002363163    1.468    0.319
       189 -11.0243     17.7921    103.6995   7.0971854384e+01   5.3481250950e+01    0.5738943    0.2184683 -61.48  0.001653581    2.194    0.544
       190 -10.3205     21.6228    100.3251   6.8947974283e+01   5.4088137639e+01    0.4557762    0.2357102  60.09  0.001909218    2.302    0.566
       191  -8.8626    189.0350    107.0000   2.0855576563e+01   2.3025326407e+01    0.2050865   0.08075029  50.91 0.0005125616    2.854    0.650
       192  -9.4611    166.7429    103.8656   2.4165041029e+01   2.8061004836e+01    0.2622822    0.1939401 -87.04  0.001210525    1.969    0.492
       193 -11.2283    250.0000    105.9654   1.2096257819e+01   1.2582009743e+01    0.6997309    0.1296325 -33.82  0.001362393    4.368    0.771
       194  -9.7997    176.0091    102.0691   2.1947705249e+01   2.6483808256e+01    0.2255968    0.2068645 -44.10  0.001153373    1.042    0.040
       195 -10.2751    159.7222    100.5450   2.4718693824e+01   3.0152431055e+01    0.3642302    0.1886914 -49.40  0.001415794    1.981    0.495
       196  -8.8170    209.6221    131.8668   2.3077611161e+01   1.5172436926e+01    0.1795321    0.1060404 -43.94 0.0004351293    1.615    0.381
       197  -9.3251     30.0130    101.0160   6.5638191639e+01   5.3154424765e+01    0.2215212    0.1970027 -88.71 0.0005808795    1.073    0.068
       198  -9.7901    108.3721     98.4105   3.6816546551e+01   4.1488088575e+01    0.4423416    0.3054773 -87.59  0.001772868    2.290    0.563
       199 -10.5520    107.2132     91.0386   3.5052188325e+01   4.3381568112e+01    0.3743884    0.3025472 -52.99  0.001836139    1.220    0.180
       200 -10.6097     24.2280     92.3246   6.6569220870e+01   5.6015836269e+01    0.5450884    0.2826699 -80.08  0.001787104    1.967    0.492
       201  -9.9604    171.8306     94.4978   2.0778561885e+01   2.8703356310e+01    0.3041651    0.1892664 -20.01  0.001312892    2.071    0.517
       202  -8.9627    164.5137     93.9832   2.2029331790e+01   3.0353002744e+01    0.2320755    0.1352487 -39.96  0.001029556    1.584    0.369
       203 -10.9382    138.9372     90.5252   2.6531944016e+01   3.6604192884e+01     0.638785    0.3095255 -48.81  0.002451812    2.100    0.524
       204 -10.0245    157.8726     91.5438   2.2691726860e+01   3.2239011088e+01    0.2584615    0.1678976 -45.10    0.0008058    1.451    0.311
       205  -9.6851    124.1630     91.0979   3.0350467776e+01   3.9738583744e+01    0.4370811      0.29493 -42.55  0.001771288    1.441    0.306
       206 -10.2606    124.9319     85.5608   2.8519079955e+01   4.0714487215e+01    0.7203125    0.4532833  -2.51  0.002329002    3.844    0.740
       207 -11.0916     44.6462     91.4564   5.7710218416e+01   5.4085954005e+01    0.4969953    0.2606847  20.71  0.002043578    2.248    0.555
       208 -10.1616     34.9656     89.4957   6.1387901631e+01   5.5725785778e+01    0.2828838    0.1937064  88.80 0.0009305447    1.653    0.395
       209 -10.7596    116.9666     82.9883   2.9853515086e+01   4.3011259935e+01    0.4437597     0.215759 -40.80  0.001163236    2.042    0.510
       210 -10.8373    119.3002     80.0112   2.8302184271e+01   4.3102702313e+01    0.6306354    0.4055016  84.83  0.002337678    2.776    0.640
       211 -10.5726     48.1730     84.4192   5.4517978504e+01   5.5454663287e+01    0.3425078    0.2907619  61.49  0.001230942    1.289    0.224
       212 -10.8296    104.4605     81.4169   3.2955080129e+01   4.6069755791e+01    0.7595465    0.3328741 -53.02  0.002626502    2.573    0.611
       213 -10.4442    185.8508     83.1177   1.5415231615e+01   2.7690324997e+01    0.2228358    0.1827426 -57.77 0.0007773971    1.215    0.177
       214  -9.6233    139.5004     81.4825   2.3772549162e+01   3.8235828795e+01     0.439018    0.2775185 -72.44  0.001709995    2.479    0.597
       215 -11.1250    184.0279     76.7956   1.4046648895e+01   2.9103247504e+01    0.3474986     0.261907 -54.00  0.001468573    1.283    0.221
       216 -11.1163    179.4931     80.0111   1.5622190221e+01   2.9555533149e+01    0.3934398    0.2570965 -34.66  0.001792021    1.416    0.294
       217 -11.5431    175.3790     78.0359   1.5772112162e+01   3.0777213746e+01    0.7446635    0.2855706 -37.73   0.00272478    2.322    0.569
       218  -9.2910     24.4616     80.6394   6.4262939876e+01   5.9094718812e+01     0.289362    0.1718143  71.05 0.0009999342    2.198    0.545
       219  -9.6758    158.5068     82.5165   2.0065294271e+01   3.3746493705e+01    0.2698316    0.1409678 -27.22  0.001035446    2.309    0.567
       220 -10.8322    211.2152     76.4090   1.0150315800e+01   2.3574768850e+01    0.3188259    0.1950601 -70.49  0.001526232    2.277    0.561
       221  -9.6706     49.6714     76.8226   5.1809837075e+01   5.7170426474e+01    0.2758529    0.1978489  -8.49 0.0009486137    1.829    0.453
       222  -9.2536    127.7948     74.2243   2.4311234236e+01   4.2307137309e+01    0.4689585    0.1943505 -46.82  0.001654609    2.448    0.591
       223 -10.2693     83.3559     73.4215   3.7271442389e+01   5.2193993540e+01    0.5276759    0.3322552  79.47  0.001838166    3.258    0.693
       224 -10.2340     77.5942    126.3187   5.3166013072e+01   4.0290703002e+01    0.4779864    0.2719233  20.45  0.001312264    2.271    0.560
       225  -9.3531      9.9942     74.0746   6.9986180978e+01   6.1903386147e+01    0.1996026    0.1747376 -66.13 0.0003618074    1.004    0.004
       226  -9.0432    116.3036     72.6446   2.6756167123e+01   4.5254103474e+01    0.1600003     0.118881 -74.91 0.0007039727    1.713    0.416
       227 -10.6377    129.9504    118.0495   3.6064845596e+01   3.2736651254e+01    0.6191206    0.4228756  70.42  0.002624395    2.124    0.529
       228  -9.3152     95.8044     71.4999   3.2412168617e+01   5.0036650609e+01    0.2960042    0.2007174 -78.77  0.001180085    2.324    0.570
       229  -9.4972     51.6696     69.7577   4.8798063407e+01   5.8613813583e+01    0.4474879    0.2322497 -74.85  0.001508493    3.402    0.706
       230  -8.9419    187.8530     69.1327   1.1446495465e+01   2.9483675473e+01    0.1826189    0.1612743  -7.55 0.0004643177    1.314    0.239
       231  -8.9898    182.5260     68.0374   1.1932216497e+01   3.0813511142e+01    0.2237387    0.1245506 -37.25   0.00103152    1.600    0.375
       232  -9.0614    203.6519     67.2972   8.8541259133e+00   2.6428679463e+01    0.1400918   0.09075852 -61.78 0.0005822692    1.680    0.405
       233  -8.7003    147.3135     64.3635   1.6907836103e+01   3.9494894253e+01     0.150545    0.1170459  12.61  0.000704052    1.759    0.432
       234 -10.4193    199.5666     63.1663   8.3177502655e+00   2.7876906820e+01      0.25704    0.1721465  42.11  0.001333854    1.900    0.474
       235  -9.3356    193.2274     62.9503   9.0761586646e+00   2.9254866592e+01    0.1873945     0.100377 -35.73 0.0008718054    1.637    0.389
       236  -9.2219     83.3856    131.7412   5.2421868154e+01   3.8000406745e+01    0.2960022    0.2057476  86.16 0.0009716595    1.869    0.465
       237  -8.8191     18.3816     61.5061   6.2996975672e+01   6.4539855409e+01    0.1389647    0.1179007 -52.20 7.367577e-05    1.050    0.048
       238  -9.2763     73.7235     59.8246   3.6035360342e+01   5.7041105830e+01    0.2785884    0.2035238 -65.24 0.0009127344    1.647    0.393
       239  -8.6703    164.5129     59.4955   1.2336401380e+01   3.6229721341e+01    0.1436372    0.1320207 -55.34 0.0008105257    1.008    0.008
       240 -10.0542      2.3136     56.8652   7.0974447851e+01   6.6734872108e+01     0.207483     0.177801  32.63 0.0006822993    1.335    0.251
       241  -8.8141     63.2795     54.6617   3.8311932917e+01   6.0110774733e+01    0.1435401    0.1167231 -86.02  0.000278611    1.619    0.382
       242  -9.0103    172.2252     49.9959   8.3764703236e+00   3.5846939069e+01    0.1891914    0.1627854 -47.15            0    1.063    0.059
       243 -11.1305     45.5294     49.0098   4.4347581093e+01   6.4316736418e+01    0.2494375    0.2273542 -11.46 0.0002087539    1.083    0.077
       244  -8.7482      1.4743     45.9934   6.9215242179e+01   6.9472645029e+01    0.1903946    0.1129849 -68.09 0.0003363617    1.475    0.322
       245  -9.6928      5.5206     42.5101   6.5708910713e+01   7.0106155726e+01      0.22888    0.1204115 -83.74   0.00102896    2.303    0.566
       246  -8.8138    113.8268     41.2220   1.6220943988e+01   5.1374047314e+01     0.196752    0.1670398  28.77 0.0003836161    1.330    0.248
       247  -8.2989    143.3000    131.6656   3.6021766132e+01   2.7227397988e+01    0.1459059    0.1181103 -85.82 0.0003979304    1.654    0.395
       248  -8.8109    123.5535     40.2251   1.3649372661e+01   4.9118717577e+01    0.1821262    0.1429087 -13.84 0.0002909792    1.496    0.332
       249  -9.3002    219.9823     39.0147   1.7116678023e-01   2.6891171092e+01    0.1793613    0.1499283  14.36 0.0006899056    1.665    0.399
       250 -10.5236    211.9961     39.2970   9.4265433361e-01   2.8483883563e+01    0.1788763    0.1496425 -55.33 0.0007214671    1.037    0.035
       251  -8.9690     26.3723     36.2253   4.9839584359e+01   6.9704301505e+01    0.1894498    0.1243207 -63.89 0.0009504522    1.726    0.421
       252  -8.7668    119.5014     33.4886   1.1983602658e+01   5.1085610539e+01    0.1440857    0.1355238 -80.95 0.0008103604    1.033    0.032
       253  -9.5043      6.6013     33.2251   6.2107345190e+01   7.2216008144e+01    0.1908758   0.09838904 -52.85 0.0007874408    1.614    0.380
       254  -9.2155     13.1440     31.1508   5.6607129080e+01   7.2180538100e+01    0.1673925    0.1552347  82.02 0.0006342746    1.326    0.246
       255  -9.8021     44.3510     25.1196   3.3717072676e+01   6.9204186040e+01    0.2230294    0.1847504  37.58 0.0003931905    1.221    0.181
       256  -8.2819    118.3159     24.3344   8.6748590035e+00   5.2569268857e+01    0.1468326      0.10458  31.75 0.0007047331    1.691    0.409
       257  -8.7555    110.4834     24.4476   1.0321286889e+01   5.4528304985e+01    0.1402647    0.1332283  71.94 7.717172e-05    1.015    0.015
       258  -8.8951     84.5654     21.4557   1.5512937964e+01   6.1262402730e+01    0.1365022    0.1323443  58.09 0.0001389145    1.033    0.032
       259  -8.9413     41.0077     21.0079   3.3231182194e+01   7.0485389869e+01    0.2025342    0.1488435  -0.42 0.0003125758    1.556    0.357
       260 -10.0823     13.2357     20.7804   5.1814132189e+01   7.4374907569e+01    0.2922372    0.1988329 -19.37   0.00164597    1.489    0.328
       261  -8.7815     50.5165     15.0137   2.4759958901e+01   6.9629732746e+01      0.18436    0.1122925  -2.56 0.0007526006    2.402    0.584
       262 -11.3537    173.6393    244.7280   4.9044212108e+01   2.9619819963e+00    0.4292877    0.2279497  25.59  0.002171543    1.539    0.350
       263  -9.3668    148.0275    249.0337   5.4385640920e+01   5.3371454882e+00     0.169573    0.1234816  47.78  0.001138773    1.701    0.412
