#   1 NUMBER                 Running object number                                     
#   2 MAG_AUTO               Kron-like elliptical aperture magnitude                    [mag]
#   3 X_IMAGE                Object position along x                                    [pixel]
#   4 Y_IMAGE                Object position along y                                    [pixel]
#   5 X_WORLD                Barycenter position along world x axis                     [deg]
#   6 Y_WORLD                Barycenter position along world y axis                     [deg]
#   7 A_WORLD                Profile RMS along major axis (world units)                 [deg]
#   8 B_WORLD                Profile RMS along minor axis (world units)                 [deg]
#   9 THETA_WORLD            Position angle (CCW/world-x)                               [deg]
#  10 FWHM_WORLD             FWHM assuming a gaussian core                              [deg]
#  11 ELONGATION             A_IMAGE/B_IMAGE                                           
#  12 ELLIPTICITY            1 - B_IMAGE/A_IMAGE                                       
         1 -14.8429    160.0492     49.9571   7.7833919965e+01   3.9012526223e+01     1.129947     1.070739  41.64  0.003463358    1.105    0.095
         2 -15.1154    171.9391     19.4150   6.7198726145e+01   3.9861227902e+01     1.443264    0.9286276  89.64  0.005753382    1.674    0.403
         3 -14.5275    189.7230     14.9907   6.3622974128e+01   3.5942889963e+01    0.7490893    0.4678199 -77.71  0.003107458    1.719    0.418
         4 -12.7245    189.0325    154.4017   9.8836969857e+01   1.2237863725e+01    0.6316822    0.5308354  33.79  0.002424246    1.205    0.170
         5 -20.2984     74.9795    177.6574   1.3089783366e+02   2.9138459211e+01     16.65963     7.425749 -65.53   0.07030571    2.173    0.540
         6 -10.2310     20.8161    210.8091   1.4610733912e+02   2.8396732480e+01     0.151198    0.1050641 -78.05 0.0003874906    1.271    0.213
         7 -11.8798    148.2459    155.5196   1.0854699550e+02   2.0930739942e+01    0.2984634    0.2186152 -48.46 0.0008819758    1.399    0.285
         8 -13.7054     11.5467    205.9846   1.4750327766e+02   3.0346435712e+01    0.4294324    0.3453228 -53.96  0.002942357    1.679    0.404
         9 -12.6406    165.8520    154.1473   1.0401938369e+02   1.7405369645e+01    0.4176392    0.3106761  71.35  0.001065371    1.684    0.406
        10 -11.0102     18.2421    152.0758   1.4131244135e+02   4.1748595790e+01    0.4558745    0.1510923 -69.94  0.001978981    2.388    0.581
        11 -12.1251    174.3356    148.8136   1.0084058471e+02   1.6678210408e+01    0.4071771    0.3267004 -61.33  0.001096886    1.377    0.274
        12 -11.7371    132.8857    198.0018   1.2046630812e+02   1.4538169553e+01    0.6687747    0.3213589  42.23  0.002555505    1.912    0.477
        13 -11.0091    110.2215    242.1533   1.3163686170e+02   9.5952638431e+00    0.3324525    0.2477997 -73.36  0.001111889    1.487    0.327
        14 -10.7978    168.0186    134.6943   9.8968771549e+01   2.1163373127e+01    0.2299675    0.2050676  52.81 0.0005031601    1.111    0.100
        15 -12.9275    135.5729    236.7729   1.2580780427e+02   6.2679069870e+00    0.3225491    0.2860647 -88.35 0.0008355402    1.248    0.199
        16 -11.8241    142.2416    189.2770   1.1677147808e+02   1.4619110396e+01    0.3613665    0.2622633 -78.73  0.001683863    1.753    0.430
        17 -12.0404    129.1566    242.7647   1.2791583118e+02   6.2861802896e+00    0.1912761    0.1749851  87.54 0.0005766849    1.205    0.170
        18 -12.9715    160.4162    127.9224   9.9110081437e+01   2.4386927250e+01    0.5227006    0.4034478 -63.41  0.001628993    1.457    0.314
        19 -11.2108    231.3564    113.7497   8.1215316366e+01   1.0848343068e+01    0.2610315    0.2545762  84.29 0.0007932534    1.078    0.072
        20 -11.2906    167.7153    112.7335   9.3538582152e+01   2.5900735807e+01    0.3931748    0.2958451 -84.32   0.00139597    1.766    0.434
        21 -11.6441    203.0769    173.4029   1.0000667679e+02   5.4486614539e+00    0.4056041    0.2075728 -56.65  0.001467676    2.897    0.655
        22 -11.0111    205.2166    110.3650   8.5073600539e+01   1.7409171688e+01    0.3636446    0.2258381  41.97  0.001300168    1.773    0.436
        23 -11.5956     27.7354    230.6653   1.4626489938e+02   2.3547498272e+01    0.2073608    0.1186032 -84.72 0.0009763552    1.486    0.327
        24 -12.2127     29.4501    105.1325   1.3143664821e+02   5.1638418126e+01    0.3212119    0.2191637  -3.14 0.0005482042    1.881    0.468
        25 -12.1416    194.5306    172.3036   1.0157555118e+02   7.4247446078e+00     0.422947    0.2907146 -50.96  0.001281337    1.595    0.373
        26 -10.2085    207.2816    170.4500   9.8508406567e+01   5.1614364398e+00    0.2471544    0.1766612 -60.32 0.0008756254    1.791    0.442
        27 -15.7498     41.3605    152.0663   1.3558301030e+02   3.9543558910e+01     1.506623    0.8184406 -61.05  0.006774409    1.575    0.365
        28 -12.5502     41.0156     94.7456   1.2561987745e+02   5.2899865968e+01    0.4821998    0.3599496   5.57  0.001959101    1.562    0.360
        29 -12.9916     48.4755     92.5997   1.2265411197e+02   5.2594538437e+01    0.4396677    0.3079253  -2.29  0.002154432    1.734    0.423
        30 -12.5327    230.0833    166.6678   9.3208791980e+01   1.3449998726e+00    0.3352092    0.1958332 -52.14  0.001469596    2.057    0.514
        31 -10.0702     30.6064    246.4887   1.4682810440e+02   2.0117626296e+01    0.1145706   0.07967968  73.66 0.0001350451    1.046    0.044
        32 -10.6276    143.9008     82.5034   9.0954045034e+01   3.7587475477e+01    0.2329536    0.1475648  49.85 0.0005131101    1.517    0.341
        33 -14.4442    149.2694     64.7828   8.4481419942e+01   3.9398068890e+01     1.312666     1.003198  31.10  0.001437951    1.439    0.305
        34 -11.3642    116.2317    247.2068   1.3104498342e+02   7.6630007334e+00    0.1787849    0.1581168 -50.13 0.0007406693    1.459    0.315
        35 -13.5094    164.5593     41.0498   7.4419568321e+01   3.9114181572e+01    0.4899664    0.4480391  69.64 0.0008630162    1.026    0.026
        36 -10.9794     24.8505    214.4193   1.4561711914e+02   2.7206764860e+01    0.1433301    0.1132388  70.50 0.0003612679    1.127    0.113
        37 -11.4946     13.5185     59.8149   1.2717313606e+02   6.2310935198e+01    0.1838986     0.171749 -26.35 0.0003976951    1.252    0.201
        38 -11.4457    192.3787    165.0809   1.0048152105e+02   9.3274144493e+00    0.3168577    0.2816715 -83.45  0.001635712    1.345    0.257
