#   1 NUMBER                 Running object number                                     
#   2 MAG_AUTO               Kron-like elliptical aperture magnitude                    [mag]
#   3 X_IMAGE                Object position along x                                    [pixel]
#   4 Y_IMAGE                Object position along y                                    [pixel]
#   5 X_WORLD                Barycenter position along world x axis                     [deg]
#   6 Y_WORLD                Barycenter position along world y axis                     [deg]
#   7 A_WORLD                Profile RMS along major axis (world units)                 [deg]
#   8 B_WORLD                Profile RMS along minor axis (world units)                 [deg]
#   9 THETA_WORLD            Position angle (CCW/world-x)                               [deg]
#  10 FWHM_WORLD             FWHM assuming a gaussian core                              [deg]
#  11 ELONGATION             A_IMAGE/B_IMAGE                                           
#  12 ELLIPTICITY            1 - B_IMAGE/A_IMAGE                                       
         1 -13.0109    247.2759     17.7426   5.7082106345e+01   2.2741386515e+01    0.2715615     0.150737  83.13  0.001537097    1.635    0.388
         2 -13.1493    245.0345      6.9897   5.5214944358e+01   2.4480891859e+01    0.1917709    0.1466412 -79.38  0.001019247    1.021    0.020
         3 -11.8651    141.9494      6.1880   6.6599729590e+01   4.8104990609e+01    0.3424891    0.1780665  56.14  0.001343389    1.572    0.364
         4 -12.6133    150.2003      3.4851   6.4548885182e+01   4.6429997280e+01    0.4942234    0.2175537  49.91  0.001879634    2.040    0.510
         5 -11.1007    119.3653      6.9870   7.0908142521e+01   5.3121178045e+01    0.2325476    0.1377615  41.36 0.0008156153    1.537    0.350
         6 -11.7738    191.5509      4.9389   5.9665952721e+01   3.6622153953e+01    0.2465528    0.1414038  58.99 0.0009375987    1.608    0.378
         7 -10.7655    125.5322      4.4705   6.8925027908e+01   5.1969294825e+01    0.1255303    0.1039154  53.60 0.0002162029    1.009    0.009
         8 -10.5498     24.6840      2.2984   9.8106406934e+01   6.9925469285e+01   0.08839495   0.08058693   1.29 0.0002933972    1.610    0.379
         9 -11.4833    164.1996      1.5372   6.2080313305e+01   4.3334837837e+01    0.2319803    0.1072827  73.56  0.000672175    1.918    0.479
        10  99.0000    165.3933    242.4248   1.1820794510e+02  -5.0660101759e-01    0.1288806    0.1125127  34.16 0.0007957547    1.032    0.031
        11 -13.1871    232.0219    191.2480   9.5852977030e+01  -3.2193011889e+00    0.3686756    0.2318266 -33.40 0.0002096844    1.508    0.337
        12 -16.8615    245.3222    230.1109   1.0074084275e+02  -1.1474137448e+01     5.043472     1.268961 -38.96   0.01881201    3.933    0.746
        13 -12.9177    232.2667    246.5533   1.0596490914e+02  -1.1889744037e+01     0.276998    0.2322411 -12.78 0.0004242478    1.181    0.153
        14 -12.0138    166.6716    250.5364   1.1916114333e+02  -2.0803896472e+00     0.247667    0.1080752  41.82  0.001132418    1.940    0.485
        15 -20.9285    104.5288    192.4641   1.2355147049e+02   2.0433559765e+01     11.14527     7.316755  43.73    0.0548035    1.479    0.324
        16  -9.8979    180.2499    234.6710   1.1400269523e+02  -1.7394282553e+00    0.1719365    0.1204854 -76.92 0.0006908803    2.507    0.601
        17 -12.2608    176.2017    236.8632   1.1517090917e+02  -1.4149753748e+00    0.2120054     0.161342  50.21  0.001214227    1.322    0.243
        18 -11.5534    204.0007    171.6704   9.7263534393e+01   5.5943280658e+00    0.3130923    0.2699843  77.42  0.001652822    1.442    0.306
        19 -10.9217    213.4905    172.4655   9.5546961822e+01   3.5865802859e+00    0.1426784     0.135499 -19.85 8.424838e-05    1.024    0.023
        20 -12.0302    209.4045    170.6816   9.5974683007e+01   4.7246310977e+00    0.2753009    0.2572225  31.07 0.0002632939    1.097    0.089
        21 -11.2887    211.3401    167.2680   9.4868743456e+01   5.0094857100e+00    0.2196759    0.1908901 -18.49 0.0003869579    1.159    0.137
        22 -11.9228    218.6972    180.0109   9.6103551339e+01   1.1771148477e+00    0.2331997     0.194539 -24.35 0.0002314911    1.152    0.132
        23 -12.7612    203.2240    164.2312   9.5831889688e+01   7.2276358274e+00    0.4639903    0.4341468 -37.84  0.002039944    1.045    0.043
        24 -12.3749    205.0967    158.0578   9.4114448267e+01   8.0824796226e+00    0.3597569    0.3224494  50.09  0.001328776    1.177    0.151
        25 -12.0922      5.9139    236.9639   1.4812256439e+02   2.3990531433e+01    0.1642104    0.1169308  78.93 0.0007467131    1.024    0.023
        26 -11.1808    220.8736    158.4885   9.1155620845e+01   4.8353856764e+00    0.2045248    0.1439735  46.83 0.0007723408    1.522    0.343
        27 -12.7578    221.7111    233.2001   1.0564036291e+02  -8.3698886530e+00    0.3727858    0.2454657 -53.39  0.001222958    2.192    0.544
        28 -10.8000    208.6927    234.2113   1.0830566237e+02  -6.4456578473e+00    0.1155333   0.09247639  49.76 0.0003357561    1.463    0.317
        29 -11.2980    193.2319    232.2523   1.1100450223e+02  -3.5567472769e+00    0.2982534    0.1658802  28.64  0.001152824    1.825    0.452
        30 -11.9037     51.4778    142.9508   1.2869867417e+02   4.0283496366e+01    0.3638009    0.2375935 -58.92  0.001922038    1.331    0.249
        31 -12.4438     49.9973    148.4665   1.2998630674e+02   3.9124673561e+01    0.4373991    0.2390206 -56.51  0.001378459    1.604    0.376
        32 -12.9890     46.0090    148.4949   1.3103272911e+02   3.9583234193e+01    0.2845138    0.2175491  53.36 0.0009735891    1.413    0.292
        33 -12.1980    212.0733    147.2900   9.0370402865e+01   8.7918440148e+00     0.265908    0.2207556 -35.14 0.0002780175    1.161    0.138
        34 -11.9212     39.0672    140.0717   1.3156131062e+02   4.2371792356e+01    0.1976501    0.1677153 -73.06 0.0003537889    1.021    0.020
        35  99.0000    198.2581    231.2222   1.0983359156e+02  -4.2373920281e+00    0.2744531    0.2181144   0.76  0.001201053    1.317    0.241
        36 -12.4030     52.7235    135.7742   1.2712584023e+02   4.1866542759e+01    0.3515271    0.2456878 -22.26 0.0008860917    1.977    0.494
        37 -12.8030    182.1585    135.0297   9.3609286150e+01   1.7774171056e+01    0.2826854    0.2149488 -40.23 0.0009107642    1.306    0.234
        38 -13.7831    163.2655    129.3717   9.6438375738e+01   2.3237721528e+01    0.6522213     0.552852  31.99  0.001991325    1.290    0.225
        39 -12.3641    155.0256    129.4185   9.8373159018e+01   2.5074062222e+01    0.4938632    0.3379717  83.97  0.001411797    2.270    0.560
        40 -12.4492     89.5231    125.4616   1.1463607845e+02   3.9068653451e+01      0.33731    0.2832491 -22.76  0.001070586    1.362    0.266
        41 -12.6668    178.9258    124.2855   9.1720289915e+01   2.0767147732e+01    0.3255194    0.2827204 -74.85  0.000612335    1.231    0.188
        42 -12.5527     52.7841    122.5148   1.2463313797e+02   4.5024068352e+01    0.4302343    0.2921263 -69.81  0.001263863    1.436    0.304
        43 -12.0860     47.9324    122.6760   1.2607875480e+02   4.5549620321e+01    0.3367448    0.2204612 -32.67  0.001078109    1.781    0.439
        44 -12.5315    147.5459    122.5436   9.8470024092e+01   2.8256784233e+01    0.3310432    0.2802497 -89.78 -5.382502e-05    1.351    0.260
        45 -11.0301     11.5220    228.0141   1.4661839221e+02   2.5216902256e+01      0.15118   0.08805027 -81.18 0.0004461539    1.404    0.288
        46 -11.9524    117.6659    122.1282   1.0603779611e+02   3.4681517979e+01    0.2822721    0.2676828  48.05 0.0004055603    1.082    0.076
        47 -13.7738    114.2790    116.9205   1.0565627109e+02   3.6539212197e+01    0.7291783    0.5227854 -35.54  0.003352742    1.485    0.326
        48 -13.4967    125.3737    117.5090   1.0282425351e+02   3.4158696375e+01    0.5464926    0.4078952 -87.97  0.001839494    1.844    0.458
        49 -13.6350    120.8464    117.8564   1.0411597599e+02   3.5011903506e+01    0.6028619    0.4097742 -59.27  0.001143366    1.589    0.371
        50 -11.9181     65.4576    122.0101   1.2082326028e+02   4.3527830182e+01    0.2402559    0.1868999  53.91 8.859298e-05    1.466    0.318
        51 -11.4272    198.8224    120.2587   8.6692233429e+01   1.7064279218e+01    0.2474033     0.196424 -54.85 0.0003095499    1.240    0.194
        52 -10.9618    183.1601    223.0501   1.1146353065e+02  -2.2514380873e-01    0.1862491    0.1620483  19.87 0.0008131878    1.093    0.085
        53 -12.6627    153.5281    115.1428   9.5155983352e+01   2.8518453518e+01    0.3003034    0.2775194 -37.22 0.0002813369    1.109    0.098
        54 -13.5300    161.0612    117.0556   9.3885587438e+01   2.6390309133e+01    0.4540586    0.4253987  55.24  0.001592382    1.075    0.070
        55 -13.1666    159.3753    112.4830   9.3107455155e+01   2.7743087534e+01    0.3636711    0.3239001 -74.39 0.0003239066    1.178    0.151
        56 -13.6717    154.8907    107.5829   9.2877990015e+01   2.9799131911e+01    0.5830284    0.3825867 -32.74  0.001353336    1.701    0.412
        57 -13.4988    150.8887    107.3137   9.3751333170e+01   3.0773656178e+01    0.5114031    0.3570111  29.42  0.000299317    1.762    0.432
        58 -13.4371     91.9008    114.3394   1.1132441575e+02   4.1258354581e+01    0.5391443    0.2900456 -43.76  0.001407843    1.812    0.448
        59  -7.8546     17.4919    218.1555   1.4486857561e+02   2.6645706822e+01    0.3002022    0.1512063 -52.55  0.001580055    2.683    0.627
        60 -11.4454    156.3549    242.5441   1.2004068003e+02   1.0244009299e+00    0.1268716    0.1132607  46.57 0.0002469107    1.053    0.050
        61 -13.3084     13.5586    116.8111   1.3500598811e+02   5.0068741087e+01    0.2700154    0.1903104 -60.47 0.0008987962    1.122    0.109
        62 -14.2698    142.5105     96.6636   9.2917409391e+01   3.4866267508e+01    0.6199495     0.429489 -22.16  0.002691782    1.848    0.459
        63 -13.4320    144.2437    115.2004   9.7414119026e+01   3.0596424572e+01    0.6505423    0.4000914  61.82  0.001581715    1.981    0.495
        64 -13.2403    140.6769    107.1491   9.6194638431e+01   3.3115238660e+01    0.3689458    0.3558922  72.00 0.0005156016    1.043    0.041
        65 -13.5607    144.9800    102.3641   9.3858960210e+01   3.3145820194e+01    0.4829167    0.3637404  -8.06  0.001940213    1.854    0.461
        66 -13.1432     20.1235    116.1372   1.3301326679e+02   4.9729600641e+01    0.2674499    0.2393988  87.65 0.0004574294    1.216    0.177
        67 -12.1603    134.8793    115.5977   9.9865849089e+01   3.2566095665e+01    0.3765551    0.2457602  36.26 0.0006939211    1.673    0.402
        68 -11.4914     59.8736    115.1798   1.2101954039e+02   4.5866460986e+01    0.2403638    0.2012275 -75.09  0.000566171    1.243    0.196
        69 -11.2493    209.8737    114.1527   8.3179754725e+01   1.5781291368e+01    0.2276774    0.1953609 -73.34 0.0004758551    1.205    0.170
        70 -11.4458     11.4325    215.7914   1.4581084306e+02   2.7769812949e+01     0.236325    0.1381326  78.71  0.001291571    1.397    0.284
        71 -10.9698    208.7634    214.9916   1.0487571457e+02  -3.3086657961e+00    0.1683441     0.153834  -0.22 0.0002601561    1.049    0.047
        72 -12.2775    103.7361    105.0071   1.0552594858e+02   4.1225506537e+01    0.3335312    0.2571827  15.00  0.000909984    1.575    0.365
        73 -14.0200    103.8209     99.4991   1.0402336759e+02   4.2400667116e+01    0.6890575    0.4512581  73.43  0.002727618    2.693    0.629
        74 -13.2924    111.5204    106.4816   1.0371861325e+02   3.9406209965e+01    0.5772172    0.3861897   5.56  0.002282272    2.536    0.606
        75 -12.6952    107.3201    106.6587   1.0494351023e+02   4.0183033456e+01    0.4099331    0.2151701 -50.41  0.001537962    1.892    0.471
        76 -11.8433     97.4091    107.9084   1.0810701500e+02   4.1746464358e+01    0.3643778     0.220771  29.33  0.001582191    1.926    0.481
        77 -11.7966     78.9898    108.0745   1.1360463187e+02   4.4791608691e+01    0.2100681    0.1967873 -36.88 0.0004041207    1.030    0.029
        78 -11.8453      4.6179    215.1657   1.4700374200e+02   2.8570004259e+01     0.171511    0.1409486  62.89 0.0006053749    1.297    0.229
        79 -11.3908     51.4360    239.4246   1.4030089556e+02   1.8187443025e+01    0.1399433   0.09528223  83.83 0.0007431438    1.255    0.203
        80 -11.6579     25.9826    238.4125   1.4479245955e+02   2.1527943675e+01    0.1757442    0.1308961  86.76  0.001005718    1.119    0.106
        81 -12.0754    204.7298    211.9023   1.0510397616e+02  -2.0732994241e+00     0.245456    0.2246443   7.19 0.0009697585    1.021    0.021
        82 -11.7741     80.3164    103.1739   1.1197517398e+02   4.5681708010e+01    0.2296209    0.2225464  36.66 0.0003062621    1.120    0.107
        83 -11.5355      1.4770    103.3812   1.3645955610e+02   5.3843683337e+01    0.2460144    0.0939906 -68.34 0.0009264073    2.089    0.521
        84 -11.3020    196.2146    236.6754   1.1115718655e+02  -4.7812217563e+00     0.143079    0.1232482  -1.43 0.0007145951    1.157    0.136
        85 -13.9371    128.0062     80.1757   9.1895031666e+01   4.1301937157e+01     0.532396    0.3726436 -79.13  0.002261729    2.289    0.563
        86 -12.7089    128.8217    101.0370   9.7576192790e+01   3.7000554446e+01    0.3536145    0.2939711  51.16 0.0006825977    1.222    0.181
        87 -13.6661    131.5558     96.6554   9.5664989255e+01   3.7311235554e+01     0.413408    0.3761423  54.14  0.001230332    1.110    0.099
        88 -14.3191    132.2390     91.1278   9.3949103917e+01   3.8270596225e+01    0.5479413    0.4671297 -33.94  0.002225482    1.201    0.168
        89 -13.1290    123.1707     87.0428   9.5150395251e+01   4.1042809857e+01    0.3997597    0.2721011  49.95 0.0003680118    1.488    0.328
        90 -11.0713    198.4612    209.8854   1.0598769363e+02  -6.0297560380e-01    0.1843805     0.134243 -48.56  0.000837902    1.532    0.347
        91 -12.3362     10.6641    209.6195   1.4551304199e+02   2.9161197709e+01     0.206472    0.1582915 -86.43 0.0003442905    1.133    0.118
        92 -11.9432     61.1851     96.0146   1.1614503926e+02   5.0020967500e+01    0.3512757    0.2395622   5.62  0.001777071    1.889    0.471
        93 -12.1504      3.2050    208.2818   1.4680178523e+02   3.0159481810e+01    0.2934525    0.1445834  63.60  0.001496783    1.808    0.447
        94 -11.3350     19.7662     95.1850   1.2936690807e+02   5.4450456734e+01    0.1839892     0.165076  43.68  0.000721018    1.385    0.278
        95 -11.5231     97.5018     93.4982   1.0421243076e+02   4.4842280535e+01    0.1445255    0.1381855 -25.95  0.000810665    1.012    0.012
        96 -13.7501    129.3623     86.5694   9.3394251814e+01   3.9794047106e+01    0.5905218    0.3743543  21.13  0.002281954    2.379    0.580
        97 -14.0890    110.1500     88.8341   9.9233733403e+01   4.3379140176e+01    0.6029634    0.4258652  63.76 0.0007253313    1.819    0.450
        98 -13.3734    116.4093     87.3742   9.7071838359e+01   4.2398663137e+01    0.3729052    0.3070009  79.56  0.001709968    1.540    0.351
        99 -14.1771     89.1995     86.1954   1.0464382417e+02   4.7819598766e+01    0.5181099    0.4132206 -51.18  0.001515634    1.292    0.226
       100 -13.5938     73.3781     87.7235   1.1004057312e+02   5.0068430598e+01    0.4416076    0.3093117   8.07  0.001062217    1.774    0.436
       101 -12.5349     36.0236     88.0107   1.2246536523e+02   5.4609537809e+01    0.2093434    0.1865295 -79.76  0.000334389    1.330    0.248
       102 -13.1024     31.5221     85.2532   1.2333853878e+02   5.5614272726e+01    0.2867455    0.2106689  -4.92   0.00132488    1.542    0.352
       103 -11.6356    206.5905    206.5413   1.0372925703e+02  -1.4570634539e+00    0.2265512     0.204134 -55.38 0.0005664995    1.327    0.246
       104 -11.3257    243.3554     85.2863   7.1387656215e+01   1.3704096643e+01    0.1263884    0.1087997  18.46  0.000702238    1.672    0.402
       105 -14.2130     43.0454     81.9641   1.1858934595e+02   5.5165814077e+01    0.4583142    0.4034227  80.27  0.002139449    1.526    0.345
       106 -11.1659    217.4063    204.9932   1.0130941266e+02  -3.0822935782e+00    0.2154414    0.1720221   5.21  0.000617736    1.266    0.210
       107 -10.9214    213.1257    204.8699   1.0212040428e+02  -2.3155425546e+00    0.1902774    0.1748674  31.53 0.0005210674    1.147    0.128
       108 -13.4121    144.3388     75.8082   8.6630759963e+01   3.8394997989e+01    0.3508741    0.2737716  -3.92   0.00169036    1.667    0.400
       109 -12.7673     81.6276     76.9025   1.0428056990e+02   5.0933950708e+01    0.2274629    0.1830179  18.41 0.0004741686    1.283    0.220
       110 -12.6686    153.3987     75.2860   8.4434169926e+01   3.6358920319e+01    0.2702554    0.1895989 -49.13  0.001141822    1.494    0.331
       111 -12.7664     67.0432     74.3079   1.0827028310e+02   5.3689776388e+01    0.3057168    0.2294461  12.07  0.001355473    1.432    0.302
       112 -10.5630    201.6948    203.2935   1.0409342146e+02   6.4108202242e-03     0.195047    0.1638854 -40.93 0.0005332422    1.249    0.200
       113 -13.8840    126.6097     71.8559   8.9791936662e+01   4.3108735943e+01    0.3952011    0.2980429  32.76 0.0009532157    1.389    0.280
       114 -13.5900     82.1775     70.3898   1.0211709033e+02   5.2068113010e+01    0.3422781    0.3119168 -68.95  0.001153765    1.385    0.278
       115 -14.1083     94.3340     73.8225   9.9400094652e+01   4.9301895766e+01    0.5320786    0.3019262 -42.84  0.002055337    1.747    0.428
       116 -14.2448     98.5407     72.9273   9.7865354211e+01   4.8683436431e+01    0.5460414    0.3761103 -58.34  0.001334265    1.863    0.463
       117 -13.4005    111.8546     69.8894   9.3114046141e+01   4.6597380875e+01    0.3266925    0.2046568  50.64  0.001444051    1.634    0.388
       118 -12.7982     73.7778     69.5993   1.0459870789e+02   5.3570937936e+01    0.2519332    0.2255009  38.90 0.0007846612    1.266    0.210
       119 -11.9629     37.8386     72.1883   1.1782563183e+02   5.7683682510e+01    0.1750532    0.1253676 -27.43 0.0005089263    1.283    0.221
       120 -13.7757    137.2492     63.1264   8.4578752228e+01   4.2182062840e+01    0.3753693    0.2755713  -1.44  0.001180296    1.844    0.458
       121 -11.2269    243.4995     62.4859   6.6502238575e+01   1.7355482069e+01    0.1335199    0.1127906 -69.15 0.0001055012    1.018    0.018
       122 -13.3592     98.9874     61.1351   9.4016561000e+01   5.0655413710e+01    0.3546939    0.2717121 -73.09  0.001778186    2.031    0.508
       123 -11.1840     25.2835     59.8850   1.1904176251e+02   6.1218719218e+01    0.1865931    0.1526484  20.01 0.0006850836    1.407    0.289
       124 -10.9592      3.4862     59.4890   1.2726106595e+02   6.2819524624e+01    0.1151711   0.08539874 -41.19 0.0001423884    1.016    0.016
       125 -12.7092    250.4918     48.5284   6.2850943462e+01   1.7959889131e+01    0.2857769    0.1524733 -36.30  0.001139913    1.958    0.489
       126 -11.9188    199.9371    199.4593   1.0371337326e+02   1.0333157976e+00    0.2841873    0.1976845 -45.86  0.001082825    1.517    0.341
       127 -12.2079     83.0065     58.5044   9.8044706936e+01   5.4011248229e+01    0.2921388    0.1221552  35.93   0.00117439    2.496    0.599
       128 -13.8262    117.8962     53.8013   8.6453215673e+01   4.7952661124e+01    0.5130646     0.332547  62.40  0.002461065    1.775    0.437
       129 -13.0360    140.3701     51.7342   8.0468901333e+01   4.3210825209e+01    0.3318048    0.2229467  71.20  0.001076803    1.695    0.410
       130 -11.8260     70.2082     49.5000   9.9214507936e+01   5.7578766506e+01    0.2349284    0.1783358 -14.11 0.0005127763    1.255    0.203
       131 -12.0482    102.1219     48.8419   8.9079639094e+01   5.1964361074e+01    0.2008269    0.1900617  76.78  0.001232101    1.288    0.224
       132 -11.1151     41.5199     49.5147   1.0961368947e+02   6.1460522510e+01    0.2032405    0.1074556  14.53 0.0009724495    2.259    0.557
       133 -11.7246     55.0493     45.7253   1.0324610820e+02   6.0395030452e+01    0.2982499    0.1378685  29.07  0.001434512    2.265    0.559
       134 -13.0688    218.2291    194.9395   9.9198533977e+01  -1.4597617195e+00    0.3543981    0.2749696 -49.33  0.001071061    1.440    0.306
       135 -11.2260    219.8391    190.6450   9.8036058044e+01  -9.7722046199e-01    0.2877715    0.2003905  63.01  0.001053868    2.122    0.529
       136 -11.0644    214.4620     42.3267   6.5597214316e+01   2.6816965898e+01    0.2333193    0.1136629  67.27  0.001035376    1.931    0.482
       137 -12.3807     96.9151     39.3737   8.7334867685e+01   5.4321152155e+01    0.4171479    0.2376522  31.36  0.001689231    1.836    0.455
       138 -10.8038    185.2049     34.7690   6.7706334834e+01   3.4762598110e+01    0.1759802    0.1500674  48.40 0.0004583732    1.300    0.231
       139 -11.4387    128.7148     32.5480   7.7129416944e+01   4.8433431161e+01    0.3182434    0.1419735 -42.51  0.001353608    2.615    0.618
       140 -11.4957     60.5167     28.1465   9.4786481121e+01   6.2133979211e+01     0.267548    0.1752289 -13.26  0.001592035    1.502    0.334
       141 -11.3423     20.9895     24.6799   1.0915636167e+02   6.7465701444e+01    0.1558418    0.1177934  -1.89 0.0007697007    1.136    0.120
       142 -11.7711    250.5380     24.0077   5.8010876891e+01   2.1278209495e+01    0.1764225    0.1044174 -44.80 0.0004701986    1.568    0.362
       143 -12.1926    216.9174    185.2799   9.7522683468e+01   5.3029913347e-01    0.4386958    0.2932224 -58.19   0.00207014    1.958    0.489
       144 -10.4855    217.3150     19.6744   6.0243737062e+01   2.9072634171e+01    0.1357673   0.08015975 -69.95 0.0007043252    1.668    0.401
       145 -12.6392    213.8752    181.0738   9.7258497982e+01   1.8783428851e+00     0.491777    0.3504328  15.67  0.001712607    1.688    0.407
       146 -13.3477    205.6419    193.0042   1.0129865988e+02   1.1797026553e+00     0.397563    0.3238408  34.56  0.001204353    1.206    0.171
       147 -10.6230    181.3733    237.7179   1.1427134592e+02  -2.4464260997e+00    0.1319426    0.1115135  47.97 0.0007925788    1.208    0.172
       148 -10.8086    161.9973     11.7696   6.5084745111e+01   4.2907954465e+01     0.174136    0.0923323  66.85 0.0005118694    1.597    0.374
       149  99.0000    169.5333    245.2898   1.1781519274e+02  -1.6959253285e+00     0.315868    0.1268431 -44.41  0.001363004    2.891    0.654
       150 -11.5839    208.5725    184.6369   9.9033846134e+01   2.2037634334e+00     0.243708    0.2405449 -47.92 0.0005620634    1.137    0.121
       151 -11.2675    152.9453    246.0000   1.2122546569e+02   1.0057462671e+00    0.2668898     0.141597  36.84  0.001305728    1.695    0.410
       152  99.0000    149.1491    244.1170   1.2171632683e+02   1.9838315138e+00    0.4801487    0.2820196  26.00  0.002304422    2.071    0.517
       153 -11.0584     32.2291    246.4018   1.4426721338e+02   1.9210319434e+01    0.1023901   0.07622407 -63.85 0.0006890581    1.660    0.397
       154 -11.2810     28.9965    246.1121   1.4480211071e+02   1.9650870607e+01    0.1865992    0.1004873 -52.77    0.0010188    2.790    0.642
       155 -11.5527    181.7583    244.9229   1.1533852953e+02  -3.6952326325e+00    0.2393973     0.146035 -24.18  0.001190985    2.239    0.553
