#   1 NUMBER                 Running object number                                     
#   2 MAG_AUTO               Kron-like elliptical aperture magnitude                    [mag]
#   3 X_IMAGE                Object position along x                                    [pixel]
#   4 Y_IMAGE                Object position along y                                    [pixel]
#   5 X_WORLD                Barycenter position along world x axis                     [deg]
#   6 Y_WORLD                Barycenter position along world y axis                     [deg]
#   7 A_WORLD                Profile RMS along major axis (world units)                 [deg]
#   8 B_WORLD                Profile RMS along minor axis (world units)                 [deg]
#   9 THETA_WORLD            Position angle (CCW/world-x)                               [deg]
#  10 FWHM_WORLD             FWHM assuming a gaussian core                              [deg]
#  11 ELONGATION             A_IMAGE/B_IMAGE                                           
#  12 ELLIPTICITY            1 - B_IMAGE/A_IMAGE                                       
         1 -12.9363    243.5765    114.0185   8.2129358471e+01   8.3182952463e+00     3.048459     1.011948 -40.66  0.004569445    2.666    0.625
         2 -12.1841    233.4241     61.1817   7.1407654859e+01   1.9428772811e+01     2.877666    0.7926732 -45.62  0.009648989    3.343    0.701
         3 -11.7480    220.8902     33.2666   6.6459007307e+01   2.6348095743e+01     1.086727    0.7828767 -68.39  0.004110946    1.321    0.243
         4 -12.3853    131.1102     24.2996   7.8133520485e+01   4.9098024359e+01     1.845454      1.12562  47.03  0.009520839    1.463    0.317
         5 -12.2972    137.4904     36.4613   8.0709294740e+01   4.6183418260e+01     1.195259    0.7361941  46.20 -5.119154e-05    1.505    0.335
         6 -11.4305    155.3584     47.3851   8.0384578046e+01   4.0471538221e+01     1.633487    0.8407221  77.84  0.005730279    3.297    0.697
         7 -11.1855    148.7437     31.6338   7.6912795706e+01   4.4131965194e+01    0.7582337    0.4214324 -56.60  0.002695384    2.522    0.603
         8 -11.6200    224.6891     39.6146   6.7488847937e+01   2.4602670087e+01    0.7110577    0.5994439   1.27  0.001654685    1.699    0.412
         9 -11.7104    194.3798     12.1059   6.4488796351e+01   3.5223314454e+01     3.001337    0.5672575  62.22    0.0099567    3.735    0.732
        10 -11.2291    249.4754      2.5457   5.7131643238e+01   2.3564287780e+01    0.7257006    0.2013799 -37.21  0.003131838    3.124    0.680
        11 -12.8635    238.2341      2.4172   5.7981665737e+01   2.6036720975e+01     2.680978    0.4112433  67.60  0.008984327    4.601    0.783
        12 -12.3566    246.1405     21.7255   6.1292841651e+01   2.2038790997e+01    0.7404687      0.45713 -78.58  0.002376053    1.538    0.350
        13 -10.9678    249.4449     16.5259   5.9930918606e+01   2.1952109894e+01    0.3466881     0.226244 -46.46 0.0004602505    1.416    0.294
        14  -8.9689    223.4828     17.1985   6.2493383971e+01   2.7730069765e+01    0.3885844    0.1880448 -37.36  0.001384992    2.052    0.513
        15  -9.7800    125.0654     14.9198   7.6289574253e+01   5.1436584034e+01     0.316471    0.2187931  49.60  0.001796041    1.249    0.199
        16 -10.9666    119.2071     10.2099   7.5919912106e+01   5.3175472880e+01    0.6372126    0.3866999  39.60  0.003229983    1.502    0.334
        17 -10.2903    227.1028      9.2972   6.0396698760e+01   2.7794746058e+01    0.4235174    0.2615927 -68.21 0.0003669895    1.523    0.344
        18  -8.8053    144.0384      7.4840   7.0344465599e+01   4.7776756856e+01    0.1895687    0.1800271  11.99  0.001259632    1.179    0.152
        19  -8.1154    182.8052      2.3813   6.3409931859e+01   3.8977961282e+01    0.1839324   0.09889567  61.72 0.0003654881    1.584    0.369
        20  -8.4234    118.7865    149.8996   1.1672077901e+02   2.8093348393e+01    0.2084379    0.1942359 -43.30 0.0002327183    1.148    0.129
        21  -8.3565    116.6833    134.8775   1.1398768040e+02   3.1986485883e+01    0.2189369    0.2010777  32.25 0.0002918452    1.187    0.158
        22  -9.4574    198.3760    134.0676   9.4917406003e+01   1.4431647713e+01    0.3103213    0.2382439  58.59  0.001485903    1.396    0.284
        23  -9.8581    195.8726    128.0297   9.3974708395e+01   1.6204806043e+01    0.3482449     0.245536  56.14  0.001591319    1.497    0.332
        24  -8.0155    204.6832    127.6608   9.2143086168e+01   1.4279303990e+01     0.156142    0.1216912   3.82 0.0003245626    1.705    0.414
        25  -8.3523    159.9183    126.4610   1.0136953508e+02   2.4757007214e+01    0.2334191     0.155013  48.86  0.001005608    1.521    0.342
        26  -8.6106    225.0721    121.8718   8.7007468829e+01   1.0851439653e+01    0.2292756    0.2015876 -76.00 0.0008843719    1.247    0.198
        27  -9.6946    186.0924    119.2148   9.3810485978e+01   2.0233875898e+01    0.3013543    0.2256985  75.33  0.001354434    1.632    0.387
        28  -8.3023    177.0433    119.5235   9.5803837205e+01   2.2281141198e+01    0.2264509    0.1550484  50.39 0.0003132375    1.479    0.324
        29  -8.1940    215.1426    116.8582   8.7586630807e+01   1.3996003064e+01     0.230834    0.2044722 -69.89 0.0006685041    1.181    0.153
        30  -9.1417    168.0224    113.9517   9.6363341015e+01   2.5533936345e+01      0.38944    0.2868327  80.75  0.001232542    1.779    0.438
        31  -8.7576      7.4707    114.0000   1.3952388729e+02   5.0836980598e+01    0.2079991    0.0687696  21.16 0.0009395837    3.974    0.748
        32  -7.6110     19.5357    112.5287   1.3601935611e+02   5.0307756324e+01    0.1222671      0.09681 -67.20  7.44155e-05    1.035    0.034
        33  -9.0586    204.1012    110.8546   8.8162912321e+01   1.7671615584e+01    0.3177263    0.2077042  24.36  0.001270913    2.333    0.571
        34 -10.6210    185.7522    109.0163   9.1303291209e+01   2.2350050139e+01    0.6026518    0.3546183 -21.41  0.002214901    2.555    0.609
        35 -11.2755    187.6176     91.8545   8.6477147526e+01   2.5190792100e+01    0.9960289    0.6302853 -39.30  0.004393687    1.568    0.362
        36  -9.4377      6.8302    109.4029   1.3903642222e+02   5.1890921593e+01    0.4632736   0.07817587 -46.51  0.001408211    6.175    0.838
        37  -8.4258    148.5291     97.8323   9.6567508363e+01   3.3354909476e+01    0.2950827     0.240244  12.73 0.0009254482    1.519    0.342
        38 -12.1859      7.8631    205.7252   1.4849964532e+02   3.0727746524e+01    0.7994031    0.5499419  87.79  0.004065774    1.059    0.055
        39  -7.8145    134.8512     95.1045   9.9170931784e+01   3.6981351077e+01    0.2329322    0.2056921  86.82  0.001185815    1.293    0.227
        40  -9.6425    159.3599     89.5246   9.1757033943e+01   3.2450260961e+01    0.5732194    0.3810276  23.42  0.002329265    2.175    0.540
        41  -8.9019    142.2377     86.8892   9.5009216768e+01   3.6949260066e+01    0.3299462    0.2475587 -50.67  0.001559472    1.388    0.280
        42  -9.3297    164.8127     85.4652   8.9427517218e+01   3.1907988035e+01    0.4246089    0.2485875 -62.48  0.001302895    2.439    0.590
        43  -8.8898      4.8167     83.6594   1.3539882958e+02   5.7534457186e+01    0.2211344    0.1137275  50.57  0.001161381    3.031    0.670
        44  -9.9968    172.2885    205.2079   1.1532040001e+02   5.7698213566e+00    0.2419837     0.212518  55.75 0.0002123064    1.136    0.120
        45  -9.1857     22.4806    194.9772   1.4499535197e+02   3.1541072828e+01    0.1849808   0.09272467 -76.57  0.001042245    1.620    0.383
        46 -11.4953    173.8055     61.4403   8.0868556337e+01   3.3840991796e+01    0.6177077     0.525224 -25.86  0.003287479    1.292    0.226
        47 -10.1547    165.7324     55.7969   8.0810540168e+01   3.6705248259e+01    0.5936876    0.4137075 -81.01  0.001652003    1.903    0.474
        48 -12.2007     40.2555    181.3730   1.4011273021e+02   3.2604566874e+01    0.6962575    0.5833124 -80.06  0.001456487    1.141    0.123
        49  -9.3916    248.9062     76.1987   7.2814451079e+01   1.3601573731e+01    0.2792423    0.1992363 -29.41 0.0004758174    1.542    0.352
        50  -7.8931    149.1838     75.0146   8.9923892397e+01   3.7534144623e+01    0.1966541    0.1923408 -49.67            0    1.041    0.039
        51  -7.6110      1.5090    155.4690   1.4571994976e+02   4.2038984549e+01    0.1164696   0.08612093 -82.03 0.0002673158    1.004    0.004
        52 -11.8628     50.9224    172.6244   1.3677422963e+02   3.3332898396e+01    0.8539966    0.6848843 -88.28  0.003171656    1.041    0.040
        53  -9.6832    207.8907     66.7219   7.6403562345e+01   2.4601986493e+01    0.6943349    0.3484241 -71.60  0.002136302    4.230    0.764
        54  -7.6722    213.3324     67.6651   7.5798327077e+01   2.3136683869e+01    0.2211152    0.1530294 -71.85 0.0005669073    1.625    0.385
        55  -9.0089    209.2699     62.8868   7.5225108697e+01   2.4877012672e+01    0.5834724    0.2867144 -64.46  0.002035135    3.209    0.688
        56  -9.3971    203.3698     56.4692   7.4501701715e+01   2.7305473755e+01    0.5918774    0.3088908 -69.44  0.002138935    3.078    0.675
        57  -8.6526    242.6384     67.3897   7.1640331793e+01   1.6378862327e+01     0.235342    0.1925113 -83.05 0.0005542903    1.186    0.157
        58  -8.0795    222.4131     68.5951   7.4675899143e+01   2.0826514093e+01    0.2915602    0.1323845  77.46 0.0009588049    3.629    0.724
        59  -7.5332     69.4641     67.2006   1.0980007272e+02   5.4543188892e+01    0.1702864       0.1199 -52.29 0.0004463716    1.525    0.344
        60  -9.5991    191.6591     64.5192   7.8494887374e+01   2.8933422159e+01    0.3919904    0.2585971  35.80 0.0007636102    1.930    0.482
        61 -10.1594    197.2451     60.6138   7.6535529102e+01   2.8172434280e+01    0.3919744     0.389844  80.90  0.002307067    1.130    0.115
        62 -10.1306    242.3638     60.5784   7.0138568461e+01   1.7494328152e+01    0.3612289    0.2294585  63.79  0.001119465    1.615    0.381
        63  -8.4381    137.8613     56.7838   8.7038029090e+01   4.3216680928e+01    0.2765574    0.1799984 -59.25 0.0007776816    2.064    0.515
        64  -8.6677    127.8293     59.0820   9.0174295558e+01   4.5120334703e+01    0.2089354    0.1967528  11.90 0.0003143386    1.040    0.038
        65 -11.9959    241.7612    149.0649   9.0263841350e+01   2.4536876329e+00     1.785038    0.8597443 -43.80  0.007606118    1.986    0.497
        66 -11.0497    212.5985     48.9088   7.1267984851e+01   2.6179713020e+01    0.6514364    0.6108267  76.39  0.002639097    1.126    0.112
        67  -9.8513    181.8466     72.0773   8.2290593604e+01   3.0114744557e+01    0.3321342    0.3302245  26.97 0.0004280208    1.092    0.084
        68  -8.7610    244.6811     47.6778   6.6999094891e+01   1.8886454189e+01    0.3888026    0.1628807  55.15  0.001669056    2.575    0.612
        69  -8.3325    183.7274     44.7990   7.4526763988e+01   3.3854022844e+01    0.2886083    0.1775895 -45.18  0.001368642    1.668    0.401
        70  -8.3227    249.5280     41.7479   6.5191420005e+01   1.8652445477e+01    0.2273363    0.1242381 -32.55  0.001111406    1.983    0.496
        71 -10.4547    108.3754     37.9637   8.8164401622e+01   5.2383921329e+01    0.4606011    0.1661445  44.02  0.001796007    2.597    0.615
        72  -8.6806    184.9111     39.8681   7.3005616037e+01   3.4233302982e+01    0.2285075    0.1938999 -61.33 0.0004173617    1.192    0.161
        73  -8.3092    241.8402     39.2040   6.5452819537e+01   2.0711784961e+01    0.1980052    0.1468189 -66.60  0.001145661    1.199    0.166
        74  -7.3695    246.2626     38.3404   6.4799628683e+01   1.9842826094e+01    0.1142847    0.1035495  19.93 0.0002594303    1.592    0.372
        75  -8.6962    155.9756     38.2646   7.7538269321e+01   4.1561071318e+01    0.1999761    0.1684112  60.49 0.0002829567    1.097    0.089
        76  -8.1558    245.6397     30.9370   6.3279195939e+01   2.0972683441e+01    0.1807633    0.1435523 -60.11 0.0004462051    1.109    0.098
        77 -10.1102    236.4386     40.2966   6.6285260124e+01   2.1785161337e+01    0.7264009    0.4808635 -30.97  0.002213126    1.703    0.413
        78  -7.8355    116.8286    242.9640   1.3197691503e+02   8.7061158068e+00    0.1747588    0.1430887 -23.88 0.0005513278    1.965    0.491
        79  -7.3971      3.6940    149.6827   1.4468636031e+02   4.3157674463e+01     0.114544   0.07032584 -53.51 0.0003488142    1.629    0.386
        80 -11.3797    249.6369     26.7368   6.2014059159e+01   2.0637389001e+01    0.3875191    0.2025862 -56.66  0.001559482    1.744    0.426
        81 -11.6190    244.4582     85.5233   7.5512166129e+01   1.3039372834e+01     1.438773    0.9759429 -85.52  0.007032132    1.838    0.456
        82  -8.6598     69.8317    145.8249   1.2826432275e+02   3.7157343234e+01    0.3243419    0.2361818  69.57  0.001367222    1.522    0.343
        83  -8.6176    186.3008     72.4271   8.1558142675e+01   2.8957139232e+01    0.2374212    0.2193294 -34.47 0.0003548666    1.147    0.128
        84 -10.4351    156.9854     79.0609   8.9335344727e+01   3.4958959257e+01    0.3619913    0.3058462 -37.72 0.0008771279    1.204    0.169
        85  -9.4076    150.8357     26.9787   7.5099063491e+01   4.4180509344e+01    0.3954745    0.1046334  48.08  0.001283742    3.550    0.718
        86  -9.2061    231.2356     24.9749   6.3434372619e+01   2.4993469141e+01    0.3009545    0.2408586 -69.25  0.001666903    1.090    0.082
        87  -9.6767    157.5337     21.4411   7.2263485347e+01   4.3187822179e+01    0.3299269    0.1410981  55.68    0.0014231    1.988    0.497
        88  -8.8303     66.4549    144.5250   1.2889702044e+02   3.7927382115e+01    0.4386714    0.2364807 -70.92  0.001669835    1.870    0.465
        89  -9.0427    167.6097     18.8794   6.9907022710e+01   4.1019629362e+01    0.4806147   0.08939017  56.48  0.001522438    3.747    0.733
        90 -11.1704    174.6796     77.5302   8.5175309989e+01   3.0939461669e+01     1.360232    0.7027693  58.04  0.002395001    1.950    0.487
        91  -8.6778    184.1123    142.0697   9.9760387235e+01   1.5999147534e+01    0.2226228    0.2165852 -46.45  0.001189132    1.018    0.018
        92  -8.5796     26.9039    230.6382   1.4694928859e+02   2.3737911346e+01    0.1734457    0.1229372 -80.81 0.0006385883    1.287    0.223
        93  -8.2386    187.3253    137.3394   9.7966254595e+01   1.6254495572e+01    0.1599206    0.1241845   3.17 -1.031097e-05    1.727    0.421
        94 -10.2200    230.2695    135.3036   8.9195423993e+01   7.2547573864e+00    0.2659103    0.2537052  89.64 0.0003172479    1.155    0.134
