#   1 NUMBER                 Running object number                                     
#   2 MAG_AUTO               Kron-like elliptical aperture magnitude                    [mag]
#   3 X_IMAGE                Object position along x                                    [pixel]
#   4 Y_IMAGE                Object position along y                                    [pixel]
#   5 X_WORLD                Barycenter position along world x axis                     [deg]
#   6 Y_WORLD                Barycenter position along world y axis                     [deg]
#   7 A_WORLD                Profile RMS along major axis (world units)                 [deg]
#   8 B_WORLD                Profile RMS along minor axis (world units)                 [deg]
#   9 THETA_WORLD            Position angle (CCW/world-x)                               [deg]
#  10 FWHM_WORLD             FWHM assuming a gaussian core                              [deg]
#  11 ELONGATION             A_IMAGE/B_IMAGE                                           
#  12 ELLIPTICITY            1 - B_IMAGE/A_IMAGE                                       
         1 -12.4118     60.6732     45.8110   1.1143542439e+02   5.9726746242e+01     1.215237     0.437059 -47.91  0.004952397    2.331    0.571
         2 -11.6435    120.4889     57.6818   9.6636457802e+01   4.6903034148e+01     1.305157    0.9694963  51.07  0.006482879    1.453    0.312
         3 -11.6125    178.0735     21.2387   7.1281031982e+01   3.7960640812e+01     0.597691    0.3845207  22.64  0.001593971    1.765    0.434
         4 -12.3622    104.9832     12.9713   8.2882659843e+01   5.7297073505e+01    0.5840332    0.4241121 -16.31  0.002366976    1.284    0.221
         5 -12.1541    124.9750     27.6859   8.4139450028e+01   5.0752031615e+01    0.8517337    0.5459254  51.47  0.003633947    1.582    0.368
         6 -11.1944    120.2244     18.1802   8.1301386252e+01   5.3138821351e+01    0.8718705     0.531955  76.41  0.003614689    2.472    0.596
         7 -11.7721    134.1122     15.2126   7.6886296370e+01   5.0106062602e+01     1.017456    0.3690577  59.71  0.003593187    2.708    0.631
         8 -11.5551    125.2364     11.2205   7.7107949252e+01   5.2755565792e+01    0.7117456    0.4613747  80.18  0.002885743    2.146    0.534
         9 -10.7611    105.9025     21.1363   8.6343461923e+01   5.6011181436e+01    0.4358808    0.2293557 -26.66  0.001426896    1.787    0.440
        10 -12.7635    112.7255     24.9275   8.6127687593e+01   5.3964410266e+01     1.292178    0.5043138  44.76   0.00479365    2.585    0.613
        11 -11.4759    163.8796     27.9211   7.6023487450e+01   4.0945550453e+01    0.5344498    0.3520092  41.18  0.001682827    1.513    0.339
        12 -10.8532    133.9592     24.5926   8.0770067313e+01   4.8999997101e+01     1.444339    0.6847739 -57.47  0.004052419    5.080    0.803
        13  -9.9061    149.4244     14.8134   7.3705391786e+01   4.6231409812e+01    0.3414701    0.2191904  26.26 0.0009460587    1.677    0.404
        14 -11.4372     26.2310     27.7642   1.1920300110e+02   6.7216279797e+01    0.5313162    0.4441417  50.42  0.003175928    1.619    0.382
        15 -11.5692     22.6461     10.9580   1.1427770073e+02   7.0840169700e+01    0.4620301    0.2976801 -14.16  0.002721199    1.747    0.428
        16 -11.6186     19.9297     22.8924   1.2040860318e+02   6.8723077632e+01    0.5768228    0.2394596 -52.46  0.001676246    1.766    0.434
        17 -11.8716     15.0397     21.7550   1.2235714488e+02   6.9313341273e+01    0.7393684    0.5339852 -88.01  0.003439553    1.925    0.480
        18 -11.5993     16.8738     13.5199   1.1835883421e+02   7.0827626128e+01    0.4058515    0.1744673 -47.07  0.001171067    1.698    0.411
        19 -11.4140     14.2761      9.3864   1.1800246836e+02   7.1826346246e+01    0.3479638     0.228969  16.94  0.002278773    1.856    0.461
        20 -10.6098    153.1839     25.6473   7.7175982280e+01   4.4006729360e+01    0.6456614    0.4028939  -4.16  0.002717396    1.809    0.447
        21  -9.9532     87.1607      7.1382   8.5235008670e+01   6.1827775679e+01     0.591199    0.3480625  49.65  0.002777683    1.785    0.440
        22 -11.6013     90.6871     20.3625   9.0527458916e+01   5.9300305011e+01    0.6564087    0.4254681 -27.24  0.002746901    1.402    0.287
        23 -11.5064     85.8814     14.4620   8.9282598192e+01   6.1105282777e+01    0.6152548    0.3213395 -17.63  0.001682493    2.065    0.516
        24 -10.7483     42.6266      3.4393   1.0050356913e+02   6.9922158543e+01    0.5356006    0.2657836 -21.62  0.002490661    2.294    0.564
        25  -9.6944     32.1853     12.2450   1.1007249823e+02   6.9668975441e+01    0.2293963    0.1728629  45.67 0.0006039329    1.897    0.473
        26 -12.5766     48.6000     13.9234   1.0325157834e+02   6.7392707200e+01    0.7601759    0.5520036 -16.63  0.004571906    1.301    0.232
        27 -11.1192     40.6002     14.3905   1.0708374450e+02   6.8329698635e+01    0.5463344    0.2021166  34.29  0.002435013    3.188    0.686
        28 -11.4447     38.7311     19.4945   1.1026158948e+02   6.7609539058e+01    0.5368233    0.1562538 -48.62  0.001445403    2.851    0.649
        29 -11.4120     35.5588     18.7132   1.1138136809e+02   6.8105711711e+01    0.4059828    0.1963518 -44.47  0.001155026    1.631    0.387
        30 -10.3145    206.6796     20.1445   6.7011766128e+01   3.0517225023e+01    0.5571433    0.2776298 -21.88  0.002306604    1.915    0.478
        31 -12.0196     68.8684     18.2568   9.7092219677e+01   6.3615243487e+01    0.7495031     0.615823  38.48  0.004515125    1.399    0.285
        32 -10.8163     71.7362      3.3796   8.8419335050e+01   6.5292676618e+01    0.6542604    0.3525779 -23.54  0.003207584    1.666    0.400
        33 -10.6521     66.2208     10.5598   9.4281687352e+01   6.5259064541e+01    0.4475413    0.2502804  36.25  0.002165769    1.929    0.481
        34 -10.6066     63.2005      6.3236   9.3222025452e+01   6.6387394062e+01    0.4078524    0.2046263 -23.82  0.001677339    1.890    0.471
        35 -10.6323     77.1876      2.8463   8.6231385332e+01   6.4335862782e+01    0.3568388    0.2464822  12.15  0.001230297    1.459    0.314
        36 -12.7466    239.7104     16.1702   6.2331030527e+01   2.2610817858e+01    0.9928705    0.7144122  74.07  0.003630209    1.511    0.338
        37 -11.8631    245.9040      7.9899   5.9550070521e+01   2.1887428025e+01    0.5540695    0.3468906 -10.02  0.002054812    1.628    0.386
        38 -11.9446    239.5779      7.3954   5.9905949572e+01   2.3447977209e+01    0.5814046    0.3033106 -66.50  0.001691843    2.438    0.590
        39 -11.6234    241.6412      4.0946   5.8829996323e+01   2.3241976473e+01    0.4724858    0.3008909 -88.20  0.002232806    1.791    0.442
        40 -11.0301    165.1853     17.2410   7.1890391277e+01   4.1820089399e+01    0.4666897    0.2723793  35.64  0.001106279    1.809    0.447
        41 -10.6121    186.5121     15.1116   6.7954337209e+01   3.6347438392e+01    0.3557641    0.2617741  40.54 0.0006434593    1.357    0.263
        42 -11.6267    192.2281      7.7484   6.4751081066e+01   3.5521174144e+01    0.6990426    0.3860514  17.65  0.001950903    2.276    0.561
        43 -11.8493    211.3984      9.9275   6.3294255805e+01   3.0278751222e+01    0.5999169    0.3598909  17.84  0.002065317    2.027    0.507
        44  -9.3906    157.6892     11.1209   7.0829673155e+01   4.4441149118e+01    0.3056698    0.1119338 -28.39  0.001080905    2.523    0.604
        45  -9.7829      3.9518     10.7675   1.2414706425e+02   7.2225074193e+01     0.266214    0.1269312 -38.05  0.001473158    1.792    0.442
        46 -10.2108    157.5988      2.4326   6.7507403720e+01   4.5274505593e+01    0.4300641    0.2509635  50.18  0.001926438    1.593    0.372
        47  -9.2964    162.8208     10.1922   6.9650734533e+01   4.3168223102e+01    0.3164519    0.1770311  20.64  0.001260617    2.157    0.536
        48 -10.0439    162.6702      5.5788   6.7941293138e+01   4.3641507277e+01    0.4021795    0.2537536   0.43  0.001505552    1.718    0.418
        49  -9.6851    162.6586      1.3000   6.6332023391e+01   4.4018512829e+01    0.3226268    0.1788475 -70.55  0.001230362    2.675    0.626
        50 -10.3479    151.0749      7.4529   7.0512228022e+01   4.6547167593e+01    0.4727482    0.2563736  60.36  0.001155917    1.762    0.432
        51 -10.2702      1.3023      7.2477   1.2430493360e+02   7.3067561106e+01    0.1913281   0.07459518 -57.46 0.0002553437    1.828    0.453
        52  -9.4212    202.4918      6.0135   6.3019219338e+01   3.2956527595e+01    0.2161189     0.139297 -17.19 0.0006347962    1.536    0.349
        53 -10.8548    174.2655      4.4538   6.5886495721e+01   4.0629856352e+01    0.6790172    0.3146373  81.79  0.002464523    2.756    0.637
        54 -10.1596    169.2344      9.6557   6.8475609114e+01   4.1505207949e+01    0.4102674    0.1913384  45.86  0.001604386    2.083    0.520
        55 -10.3332    228.2546      3.9842   5.9907483266e+01   2.6520472570e+01     0.326159     0.253943  -4.13   0.00151313    1.322    0.244
        56 -10.9232    218.6191      3.2315   6.0549464593e+01   2.9014225528e+01    0.3225123    0.2845809 -24.52 0.0009524097    1.096    0.087
        57 -10.8506    223.9907      2.0109   5.9707065482e+01   2.7756511809e+01    0.4440693    0.2705026  80.70  0.001417102    1.766    0.434
        58 -10.9931    122.7946      1.3758   7.3263752804e+01   5.4363490676e+01    0.7285506    0.1347588  63.63  0.001885357    5.409    0.815
        59 -11.3938    106.2313      1.8609   7.7267667227e+01   5.8277500756e+01     1.264166    0.4208613  67.71  0.003682098    5.046    0.802
        60 -10.5203    141.6702      3.6655   7.0614897841e+01   4.9362186383e+01    0.3967675    0.2711566  66.32  0.001641499    1.507    0.337
        61 -11.9670    133.7478      2.6415   7.1639570606e+01   5.1495401468e+01    0.4232783    0.2994789  57.58 0.0008686181    1.380    0.275
        62 -10.0999     77.0147      6.8176   8.8399635810e+01   6.3858981887e+01    0.2571388    0.2334897  77.26  0.001432127    1.577    0.366
        63 -10.0704     23.0289      2.5562   1.0999238286e+02   7.2335754222e+01    0.3086719    0.1619065 -31.74  0.001719804    1.653    0.395
        64 -10.6663    206.0660      2.4288   6.1513793593e+01   3.2327588439e+01    0.4781687    0.2545052 -87.43  0.001957787    2.353    0.575
        65 -10.8722      2.7713      1.8624   1.2126629343e+02   7.4036358981e+01    0.3303257    0.1855085  -5.72   0.00202243    2.213    0.548
        66 -10.8532     81.4539    135.2609   1.2562054614e+02   3.7744303520e+01    0.4832238    0.3518871 -16.81  0.002413327    2.408    0.585
        67 -10.7593     47.7020    134.6034   1.3340684163e+02   4.1976100763e+01    0.2853898    0.1540751 -63.76  0.001117261    1.679    0.404
        68 -11.0123     72.0306    134.1174   1.2766018203e+02   3.9230691835e+01    0.3778624      0.25965 -34.43   0.00210565    2.143    0.533
        69 -11.5920     92.1316    130.9639   1.2242726648e+02   3.7099462210e+01    0.6275199    0.4207682 -49.30  0.003516502    1.572    0.364
        70 -10.0037     62.3151    132.2334   1.2969087523e+02   4.0825111387e+01    0.2854903    0.1486602 -62.02   0.00154572    1.762    0.432
        71  -9.4323    106.8888    131.1322   1.1898842960e+02   3.4778343069e+01    0.1874375    0.1615594  82.21 0.0003510637    1.177    0.150
        72 -10.9976     79.6816    127.4319   1.2482869127e+02   3.9603666902e+01    0.5665216    0.3466541 -19.49  0.002210567    4.462    0.776
        73 -10.5809    239.9848    123.5292   9.0612079968e+01   9.9958820846e+00    0.4951107    0.1806941 -21.24   0.00184039    3.025    0.669
        74 -11.0986     55.3657    123.1057   1.3013493116e+02   4.3554590883e+01    0.5433618    0.3295297  29.71  0.001929897    1.987    0.497
        75 -10.5265     45.7011    120.4300   1.3217559885e+02   4.5169632539e+01    0.3082904    0.2065596  83.56  0.001182065    1.445    0.308
        76 -10.1671     18.6793    124.7324   1.3919157902e+02   4.6708435714e+01    0.2211403    0.1156073 -71.47 0.0006034903    1.563    0.360
        77 -10.8143      2.9467    123.3531   1.4274087777e+02   4.8129630795e+01    0.3801065      0.24587 -66.23  0.001874086    1.445    0.308
        78 -11.8839    105.0066    120.7737   1.1748689788e+02   3.7176095848e+01     0.492755    0.4664904  85.05   0.00246989    1.009    0.008
        79 -10.1709     93.2470    123.8843   1.2093271742e+02   3.8387883808e+01    0.1951797    0.1634855  87.38 0.0004313845    1.201    0.167
        80 -10.8704     34.5047    119.9926   1.3489880071e+02   4.6356840513e+01    0.2509429    0.1773269  85.72 0.0007832865    1.244    0.196
        81  -9.4398    221.0404    120.5106   9.3031782881e+01   1.4198441927e+01    0.2030538    0.1311993  46.75 0.0004889261    1.539    0.350
        82  -9.4366    148.7835    119.4359   1.0698661016e+02   2.9427672122e+01    0.2045056    0.1282602  34.26 0.0009471512    1.698    0.411
        83 -10.5802     44.7565     85.0198   1.2693381594e+02   5.3043386996e+01    0.3365952    0.2810825 -77.83  0.002232444    1.080    0.074
        84 -10.5220     25.2080     86.6176   1.3309055098e+02   5.4441994104e+01    0.5672913    0.4130599  59.28  0.003763114    1.501    0.334
        85 -11.7720     34.3399     91.7271   1.3118005444e+02   5.2541010450e+01     1.812866    0.6847267 -81.15  0.006832575    3.727    0.732
        86 -11.7043     37.8551     86.1172   1.2921961222e+02   5.3469831683e+01    0.7217767    0.3864054  83.34   0.00202589    2.631    0.620
        87 -12.2822      9.9340     97.9634   1.3884681603e+02   5.3039496898e+01    0.9072545    0.5117753  63.77  0.005588143    1.830    0.454
        88 -12.0630      7.2787     88.6740   1.3859331376e+02   5.5226975866e+01    0.4723422    0.3716256 -73.64  0.001182346    1.093    0.085
        89 -11.5501     23.8212     98.6167   1.3512633652e+02   5.1900936561e+01    0.5243942    0.2551052 -64.75  0.001902028    1.641    0.390
        90 -10.8582     18.8782    106.1899   1.3733640062e+02   5.0631931468e+01     0.217801    0.1768883  79.86 0.0002877842    1.135    0.119
        91 -11.8445     20.5664     95.5021   1.3563967830e+02   5.2834387631e+01    0.4999762    0.3560815   6.11  0.003280392    2.053    0.513
        92 -11.7846     18.4873     90.5620   1.3560340278e+02   5.4073726440e+01     0.371139     0.247087 -77.95 0.0006690492    1.194    0.163
        93 -11.1619     21.5364    114.1911   1.3749669898e+02   4.8707460076e+01    0.2514773    0.2162196 -25.37  0.001004157    1.637    0.389
        94 -11.6299     28.2316    113.0482   1.3568210609e+02   4.8401646834e+01    0.4208794    0.3306711  31.23  0.001706554    1.568    0.362
        95 -12.7697     26.3646    106.7619   1.3543636479e+02   4.9917619918e+01     1.041523    0.5822835 -26.80  0.005182313    3.428    0.708
        96  -9.8353     87.6804    114.5658   1.2060151350e+02   4.1172228183e+01    0.2545357    0.1776496  56.98  0.001399095    1.519    0.342
        97 -10.7027     67.0326    112.4833   1.2555424332e+02   4.4446079902e+01    0.4363276    0.2623563 -76.21  0.002307422    1.712    0.416
        98  -9.5709    113.8858    115.8920   1.1433046902e+02   3.6667977268e+01    0.1975925    0.1834431 -14.69 0.0003378791    1.223    0.183
        99  -9.2436    126.7948    114.1484   1.1084067550e+02   3.4685073705e+01    0.1865459     0.164023  -9.99 0.0005785159    1.314    0.239
       100 -10.5566    107.7223    112.5831   1.1514606957e+02   3.8402134576e+01    0.4913426    0.3030485 -76.03  0.002169227    2.389    0.581
       101 -10.9114    103.6860    108.4921   1.1528460264e+02   3.9927448598e+01    0.5338867    0.4325722 -13.86  0.002932739    1.628    0.386
       102 -11.7171      2.6487    112.4258   1.4201440764e+02   5.0416911584e+01    0.3906996    0.2443826  57.29 0.0009721219    1.553    0.356
       103 -10.7514      5.4086    108.8287   1.4104116167e+02   5.1001222119e+01    0.2089595     0.153573 -70.14 0.0006252454    1.224    0.183
       104 -10.0870     49.0826    112.4529   1.3022981496e+02   4.6535249756e+01    0.2418594    0.1793092 -70.24  0.001189405    1.163    0.140
       105 -10.9432    170.6962    110.1391   1.0004249412e+02   2.6514075434e+01    0.4666004    0.3718017  34.32  0.001734357    1.220    0.181
       106 -11.1095     79.7246    108.6397   1.2153507853e+02   4.3586312718e+01     0.596288    0.3641863  54.11  0.003093305    1.801    0.445
       107 -11.2824     86.1690    105.4487   1.1919975183e+02   4.3339773863e+01    0.3470704    0.3010627  12.07  0.001759376    1.441    0.306
       108 -11.7060      3.3503    104.9077   1.4123059471e+02   5.1962037326e+01    0.3285496    0.3051101 -81.31   0.00126978    1.289    0.224
       109  -9.7235    175.7645    106.7379   9.8139333584e+01   2.5984880994e+01    0.1965335    0.1789271 -79.89  0.001065316    1.367    0.268
       110 -10.6620    158.1485    105.0123   1.0144034296e+02   3.0098812517e+01    0.4688646    0.2863148 -17.56  0.001764604    2.266    0.559
       111 -10.0993    143.3322    105.6800   1.0494930954e+02   3.3077083881e+01    0.3019284    0.2949676 -13.23  0.001237159    1.019    0.019
       112 -10.6662    145.8500    100.5749   1.0307421173e+02   3.3510349070e+01    0.4642004    0.3587072   3.68  0.002286845    1.616    0.381
       113 -10.0623    248.0048    104.5079   8.4872152189e+01   1.0709813856e+01    0.1693533      0.12637 -87.47 0.0006506906    2.492    0.599
       114 -10.7340     48.6163    103.1155   1.2894279150e+02   4.8627190655e+01    0.2887561    0.2310837  19.33 0.0004518829    1.627    0.385
       115  -9.1777     60.6942    111.2672   1.2701160925e+02   4.5485380685e+01    0.1223534   0.08603384  73.80  0.000179752    1.532    0.347
       116 -10.5125     57.5912     97.2683   1.2544641619e+02   4.8921208684e+01    0.4088886    0.2345678 -65.60  0.002182041    1.542    0.351
       117 -11.1833     67.6120     97.3809   1.2264304173e+02   4.7669011763e+01    0.5982335    0.3077297 -52.47  0.002161428    1.765    0.433
       118  -9.4800    136.9026    100.0801   1.0504836987e+02   3.5448897321e+01    0.2823243    0.1813813  23.23  0.001215589    2.121    0.529
       119 -10.0830    210.9362     97.7900   8.9141515028e+01   1.9525611958e+01    0.3686368    0.2343984  28.92  0.001697163    1.669    0.401
       120 -10.0101     52.6715     96.6287   1.2672515474e+02   4.9621320348e+01    0.3388071    0.1350107 -58.71  0.001559016    2.088    0.521
       121  -9.5822     66.1971     73.4193   1.1769115914e+02   5.3121660942e+01    0.3393555    0.2270953 -82.89  0.001525472    2.009    0.502
       122  -9.6528     78.0962     96.8472   1.1959961493e+02   4.6370557177e+01    0.2606395    0.1693814 -50.41 0.0006947561    1.441    0.306
       123 -11.3008     89.7869     89.2671   1.1459020772e+02   4.6256868554e+01    0.6535556    0.3833999 -32.33   0.00291896    2.241    0.554
       124 -11.2608     81.9987     93.0355   1.1767060425e+02   4.6635130887e+01    0.5378528    0.3794004  73.66  0.001729212    1.841    0.457
       125  -9.5962     76.7821     92.6539   1.1906209094e+02   4.7469835929e+01    0.2422303    0.1854761  60.31 0.0003768943    1.461    0.316
       126 -11.6718     80.1500     82.4013   1.1567986336e+02   4.9212110425e+01    0.9280959    0.5837736 -78.28    0.0042434    2.272    0.560
       127 -11.4113     65.9119     81.8400   1.1982064980e+02   5.1311497078e+01     0.419388    0.3432315  36.37  0.001713041    1.396    0.284
       128 -11.4997     72.0591     79.5502   1.1740274413e+02   5.0990967456e+01    0.5928293    0.3337536 -49.45  0.002071913    1.585    0.369
       129  -9.4940    140.5239     96.2705   1.0319627313e+02   3.5429326140e+01    0.2274682    0.1741662   5.64 0.0008441377    1.664    0.399
       130  -9.7652    138.8912     93.0043   1.0271315236e+02   3.6387771122e+01    0.2826622    0.2021257  24.96 0.0009587719    1.658    0.397
       131 -10.7265    122.6789     94.3110   1.0705736100e+02   3.9399828215e+01    0.2529513     0.233494 -82.78 0.0007444029    1.182    0.154
       132 -10.3249    126.2559     93.3894   1.0591468810e+02   3.8883017319e+01    0.3852187    0.2667021  52.11  0.001410565    1.535    0.349
       133 -10.6044     99.7723     91.0345   1.1225463330e+02   4.4242942268e+01    0.6521239     0.329717  51.40  0.002590394    2.311    0.567
       134 -10.2755    104.7612     88.2336   1.1017887149e+02   4.3962327597e+01    0.3206879    0.2240448  41.55  0.001633613    1.515    0.340
       135 -11.3479    120.6946     85.7935   1.0528091148e+02   4.1481250803e+01     0.550247    0.3820648  64.73  0.001658854    1.852    0.460
       136 -10.3930    117.4769     92.9735   1.0804054542e+02   4.0662951731e+01    0.3654474    0.2606866  27.01  0.001237208    1.669    0.401
       137 -10.1452    153.2551     91.5961   9.8980509743e+01   3.3565013982e+01    0.4511311    0.2496355  37.09  0.001864699    1.971    0.493
       138 -10.0737     48.5879     90.4703   1.2679846004e+02   5.1431145470e+01    0.3368682    0.2198756  65.94  0.001879914    1.824    0.452
       139  -9.7266    183.8087     87.5899   9.1403331330e+01   2.7281915567e+01    0.3014638     0.212014 -45.73  0.001405346    1.578    0.366
       140 -10.0485    104.7288     75.2047   1.0658799819e+02   4.6646257413e+01    0.4645292    0.2982556 -39.75  0.001371664    1.491    0.329
       141 -11.1141    113.4380     83.1945   1.0647382575e+02   4.3402220253e+01    0.5492455    0.3118894 -41.91  0.002098726    1.695    0.410
       142 -11.3423    108.6925     80.9043   1.0711964494e+02   4.4756326497e+01     0.392445    0.3331091 -39.62  0.001433626    1.123    0.109
       143  -9.2828     67.5891     88.1697   1.2073868990e+02   4.9699542142e+01     0.193965    0.1043505 -48.75 0.0009426503    1.728    0.421
       144  -9.8429    212.1940     87.0904   8.6078937543e+01   2.0752909080e+01    0.2282128    0.1823177  11.45  0.000510483    1.240    0.194
       145 -10.6240    164.4765     83.2397   9.4136358949e+01   3.2494919324e+01    0.4280655    0.3791063  84.56  0.001748583    1.384    0.277
       146 -11.4447    143.3185     83.6011   9.9028202603e+01   3.7198995931e+01    0.4491914    0.3526028 -12.30  0.001730799    1.431    0.301
       147 -10.4405    127.2301     83.4402   1.0293911066e+02   4.0633951479e+01    0.3544096    0.2592901  56.02  0.001698681    1.514    0.340
       148  -9.1841     51.2858     83.3433   1.2461534316e+02   5.2727137153e+01    0.1290805   0.08485876 -40.91 0.0005114322    1.643    0.391
       149  -9.7072    240.0167     82.4781   8.0486412564e+01   1.5094397661e+01    0.2123252   0.09786703  34.01 0.0008102197    2.583    0.613
       150 -11.5777     52.8438     76.6838   1.2271247717e+02   5.4034875053e+01    0.5387892    0.3557527 -72.98  0.002076778    1.501    0.334
       151 -10.9223     58.4425     78.1552   1.2127932220e+02   5.3056779946e+01    0.4142084    0.3049349 -89.61  0.001703608    1.592    0.372
       152 -10.0567    120.4267     79.8228   1.0365781819e+02   4.2713733237e+01    0.4477746    0.1924066  44.27  0.001714371    2.426    0.588
       153  -9.2742     37.8058     79.1600   1.2798028023e+02   5.5027923650e+01    0.1750672    0.1223368 -50.30  0.001068278    1.336    0.251
       154 -11.9745     13.6493     74.8575   1.3491129981e+02   5.7876629974e+01    0.5938408    0.4456585 -10.45  0.003939477    1.852    0.460
       155 -11.0952     14.1225     66.7113   1.3349108297e+02   5.9654208443e+01    0.3061295    0.2410769 -79.06 0.0009306351    1.104    0.094
       156 -12.1858      2.1997     70.8050   1.3800860616e+02   5.9427620424e+01    0.6779892    0.1541027 -69.64  0.002892674    2.877    0.652
       157 -12.4158     74.6688     50.3434   1.0803599594e+02   5.6789619103e+01     1.132715    0.7405096 -53.33  0.005825607    1.499    0.333
       158 -10.5738     93.7033     76.1467   1.1002655100e+02   4.8395389164e+01    0.4953361    0.4287822  -7.08  0.001979413    1.329    0.248
       159 -11.9523     85.8559     73.5316   1.1162504478e+02   5.0233151570e+01    0.7181622    0.5957682 -63.06  0.004039221    1.216    0.178
       160 -11.5315     78.7221     67.1468   1.1200836355e+02   5.2694119504e+01    0.6508453    0.4825038 -88.84   0.00312622    1.932    0.482
       161 -12.5331      9.4359     61.4823   1.3423299817e+02   6.1095079663e+01    0.7308223    0.4875471 -60.87   0.00489002    1.180    0.152
       162 -10.6134    242.1791     76.1888   7.8527954050e+01   1.5391877541e+01    0.1931136    0.1672368 -48.48  0.001083171    1.356    0.263
       163 -12.0330    186.3598     70.1564   8.5851171475e+01   2.9364911997e+01    0.8842354    0.6626831 -24.31  0.003533277    1.291    0.226
       164  -9.9429     46.5863     72.9971   1.2390723991e+02   5.5535016141e+01    0.3122713    0.1322154 -64.35  0.001204855    2.123    0.529
       165 -11.4460     40.3757     71.7150   1.2566518485e+02   5.6446049645e+01     0.508921    0.2910937 -47.50  0.002795657    1.610    0.379
       166 -11.1561     32.9368     71.8211   1.2813869447e+02   5.7104814468e+01    0.3990182    0.2530334  27.82  0.001918489    1.938    0.484
       167  -9.5094     61.4834     72.9853   1.1908477518e+02   5.3823242848e+01    0.2322702     0.168751  55.10 0.0007427008    1.646    0.393
       168 -10.1580    162.0120     70.3325   9.0794724616e+01   3.5238303787e+01    0.3798915    0.2818872  70.74  0.001749292    1.690    0.408
       169 -11.5829    122.4992     67.9800   9.9506379799e+01   4.4573686608e+01     0.647806    0.4474586  38.46  0.002108954    1.530    0.347
       170 -10.3876    129.3320     65.2124   9.6836765726e+01   4.3629704979e+01    0.5865347    0.3622379 -62.64  0.002299525    2.544    0.607
       171 -10.1322    207.2324     68.4529   8.1678810136e+01   2.4516237455e+01    0.4568544    0.1948264  45.74  0.001705492    2.347    0.574
       172 -10.4287    172.1743     67.8199   8.7896024855e+01   3.3190403036e+01    0.4090741    0.3189264 -38.97  0.001486889    1.307    0.235
       173 -10.7808     27.1460     47.4366   1.2473058987e+02   6.2976366860e+01    0.3906995    0.2209665 -15.50  0.001123716    2.714    0.632
       174 -10.1273     20.6389     47.8009   1.2736214471e+02   6.3393430647e+01     0.307647    0.2042567 -52.55  0.001654125    1.203    0.169
       175  -9.9553     60.6776     68.4240   1.1818790691e+02   5.4923035283e+01    0.2365778    0.1924822 -85.35  0.001146631    1.396    0.284
       176 -11.0752     58.0719     61.8399   1.1729458757e+02   5.6678998021e+01    0.5970312    0.4033317  87.66  0.001131783    2.310    0.567
       177 -11.5519     25.4789     55.9860   1.2741853741e+02   6.1235281232e+01    0.8718974    0.6912264   6.06  0.005907565    1.627    0.385
       178 -10.7461     51.3648     46.2220   1.1503581848e+02   6.0819922685e+01    0.4923079    0.3592724 -76.92  0.001161644    1.776    0.437
       179 -11.3949     32.6808     42.3620   1.2113156147e+02   6.3594621513e+01    0.6748381      0.50968  56.12  0.002332428    1.773    0.436
       180 -11.5047     40.2171     55.9852   1.2202163638e+02   5.9937996331e+01    0.6002889    0.4208849  76.54  0.003065202    1.994    0.499
       181 -11.6094     51.4783     61.4893   1.1946909335e+02   5.7538513756e+01    0.4730334    0.2943979 -73.17 0.0006967467    1.846    0.458
       182 -11.3667     46.2456     58.0740   1.2039993794e+02   5.8861767791e+01    0.5877945     0.322492 -61.07  0.003049131    1.600    0.375
       183 -10.3958    142.9395    249.0548   1.2743614660e+02   1.0892284894e+01    0.1528926    0.1051238  24.19  0.001144845    1.728    0.421
       184 -10.7864     60.8954     36.7942   1.0809753874e+02   6.1499506534e+01    0.3278335    0.1898849 -46.53 0.0009338721    1.498    0.332
       185 -11.6866     46.2322     48.9733   1.1782797909e+02   6.0826033435e+01    0.4485998    0.3364039 -25.79  0.001285858    1.449    0.310
       186 -12.5052     41.8207     45.4791   1.1845506865e+02   6.2040992211e+01    0.2983192    0.2807847 -32.05 0.0003201168    1.171    0.146
       187 -11.5654    219.5178     66.0946   7.9057725979e+01   2.1873571244e+01    0.6654509    0.4031473  54.68  0.002244444    1.705    0.414
       188 -10.3409    204.5040     63.8262   8.0772377322e+01   2.5813808403e+01     0.293623    0.2158794  25.83  0.001402984    1.432    0.302
       189 -10.9881     87.5541     56.7454   1.0596323080e+02   5.3416344462e+01    0.5040118    0.2312601 -42.68  0.001384622    1.972    0.493
       190 -11.2067     92.0146     62.3456   1.0639840667e+02   5.1524787807e+01    0.3795268    0.3626432 -26.95  0.001205439    1.059    0.056
       191 -10.9615     91.2893     57.9662   1.0519708587e+02   5.2529064941e+01    0.3662792    0.3310609  12.32   0.00130617    1.189    0.159
       192  -9.9106    167.7376     63.0604   8.7301967238e+01   3.5021598875e+01    0.2507984    0.2145725  49.74 0.0007231932    1.199    0.166
       193  -9.4465    242.6178    245.7735   1.1204557315e+02  -2.6514380062e+00    0.1129328   0.08887097 -21.50 0.0009494201    1.745    0.427
       194 -10.8548    113.1323     50.0778   9.5969997553e+01   4.9820975286e+01    0.6938348     0.581165   7.85  0.003679842    1.270    0.213
       195 -12.6537    117.2381     42.7604   9.2116036954e+01   5.0203313162e+01    0.9965618    0.6713933  72.92  0.003618638    2.266    0.559
       196 -13.0584    120.4550     39.0425   8.9825878676e+01   5.0095722115e+01    0.8143862    0.7031016 -69.61  0.001255561    1.474    0.322
       197 -10.1087     98.5604     62.3401   1.0441835192e+02   5.0361209026e+01    0.2653741    0.2416808  -5.38  0.001522164    1.141    0.124
       198  -9.7931     84.7582     62.4518   1.0868706240e+02   5.2723443198e+01    0.2742186    0.1796412 -47.16  0.001140496    1.377    0.274
       199 -10.6203    159.6355     61.5934   8.8528709625e+01   3.7232305591e+01    0.4710797    0.2670035  40.18  0.001932265    1.852    0.460
       200  -9.8056    147.6131     60.5765   9.0865913881e+01   4.0281325128e+01    0.3709065    0.1540716  55.60  0.001295803    2.621    0.618
       201 -11.1412    136.4200     55.8780   9.1930903730e+01   4.3684216990e+01    0.6934392    0.5553226   5.23  0.002860157    1.371    0.270
       202 -10.3688    145.2959     52.1443   8.8533894309e+01   4.2212242090e+01    0.4017332     0.358585   2.07  0.001822534    1.097    0.089
       203 -11.5988    145.8925     46.0293   8.6240175565e+01   4.3025613886e+01    0.7622018    0.3991057 -26.20  0.002453775    1.906    0.475
       204 -10.6680     21.0909     65.2100   1.3085866125e+02   5.9517535428e+01    0.1891808    0.1609951 -70.30 0.0005522545    1.088    0.081
       205 -10.7209    157.4623     56.5429   8.7331434341e+01   3.8563809112e+01    0.4532011    0.2728568  46.98 0.0007996121    1.655    0.396
       206 -11.1738    156.6733     53.3221   8.6416559403e+01   3.9259559570e+01    0.7296684     0.435218 -38.42  0.003086252    1.668    0.401
       207  -9.6596      2.1885     56.0665   1.3591810574e+02   6.2669765032e+01    0.1731163    0.1168659 -58.65 0.0005618475    1.202    0.168
       208  -9.8442     67.0688     54.9692   1.1216762703e+02   5.6956896806e+01    0.2047874    0.1773805 -48.30 0.0005512599    1.048    0.046
       209 -10.3166    233.2691     45.1568   7.1201668065e+01   2.1130173704e+01     0.399192    0.2696371  58.20  0.001979007    1.565    0.361
       210 -10.5316    231.7089     39.4388   6.9764918938e+01   2.2148640891e+01    0.4374563    0.2544848 -52.75  0.001602979    2.058    0.514
       211  -9.0537    216.2492     51.9763   7.5453308030e+01   2.4459776918e+01    0.1956893    0.1199829 -23.75 0.0006623729    1.529    0.346
       212 -11.0073    202.3200     47.7685   7.6261198330e+01   2.8475034089e+01    0.7350587    0.3637643 -19.68  0.002783239    2.049    0.512
       213 -11.0703    173.8268     48.0392   8.1197271842e+01   3.5725680314e+01    0.5002732    0.4104596  76.90  0.001752455    1.436    0.304
       214  -9.4493    198.1463     62.5033   8.1440869466e+01   2.7564314380e+01    0.2595564    0.1969713 -43.53 0.0008610394    1.410    0.291
       215  -9.3538      3.6136     48.9745   1.3419013273e+02   6.4156656953e+01    0.1521184    0.1434513 -13.75  0.001211555    1.375    0.273
       216 -10.0495     90.5019     47.9954   1.0197662714e+02   5.4608311778e+01    0.2431028    0.2140619  41.19 0.0005728123    1.265    0.210
       217  -9.7013     14.1488     46.5008   1.2960634394e+02   6.4112703871e+01    0.2633539   0.09530314 -52.70  0.001297733    2.032    0.508
       218  -9.6262    193.2737     45.8547   7.7092109689e+01   3.1029415872e+01    0.2838199    0.2043097 -81.83  0.001111616    1.916    0.478
       219 -10.0503    177.2897     43.7075   7.9115570513e+01   3.5430563434e+01    0.3624262    0.2846329 -66.20  0.001713667    1.590    0.371
       220 -10.3826    105.9773     62.7061   1.0236434733e+02   4.8899983424e+01    0.3757552    0.2566886  79.01  0.001573186    2.638    0.621
       221 -10.1243    100.7368     43.7545   9.7219703893e+01   5.3463397584e+01    0.4523066    0.3248567 -79.12  0.001985119    2.500    0.600
       222 -11.2587     93.8052     41.2474   9.8391426444e+01   5.5247507262e+01    0.5040089    0.3356109  40.82  0.001777663    1.618    0.382
       223 -11.9846    156.3660     41.8437   8.2489979579e+01   4.1042345372e+01    0.6969602    0.4498732  70.44  0.001399197    1.907    0.476
       224 -10.9983    153.4470     36.3242   8.1098150420e+01   4.2552336438e+01    0.3817149    0.3318256 -68.83 0.0006905909    1.384    0.278
       225  -9.9776    139.1412     43.7507   8.6963364277e+01   4.5009117163e+01    0.3334829    0.1872283  46.02  0.001397158    1.785    0.440
       226  -9.6718      4.3762     44.0357   1.3295537307e+02   6.5197897050e+01    0.3231521    0.1951617 -24.99 0.0009076407    2.034    0.508
       227  -9.0143    188.7869     42.0121   7.6586855277e+01   3.2678968875e+01    0.2036626    0.1195336 -23.90 0.0004451463    1.646    0.392
       228  -9.7277     18.2873     41.8360   1.2683566629e+02   6.4855124878e+01    0.2460798    0.1411599 -13.47  0.001345074    2.494    0.599
       229 -11.1758     81.4095     39.3535   1.0170720818e+02   5.7823152761e+01    0.4296879    0.3502901  67.18    0.0015029    1.702    0.413
       230 -10.8549     77.7894     34.4335   1.0099043460e+02   5.9339466941e+01     0.392334    0.2891716  41.91  0.001366111    1.537    0.349
       231 -10.6628     82.0511     31.5285   9.8314035454e+01   5.9117813024e+01    0.4663242     0.385186  42.03  0.002679825    1.372    0.271
       232  -9.4287    218.1593     38.8659   7.1296917468e+01   2.5549644984e+01    0.2275728    0.1968015 -47.66  0.000897056    1.221    0.181
       233 -10.7292    176.9164     37.3490   7.7034141274e+01   3.6360024314e+01    0.4240893    0.2945395 -12.02  0.001940039    1.479    0.324
       234 -10.9148    172.5239     33.6557   7.6527217495e+01   3.7974489766e+01    0.4723527    0.2930422  55.99   0.00183968    1.591    0.371
       235 -10.2610    175.8705     29.3743   7.4467262649e+01   3.7618427705e+01    0.3492281    0.2956152  12.90  0.001087195    1.184    0.156
       236 -11.6304    182.4760     25.1869   7.1971762261e+01   3.6355569976e+01     0.640696    0.3158315  48.23  0.002289853    1.975    0.494
       237  -9.5776    174.6909    246.6500   1.2231347113e+02   6.7513659837e+00     0.101005     0.064824  21.77 6.587519e-05    1.713    0.416
       238  -9.9896    133.6356     37.4550   8.5906939661e+01   4.7282648965e+01    0.4255335    0.3221324 -66.28  0.001981346    1.808    0.447
       239 -10.7477     22.7913     36.5352   1.2351290246e+02   6.5663984386e+01     0.351581    0.2543205  68.45  0.001955546    1.986    0.497
       240  -9.6623     17.9353     34.4461   1.2499678134e+02   6.6464263393e+01    0.2002599     0.141388 -75.39 0.0004222533    1.465    0.318
       241 -10.2305    206.7434     36.9985   7.2272770566e+01   2.8657845083e+01    0.3352935    0.2417849 -38.88 0.0008915064    1.388    0.280
       242  -9.6699    189.3271     37.9926   7.5187976522e+01   3.3043257898e+01    0.2190866    0.1834767 -13.04 0.0003900302    1.158    0.137
       243 -10.8125      5.2230     35.9455   1.3086985936e+02   6.6908068310e+01    0.2921948    0.2657553 -80.97   0.00227618    1.259    0.206
       244  -8.3738      7.2400     30.8756   1.2873971275e+02   6.7887268045e+01    0.3894061    0.1974613  19.05  0.002281737    2.534    0.605
       245 -11.9786    241.1579     50.3444   7.1680184601e+01   1.8681254740e+01    0.7001925    0.4142617  70.14  0.001700667    2.042    0.510
       246  -8.9582     13.3246     37.6857   1.2784567205e+02   6.6075868868e+01    0.1111173   0.08253321  82.24 0.0005929722    1.664    0.399
       247  -9.9866    199.0201    244.4983   1.1835059941e+02   3.5171484308e+00    0.1657689   0.07459354  41.68  0.001034687    1.603    0.376
       248 -11.0209    127.4722    242.8801   1.2926668290e+02   1.3700225978e+01     0.233473     0.173582  82.21  0.001879146    1.670    0.401
       249 -10.2310    150.7925    237.2175   1.2504063955e+02   1.1158164403e+01    0.1625814    0.1067227  17.45  0.001069602    2.165    0.538
       250  -9.4373     15.4405    233.3156   1.4576983094e+02   2.7748856965e+01    0.1456456   0.06891373 -78.62  0.001131697    2.078    0.519
       251 -10.1993    197.7729    231.8019   1.1697149647e+02   4.9161035847e+00    0.1795357   0.09270842  18.13 0.0009536645    2.789    0.641
       252 -10.3901    242.5079    231.0165   1.1003547874e+02  -1.4927658585e+00    0.1836828     0.130533  65.40  0.001053319    3.669    0.727
       253 -11.4966    105.6708     32.9646   9.1476378324e+01   5.4285241985e+01    0.6121392    0.3597513  -2.66  0.001428067    2.607    0.616
       254  -9.1701    189.8521    229.8324   1.1797003105e+02   6.2878310244e+00    0.1406148    0.1026304  45.77 0.0004601589    1.275    0.215
       255  -9.9068    248.5841     33.2796   6.6174333980e+01   1.8817139740e+01    0.2857161    0.1113263 -27.35  0.001143001    2.168    0.539
       256 -10.2967    190.0678     32.8523   7.3384073246e+01   3.3470883288e+01     0.345359    0.3252944  66.63 0.0009586922    1.130    0.115
       257 -10.3611    189.2305     27.9584   7.1889896062e+01   3.4257404377e+01    0.4441094    0.2940152   2.85  0.001344389    1.705    0.413
       258 -10.1612    160.5876     33.1206   7.8519217536e+01   4.1149474033e+01    0.3213252    0.2980134  13.89  0.000451182    1.024    0.023
       259  -9.8393    247.5037    227.4800   1.0878753786e+02  -1.9128555857e+00     0.108044   0.07447593  23.98 0.0001377008    1.009    0.009
       260 -11.2988    241.0034     30.6563   6.6239748539e+01   2.0863198609e+01    0.5562801    0.3321907   0.18  0.002520334    1.930    0.482
       261  -9.2583    182.6869     32.0335   7.4266782124e+01   3.5506046025e+01    0.2130715    0.1906655 -15.84 0.0004284738    1.084    0.077
       262 -10.4564    143.3588     24.8786   7.8850691767e+01   4.6616166007e+01    0.5976599    0.3927155  38.99  0.002733382    1.520    0.342
       263  -9.8621      9.1258    227.1864   1.4648695467e+02   2.9201117374e+01    0.1228241   0.09333667  66.62 0.0003948167    1.209    0.173
       264  -9.1897     23.4856    231.5445   1.4452742786e+02   2.7268831327e+01   0.09164021    0.0605205  63.59 0.0006266154    1.013    0.013
       265  -9.9073     60.0090     24.3121   1.0331446202e+02   6.3966338513e+01    0.4504025    0.2372623 -31.37  0.002158298    1.792    0.442
       266 -11.7629     47.3783     30.6906   1.1111030348e+02   6.4450863162e+01    0.5900697    0.3280004  23.33  0.002494922    2.278    0.561
       267 -10.9866     57.3770     30.6128   1.0702933313e+02   6.3176801151e+01    0.6094986    0.3695126  12.39  0.002947286    2.387    0.581
       268 -10.9305    198.2076     28.8999   7.0905751245e+01   3.1793978176e+01    0.4662697    0.3496388  26.76   0.00155953    1.407    0.289
       269 -10.3732    199.5184     24.9868   6.9466538913e+01   3.1880529661e+01    0.2954695    0.2429238  32.81 0.0006328799    1.232    0.188
       270 -11.1812    140.9062     20.3959   7.7584085811e+01   4.7787385799e+01    0.8189237    0.2803674  46.98  0.002772685    2.780    0.640
       271 -10.0186      9.8722    217.6806   1.4605709003e+02   3.0566854783e+01    0.1418501   0.09786293  88.36 0.0005527675    1.319    0.242
       272  -9.6344    166.5003    213.3266   1.1968801413e+02   1.1705409220e+01    0.2360165    0.1569104 -89.95  0.001084136    3.610    0.723
       273  -9.5300    152.7980    207.8153   1.2133048635e+02   1.4528546808e+01    0.1552529    0.1155075  57.21 0.0007922368    1.341    0.254
       274  -9.9307    238.9799    204.7321   1.0659449598e+02   1.3027119339e+00    0.1751656    0.1399218 -27.50  0.001279217    1.652    0.395
       275 -10.4912      4.1748    204.7083   1.4648875859e+02   3.3083785104e+01     0.171574    0.1044675 -85.41  0.001119917    1.461    0.316
       276 -10.0010    245.4859    200.9440   1.0497374834e+02   6.5684392115e-01    0.1497734    0.1000806 -14.64 0.0005250772    1.534    0.348
       277  -9.3069    230.5615     30.5042   6.7333285060e+01   2.3396714017e+01    0.2231736    0.1887328  39.83  0.000516165    1.226    0.185
       278  -9.9498    230.4136     27.1901   6.6394066393e+01   2.3779536038e+01    0.3036444     0.216026 -37.68  0.001536298    1.345    0.257
       279 -10.0291    158.2148     20.5565   7.4319478897e+01   4.3296510536e+01    0.5912808    0.2343927  58.64  0.002150082    2.367    0.578
       280 -10.2167    233.9721    196.9783   1.0611334441e+02   2.8258350167e+00    0.2699724    0.1830322   0.85   0.00124648    1.440    0.306
       281 -10.3089    156.9424     25.0025   7.6219805748e+01   4.3109927686e+01    0.3452685    0.2550567  68.97 0.0006246722    1.486    0.327
       282 -10.6454    250.3662     25.1392   6.3796537283e+01   1.9230303132e+01    0.3115696     0.166596 -18.62 0.0006378692    1.739    0.425
       283 -11.1908    214.6844     23.4838   6.7085212861e+01   2.8109229171e+01    0.4749953    0.3679334  -0.31  0.001824621    1.329    0.247
       284 -12.3842      5.4069    185.7649   1.4557109673e+02   3.6130297510e+01     0.662663    0.3430514  78.01   0.00475082    1.500    0.333
       285 -10.6692     17.1501    192.6505   1.4387215748e+02   3.3962794226e+01    0.1818304    0.1282971  59.68 0.0005848971    1.148    0.129
       286  -9.7793    170.0228    191.3204   1.1602156772e+02   1.3991398732e+01    0.3115591    0.1504149  28.16  0.001435559    2.641    0.621
       287 -11.7672     70.1753     32.6423   1.0298244277e+02   6.0908552211e+01    0.4489451    0.3091094  29.42  0.002427103    1.637    0.389
       288  -9.7253    213.3396    181.3186   1.0682582626e+02   7.9113024320e+00    0.1300044   0.07953119  18.16 0.0003631871    1.711    0.415
       289  -9.1865     57.4652    175.0821   1.3537306816e+02   3.3008618642e+01    0.1492182   0.09454608 -76.58 0.0005311674    1.503    0.335
       290 -10.0355     51.9070    174.2712   1.3637900511e+02   3.3776562476e+01     0.204361    0.1211481  74.75  0.001097258    1.569    0.362
       291  -9.6322    248.1618    173.3468   9.9700797409e+01   2.9015606668e+00    0.2528632   0.08183532  38.54  0.001098051    2.625    0.619
       292 -10.1098     39.5967    173.2384   1.3866496741e+02   3.5262374564e+01    0.1394456   0.08407338 -68.65 0.0006202609    1.639    0.390
       293 -10.5825     35.0436    170.1631   1.3931551515e+02   3.6280802112e+01    0.1519953    0.1328538 -80.95  0.001245793    1.317    0.241
       294  -9.6941    223.2073     22.3728   6.5778272636e+01   2.6062316239e+01    0.2707438    0.2228614  81.46 0.0009357554    1.334    0.251
       295 -10.1033    220.9737     19.0520   6.5035879472e+01   2.6957081617e+01    0.2263171    0.2156956  -0.69 -0.002661949    1.031    0.030
       296  -9.9641      9.0173    155.9904   1.4347894967e+02   4.1230773099e+01    0.1974876    0.1253372  53.09  0.001214221    1.402    0.287
       297 -11.4481      9.1793    166.9420   1.4403382644e+02   3.9172260427e+01    0.4007188    0.2585738  81.89  0.002334885    1.174    0.148
       298 -11.7861     13.5858    159.1941   1.4276654324e+02   4.0259412261e+01    0.4509421     0.190092 -75.64  0.002082292    1.986    0.496
       299  -9.4068    198.1357    167.8316   1.0705673449e+02   1.2265064344e+01    0.1803278    0.1610577  34.76 0.0005636493    1.165    0.141
       300  -8.8271    149.3154    168.6680   1.1636802928e+02   2.0831699747e+01    0.1241196   0.09393178  73.68 0.0007046324    1.684    0.406
       301  -9.9776     39.8402    166.5022   1.3810652254e+02   3.6485825290e+01    0.1870362    0.1015042 -54.82  0.001098569    2.246    0.555
       302 -10.2029     18.6471    165.0770   1.4213529943e+02   3.8731461718e+01    0.1762012    0.1447396  48.98  0.001308763    1.360    0.265
       303  -9.9173    205.1134    163.2206   1.0495231933e+02   1.1602276976e+01    0.2192827    0.1770275  22.28 0.0006271427    1.059    0.056
       304  -9.6118    188.7958    164.1676   1.0807632514e+02   1.4461039182e+01    0.1812207    0.1381585  13.98 0.0007223868    1.346    0.257
       305 -10.3566     80.7920    160.0572   1.2910954896e+02   3.2942661401e+01    0.3284954    0.2158373  40.88  0.002036131    1.494    0.331
       306  -9.2740      1.7644     20.4468   1.2844131568e+02   7.0361193445e+01    0.1466815   0.09220472 -23.59   0.00094925    1.766    0.434
       307 -10.3404    246.5144    159.4515   9.7276581297e+01   4.6375004257e+00    0.2504197    0.1124785 -25.11  0.001222918    2.208    0.547
       308  -9.5009    145.6173     16.1610   7.4954226249e+01   4.7071178263e+01    0.2912461    0.2472738 -25.03 0.0003342422    1.180    0.153
       309  -9.7740    225.0921     16.8288   6.3943101823e+01   2.6137403624e+01    0.2235835    0.1870838 -55.24 0.0007731685    1.243    0.196
       310  -9.6555    191.8248     16.9062   6.7847328541e+01   3.4753430810e+01    0.2428993    0.1924894  25.98  0.001224984    1.301    0.231
       311  -9.0999    208.2757    160.6437   1.0389907966e+02   1.1357067610e+01    0.1141652     0.104076 -76.40 0.0003775549    1.651    0.394
       312  -8.9309    215.4753    158.4957   1.0222151303e+02   1.0307112975e+01    0.1316025    0.1080196  19.41 7.127973e-05    1.016    0.015
       313  -8.8056     27.4530     15.4686   1.1384728009e+02   6.9542229920e+01    0.1241298   0.09416472 -37.64 0.0001638356    1.020    0.020
       314  -9.9477    218.9855     12.8456   6.3389989323e+01   2.8059337870e+01    0.3575794    0.1701246  55.81  0.001506019    2.052    0.513
       315  -9.3527    224.3167    156.6951   1.0035106019e+02   8.9085451746e+00    0.1116727    0.1052452 -89.91 0.0005137039    1.626    0.385
       316 -10.8779    104.6961    153.2243   1.2310911068e+02   3.0833810494e+01    0.4153551    0.3324294 -79.93  0.002642985    1.294    0.227
       317 -10.1765     81.2053     19.3010   9.3156213917e+01   6.1281174272e+01    0.3373384    0.2099967  38.92  0.001016257    1.701    0.412
       318 -11.8596     30.6128    148.8835   1.3858124505e+02   4.0773620846e+01    0.7695855    0.2616196 -81.33  0.003377151    2.966    0.663
       319 -11.0789     33.2876    144.3973   1.3762707567e+02   4.1416899270e+01    0.3170712    0.1965744  89.85  0.001793114    1.387    0.279
       320 -12.2059     23.4089    136.3681   1.3910836899e+02   4.3923800833e+01    0.6668393    0.4679284  68.40  0.004791868    1.242    0.195
       321 -11.8172     29.8187    132.7246   1.3733548145e+02   4.4111084585e+01    0.4886179    0.2608906  89.11 0.0004523373    1.734    0.423
       322 -12.3898     20.8076    149.2728   1.4066693250e+02   4.1567194741e+01    0.5846809    0.3450389  37.46  0.003094198    1.793    0.442
       323 -11.7474     12.5107    138.4792   1.4166185869e+02   4.4378020058e+01    0.6632094    0.2603678  72.26  0.003370153    2.703    0.630
       324 -10.8058     14.1145    132.5592   1.4087833585e+02   4.5450577380e+01    0.2393681    0.1580579  78.54  0.001692538    1.242    0.195
       325 -10.7642     10.7710    127.1648   1.4122446499e+02   4.6804410165e+01    0.4276025    0.1419244 -61.02  0.001549266    2.671    0.626
       326 -12.0291      5.2284    147.4725   1.4375661729e+02   4.3152517291e+01    0.4967487    0.3239452 -70.94  0.002790828    1.451    0.311
       327 -11.0357      3.2271    141.4437   1.4382340767e+02   4.4473788462e+01    0.3130837    0.2212995  36.73  0.002109978    1.637    0.389
       328 -11.9191      3.8746    136.4962   1.4339102825e+02   4.5407489085e+01    0.2166088     0.162929 -85.53 0.0003953012    1.125    0.111
       329 -11.5865     62.6162    149.7672   1.3178458746e+02   3.7224293185e+01    0.4711627    0.3649081  52.49  0.002992278    1.233    0.189
       330 -11.3459     47.0447    146.4289   1.3482284075e+02   3.9636326124e+01    0.4096361    0.2357001 -79.68   0.00177086    1.573    0.364
       331  -9.5635    214.4860    151.5083   1.0099255110e+02   1.1383883931e+01    0.1331416    0.1119711  18.67 0.0001008955    1.006    0.006
       332 -10.2472     71.6130    151.1020   1.2998437186e+02   3.5859383945e+01    0.2261822    0.1714798  37.70  0.001485384    1.436    0.304
       333  -9.3244    239.9910    146.9751   9.5768439710e+01   7.1949214878e+00    0.1610447    0.1303284  11.43 0.0007835507    1.008    0.008
       334 -10.7319    249.5912    142.7450   9.3355249468e+01   5.9319875664e+00    0.5154687    0.1992588 -26.71  0.002274372    2.470    0.595
       335  -8.7397    108.6714    146.2567   1.2116596446e+02   3.1538826277e+01     0.126858   0.08974379  68.39 0.0001566999    1.558    0.358
       336 -10.1685    133.6776    139.9486   1.1458021388e+02   2.8513717949e+01    0.3069668    0.2624814  -7.79  0.001771979    1.439    0.305
       337  -9.9490     69.2774    140.5367   1.2917232277e+02   3.8265186296e+01    0.1425548    0.1161702  27.99 0.0003993632    1.518    0.341
