#   1 NUMBER                 Running object number                                     
#   2 MAG_AUTO               Kron-like elliptical aperture magnitude                    [mag]
#   3 X_IMAGE                Object position along x                                    [pixel]
#   4 Y_IMAGE                Object position along y                                    [pixel]
#   5 X_WORLD                Barycenter position along world x axis                     [deg]
#   6 Y_WORLD                Barycenter position along world y axis                     [deg]
#   7 A_WORLD                Profile RMS along major axis (world units)                 [deg]
#   8 B_WORLD                Profile RMS along minor axis (world units)                 [deg]
#   9 THETA_WORLD            Position angle (CCW/world-x)                               [deg]
#  10 FWHM_WORLD             FWHM assuming a gaussian core                              [deg]
#  11 ELONGATION             A_IMAGE/B_IMAGE                                           
#  12 ELLIPTICITY            1 - B_IMAGE/A_IMAGE                                       
         1 -11.4627     18.8432     29.4113   9.7779318141e+01   6.8248954532e+01    0.7760896    0.3591758 -21.57  0.003748812    2.538    0.606
         2 -10.7976     30.8452     13.4935   8.4863251599e+01   6.9739153511e+01    0.3986814    0.1533692 -31.11 0.0009651767    2.413    0.586
         3 -11.6111     11.6016      2.5072   8.9655689497e+01   7.3286619060e+01    0.3155443    0.1853222  -5.55  0.001121503    1.600    0.375
         4 -11.3535     22.7890      7.6600   8.6097456017e+01   7.1470113305e+01    0.3982307    0.2905367 -50.38  0.001816929    2.051    0.512
         5 -10.8487     17.3381      5.8364   8.8125397759e+01   7.2277628295e+01    0.2721371     0.192088 -40.47 0.0008749871    1.542    0.351
         6 -10.9824     62.0752     16.2333   7.2336022119e+01   6.4955597404e+01    0.4090972    0.2274091   9.88  0.001469631    2.302    0.566
         7 -11.6509     60.6752     23.5948   7.6311312612e+01   6.4185503579e+01    0.5039809    0.2408998 -41.98  0.002340076    2.358    0.576
         8 -12.4517    128.8240     22.3934   5.5295407281e+01   5.0213203526e+01    0.5245887    0.4462183  13.92   0.00113707    1.209    0.173
         9 -10.8894     20.8029     17.7377   9.1971232807e+01   7.0106519592e+01     0.492353    0.4169385 -19.67  0.003608461    1.217    0.178
        10 -10.3590    120.1729     21.6380   5.6959626197e+01   5.2376597864e+01    0.4716267    0.2448688  -7.28  0.001914778    2.636    0.621
        11 -11.7102    170.7802     19.6477   4.6858549320e+01   3.9924143097e+01      0.42244    0.2598072 -35.09 0.0002161317    1.685    0.406
        12 -11.1089    165.3546     17.0469   4.6864149666e+01   4.1593168894e+01    0.3403274    0.2888724  -5.48  0.001935076    1.359    0.264
        13 -11.5931      3.8931     18.1399   1.0115394525e+02   7.1306534779e+01    0.3527883    0.2435827  -1.77  0.002489411    1.455    0.313
        14 -10.7459     10.0263     15.7942   9.6852097401e+01   7.1310410451e+01    0.2663958    0.1460122 -25.78  0.000966008    1.540    0.351
        15 -10.6043     73.3147      2.2968   6.1553234167e+01   6.4468616151e+01    0.4707458    0.2214725 -38.51  0.002184647    2.741    0.635
        16 -10.8956     73.3053     10.8983   6.5681696578e+01   6.3597119240e+01    0.4422157    0.2702332  -3.26  0.001857304    1.730    0.422
        17 -11.9077     75.9025     15.8603   6.7101938701e+01   6.2542346208e+01    0.5133515    0.2774647  44.64  0.002596271    1.743    0.426
        18 -10.2681     76.7704     10.9450   6.4533563341e+01   6.2933892533e+01    0.2592986    0.1686613 -19.99   0.00143473    1.512    0.338
        19 -11.1555     40.0910     10.9868   7.9149117578e+01   6.8950602156e+01    0.2965932    0.2487204   7.31 0.0003385895    1.206    0.171
        20  -9.2546     42.4398      7.4974   7.6273605647e+01   6.9084731354e+01    0.1855875    0.1667149  66.46  0.001024461    2.079    0.519
        21 -11.0951     35.7870     14.9568   8.3158214985e+01   6.8940818707e+01    0.2609283    0.1681055   8.89 0.0003402949    1.509    0.337
        22 -11.0026     55.3106     13.2360   7.3595827388e+01   6.6436792055e+01    0.4451116    0.2197141 -40.24  0.001118024    2.382    0.580
        23 -10.2298     51.2778     10.4507   7.3895537884e+01   6.7415120213e+01    0.3930657    0.1876556  -1.54   0.00144887    4.099    0.756
        24 -11.1085    132.8368     11.0112   5.0333802330e+01   5.0405552767e+01    0.3450668    0.2639592   6.02  0.001073839    1.460    0.315
        25 -10.4561    118.2524     12.7498   5.3982691644e+01   5.3767012593e+01    0.2747341    0.2243838  13.90   0.00121814    1.242    0.195
        26 -10.0718    117.2987      8.6615   5.2605926050e+01   5.4379374850e+01    0.2240143    0.1812754 -32.60  0.001118663    1.391    0.281
        27 -10.3098    100.1854     12.3948   5.8224163774e+01   5.7938436501e+01    0.2555132    0.1789707  20.50 0.0007538822    1.416    0.294
        28 -12.0020    235.2506      9.6401   3.7149816239e+01   2.5218744509e+01    0.3555511    0.1971224  81.01  0.001807724    1.736    0.424
        29 -10.9892    164.9535      6.8650   4.3775875490e+01   4.2700556857e+01    0.4688685    0.1580291 -23.52  0.001764552    3.237    0.691
        30 -10.5809      6.6267      8.4098   9.5458806137e+01   7.2772802195e+01    0.1821399    0.1563095 -39.49 0.0006124342    1.453    0.312
        31 -11.5111    241.4747      2.7544   3.5141719836e+01   2.4564628652e+01    0.4065818    0.1982317 -71.90  0.001633025    2.115    0.527
        32 -11.1490    237.1512      2.1709   3.5324627798e+01   2.5587052658e+01    0.2745644    0.1918675 -42.90  0.001677645    1.335    0.251
        33 -10.9604    146.0886      7.5173   4.6786965902e+01   4.7423080715e+01    0.3141375    0.3023543  64.87  0.001350955    1.077    0.072
        34 -10.6165     91.6367      7.2589   5.8329595751e+01   6.0290859941e+01    0.2161546    0.1805019  38.35 0.0003676249    1.091    0.083
        35 -10.7635     93.4834      4.4785   5.6601943563e+01   6.0150005986e+01    0.2261289    0.1996169  13.21 9.028121e-05    1.101    0.091
        36 -10.3550    180.6242      7.2170   4.1885839200e+01   3.8688041212e+01    0.1935884    0.1614175  87.68  0.001134989    1.099    0.090
        37  -9.7297    122.1808      6.9131   5.0910987918e+01   5.3372408739e+01    0.2722935    0.1299181 -42.76  0.001161735    2.596    0.615
        38 -10.4952     81.1637      6.4269   6.1022622795e+01   6.2534500362e+01    0.2119467     0.161874  -5.19 5.921467e-05    1.258    0.205
        39  -9.3514     67.4742      7.5489   6.6117568863e+01   6.5035358515e+01     0.130984    0.1016328  14.92 5.378849e-05    1.075    0.070
        40 -10.5507    129.6808     11.3167   5.1054639586e+01   5.1151641109e+01     0.543468    0.2422571 -53.12  0.001900602    3.898    0.743
        41 -11.9593     31.6317      2.0694   7.8544319547e+01   7.1207907831e+01    0.2632298    0.1751992   8.34  0.000864643    1.311    0.237
        42 -10.9861     26.2307      2.9357   8.1786918358e+01   7.1747972298e+01    0.2275081    0.2000378  11.56  0.001326676    1.460    0.315
        43 -10.5068    112.8609      2.5729   5.1166972503e+01   5.5948880665e+01    0.2251168    0.1932212 -62.25 0.0005037371    1.458    0.314
        44  -9.4411      4.2462      3.3732   9.4442503438e+01   7.3737644309e+01    0.1263281   0.09209172  15.78 0.0004043455    1.542    0.352
        45  -9.4598    126.4892      2.4524   4.8402198558e+01   5.2708837986e+01     0.135765    0.1165988  49.14  0.000142341    1.012    0.012
        46  -9.5507     58.7448      9.6421   7.0436322178e+01   6.6318578528e+01     0.129622   0.08142152   5.30 0.0006963786    1.614    0.380
        47  -9.0788     20.2970      1.3255   8.4097499563e+01   7.2617295950e+01     0.119527   0.06865466 -10.46 0.0005092008    1.628    0.386
        48 -11.2303     18.2837    203.5795   1.2596798949e+02   2.9392155855e+01    0.3043441    0.1369379  50.76  0.001747955    1.874    0.466
        49 -10.5955    250.2337    246.7506   8.6430430107e+01  -1.1718567816e+01    0.2622893    0.1603297  12.43  0.001705288    1.364    0.267
        50 -10.0432     72.6128    250.1011   1.1932441708e+02   1.4145634013e+01    0.1691743     0.149774  23.91  0.001256361    1.625    0.385
        51 -12.1258     29.1265    248.4044   1.2663065311e+02   1.9717494130e+01    0.6962534    0.2442144  62.93  0.003648634    2.536    0.606
        52 -10.4326      5.5212    235.1998   1.2985185049e+02   2.4503739533e+01    0.2368119    0.1670513  76.33  0.001048845    1.070    0.065
        53 -12.3214     16.7742    238.2391   1.2814837761e+02   2.2840011724e+01    0.9587051    0.2389971  35.93  0.004518314    3.639    0.725
        54 -12.9989      5.9366    244.7579   1.3018218926e+02   2.2754004532e+01     0.883108    0.4083863  43.87  0.004677396    1.806    0.446
        55 -12.1121     22.0712    248.9182   1.2780163347e+02   2.0388581226e+01    0.3845319    0.2102297  48.61  0.001572611    1.457    0.314
        56 -11.0485     17.5024    247.4826   1.2846682550e+02   2.1117658181e+01    0.2163976    0.1769647  82.45 0.0008857822    1.310    0.237
        57 -10.3895    175.4523    202.7515   9.3004840119e+01   6.1180769950e+00    0.2493102    0.1977171  47.47 0.0005722932    1.276    0.216
        58  -9.2793    243.2894    202.3257   7.9863035580e+01  -5.3165984739e+00    0.1310747   0.08337849   2.22 0.0002837669    1.613    0.380
        59  -9.4217    223.5975    201.7891   8.3336083859e+01  -2.0962116453e+00    0.1649166    0.1187856 -41.62 0.0005100609    1.665    0.399
        60 -10.2478     19.6732    200.6637   1.2551610528e+02   2.9857460721e+01    0.2136477   0.08845519 -71.64 0.0009103777    2.093    0.522
        61  -9.6510     34.3778    201.3786   1.2269411155e+02   2.8185545486e+01    0.1458697    0.1249965 -57.86  0.000992939    1.522    0.343
        62 -10.0651    215.6529    194.8171   8.3512343768e+01   2.9793071278e-01    0.2095842    0.1527715  -7.52 0.0006085612    1.388    0.279
        63  -9.3372    211.3997    188.3856   8.3082504665e+01   2.0631839386e+00    0.2583601    0.1154495 -24.55  0.000954915    3.123    0.680
        64  -9.5248      1.5080    188.4386   1.2827230442e+02   3.4051819294e+01    0.1122748   0.08268806  81.77 0.0002164048    1.014    0.014
        65 -10.8174     16.5055    183.5053   1.2497251983e+02   3.3801916749e+01    0.2705386    0.1679645  89.90  0.001708389    1.298    0.230
        66 -10.4723     15.3217    180.6843   1.2501390448e+02   3.4523658330e+01      0.22889    0.1539275  65.84 0.0008998906    1.279    0.218
        67 -10.0196    167.1846    183.6189   9.1270150228e+01   1.1124631209e+01    0.2103346    0.1265885  31.45 0.0008362716    1.691    0.409
        68  -9.5173     58.5084    182.4551   1.1582625011e+02   2.9461715504e+01    0.1279786    0.1092081  82.14 0.0002689522    1.030    0.029
        69  -9.3316      1.5589    180.4650   1.2779966513e+02   3.5739636919e+01    0.1145997   0.08342795  83.05  0.000193813    1.015    0.015
        70 -10.0846    244.4025    178.3075   7.4951600387e+01  -2.0596938390e+00    0.2457512    0.1140703 -28.49  0.001104917    2.075    0.518
        71 -10.4555    224.0661    178.4351   7.8662144825e+01   1.4109213139e+00    0.2391937    0.1863881 -33.53  0.000453805    1.314    0.239
        72 -10.0684     46.4492    177.6151   1.1801269993e+02   3.2015202134e+01    0.2295718    0.1546484  36.03  0.001338225    1.625    0.384
        73  -8.9722     36.3293    178.3153   1.2033126772e+02   3.2982702235e+01    0.1160377   0.08812886 -47.81 0.0007045269    1.678    0.404
        74  -9.4064     70.1739    177.6202   1.1258546367e+02   2.9017685597e+01     0.163808     0.126505  24.04 0.0004896218    1.636    0.389
        75  -9.9268    200.5584    176.2703   8.2796059324e+01   6.0957609948e+00    0.1977358    0.1301318 -24.06 0.0009457869    1.629    0.386
        76 -11.0940     18.0548    173.1236   1.2386423113e+02   3.5945753806e+01     0.355497    0.1862446  70.61  0.001956159    1.809    0.447
        77 -11.9493     36.2913    163.0336   1.1881821944e+02   3.6480412337e+01    0.5680472    0.4766186 -82.35  0.003765978    1.084    0.077
        78 -11.8165     36.9247    157.8207   1.1810052078e+02   3.7633072261e+01    0.2362908    0.1821122 -84.19 0.0002809973    1.081    0.075
        79  -9.6002     67.1864    165.1638   1.1165278579e+02   3.2305688598e+01    0.1941815    0.1419162  71.66 0.0009139756    1.357    0.263
        80 -11.6564     51.1582    162.8792   1.1525121911e+02   3.4866805727e+01     0.600201    0.4412054  82.86  0.003516366    1.262    0.208
        81 -11.0742     44.7392    162.1018   1.1670531184e+02   3.5787466588e+01    0.3566501     0.213857 -68.81  0.001567255    1.459    0.314
        82  -9.1788    200.4547    162.5735   7.9924471619e+01   8.5602518829e+00    0.1432869    0.1352289   5.84 0.0008033998    1.067    0.062
        83 -11.7264     22.0440    156.9646   1.2155971263e+02   3.9263572684e+01     0.457906    0.4250355  86.99  0.003315736    1.225    0.184
        84 -10.2465     11.6804    153.5479   1.2367354247e+02   4.0921383503e+01    0.2450852     0.154499  12.84  0.001437872    2.352    0.575
        85 -10.2618    177.9891    151.4206   8.2200897081e+01   1.5278743177e+01    0.2754467     0.260394 -86.42  0.001140461    1.232    0.188
        86 -11.7790     12.0621    145.6948   1.2287936537e+02   4.2705830613e+01     0.376798    0.2356459  65.87  0.001959059    1.570    0.363
        87  -9.6794    220.3773    144.1234   7.1907791058e+01   7.8900469560e+00    0.2034841    0.1270683 -44.41 0.0006943457    1.659    0.397
        88 -10.5302      2.8377    143.7437   1.2492450307e+02   4.3821292543e+01    0.2158951    0.1245361 -68.45  0.001302319    1.403    0.287
        89  -9.8513     49.4865    141.8664   1.1288286574e+02   4.0084444290e+01    0.2028365    0.1726178 -42.93 0.0005373975    1.347    0.258
        90 -10.9534     19.5488    140.5649   1.2051139859e+02   4.3315053476e+01    0.2683981    0.1001525 -72.89  0.001206638    2.170    0.539
        91 -10.1384    207.0706    146.3185   7.4962979371e+01   1.0193048827e+01    0.2055972    0.1877704  30.88 0.0007362317    1.123    0.109
        92 -11.1283      9.0413    137.6142   1.2285887190e+02   4.4810214257e+01    0.3562782    0.1341885 -73.21 0.0008603797    2.047    0.512
        93 -10.9238     22.0738    136.1418   1.1937126818e+02   4.4154944263e+01    0.2582786    0.1950843  56.91 0.0008547127    1.396    0.284
        94 -10.7863      3.3768    135.8166   1.2410501560e+02   4.5613685146e+01    0.3862218     0.157284 -52.21  0.001907141    2.428    0.588
        95  -9.8840    249.8300    134.1472   6.4547434372e+01   3.8898581758e+00    0.1895521    0.1504401  -2.67 0.0006637155    1.289    0.224
        96 -10.2064    107.2408    133.2877   9.5540012457e+01   3.3637497130e+01    0.2582062    0.2323987 -19.25  0.001300323    1.259    0.206
        97  -9.9038     79.5789    133.2103   1.0317648488e+02   3.8245327290e+01    0.1975359    0.1248019 -50.37 0.0003800998    1.517    0.341
        98 -10.2346     55.3394    133.0191   1.0992755239e+02   4.1555501995e+01    0.2977747    0.1748695  42.85  0.001477558    1.823    0.451
        99 -11.6459     37.4751    129.6773   1.1438652711e+02   4.4315855025e+01     0.464188     0.244746 -57.47  0.002201095    1.630    0.387
       100 -10.7819     74.2411    129.5351   1.0397323998e+02   3.9924309801e+01    0.2730787     0.247278 -75.82 0.0008584689    1.030    0.029
       101 -10.4936     14.1466    126.1549   1.2032538200e+02   4.7140807422e+01    0.2553022    0.1694117  36.27  0.001517409    1.757    0.431
       102 -11.4217     10.5881    122.6903   1.2089448760e+02   4.8207800131e+01    0.2704443    0.2093961  54.41  0.001101186    1.437    0.304
       103 -11.1799      2.2355    124.4250   1.2331793044e+02   4.8332068507e+01    0.3892921    0.1393744 -67.66  0.001293737    2.021    0.505
       104  -9.5450     81.8738    125.1693   1.0090921470e+02   3.9857378727e+01    0.1945078    0.1638248 -37.21  0.000507478    1.266    0.210
       105 -10.6162     21.3780    121.1689   1.1771621773e+02   4.7785401477e+01    0.1915246    0.1640322 -28.84 0.0005168354    1.431    0.301
       106 -10.0980     10.3838     99.2114   1.1794378147e+02   5.3753217804e+01    0.3321899   0.07440431 -65.53  0.001271048    2.938    0.660
       107 -11.4608     24.6995    108.3696   1.1490660931e+02   5.0588913529e+01    0.3748729     0.243274  68.40  0.002050559    1.856    0.461
       108 -11.0315     12.5397    103.9114   1.1795123955e+02   5.2515088791e+01    0.3010145    0.2121496  20.77  0.001890578    1.794    0.443
       109 -11.4959     17.4859    114.6589   1.1796238743e+02   4.9631877369e+01    0.3469447    0.2422339 -49.83  0.001164118    1.379    0.275
       110  -9.7545    219.9124    116.8666   6.5532151756e+01   1.2810759126e+01    0.2538193    0.2098639  56.82   0.00132592    1.357    0.263
       111  -9.0410    179.3225    116.6789   7.3468412451e+01   2.1973172625e+01    0.1595304    0.1263767 -78.02  0.000704559    1.675    0.403
       112  -9.8356    219.8040    124.4134   6.7382455679e+01   1.1495103438e+01    0.1974199    0.1370736  34.83 0.0004580963    1.571    0.363
       113 -12.4659     14.9550    109.2370   1.1796747954e+02   5.1097242176e+01    0.5362419    0.3864687 -39.25  0.002672536    1.508    0.337
       114  -9.8671     35.1975    114.2091   1.1266628987e+02   4.8282631587e+01    0.1816353    0.1410509  85.39  0.001069324    1.333    0.250
       115 -10.3880    249.1624    112.2014   5.9648278749e+01   7.5692917417e+00    0.1962464    0.1522391 -51.06  0.001048813    1.348    0.258
       116  -9.6641     94.6705    112.3172   9.4247633872e+01   4.0865096382e+01    0.1527969    0.1179456  82.03 0.0004031772    1.682    0.406
       117 -12.8246     55.2125    110.3204   1.0583528713e+02   4.7112876864e+01    0.3178473    0.2586045 -57.05 0.0004888331    1.075    0.070
       118 -12.2116      3.0034    106.9606   1.2119635731e+02   5.2363479697e+01     0.503172    0.2736826 -71.96 0.0009646883    1.399    0.285
       119 -11.9549     35.9198    108.7623   1.1152634966e+02   4.9530775752e+01    0.4443288    0.2742441  79.15  0.001507503    2.118    0.528
       120 -10.8144     35.6063    102.6572   1.1052950120e+02   5.1026736533e+01    0.3087078    0.2359096 -17.02  0.001244029    1.606    0.378
       121  -9.2842    103.7582    108.0043   9.0482053640e+01   4.0247051775e+01    0.1950902    0.1245827 -49.44 0.0002210668    1.494    0.330
       122  -9.4658     91.5000    108.4129   9.4230015664e+01   4.2332846141e+01    0.1485605    0.1389647 -36.80  -0.00560596    1.057    0.054
       123 -10.5092     61.9683    107.0211   1.0303164359e+02   4.7075658042e+01    0.2194954    0.1867522 -46.78 0.0005471818    1.102    0.093
       124 -10.8414    243.9291    104.5028   5.8633405749e+01   9.8684999162e+00     0.246976    0.1839206 -21.97 0.0007265088    1.331    0.249
       125 -10.8276    247.5949    102.2460   5.7562983687e+01   9.4913478580e+00    0.2446043    0.2018244  55.93 0.0009182435    1.389    0.280
       126  -9.9653    223.3572    104.0548   6.1781347510e+01   1.4303277043e+01    0.2160174    0.1717795 -37.79 0.0005810768    1.158    0.137
       127 -10.0707    119.2757    102.2304   8.4465008473e+01   3.8513926027e+01    0.2911226    0.1886102 -40.49  0.001157191    1.520    0.342
       128 -12.1022      3.1139     99.6340   1.2024614421e+02   5.4063676457e+01     0.456574    0.2433971 -89.92 0.0005899511    1.918    0.479
       129 -11.0741    144.9641     98.1955   7.6462835004e+01   3.3746174075e+01    0.6286768    0.4342546  49.11  0.002770096    1.478    0.323
       130 -11.5472     20.5291     96.4537   1.1428402127e+02   5.3733389073e+01    0.4613032    0.2576176 -72.61  0.002087822    1.566    0.361
       131  -9.9457     40.2413     97.4821   1.0802200377e+02   5.1822603980e+01    0.2378495    0.1568785 -75.43  0.001249299    1.547    0.354
       132 -10.1377    250.1350     95.8422   5.5704954013e+01   1.0003337798e+01    0.2114806    0.1708088 -51.60 0.0005539606    1.218    0.179
       133 -10.9393     66.9122     97.3780   9.9216404628e+01   4.8721649674e+01    0.4149007     0.178412 -53.13  0.001487581    2.029    0.507
       134  -9.2514     27.9594     95.9790   1.1177504724e+02   5.3277991837e+01    0.1493478    0.1217665 -60.50 0.0009346504    1.004    0.004
       135 -11.9299    162.4592     92.5371   7.0635281420e+01   3.0751753590e+01     1.358596    0.8028529   4.97  0.002258121    4.678    0.786
       136 -12.1979    158.4272     89.9665   7.0820823109e+01   3.2225236355e+01     1.586941     1.012539  12.74  0.005677869    2.752    0.637
       137 -11.4636    162.6908     82.3039   6.7599121817e+01   3.2648291586e+01    0.5716309    0.3346458  72.27  0.001552907    2.600    0.615
       138  -9.2997     77.4344     94.5404   9.5067184210e+01   4.7858271063e+01    0.1454433    0.1318244 -45.15 6.043749e-05    1.010    0.010
       139 -10.2152     31.3718     93.0425   1.1008370065e+02   5.3687133623e+01     0.193806    0.1531688 -77.63 0.0004621323    1.251    0.201
       140 -10.9724     25.7361     91.3027   1.1164233658e+02   5.4555964258e+01    0.2975755    0.2296366  -6.62  0.001332407    1.587    0.370
       141 -10.8523     22.8892     87.0548   1.1180084685e+02   5.5763105136e+01    0.3220119    0.1927156 -46.04  0.001048624    1.457    0.313
       142 -11.2892     11.1001     91.0795   1.1647679262e+02   5.5608040149e+01    0.3431492    0.2318432  36.66 0.0008560444    1.819    0.450
       143 -10.8778    104.0124     91.7695   8.5941086378e+01   4.3881891887e+01    0.3064969    0.2076701 -41.42            0    1.414    0.293
       144  -9.3237     21.3100     91.3294   1.1313277375e+02   5.4880912670e+01    0.1345662   0.07556526 -43.14 0.0003700098    1.665    0.400
       145 -11.1917     62.2482     98.6451   1.0104366691e+02   4.9043793076e+01    0.3252493    0.3158312  26.07 0.0008724097    1.159    0.137
       146  -9.0826    120.6931     87.2740   7.9721467729e+01   4.1450464888e+01    0.1495748    0.1251468 -88.66  0.000336342    1.546    0.353
       147 -11.3135      4.4486     85.0848   1.1773627706e+02   5.7354730591e+01    0.3200273    0.2080046 -46.60  0.001463534    1.366    0.268
       148 -10.2684    112.2608     85.5970   8.1641476240e+01   4.3573810103e+01    0.2888434     0.184475 -53.07 0.0006630761    1.701    0.412
       149 -11.0405     67.2347     84.8588   9.5859127358e+01   5.1575147868e+01    0.3610151     0.222921 -33.86  0.001146937    1.691    0.409
       150 -11.8014    163.6556     85.2975   6.8265274196e+01   3.1850871580e+01    0.4580036    0.3182407  68.80 0.0009527167    1.740    0.425
       151 -10.9253     87.8086     83.1466   8.8477375979e+01   4.8736512847e+01    0.3643184    0.2392426 -62.02 0.0006124462    1.848    0.459
       152 -10.6501     44.4635     83.2637   1.0340770773e+02   5.4726252279e+01    0.4036317    0.2215365  41.30  0.001718147    2.205    0.547
       153 -10.6056      2.9964     78.9788   1.1724912309e+02   5.8816068610e+01    0.2330345    0.2051017  32.35  0.001302199    1.462    0.316
       154 -12.0730      6.4804     73.8490   1.1511078511e+02   5.9802078999e+01    0.5803352    0.4272356  24.84  0.003865481    1.715    0.417
       155 -11.1290     13.0121     81.3150   1.1415326006e+02   5.7746825045e+01    0.2754832    0.1874727  89.53  0.000530822    1.672    0.402
       156 -10.8142     12.5168     77.5559   1.1362553418e+02   5.8633167357e+01    0.2547498    0.1781078 -57.09 0.0006356845    1.102    0.092
       157  -9.2093    173.5115     83.4735   6.5603089285e+01   2.9766882744e+01     0.155337    0.1525112  -3.50 0.0001938378    1.030    0.029
       158 -10.1455    132.9853     83.1391   7.5090625314e+01   3.9571329727e+01    0.2313211    0.2252054 -49.30 0.0006564254    1.069    0.064
       159  -9.4496    117.5390     83.5156   7.9469308733e+01   4.2905391045e+01    0.1546709    0.1474394 -15.68 0.0002976222    1.010    0.010
       160 -11.1079     75.4097     82.5159   9.2410649673e+01   5.0899831614e+01    0.3492673    0.2673755 -54.34  0.001830277    1.282    0.220
       161 -11.0800     31.0333     81.5937   1.0781019530e+02   5.6382023777e+01    0.3767653    0.1914038 -38.30  0.001538537    1.956    0.489
       162 -10.3336     21.3227     81.3110   1.1121624785e+02   5.7203186737e+01    0.3040621    0.1657624 -10.72  0.001501309    2.603    0.616
       163 -11.6391     20.8230     77.5604   1.1062357487e+02   5.8095477269e+01    0.4629633    0.2713961 -35.36   0.00146495    1.692    0.409
       164 -11.9634     58.1049     74.0902   9.6039056930e+01   5.5202854449e+01    0.6977408    0.5662569 -81.63  0.002420914    1.626    0.385
       165 -11.5683     62.3897     71.6430   9.3753278210e+01   5.5167500127e+01    0.3123448    0.2466729 -40.69 0.0005506767    1.111    0.100
       166 -11.0976     91.0733     76.6724   8.5423089095e+01   4.9548102383e+01    0.4452758    0.4139014  54.51  0.002488669    1.239    0.193
       167 -12.1368     44.8974     75.1710   1.0118941326e+02   5.6515623084e+01    0.3020388    0.2444785 -55.61 0.0003571411    1.145    0.127
       168  -9.7470    187.2717     75.9587   6.0728374125e+01   2.7687965871e+01    0.2070012    0.1885031 -35.20 0.0001824345    1.085    0.078
       169 -10.5226     74.4887     76.0021   9.0787727032e+01   5.2468174326e+01    0.2219998    0.1295587 -46.20 0.0007736225    1.556    0.357
       170  -9.0050    121.9910     76.0000   7.5838872879e+01   4.3454432636e+01    0.2508469   0.08778828  47.23 0.0007959091    2.897    0.655
       171 -12.4919    149.9113     72.1041   6.7419255807e+01   3.7654541087e+01     0.429869    0.3637682  29.67 0.0004315183    1.240    0.194
       172 -11.7631    102.1193     72.5754   8.0587335213e+01   4.8300774591e+01    0.4059022    0.3292204  82.72  0.001527878    1.769    0.435
       173  -9.6419     15.6551     74.2017   1.1181732508e+02   5.9200463414e+01    0.2739293    0.1128362 -50.75 0.0008230046    1.828    0.453
       174 -12.4637     16.4104     67.9602   1.1018949389e+02   6.0547309117e+01     0.322188    0.2148143 -46.98  0.001982924    1.199    0.166
       175 -11.5821     21.1917     65.9830   1.0787397236e+02   6.0659952579e+01    0.9165153    0.5086746  81.26    0.0035313    4.519    0.779
       176  -9.6662    194.8058     71.0669   5.7996931817e+01   2.6642231528e+01    0.4428996    0.1845575 -27.21  0.001487444    2.878    0.653
       177  -9.6718    128.9343     71.7012   7.2550986783e+01   4.2715790376e+01    0.2117205    0.1910268  42.36 0.0002945372    1.112    0.101
       178 -10.5809     77.8088     71.7227   8.8301814425e+01   5.2853770465e+01    0.2566077    0.2176628 -85.34 0.0008983679    1.624    0.384
       179  -9.8075     38.4374     72.4943   1.0289279866e+02   5.7770431240e+01    0.1993049    0.1575254 -20.37 0.0006455966    1.305    0.234
       180 -10.6821     36.5930     68.2952   1.0247990562e+02   5.8874680293e+01    0.3111042    0.2595295 -50.06   0.00141236    1.085    0.078
       181 -10.5160     31.3147     67.5913   1.0433409630e+02   5.9507957687e+01    0.3148926    0.2174331 -55.95  0.001846053    1.237    0.192
       182 -11.3015    167.5624     69.9877   6.2868420775e+01   3.3643954896e+01    0.2689488    0.2202845  55.24  0.000413111    1.218    0.179
       183 -11.7292     46.3354     57.4084   9.5413474581e+01   6.0171301660e+01    0.4367509    0.3185941  44.32  0.001078719    1.781    0.438
       184 -11.1687     50.3175     68.2025   9.7202915940e+01   5.7439801967e+01    0.3764519    0.2667477 -16.72  0.001288846    1.551    0.355
       185 -10.6194     51.1144     63.4072   9.5441530072e+01   5.8365857568e+01     0.354559    0.1671731 -47.79 0.0006737573    1.806    0.446
       186  -9.8430    137.6534     74.1307   7.1056982210e+01   4.0230321067e+01    0.2453961    0.1945808 -55.17 0.0006507352    1.406    0.289
       187 -11.3366     94.2057     66.6555   8.1122598392e+01   5.1004586397e+01    0.6740469    0.2526164 -39.93  0.002405975    2.579    0.612
       188 -10.9156     68.7512     67.0918   9.0017573326e+01   5.5224286599e+01    0.3243875    0.1888967 -43.64 0.0003575699    1.542    0.351
       189  -9.4504    140.6247     68.7172   6.8579732873e+01   4.0515426681e+01    0.1637157    0.1179291  20.84  0.000701365    1.711    0.416
       190 -10.4604     77.0266     64.3130   8.6140828209e+01   5.4500407927e+01    0.3995613    0.1992981 -39.97  0.001722843    1.862    0.463
       191 -11.4746      5.3512     58.8352   1.1250810362e+02   6.3166528102e+01    0.3634276    0.2719527 -55.78 0.0002834222    1.052    0.050
       192 -10.5188      6.6488     67.7113   1.1386741375e+02   6.1162104903e+01    0.1876623     0.132266 -46.09 0.0005825893    1.175    0.149
       193 -11.8895      3.5398     64.6022   1.1443405018e+02   6.1998077770e+01    0.3159604    0.2974214 -56.88  0.001189629    1.238    0.192
       194  -9.4466     99.4306     65.4662   7.9046688006e+01   5.0225960084e+01    0.1495037    0.1353382  -9.45 0.0002258225    1.044    0.042
       195 -10.1714    109.7294     74.5633   7.8919121744e+01   4.6362993739e+01    0.2932183    0.1442193  38.59  0.001125897    2.157    0.536
       196 -10.6339     87.2775     52.4794   7.8387700785e+01   5.4955444433e+01    0.2920691    0.2114355 -35.01 0.0008188207    1.321    0.243
       197 -10.8193     83.7787     61.6591   8.2881281024e+01   5.3879229631e+01    0.3315825    0.3171443  86.77  0.001933359    1.327    0.247
       198 -10.6129     86.8755     57.8440   8.0478695788e+01   5.4050977387e+01    0.4709006    0.2746195 -40.80  0.002172966    1.646    0.392
       199 -10.1513     11.0934     62.4971   1.1103319376e+02   6.2069185988e+01    0.1763488    0.1300921 -54.77 0.0004337009    1.059    0.055
       200 -10.8965    201.3517     61.7436   5.4333723053e+01   2.6513420242e+01    0.2458812    0.2382623   3.66 0.0002680118    1.133    0.117
       201  -9.9690    155.5889     60.6231   6.2517008173e+01   3.8225276829e+01    0.2684403    0.1518588 -28.69 0.0007817275    1.887    0.470
       202 -10.3220     26.6426     49.5031   1.0109046404e+02   6.3735022245e+01    0.3601048    0.1637879 -55.19  0.001772851    1.903    0.474
       203 -11.0791     29.6957     60.8541   1.0315889697e+02   6.1107866836e+01    0.5970214    0.2583806  10.47  0.002559595    3.351    0.702
       204 -12.9423     37.2351     50.4256   9.6864009378e+01   6.2568057376e+01    0.8200012    0.5877261 -18.84  0.003918506    1.350    0.259
       205 -11.5077     63.8724     60.0718   8.9490565803e+01   5.7369921910e+01    0.2935443    0.2008115  34.99  0.000788352    1.602    0.376
       206 -10.0605     58.2256     58.9421   9.1253789190e+01   5.8381142271e+01    0.2934463     0.193923  22.34  0.001543449    1.660    0.397
       207 -10.2913    147.0814     56.8295   6.3183350678e+01   4.0965207292e+01    0.2449524     0.216414 -32.77 0.0003075099    1.152    0.132
       208 -11.8006     75.3208     56.0976   8.3886207761e+01   5.6383243022e+01    0.2406758    0.2133786 -21.43 0.0002690567    1.040    0.038
       209 -11.0600     70.7326     50.9506   8.3683248511e+01   5.8088906091e+01    0.4850654    0.3698993  70.56  0.002409952    2.306    0.566
       210  -9.2085    119.6855     56.7298   7.0012850159e+01   4.7508715726e+01    0.1516645    0.1124033  17.29 0.0002539145    1.554    0.356
       211  -9.7882    129.8139     55.9252   6.7044487946e+01   4.5301113589e+01     0.229022    0.1968352   0.45  0.000506615    1.224    0.183
       212 -10.2976     61.8035     54.4540   8.8329678980e+01   5.8774628069e+01    0.4011698    0.1601855 -45.70  0.001646069    2.281    0.562
       213  -9.9398     99.7805     55.5702   7.5452314429e+01   5.1982376328e+01    0.2833436    0.1358347  40.72  0.001140726    2.111    0.526
       214  -9.1843    120.0346     52.9993   6.8603340865e+01   4.8054065217e+01    0.1790021     0.162953  33.21 0.0003332795    1.064    0.060
       215 -10.8255     12.3729     51.1270   1.0771210366e+02   6.4423383696e+01    0.2540396    0.1857855 -62.29 0.0004879547    1.294    0.227
       216 -11.1854     11.8554     44.3297   1.0604803809e+02   6.5853866883e+01    0.4115215    0.2364387 -41.15  0.001847884    1.347    0.258
       217 -11.0175      5.5937     51.7086   1.1075288187e+02   6.4673471679e+01    0.3506333    0.1744657 -45.55  0.001467578    1.514    0.340
       218 -10.2486      3.7700     47.1682   1.1040810521e+02   6.5710253122e+01    0.2038361    0.1431835 -24.69 0.0006743734    1.381    0.276
       219 -11.6856    128.8914     49.9188   6.5196085489e+01   4.6487219616e+01    0.5797974    0.3763601  -1.19  0.001638962    2.158    0.537
       220  -8.9946    183.6746     60.3166   5.6898753429e+01   3.1164280438e+01    0.1584942    0.1138322 -68.92 0.0007044294    1.671    0.402
       221 -10.6607    104.2890     48.8814   7.1612131587e+01   5.2191679109e+01    0.3623763    0.2617279 -28.78  0.001821359    1.366    0.268
       222 -11.0614     78.2027     47.9396   7.9829077870e+01   5.7386526988e+01    0.4263394     0.237757 -22.77  0.001816596    2.070    0.517
       223 -10.2978     53.2262     50.0162   9.0118430621e+01   6.0799136672e+01    0.2177321    0.1827939  12.21 0.0008048778    1.230    0.187
       224 -11.4897     91.4696     43.2224   7.3471823576e+01   5.5723823959e+01    0.9702131    0.3484448 -48.10  0.002902486    4.703    0.787
       225  -9.6090    166.9650     49.0000   5.6558563500e+01   3.7147412757e+01    0.2442836   0.08311615  59.74 0.0004396647    2.856    0.650
       226 -11.2914    151.8925     46.8816   5.8873150470e+01   4.1293190041e+01    0.4784932    0.3566134 -39.84  0.001554901    1.388    0.280
       227 -10.2812    155.9295     46.8530   5.8033825934e+01   4.0275432796e+01    0.3049152     0.227103 -19.28 0.0008112524    1.478    0.323
       228 -10.2429    113.7534     47.3967   6.8315652644e+01   5.0374068568e+01    0.3697411    0.2735123 -85.33  0.001653944    2.244    0.554
       229 -11.3643    120.1035     46.9295   6.6410869833e+01   4.9007531451e+01    0.2910428    0.2138382  31.83 0.0003660318    1.378    0.274
       230 -10.2889    142.8244     45.7554   6.0453624176e+01   4.3729829803e+01    0.2962077    0.2385331 -75.66 0.0009833241    1.541    0.351
       231  -9.4632     85.8409     45.3653   7.6177939762e+01   5.6451072325e+01    0.1901785    0.1231547  30.53 0.0004942567    1.574    0.365
       232 -10.1487     51.2740     44.9448   8.9051916861e+01   6.2009932501e+01    0.2226593    0.1569691 -34.43  0.000347934    1.219    0.180
       233 -11.5557     51.1732     40.1903   8.7270375266e+01   6.2889217914e+01    0.3178028    0.2308505 -12.48 0.0003333927    1.310    0.237
       234 -10.5425     32.1514     44.3571   9.7001131947e+01   6.4267358187e+01    0.3450654    0.1724411  -3.17  0.001385463    3.151    0.683
       235  -9.5303    174.9866     44.2846   5.3668740900e+01   3.5768636480e+01    0.2018972    0.1885889  73.43 0.0006153224    1.033    0.032
       236 -10.8457     66.3149     41.3058   8.1640890499e+01   6.0503745045e+01      0.31298    0.1851022 -19.93  0.001494468    1.862    0.463
       237 -10.1621     71.3241     41.2633   7.9728909620e+01   5.9700920817e+01    0.2050132    0.1667089  -6.10 0.0002075812    1.120    0.107
       238 -11.3319     69.2263     38.3804   7.9352311014e+01   6.0526628237e+01    0.4375629    0.2410009 -23.66  0.001366663    1.931    0.482
       239 -11.3972     23.6570     41.6206   9.9862829139e+01   6.5553672534e+01     0.532258    0.3621374  72.49  0.002299833    3.558    0.719
       240 -12.0461     27.7284     38.0429   9.6758632314e+01   6.5890704824e+01    0.4522668    0.2783303 -29.88 0.0003343755    1.396    0.284
       241 -11.7366     24.3462     35.1231   9.7265772794e+01   6.6738504229e+01    0.2942949    0.1907063  -5.96 0.0003191317    1.610    0.379
       242 -11.8827      7.1067     40.9696   1.0723164258e+02   6.6805262895e+01    0.2275844    0.1335368 -49.63 0.0003722586    1.267    0.211
       243 -10.5865    111.2515     41.9311   6.6985749449e+01   5.1772303584e+01    0.3607754    0.1964377  50.18  0.001230031    1.791    0.442
       244  -9.9617     96.4745     40.5247   7.0820239760e+01   5.5144196840e+01    0.3278998    0.1317681 -35.44 0.0006168678    2.454    0.593
       245 -11.1653    100.8501     37.6167   6.8341028085e+01   5.4669600827e+01    0.5853967    0.3405575  42.13  0.001804735    1.641    0.390
       246 -10.7506    105.4839     34.6945   6.5839598845e+01   5.4090502995e+01    0.3381509    0.2813821 -85.75 0.0007294273    1.722    0.419
       247 -11.3826    101.5563     29.4204   6.4872043680e+01   5.5658241836e+01    0.3825319    0.2753447 -41.56  0.001995936    1.594    0.373
       248 -11.0596     98.2248     31.6080   6.6734524443e+01   5.6075601966e+01    0.5857323    0.3004145  22.84  0.002230515    2.881    0.653
       249  -9.6247     62.1393     40.8619   8.3087684550e+01   6.1223274040e+01    0.1812592    0.1352554 -12.86 0.0003590649    1.262    0.207
       250 -11.1055     41.4842     38.5946   9.0791956549e+01   6.4372796995e+01     0.594652    0.3733239 -39.81  0.003384339    1.363    0.266
       251 -11.1917     78.7657     31.8300   7.3148270829e+01   5.9888564405e+01    0.6126269    0.3285316  -0.45  0.002271329    3.415    0.707
       252  -9.4101    205.8018     37.3723   4.7078014581e+01   2.8903574215e+01    0.1879622    0.1227709  57.61 0.0002308343    1.532    0.347
       253 -11.0044     57.3320     34.6515   8.2483569999e+01   6.2987353618e+01    0.3337106     0.232253 -48.68  0.001833512    1.738    0.425
       254 -11.0265      9.6452     33.4413   1.0370535839e+02   6.8138990885e+01    0.4984395    0.3240421  31.28  0.003180727    1.998    0.500
       255 -11.7296    232.8112    245.2939   8.9198233809e+01  -9.1857550297e+00    0.6617534    0.2087532 -25.98     0.002543    4.776    0.791
       256 -10.7650     35.5017    239.5104   1.2506496579e+02   2.0594531062e+01    0.2768615    0.1677427 -58.24  0.001802647    2.179    0.541
       257 -10.6479     26.5474     14.0785   8.7314487106e+01   7.0122149261e+01    0.1905482    0.1359813  -2.70  0.001262932    1.223    0.182
       258  -9.9249    147.6636    245.6649   1.0498116066e+02   3.7968741839e+00    0.1203519   0.08785056  12.29 0.0007051926    1.745    0.427
       259 -12.2937     74.4092    238.7061   1.1807059835e+02   1.5910444829e+01    0.6026955    0.4623723 -65.89  0.004201092    1.532    0.347
       260 -10.3216    156.5241    241.5216   1.0275284032e+02   3.0186535810e+00    0.1247474     0.100713  36.91 0.0003955566    1.009    0.009
       261 -11.5559    193.6072     32.5345   4.7380464228e+01   3.2578203420e+01    0.5148847    0.2566328  41.98  0.001293082    2.536    0.606
       262 -10.6363    247.5079     33.2538   4.1455129186e+01   1.9679102456e+01    0.2255417    0.1666089  79.50 0.0005366518    1.373    0.272
       263 -10.6809    177.1590     31.6798   4.9524544089e+01   3.6879569144e+01    0.2404564    0.1860815 -44.12 0.0005428136    1.320    0.242
       264 -10.2594    166.6668     31.6991   5.1221189934e+01   3.9573366679e+01    0.3182775    0.1715356 -36.45  0.001394483    1.885    0.470
       265 -10.2324    145.1519     31.6842   5.5173061474e+01   4.5061796193e+01    0.2333477    0.1920898 -43.65 0.0006401771    1.310    0.236
       266 -11.1555     49.0546     30.9743   8.4402547695e+01   6.4753215287e+01    0.3399526    0.2215542 -19.17  0.001550636    1.435    0.303
       267  -9.8959    224.5184     30.9796   4.3221122060e+01   2.5196902677e+01    0.2007398   0.08525749 -51.86 0.0003709799    2.400    0.583
       268 -10.7590    139.4912     30.2087   5.5823108854e+01   4.6662710380e+01    0.2606652    0.2260897  17.07 0.0003731526    1.202    0.168
       269 -11.4803     81.5485     35.2753   7.3616151168e+01   5.8860205052e+01    0.4888968    0.3210847 -27.18  0.002031686    1.461    0.315
       270 -10.5770    152.3318     28.0758   5.2578626090e+01   4.3685834021e+01     0.347757    0.2000093 -49.12  0.001524246    2.024    0.506
       271 -10.1495     88.9756    241.0106   1.1557413761e+02   1.3480835909e+01    0.1606733    0.1446955  -9.52  0.001121533    1.716    0.417
       272  -9.7211     66.8743     13.5108   6.9216520311e+01   6.4468183207e+01    0.1767303    0.1151769  39.99 0.0003010622    1.469    0.319
       273  -9.1652     50.3130    240.3204   1.2254218482e+02   1.8710427948e+01   0.09200373   0.08735232 -48.70 0.0004753318    1.652    0.395
       274 -10.4366    214.7507     27.0245   4.3296613912e+01   2.8022070573e+01    0.1913566    0.1705051 -60.18 0.0005310199    1.061    0.057
       275  -9.2116    243.2726     26.3278   4.0268172868e+01   2.1479374662e+01    0.1159074    0.1005934  23.11 0.0001954634    1.584    0.369
       276 -10.8253    132.4553     25.5430   5.5657342641e+01   4.8964121181e+01    0.6410093    0.2855374  34.05  0.002302015    2.980    0.664
       277 -10.1734    195.5374    238.6273   9.4919491395e+01  -2.7893141567e+00    0.2636875    0.1723148  18.78  0.001546451    1.476    0.322
       278 -11.0754    112.0342     24.8603   6.0200639876e+01   5.3898870360e+01    0.2554487    0.1965045 -23.36 0.0003597874    1.348    0.258
       279 -10.4237     70.4775     25.9606   7.3601680390e+01   6.2215000127e+01    0.2502424    0.1815276  34.44 0.0006180482    1.342    0.255
       280  -9.7317    135.1582    238.1370   1.0643968999e+02   6.9730331235e+00    0.3002381    0.1245423 -39.37   0.00122259    4.061    0.754
       281 -10.7357    237.1733     24.9891   4.0518653560e+01   2.3010464006e+01    0.2144214    0.1482269 -60.61 0.0008411733    1.312    0.238
       282 -11.9486    224.8076    246.8759   9.0858329164e+01  -8.2341540627e+00    0.4467428    0.2166187 -22.27  0.002374136    2.458    0.593
       283 -11.1767    105.0900     21.2993   6.0600212678e+01   5.5886666225e+01    0.4437505    0.1955299  58.82  0.001807914    2.388    0.581
       284  -9.6868    105.0193     25.4988   6.2317261550e+01   5.5400672030e+01    0.1971456    0.1301056  52.35 0.0003379048    1.467    0.318
       285  -9.9402    101.5201     23.5452   6.2494852222e+01   5.6407916276e+01    0.2216184    0.1980323  24.69  0.001321788    1.032    0.031
       286 -10.5032     86.8150     24.2039   6.7187851552e+01   5.9398047834e+01    0.4072939    0.2951154 -80.20  0.001844233    2.978    0.664
       287 -10.5896     83.8380     20.3724   6.6483555293e+01   6.0469227637e+01    0.4080263    0.2196024  59.09  0.001829386    2.434    0.589
       288 -10.5216     10.3266     24.9583   1.0037315172e+02   6.9681370341e+01    0.2191629    0.1429209  -4.76 0.0005225419    1.543    0.352
       289  -9.0451    197.2968     24.7015   4.4735197710e+01   3.2605633243e+01    0.1435732   0.09632728 -65.53 0.0001984726    1.572    0.364
       290 -10.7049     94.6881     23.5008   6.4452357813e+01   5.7875519632e+01    0.4967947    0.2376423  55.76   0.00214345    2.246    0.555
       291 -11.7969     30.0049    233.4939   1.2565744274e+02   2.2312565069e+01    0.3865169    0.1830038 -87.84  0.002293891    1.965    0.491
       292 -10.4081    161.8996     20.1304   4.8364629142e+01   4.2147850274e+01     0.205409    0.1792568 -78.58 0.0002898048    1.190    0.160
       293 -10.0595    177.3436    235.0379   9.7834013519e+01   6.2698384079e-01    0.1870317    0.1452583  -5.87  0.001141365    1.480    0.324
       294 -10.0228     34.6291     22.9792   8.7445759687e+01   6.7839933938e+01    0.2596034    0.1463066  14.27  0.001415102    1.933    0.483
       295 -10.7152    155.7423     21.6206   4.9854552703e+01   4.3559134472e+01    0.3076639    0.2384797 -71.28 0.0008579991    1.471    0.320
       296  -9.8981    185.5956     21.2248   4.5262156587e+01   3.5963161414e+01    0.1799764    0.1376359 -10.69 0.0005640023    1.585    0.369
       297  -9.6407     66.4869     21.5146   7.3100300923e+01   6.3516428102e+01    0.2632042    0.1188642  42.08  0.001213499    2.178    0.541
       298  -9.7221     45.5350     20.5288   8.1294495937e+01   6.6865085115e+01    0.1768428    0.1378258  -6.49 0.0007008688    1.046    0.044
       299 -10.6747     41.6715     19.8681   8.2734048977e+01   6.7473902315e+01    0.2215655      0.18153  13.24 0.0004882017    1.227    0.185
       300 -10.0726      5.1293     13.1528   9.8428989526e+01   7.2092336405e+01    0.1723191    0.1131227 -28.87 0.0005032226    1.129    0.114
       301 -10.1393    167.1951    233.7744   9.9612668307e+01   2.4722374024e+00    0.1691058    0.1335337  14.97 0.0007225201    1.312    0.238
       302 -10.8774    153.7885    233.5940   1.0220646084e+02   4.6975056136e+00    0.2010752    0.1781971 -35.23 0.0008846872    1.356    0.262
       303  -9.7041    151.2232     18.6059   4.9635792031e+01   4.5036786276e+01    0.1954901    0.1167039  54.21 0.0003808939    1.502    0.334
       304  -9.9079    216.9895     16.4938   4.0410744814e+01   2.8716529622e+01    0.2570654    0.1140585  66.27  0.001051088    2.096    0.523
       305  -9.6247    108.3407     17.5961   5.8253941809e+01   5.5569649896e+01    0.1921033    0.1129504  45.59 0.0006811335    1.511    0.338
       306 -10.4098     86.4537    232.9866   1.1528766270e+02   1.5280628530e+01    0.2499241    0.1286464  52.96 0.0009709889    1.647    0.393
       307 -10.1396     69.8179     17.1577   6.9852465146e+01   6.3501222010e+01    0.2391105      0.14934  -6.16 0.0003075499    1.682    0.405
       308  -9.9857     24.2187    232.3085   1.2658809013e+02   2.3156247628e+01    0.1694064    0.1391897  81.15 0.0005998584    1.235    0.190
       309 -11.4653     37.7436    244.4040   1.2497318241e+02   1.9458659855e+01     0.439683    0.2485333  89.29  0.002881718    1.615    0.381
       310  -9.7906     79.9582    231.5082   1.1638804731e+02   1.6467447447e+01    0.1788927   0.09843423  43.70 0.0004525851    1.534    0.348
       311 -10.6910      5.1229    226.8191   1.2955060440e+02   2.6089657695e+01    0.3927301    0.1340745  67.74  0.002020984    2.625    0.619
       312 -10.0583    190.5052    227.2969   9.4104193956e+01  -3.8232397947e-01    0.3458642      0.12507 -41.16  0.001476514    3.193    0.687
       313  -9.4572     39.2698     15.3491   8.1695911202e+01   6.8448468409e+01    0.1911394    0.1149506  -5.90 0.0004726754    1.741    0.426
       314  -9.8709    249.0312    227.2107   8.3365595077e+01  -9.3426919643e+00    0.1730096    0.1057198  -3.44 0.0005616103    1.584    0.369
       315  -9.7836     50.9598     15.3396   7.6448709110e+01   6.6829553674e+01    0.2456883    0.1445028  47.31  0.001296719    2.220    0.550
       316  -9.4719    130.6655    227.3300   1.0595248270e+02   9.5261709350e+00    0.1322423   0.08809001  64.87 0.0007052097    1.726    0.421
       317 -11.1123    120.2573    226.4993   1.0793390161e+02   1.1348593788e+01    0.1991286    0.1635223  53.89 0.0006717988    1.046    0.044
       318 -10.0517    158.5916     13.7379   4.6850002109e+01   4.3661656232e+01    0.1933157    0.1232578 -39.00 0.0009542864    1.670    0.401
       319  -9.7692     15.1745     14.1708   9.3341052891e+01   7.1179868968e+01    0.1394533    0.1165461 -30.50 0.0003411102    1.287    0.223
       320 -10.2513    160.0014    235.9725   1.0132405772e+02   3.3087065262e+00     0.195267    0.1403102  11.91 0.0006788148    1.686    0.407
       321 -10.0805    109.7763    243.2704   1.1189368671e+02   1.0049349399e+01     0.245525    0.1582523  72.29  0.001256556    1.789    0.441
       322 -10.1908    123.4429    222.3010   1.0675885125e+02   1.1595018167e+01    0.2052976    0.1239254 -51.26 0.0006593218    1.936    0.484
       323  -9.9772     13.3263    222.0966   1.2792408499e+02   2.6199666792e+01    0.1960914   0.07343092 -71.27  0.001074747    2.404    0.584
       324 -10.3580    141.6877    220.9986   1.0286368002e+02   8.8153281161e+00    0.2973482    0.1714133  27.01  0.001436248    1.988    0.497
       325  -9.2402    250.4910    219.4622   8.1751742693e+01  -8.6089488897e+00    0.1234537   0.09263078   5.96 0.0001106647    1.034    0.032
       326  -9.5523    173.8233    219.6255   9.6153946193e+01   3.5874369570e+00    0.1942698    0.1062833  46.40 0.0009490839    1.739    0.425
       327 -10.2506    179.3304    243.6820   9.8713982516e+01  -9.3247591792e-01    0.1170699   0.08810747  58.13 0.0007047389    1.687    0.407
       328 -10.8842      9.6738    217.0592   1.2830318873e+02   2.7525536803e+01    0.2765259    0.1437208  62.88  0.001163842    1.509    0.337
       329 -11.2941    235.8978    214.9341   8.3504269871e+01  -5.8814149581e+00    0.3745953    0.2160345  -7.91  0.001307104    1.991    0.498
       330 -11.0503    241.0916    211.7205   8.1996299961e+01  -6.2435073294e+00    0.3231312     0.271607  22.88   0.00217073    1.262    0.207
       331  -9.7806     37.9333    217.4887   1.2319747385e+02   2.4504568359e+01    0.1613669   0.09956035  42.09 0.0007758054    1.558    0.358
       332 -11.1775     30.4717    215.9530   1.2448292631e+02   2.5635474919e+01    0.3403336    0.1929212  27.83  0.001988644    2.337    0.572
       333  -8.8220    201.6707    215.6796   9.0016322235e+01  -5.0960294660e-01    0.1357033   0.09002473   8.52   0.00070483    1.690    0.408
       334  -9.5547    194.5090    215.4812   9.1374150742e+01   7.2225986547e-01    0.1322611    0.1106325  20.89 -6.461384e-05    1.005    0.005
       335  -9.3220    136.9674    216.0000   1.0312211853e+02   1.0502333404e+01    0.2196733   0.06612101  39.87 0.0007926841    2.875    0.652
       336  -9.3297    115.2131    215.0459   1.0751092128e+02   1.4278035608e+01    0.1555191    0.1047051 -59.73 0.0004306404    1.662    0.398
       337 -10.3965     66.4031    226.1810   1.1849511867e+02   1.9310186223e+01    0.2662629    0.1387053  47.63 0.0008308833    1.584    0.369
       338 -10.8165     21.3560    212.4341   1.2594320531e+02   2.7292376847e+01    0.3126163     0.129613  54.02  0.001735712    1.982    0.495
       339 -10.1553    208.9674    212.0527   8.7978805938e+01  -1.1851107454e+00    0.1994142    0.1631029  13.78 0.0004934026    1.036    0.035
       340  -9.4632     76.3283    212.3074   1.1522037654e+02   2.0694186113e+01    0.1102229   0.09910483 -20.60 0.0007038277    1.657    0.396
       341 -10.6357     10.7720    208.6206   1.2765943136e+02   2.9088977745e+01    0.2001972    0.1541049 -82.02 0.0005043367    1.284    0.221
       342 -11.9049      4.7992    207.4761   1.2867985169e+02   2.9865396533e+01    0.5051035    0.2193258  80.23  0.002848802    1.996    0.499
