#   1 NUMBER                 Running object number                                     
#   2 MAG_AUTO               Kron-like elliptical aperture magnitude                    [mag]
#   3 X_IMAGE                Object position along x                                    [pixel]
#   4 Y_IMAGE                Object position along y                                    [pixel]
#   5 X_WORLD                Barycenter position along world x axis                     [deg]
#   6 Y_WORLD                Barycenter position along world y axis                     [deg]
#   7 A_WORLD                Profile RMS along major axis (world units)                 [deg]
#   8 B_WORLD                Profile RMS along minor axis (world units)                 [deg]
#   9 THETA_WORLD            Position angle (CCW/world-x)                               [deg]
#  10 FWHM_WORLD             FWHM assuming a gaussian core                              [deg]
#  11 ELONGATION             A_IMAGE/B_IMAGE                                           
#  12 ELLIPTICITY            1 - B_IMAGE/A_IMAGE                                       
         1 -11.8022    245.9488     55.2338   3.8735491063e+01   1.9680120232e+01     1.474352    0.5373049 -37.44  0.007062411    2.223    0.550
         2  -9.4058    128.0789     39.5672   5.0773043175e+01   4.7698950262e+01    0.5717312    0.2895255 -50.00  0.002402561    2.364    0.577
         3 -13.4894    239.9662     15.6546   3.1252679581e+01   2.5521023970e+01     2.371068     1.437059 -55.70   0.01558644    1.307    0.235
         4  -9.4385     94.6252      8.4319   4.6752014945e+01   5.9109682490e+01    0.3823401    0.1502422 -23.52  0.001641134    2.865    0.651
         5  -9.9087    139.7406     14.3056   4.0529839781e+01   4.7759558952e+01    0.3241306    0.2502323   8.01  0.001863623    1.688    0.407
         6  -9.1317    113.8064     13.3761   4.4589543365e+01   5.4121063182e+01    0.3311913    0.2501185 -84.96  0.001869012    1.481    0.325
         7 -10.9518    146.4831     15.4393   3.9917034450e+01   4.6018342768e+01    0.4325894    0.3445986  81.40  0.002612787    1.130    0.115
         8  -9.9866     93.4725     14.7798   4.9619227608e+01   5.8777620626e+01    0.5244151    0.3039922  38.38  0.002629527    1.706    0.414
         9  -9.4054     81.1520      8.9739   5.0408024747e+01   6.2127456334e+01    0.3303744    0.2846375  37.86  0.002110115    1.041    0.039
        10 -10.2928     75.2070      8.8955   5.2095400635e+01   6.3442343637e+01    0.4345086    0.2892472  44.85  0.002466373    1.276    0.216
        11  -9.0633     13.5121      9.7570   8.1917095496e+01   7.3966801095e+01    0.2514739    0.1726883  54.86  0.001308498    3.140    0.682
        12 -10.0496    184.4057      4.6974   3.2854930040e+01   3.8165360501e+01    0.5937817     0.244172 -50.17  0.002858676    2.264    0.558
        13  -7.6070    161.3508      8.6739   3.6116404476e+01   4.3115062676e+01    0.1381416   0.08181986 -66.72 0.0007048371    1.759    0.432
        14  -8.9557    100.9136      6.1462   4.4455380150e+01   5.7836201030e+01    0.3065202    0.1628155 -37.74  0.001525729    2.132    0.531
        15  -8.0375     33.0112      7.5027   6.8647872886e+01   7.1647336652e+01    0.1494395    0.1062744  59.96 0.0008082355    2.386    0.581
        16  -8.2281    176.4858      4.9617   3.3613579924e+01   3.9937317199e+01    0.1710576      0.11298 -37.15 0.0008564771    1.544    0.352
        17  -8.9598    130.4883      4.9454   3.8883042229e+01   5.0845865107e+01    0.1786133     0.129412 -22.77  0.001037422    1.605    0.377
        18  -9.7896     48.0952      2.8323   5.8735262028e+01   6.9546693871e+01      0.49687    0.2900541  63.36  0.002497287    2.385    0.581
        19  -9.1648    145.9747      2.1408   3.5986411095e+01   4.7350773864e+01    0.4443029    0.1877217  85.79  0.001859062    2.638    0.621
        20 -11.5881    218.2675     27.9512   3.5392904039e+01   2.8410516235e+01    0.7485743    0.4621149 -55.33  0.003130798    1.393    0.282
        21  -7.9267    116.5250      1.4891   3.9842892601e+01   5.4491341403e+01    0.1289276    0.1098938  66.19  5.25057e-05    1.009    0.009
        22 -10.7117    190.8056    242.5208   8.3906825418e+01  -1.1285061069e+00    0.6858947    0.5703669 -74.40  0.004239022    2.465    0.594
        23 -10.8459    236.4708    238.6479   7.5039304866e+01  -5.9101903155e+00    0.5581782    0.3829091  44.02  0.003480238    2.546    0.607
        24 -12.2304    226.3457    218.2309   7.3473859420e+01  -2.0074789500e+00     1.402424    0.7300267 -46.20  0.007335833    2.498    0.600
        25  -8.0445    217.2837    250.3646   8.0166168490e+01  -5.3144638149e+00     0.119616   0.06865951  -6.42 0.0007018366    1.688    0.407
        26 -11.0906    187.3652    231.2000   8.2850690473e+01   9.9537441102e-01     1.236674     1.055872  66.43  0.007707036    2.092    0.522
        27 -11.3372    132.9160    248.1543   9.6486664463e+01   5.5159839122e+00    0.6717738    0.4843211 -70.76  0.003987979    2.073    0.518
        28  -8.9999    204.8543    169.1733   6.8434583008e+01   8.7543758916e+00    0.3092757     0.159798 -33.06  0.001073711    1.816    0.449
        29  -9.9780    203.9859    165.4879   6.7863815304e+01   9.5361030544e+00    0.2898656    0.2329078  19.57  0.001262994    1.265    0.210
        30  -9.6892    197.0159    164.0000   6.8884773859e+01   1.0935529414e+01    0.3455601     0.233221  58.24  0.001673048    2.243    0.554
        31  -8.4595    151.3645    157.3569   7.7288818269e+01   2.0253284973e+01    0.4617304    0.2524586  66.05  0.001215922    6.141    0.837
        32  -9.1722    141.6486    157.1351   7.9591809122e+01   2.2076749984e+01    0.2545758    0.1997161  44.67 0.0004525899    1.326    0.246
        33  -8.6219     23.4562    157.5126   1.1332185005e+02   3.9101708881e+01    0.1334485    0.1200645 -80.85 7.917001e-05    1.044    0.042
        34  -7.8766     72.8172    156.4006   9.8440719597e+01   3.3757226868e+01    0.1945242    0.1420089  12.74 0.0003045152    1.601    0.375
        35  -9.0346    128.0337    150.8419   8.1728717876e+01   2.5973125969e+01    0.2586872    0.1738249  63.51  0.001075627    2.105    0.525
        36  -8.3146    152.9950    149.5036   7.5222871699e+01   2.1609494351e+01    0.2350722    0.1455798  40.22  0.001045614    1.634    0.388
        37  -8.5891     58.8948    146.3373   1.0104407022e+02   3.8198622380e+01     0.264157    0.1995308 -79.83  0.001157166    1.378    0.274
        38  -8.3595    128.4232    146.0661   8.0599353196e+01   2.6986389698e+01    0.2217345    0.1242949 -28.23 0.0006202307    2.502    0.600
        39  -9.4079    192.3669    139.8095   6.4684712651e+01   1.6172042214e+01    0.5243081    0.3022545  62.76  0.002114519    2.979    0.664
        40 -12.5787    244.8826    125.9232   5.3244823989e+01   9.5747861896e+00     1.871155    0.6910563 -43.23  0.008276653    2.324    0.570
        41  -9.4424    165.9163    136.4666   6.9358567431e+01   2.1826669420e+01    0.5358173    0.2963523 -56.24  0.002137407    2.292    0.564
        42  -8.3489    113.0139    139.3095   8.3313846981e+01   3.1409687722e+01     0.220864    0.2019675  36.10 0.0007931053    1.093    0.085
        43 -11.5814    238.3814     94.5178   4.7645694158e+01   1.5478914066e+01     1.692454    0.7644482 -53.64  0.007555136    2.529    0.605
        44 -11.5436    246.4586    182.3753   6.3847679651e+01   7.0960365926e-01     1.264852      0.38876 -39.14  0.005437797    2.774    0.640
        45  -9.8755    216.7551    139.1784   6.0201315834e+01   1.1993659651e+01     0.329083     0.246396 -77.69  0.001692297    2.218    0.549
        46  -8.8096    171.7121    116.6813   6.3457431559e+01   2.4574528953e+01    0.3289829     0.196844 -35.67  0.001124342    1.648    0.393
        47  -8.5633     24.6139    117.9807   1.0809016769e+02   4.9204691961e+01    0.4184549    0.1156989  41.01  0.001365897    3.996    0.750
        48 -10.5371    222.2503    112.8551   5.3722379511e+01   1.5450023042e+01    0.4541606    0.3825884 -42.07  0.001842401    1.054    0.051
        49  -8.9446    221.6019    106.2539   5.2383832803e+01   1.6642727761e+01    0.4023458    0.1814417 -43.23  0.001823565    1.930    0.482
        50 -10.2597    196.8455    107.5422   5.6557265035e+01   2.1151542609e+01     1.075693    0.3602223 -48.05  0.003616539    3.307    0.698
        51 -10.0951    121.8424    109.0896   7.3476506737e+01   3.6607986371e+01    0.6240554    0.4221176 -53.95  0.002104194    1.576    0.365
        52  -9.2764    160.8591    108.8920   6.3822229677e+01   2.8360281888e+01    0.4230459    0.3056225 -56.43  0.001536192    1.514    0.339
        53  -8.3998     97.2454    109.4120   8.0851495660e+01   4.1404316555e+01    0.2173519    0.1440367  47.95 0.0005622224    1.608    0.378
        54 -10.1863    215.6751    135.3324   5.9570052457e+01   1.2834094077e+01    0.4406908    0.1915391 -39.30  0.001924225    2.010    0.503
        55 -10.0106    122.8303     97.9701   7.0176748166e+01   3.8779827410e+01    0.6725709    0.4981706   3.68  0.002972071    1.867    0.464
        56 -10.7001    215.1175     95.4385   5.0920734353e+01   1.9604032445e+01    0.8295569    0.3152727 -38.85  0.003298096    2.277    0.561
        57  -9.0586    106.6191     97.9179   7.4827609598e+01   4.2175561593e+01    0.4515828    0.2752126 -26.38  0.001784148    2.167    0.539
        58  -9.6232     57.4910    100.3972   9.2371770760e+01   5.0097869330e+01    0.4852683    0.2771034 -66.74  0.002045858    1.994    0.498
        59  -9.2740    196.8910     94.7244   5.3528707501e+01   2.3341500140e+01    0.4303274    0.2396425 -57.58  0.001872583    2.186    0.543
        60  -9.6362    242.6991     76.7085   4.3448356777e+01   1.7329435743e+01    0.4092741    0.2921806 -83.76  0.002516635    1.670    0.401
        61 -11.2465    233.5636     57.9049   4.0451872506e+01   2.1615042062e+01    0.8857651    0.4791332 -63.60  0.003565366    2.034    0.508
        62 -10.5859    239.5261     52.6321   3.8781130260e+01   2.1195022796e+01    0.6059269    0.3052903  87.95  0.002981636    2.742    0.635
        63 -10.1892    248.6907     74.4811   4.2371913431e+01   1.6592096312e+01    0.5732362    0.2851481 -37.69  0.002454098    1.654    0.395
        64 -10.5275    247.9488     65.8616   4.0701224694e+01   1.7907578114e+01    0.7184666    0.4682651 -11.11  0.003820149    2.562    0.610
        65 -11.3458    129.6720    237.9010   9.5888582556e+01   7.7088963666e+00    0.6285942     0.309067 -55.76  0.003073585    2.501    0.600
        66  -7.8938     67.4664    102.5103   8.9195500710e+01   4.8137736472e+01    0.1476502    0.1426918 -38.16 0.0001148347    1.031    0.030
        67  -9.6822     84.0816     83.7129   7.7982480374e+01   4.9664351968e+01    0.3343856    0.2750172 -82.18   0.00164758    1.614    0.380
        68  -7.7167    124.4738     86.5123   6.6449146855e+01   4.0747811911e+01    0.1494016    0.1480676  81.44 0.0001958824    1.036    0.034
        69  -8.7237    212.0608     83.4689   4.8633757421e+01   2.2096800910e+01    0.2660626    0.1602013 -50.90 0.0009449527    1.571    0.364
        70  -9.4477    153.2148     79.2247   5.7550780972e+01   3.5580371164e+01    0.5563181    0.2326175 -48.43  0.002004194    2.642    0.621
        71  -9.4964    180.7080     79.7607   5.2518585342e+01   2.9282354081e+01    0.4242978    0.2916531 -74.73  0.001530434    1.872    0.466
        72  -9.2531    141.8693     81.0803   6.0562580817e+01   3.7851311525e+01    0.2333837    0.2011342 -71.85 0.0005825753    1.281    0.219
        73  -8.2410     64.3872     80.2588   8.4230847464e+01   5.3820920344e+01    0.1993725    0.1387428 -58.59 0.0007840118    1.580    0.367
        74  -9.2939    214.6586     64.4230   4.3944627088e+01   2.4420788720e+01    0.5732823    0.2280677 -38.79  0.002542926    2.161    0.537
        75  -9.6885    216.2076     74.4224   4.6026694843e+01   2.2649631313e+01     0.525398    0.3404103 -76.66   0.00271394    1.958    0.489
        76  -9.0069    215.4031     70.8007   4.5305654162e+01   2.3346157829e+01    0.2917014    0.2490343  16.35  0.001781255    1.579    0.366
        77 -10.6076    248.0512     84.3712   4.4443397419e+01   1.5302028320e+01    0.9124668    0.3156562 -35.39  0.003996344    2.483    0.597
        78  -9.7959    106.1562     71.9935   6.7118989475e+01   4.7568986165e+01    0.6209311    0.4382989 -81.99  0.002603292    2.383    0.580
        79  -9.9163    147.8664     70.6333   5.6225913198e+01   3.8292226144e+01      0.46575    0.3594899 -76.87  0.002316458    1.553    0.356
        80  -9.2574      5.0068     70.9720   1.0807218412e+02   6.2236439982e+01    0.1971742    0.1482984  61.12  0.001135723    1.696    0.410
        81  -9.0075     29.9787     67.0673   9.5220429754e+01   6.1270111343e+01    0.3422943    0.1324676 -39.44  0.001325656    2.605    0.616
        82  -7.8338     81.6003     65.8267   7.3055012682e+01   5.3803991092e+01    0.2007823    0.1377409 -53.56 0.0009368113    1.691    0.409
        83 -10.0425    200.8030     60.4592   4.4735712728e+01   2.7874843359e+01    0.7572403    0.2895296 -42.34  0.003196519    2.295    0.564
        84  -7.8871     47.4063     65.2221   8.6614434645e+01   5.9612960908e+01    0.1899855    0.1325533 -59.77  0.000948566    1.635    0.388
        85  -7.7574     36.4985     63.4765   9.1063116869e+01   6.1363892834e+01    0.1374812    0.1211988 -23.48 4.383288e-05    1.003    0.003
        86  -8.3517    148.0007     56.7275   5.2118650553e+01   4.0481320664e+01    0.2706078    0.1698972 -49.02  0.001270407    1.666    0.400
        87  -8.6307    108.1776     54.9205   6.0823657848e+01   5.0115900890e+01    0.3123174    0.1992143 -49.07  0.001438152    1.782    0.439
        88  -8.7538     17.8441     55.2433   9.7827545679e+01   6.4997484406e+01    0.2405834    0.1548713 -75.96  0.001215882    2.064    0.515
        89 -10.5430    223.8974     43.4809   3.8285842754e+01   2.5384767227e+01    0.6136607    0.4682876  -9.27   0.00370989    1.886    0.470
        90  -8.3478    124.1870     52.2200   5.5814267603e+01   4.6826673596e+01    0.2011757     0.168927 -78.06 0.0006960509    1.368    0.269
        91  -8.4928     40.6747     51.6691   8.5064891906e+01   6.3316225289e+01    0.1446878   0.09441371 -16.31 0.0007050728    1.706    0.414
        92  -8.6356     97.2675     48.7362   6.1772538983e+01   5.3545781497e+01    0.3117025    0.2388241 -82.08  0.001518344    1.908    0.476
        93  -9.2588    157.6381     44.6682   4.6859908405e+01   3.9908459227e+01    0.5738032    0.2295044 -53.42  0.002012388    3.390    0.705
        94  -9.7450    250.0369     44.9184   3.6329021781e+01   2.0262465261e+01    0.4342273     0.138608 -36.71  0.001475738    2.507    0.601
        95  -8.3743    250.4993     39.0131   3.5131140842e+01   2.0904954830e+01    0.2488085   0.09167208 -36.19  0.001233761    2.248    0.555
        96  -9.6298    234.3936     44.3875   3.7524863621e+01   2.3220866386e+01    0.4693242    0.2748616  61.97  0.002759055    1.906    0.475
        97  -9.3043    200.8861     43.3028   4.0611901934e+01   3.0193772937e+01    0.4346326    0.2283448 -54.82   0.00214682    1.862    0.463
        98  -8.6117     56.7773     45.4074   7.5226500278e+01   6.2077428322e+01     0.267722    0.1242158  42.55  0.001140983    2.200    0.545
        99  -9.7557    174.4012     43.0856   4.3877684531e+01   3.6171792190e+01    0.3371721    0.2141826 -50.16  0.001745213    1.534    0.348
       100  -8.3920     85.3612     42.6298   6.3210705987e+01   5.7067248015e+01    0.2043651    0.1727803 -84.39  0.001100493    1.611    0.379
       101 -11.0171    225.7277    241.6661   7.7354182692e+01  -5.1264436033e+00     1.040588    0.6945996 -37.56  0.006933834    1.733    0.423
       102  -8.1820      7.3366     39.6885   9.8856730462e+01   6.9069642241e+01     0.113643   0.09493499  54.70 0.0007045044    1.686    0.407
       103  -9.6831    147.8459    246.0906   9.3076094887e+01   3.8756483750e+00    0.1891956     0.155361  39.90  0.001236856    1.318    0.241
       104  -8.3042    103.1104     42.1324   5.7673909550e+01   5.3226479715e+01    0.2277961    0.1811011  30.87  0.001083601    1.281    0.219
       105  -9.3675    219.3126     19.6636   3.3505271784e+01   2.9132978867e+01    0.2145944    0.1891871 -73.50 0.0009512267    1.133    0.117
       106  -8.6473    184.9343     26.1104   3.8150928344e+01   3.5828054944e+01    0.2073827    0.1984391 -29.86  0.001354553    1.255    0.203
       107  -8.0388     93.7722     27.4097   5.4632928500e+01   5.7308826639e+01    0.2026623    0.1108001  46.25 0.0009481637    1.644    0.392
       108  -9.2825    145.4224     24.0998   4.2704714636e+01   4.5369727222e+01     0.383709    0.2622036 -46.84  0.002084483    1.517    0.341
       109  -8.3297     33.4897     25.9622   7.8043023856e+01   6.8935869442e+01    0.2001485    0.1545352  17.33 0.0009033651    1.170    0.145
       110  -7.9746     14.5278     22.5216   8.7680212448e+01   7.1768492362e+01    0.1239388    0.0993287 -13.76  0.000109032    1.004    0.004
       111  -9.2741    152.1318     19.8082   4.0440269148e+01   4.4211955648e+01    0.2067844    0.1644426 -76.14 0.0008190668    1.229    0.186
       112  -9.0819     42.9618     31.4023   7.5655998399e+01   6.6671103794e+01    0.3836947    0.2184697  15.34  0.001806115    2.123    0.529
       113  -8.0144     52.6796    244.3246   1.1343733646e+02   1.6311855269e+01    0.1295259   0.07164726  56.15 0.0004947828    1.678    0.404
       114  -9.4504    155.2694    241.7358   9.0935687004e+01   3.5916628155e+00    0.2290937    0.1565993 -29.00  0.000838666    1.583    0.368
       115  -8.1128      9.3545    240.7906   1.2224675531e+02   2.1399382207e+01    0.1393384   0.09365229 -77.01 0.0004521009    1.555    0.357
       116 -10.0469    244.1066    236.9084   7.3493792155e+01  -6.4991211702e+00    0.2855799    0.1801033 -30.44  0.001950344    1.486    0.327
       117 -10.1324    149.8205    234.4505   9.1064995256e+01   5.5361810531e+00    0.2729935    0.1820609 -18.46  0.001190666    1.735    0.424
       118 -10.5736    141.5569    234.9307   9.2908476310e+01   6.5936341761e+00    0.3851393    0.1524898  34.95  0.001713007    2.142    0.533
       119 -11.1254    228.8569    185.5002   6.7282919831e+01   2.5486458560e+00     2.020071     1.016593 -55.63  0.007278273    5.087    0.803
       120 -11.8294    246.2823    168.8648   6.1383590026e+01   2.7492817292e+00     1.483107    0.7749326 -15.13   0.00701265    2.559    0.609
       121 -11.2468    248.7818    220.9514   7.0163124559e+01  -4.9500178693e+00     0.874518    0.3939038 -26.20  0.004841409    1.948    0.487
       122 -12.4955    247.0291    204.4474   6.7664884388e+01  -2.5232786933e+00     1.753251    0.6578439 -36.32  0.008729357    2.270    0.559
       123 -11.5518    211.9155    171.8980   6.7673268991e+01   7.1913801095e+00     1.163263    0.6431664 -57.71  0.004740514    3.389    0.705
       124 -12.8193    234.7361    149.7614   5.9477076392e+01   7.3690706772e+00     2.144747     0.921934 -49.51  0.008966354    2.903    0.656
       125  -8.3915     94.9989    222.4957   1.0182525411e+02   1.5396137285e+01    0.1890206   0.08836373  49.64 0.0004588845    2.302    0.566
       126  -9.3371    156.5809    225.4659   8.8303458397e+01   6.1311550627e+00    0.2536836    0.1935664  -4.81 0.0005180254    1.308    0.236
       127  -7.9254     17.5054    215.4854   1.1926783154e+02   2.5883112057e+01    0.1189603    0.1022373  66.26 -4.505381e-05    1.054    0.052
       128 -10.9728    185.9633    246.2067   8.5387556151e+01  -1.0590948025e+00     1.107313    0.5089498 -33.57  0.005759852    2.294    0.564
       129  -9.0009    176.1352    197.1466   7.9457641573e+01   8.2647213145e+00    0.2085518    0.1658491  -8.76  0.000531652    1.186    0.157
