#   1 NUMBER                 Running object number                                     
#   2 MAG_AUTO               Kron-like elliptical aperture magnitude                    [mag]
#   3 X_IMAGE                Object position along x                                    [pixel]
#   4 Y_IMAGE                Object position along y                                    [pixel]
#   5 X_WORLD                Barycenter position along world x axis                     [deg]
#   6 Y_WORLD                Barycenter position along world y axis                     [deg]
#   7 A_WORLD                Profile RMS along major axis (world units)                 [deg]
#   8 B_WORLD                Profile RMS along minor axis (world units)                 [deg]
#   9 THETA_WORLD            Position angle (CCW/world-x)                               [deg]
#  10 FWHM_WORLD             FWHM assuming a gaussian core                              [deg]
#  11 ELONGATION             A_IMAGE/B_IMAGE                                           
#  12 ELLIPTICITY            1 - B_IMAGE/A_IMAGE                                       
         1 -13.3469    170.9223     90.0822   4.8782900786e+01   2.9741273773e+01     3.440921     2.599998 -22.29   0.01491363    1.629    0.386
         2 -13.6794    247.0194     47.6139   2.9133053107e+01   2.0622661896e+01     1.879515     1.374892  16.89  0.006939537    3.485    0.713
         3 -14.0022    248.7938     83.7194   3.5777354405e+01   1.5021415729e+01     4.006802    0.7771919 -37.80   0.01087916    6.165    0.838
         4 -14.7917    243.3852     36.1961   2.7337060100e+01   2.2797812219e+01     6.466831     2.513767 -43.63   0.00799217    2.131    0.531
         5 -14.2208    249.3267     69.9591   3.3096450330e+01   1.7027737883e+01     8.448558     2.048253 -34.75   0.02200579    8.089    0.876
         6  -8.7494    150.1547      9.6653   3.1311248121e+01   4.5607929103e+01    0.2660649    0.1033703  76.40  0.001111006    2.678    0.627
         7  -9.0963    182.2324      3.3173   2.6122886212e+01   3.9020387990e+01    0.1904013    0.1537382 -67.79  0.000955708    1.172    0.147
         8 -15.2110    244.8500     79.2060   3.5346181091e+01   1.6428453948e+01     5.701707     1.778532  49.87   0.02092173    4.453    0.775
         9  -8.3636    239.4701    205.5009   6.0668142338e+01  -4.4662144217e+00    0.1293374    0.1008079 -18.66 4.482333e-05    1.030    0.029
        10 -10.3372    190.9725    248.5837   7.7483108224e+01  -5.2266256819e+00    0.2261161    0.1948357  -8.72  0.001488709    1.137    0.120
        11  -9.3735     10.7603    203.8389   1.1327917087e+02   2.8671814305e+01    0.2429367    0.1848859 -77.74  0.000405269    1.180    0.152
        12 -10.3339    192.6564    194.3593   6.7573452958e+01   4.3445831889e+00    0.9942309    0.5268003 -65.73  0.002759791    6.381    0.843
        13  -9.3146    205.0129    199.7021   6.6063335726e+01   1.3883059273e+00    0.1973727    0.1668157   4.69  0.001161533    1.122    0.109
        14 -10.7273    218.2546    185.5100   6.0764214133e+01   2.0247700827e+00    0.4913844    0.3316821 -34.76  0.001810681    1.293    0.226
        15  -8.7125     14.2406    188.1074   1.1120764359e+02   3.2179434813e+01    0.1885853    0.1728021  57.91 0.0004252188    1.177    0.151
        16  -9.2151    157.1158    247.5652   8.4484243417e+01  -3.2920362736e-01    0.3032924    0.2086433  37.87  0.001175665    1.394    0.283
        17 -11.0191    223.9719    176.1142   5.7874101634e+01   2.8937262845e+00    0.6529662    0.3553803 -32.16  0.003113351    1.724    0.420
        18  -9.1525    187.8893    175.6064   6.4852029657e+01   8.9266136377e+00    0.3592817    0.2098371 -59.99  0.001462187    2.393    0.582
        19  -8.7413    194.8725    173.6182   6.2987486110e+01   8.1242037434e+00     0.441327    0.1928628 -58.85  0.001255036    4.967    0.799
        20  -9.1705    158.9461    243.1762   8.3420766437e+01   1.9686957605e-01    0.2135004    0.1793232 -23.13 0.0002920723    1.214    0.177
        21 -10.7625    240.8309    164.9857   5.2802204600e+01   2.3706101101e+00    0.3771476    0.2728269 -48.38  0.002192114    1.349    0.259
        22  -7.9136    213.9822    167.5142   5.7993569029e+01   6.1080875946e+00    0.1904473    0.1381617  36.17  0.000660244    1.532    0.347
        23  -8.7773    202.4858    166.2410   5.9938265854e+01   8.2956632178e+00    0.3213023    0.2233105  82.88  0.001305825    3.107    0.678
        24  -9.7911    160.3926    165.2387   6.8844297925e+01   1.6165274186e+01    0.2706673    0.2542613  -8.83 0.0002610158    1.039    0.038
        25  -8.9235    165.9574    162.6521   6.6989675062e+01   1.5691539120e+01    0.2117486    0.1972654  26.93 0.0004784096    1.106    0.096
        26  -8.1864    207.3040    162.0448   5.8135725294e+01   8.2976730757e+00      0.19983     0.167015 -36.11 0.0004120213    1.066    0.062
        27  -8.6785    210.9871    156.4827   5.6287906989e+01   8.7532135076e+00      0.25422    0.1799392 -53.61 0.0005658601    1.482    0.325
        28  -9.2444    191.4178    152.9870   5.9357010360e+01   1.2969512833e+01    0.5389447      0.27009 -50.83   0.00217761    2.056    0.514
        29  -8.9292    165.6069    155.2202   6.5453058011e+01   1.7404932959e+01    0.2224943    0.1380119 -36.36 0.0009351213    1.633    0.387
        30 -12.7035     11.3675    146.0857   1.0777734359e+02   4.3034390747e+01     1.018659    0.8771318 -58.50  0.003942159    1.103    0.094
        31  -9.9053     67.5665    143.4332   9.0039862692e+01   3.7866212602e+01     2.068792    0.9748928 -62.11  0.007988965    2.086    0.521
        32  -9.5995     55.0749    122.9608   8.9986249466e+01   4.4783132344e+01    0.4350832    0.4231837  35.82 0.0003605269    1.128    0.114
        33 -11.2411     41.4047    137.8376   9.7326499360e+01   4.2536088215e+01      0.47356    0.4101726 -10.41 0.0008841627    1.286    0.222
        34 -12.8524     49.6243    135.2030   9.4207980458e+01   4.2305606299e+01     2.680088     1.440777   0.39    0.0099502    3.037    0.671
        35 -11.5935     57.4383    134.7993   9.1593503887e+01   4.1456951945e+01    0.9435556    0.4976247 -49.96  0.001930536    1.730    0.422
        36  -9.1423    147.9133    143.7081   6.7093577692e+01   2.3499542800e+01    0.2234817     0.210702  48.69 0.0007549668    1.112    0.101
        37  -9.1625    178.2291    139.6219   5.9149515373e+01   1.8305252921e+01    0.2984607     0.179821 -52.80  0.001279528    1.717    0.418
        38  -9.3404    207.5636    137.7249   5.2947666957e+01   1.3033877219e+01    0.4746068    0.2403441 -45.28  0.001367282    1.776    0.437
        39 -10.5000    186.7723    128.4063   5.4830296476e+01   1.8916907332e+01    0.8799309    0.7010807 -73.02   0.00421339    1.491    0.329
        40  -7.1727    111.2781    133.3083   7.4503847894e+01   3.3183635468e+01    0.1586181      0.12232 -17.20 0.0004536024    1.556    0.357
        41  -8.3447    226.4473    131.0512   4.8321236050e+01   1.0886342156e+01    0.1885036    0.1773462 -51.92 0.0004682422    1.107    0.097
        42 -11.5681     25.5133    134.5677   1.0189703811e+02   4.4895677707e+01    0.5288845    0.4174402  77.58  0.002954745    1.402    0.287
        43  -9.4744    136.2399    128.3211   6.6406129107e+01   2.9403854371e+01    0.8058419    0.1998562 -48.21  0.002127602    4.066    0.754
        44 -11.2646    126.8728    105.5739   6.3059413184e+01   3.6404441029e+01     1.246281     1.079554 -32.29  0.006324574    1.176    0.149
        45  -8.4479    161.3109    129.2205   6.0474595420e+01   2.3984858512e+01    0.3159829    0.2177321  57.07  0.001409652    1.657    0.397
        46  -8.3222     94.1569    122.7020   7.7094885836e+01   3.8901553486e+01    0.2602953    0.2125538 -61.19 0.0005405759    1.293    0.226
        47  -9.1750    169.4865    119.7114   5.6372139020e+01   2.4276308437e+01    0.4131404    0.2726465 -38.12  0.001371272    1.505    0.336
        48  -8.2380    199.0209    117.7240   5.0086684491e+01   1.8562547569e+01    0.3001737    0.1772503 -21.08  0.001173937    2.731    0.634
        49  -9.7639    186.7730    112.5418   5.1162289326e+01   2.2070611087e+01    0.7168773    0.2619576 -47.24  0.002520388    2.659    0.624
        50  -9.0921    183.1596    111.3456   5.1575382067e+01   2.3062131752e+01    0.2770408    0.1788334  54.77 0.0005983114    1.662    0.398
        51 -10.0011    205.1433    110.1973   4.7337477883e+01   1.8757570134e+01    0.5397509    0.3560166  60.85   0.00269726    1.724    0.420
        52 -10.2045    235.5555    182.7832   5.7116052529e+01  -2.8576713738e-02     0.435645    0.1918277 -51.23  0.001787433    2.791    0.642
        53  -9.9037    135.3994    119.4755   6.4420580367e+01   3.1572136803e+01    0.8129297    0.2701629 -45.84  0.002533763    2.964    0.663
        54  -9.6568    135.0000    111.5287   6.2483819947e+01   3.3397910552e+01    0.6060879    0.1979649 -43.22  0.001876255    3.066    0.674
        55  -7.4034     86.2666    107.2547   7.5695827542e+01   4.3947909565e+01    0.1455119    0.1138177 -13.02 0.0006808604    1.446    0.308
        56 -10.1561     74.7705    106.2050   7.9282704438e+01   4.6096044506e+01    0.2496973    0.2323247 -14.54 0.0002385996    1.029    0.028
        57 -10.4154    134.3867    103.9520   6.0646045454e+01   3.5137597970e+01     1.115341    0.4041516 -50.48  0.002832938    3.191    0.687
        58  -8.4910    159.9213    238.5642   8.2491650120e+01   8.9978489881e-01    0.2065136    0.1686859 -22.44  0.001214811    1.236    0.191
        59  -8.2285      3.2987    130.3431   1.0835236540e+02   4.7542018220e+01    0.1414386   0.07729572 -46.82 0.0006667842    1.671    0.402
        60  -7.7847    188.4713    236.5835   7.6045500294e+01  -2.8709680970e+00    0.1314136    0.1104998   4.09 1.654972e-05    1.027    0.026
        61 -10.4856    197.1577     62.7466   3.7834326616e+01   2.8480635939e+01    0.6360047    0.4612168  -9.28   0.00179894    2.295    0.564
        62  -9.8488    198.2880     56.4901   3.6258988663e+01   2.9160979815e+01    0.3925759    0.2520341 -34.76  0.001444087    1.695    0.410
        63  -7.7545    149.4462     64.7425   4.6421157897e+01   3.8953690046e+01    0.1715964    0.1396822 -21.49 0.0003332525    1.449    0.310
        64  -8.4257    142.1414     62.1894   4.7232547088e+01   4.1037063056e+01    0.2002143    0.1821222  36.20 0.0003912638    1.160    0.138
        65 -10.1159    240.7394    180.9836   5.5887816239e+01  -4.4384788141e-01    0.3514053    0.1675062 -44.70  0.001676629    1.884    0.469
        66  -7.9333    209.3982     55.7836   3.4686780981e+01   2.6895510320e+01    0.1587106    0.1180271 -34.41 0.0002557413    1.515    0.340
        67 -10.7227    160.5911     52.2075   4.0946511914e+01   3.8254220650e+01    0.5842254    0.3189294 -43.98  0.002783727    1.878    0.468
        68 -10.2379    163.6221     50.8387   4.0071486972e+01   3.7747905535e+01    0.5312269    0.2318842 -34.13  0.002254154    2.498    0.600
        69  -8.4077    111.8412     52.6238   5.1516463223e+01   4.9327308038e+01    0.2017356     0.183586  -1.39 0.0003321565    1.169    0.145
        70  -9.6541    169.5851     50.2453   3.8944261732e+01   3.6461064892e+01     0.277809    0.2117966 -18.88  0.001151273    1.713    0.416
        71  -8.3744    172.3026     47.7092   3.7882087181e+01   3.6189584422e+01    0.2016146    0.1609743  67.69  0.001182912    1.165    0.141
        72 -10.0979    206.3505     46.6341   3.3071849392e+01   2.8817214328e+01    0.5039644    0.2263318 -52.81   0.00237528    2.150    0.535
        73  -9.2895    180.8264     45.8548   3.6173576978e+01   3.4509069702e+01     0.187686    0.1396516 -72.47 0.0006430416    1.327    0.246
        74 -10.1738    155.6024     40.7758   3.8765891668e+01   4.0949380374e+01    0.5637531     0.196432 -31.72  0.002042656    3.278    0.695
        75  -9.5845    142.5094     42.3381   4.1530378715e+01   4.3782383114e+01    0.2739491    0.1828309  21.04  0.001306891    2.262    0.558
        76  -8.5371    159.4674     41.5178   3.8323895398e+01   3.9960408942e+01    0.1320957    0.1181765  74.58 0.0001986044    1.036    0.034
        77  -9.1117    179.9968     39.9093   3.4861041143e+01   3.5477974547e+01    0.1824821    0.1505158  33.52 0.0005351277    1.606    0.377
        78  -8.0532    190.1612     37.0550   3.2879407877e+01   3.3577012610e+01    0.1748978    0.1658654  83.22 0.0006588314    1.216    0.177
        79  -8.7399    169.1960     36.2074   3.5467523907e+01   3.8395013673e+01    0.2131712    0.1919418  82.69  0.000520635    1.061    0.057
        80  -7.3321    107.6273     37.2927   4.7611845415e+01   5.2335655196e+01    0.1323132    0.1027989 -88.78 0.0007024678    1.729    0.422
        81 -10.2765    149.5419     31.0598   3.7148443083e+01   4.3536351570e+01    0.3945476    0.1847876 -28.36  0.001803074    2.552    0.608
        82  -8.9472    185.2942     29.4018   3.1711419673e+01   3.5589906276e+01    0.4177249    0.2282824 -15.94  0.001859047    3.398    0.706
        83  -8.4446    158.0868     25.0149   3.4219430934e+01   4.2248481077e+01     0.184696    0.1595524  76.95 -0.001320134    1.025    0.024
        84  -8.8296    152.7813     19.8040   3.3622020018e+01   4.4021302350e+01    0.1888507    0.1560547  57.54 0.0008532502    1.183    0.155
        85  -9.7031    126.9846    230.4140   8.8715731034e+01   7.4992467654e+00    0.2603521    0.2401724 -58.88 0.0004749348    1.215    0.177
        86  -8.8512     78.5418    222.5219   9.9135903896e+01   1.6418334716e+01     0.233037    0.2213701 -48.85 0.0001255557    1.182    0.154
        87  -8.4185    150.4127    217.4645   8.1202185103e+01   6.4977516843e+00     0.237415    0.2019471 -27.01   0.00054314    1.186    0.157
