#   1 NUMBER                 Running object number                                     
#   2 MAG_AUTO               Kron-like elliptical aperture magnitude                    [mag]
#   3 X_IMAGE                Object position along x                                    [pixel]
#   4 Y_IMAGE                Object position along y                                    [pixel]
#   5 X_WORLD                Barycenter position along world x axis                     [deg]
#   6 Y_WORLD                Barycenter position along world y axis                     [deg]
#   7 A_WORLD                Profile RMS along major axis (world units)                 [deg]
#   8 B_WORLD                Profile RMS along minor axis (world units)                 [deg]
#   9 THETA_WORLD            Position angle (CCW/world-x)                               [deg]
#  10 FWHM_WORLD             FWHM assuming a gaussian core                              [deg]
#  11 ELONGATION             A_IMAGE/B_IMAGE                                           
#  12 ELLIPTICITY            1 - B_IMAGE/A_IMAGE                                       
         1 -11.2576    226.1906     17.1896   6.5814095061e+01   2.5929454357e+01    0.7450702    0.5662498 -61.31  0.003254716    1.273    0.214
         2 -12.6399    238.2521      5.4760   6.1809867378e+01   2.4273900767e+01     1.445854     1.016072  65.16  0.008333198    1.439    0.305
         3  -8.4911    119.8499      9.0644   7.8617038350e+01   5.3414709059e+01    0.3260827    0.1930973 -25.12   0.00137983    1.725    0.420
         4  -8.0016    172.7024      3.3043   6.7841310759e+01   4.0792156454e+01    0.2953922    0.1019998 -49.23 0.0009549793    3.963    0.748
         5  -7.9311    108.0225      2.5299   7.8523964013e+01   5.6709681528e+01    0.2310552    0.1358888 -58.88 0.0009933921    2.935    0.659
         6  -7.4718    132.8660    232.1358   1.3095358498e+02   1.1020253914e+01     0.147287    0.1235289  33.75 0.0003827456    1.283    0.221
         7 -10.4474    246.8636    249.5901   1.1416030549e+02  -8.8781424759e+00    0.5147293    0.3056287  19.77  0.003469451    1.412    0.292
         8  -9.7761     43.2091    222.5341   1.4558911523e+02   2.5029212299e+01    0.5023178    0.2142126  84.59  0.001198736    2.747    0.636
         9 -11.8163     32.7003    210.5434   1.4654269194e+02   2.8343604200e+01     1.044592    0.5366834  60.06  0.003145934    1.599    0.374
        10 -11.6883     52.1680    192.2347   1.4155100691e+02   2.9599204795e+01     1.031475    0.6351975  83.27  0.006446732    1.506    0.336
        11  -8.8027     62.8880    201.1742   1.4036813833e+02   2.6552439377e+01    0.1770702    0.1260533  70.71 0.0003946772    1.177    0.150
        12  -8.3978    193.3339    194.8796   1.1435752702e+02   6.3101981777e+00    0.2385621    0.1168225 -47.17  0.001086222    2.574    0.612
        13  -9.9563    186.9244    192.1360   1.1506839422e+02   7.8987434258e+00    0.2209186    0.1942843  34.21 0.0002558389    1.037    0.036
        14  -9.8393     61.2214    185.4102   1.3911203930e+02   2.9833809367e+01     0.401953    0.2088957  77.73  0.002027533    2.298    0.565
        15  -7.0446    187.4364    177.4239   1.1225749568e+02   1.0128227381e+01    0.1355977    0.1208016  27.29  0.000184965    1.013    0.013
        16  -7.4455     61.9526    160.2213   1.3602045144e+02   3.4960347975e+01    0.1456427   0.09563359  43.85 0.0003111451    1.559    0.359
        17  -7.8408     14.8069    152.1607   1.4541621020e+02   4.1657491231e+01    0.1466594    0.1077054 -65.80 0.0003563922    1.328    0.247
        18  -7.3404    243.3325    143.7029   9.5056120233e+01   4.4118270840e+00    0.1264153    0.1087897 -65.23 0.0002605352    1.644    0.392
        19  -9.1726    131.7063    138.9852   1.1624818131e+02   2.8293136348e+01      0.24559    0.2155601  44.24 0.0003707608    1.139    0.122
        20  -8.4851    196.1996    128.4264   9.9933992467e+01   1.6647430878e+01    0.2438959    0.1985317 -29.90 0.0002954669    1.217    0.178
        21  -7.8429    201.9756    125.6970   9.8165583005e+01   1.5843646160e+01    0.2028296    0.1858706  36.42 0.0005282006    1.094    0.086
        22  -8.6749    128.8280    124.0074   1.1358206314e+02   3.1985808895e+01    0.2224561     0.203262  51.29 0.0003055012    1.105    0.095
        23 -10.2357    242.1149    119.6929   8.9744724965e+01   8.1908518734e+00    0.2827894    0.2620718   0.26  0.000449561    1.055    0.052
        24  -8.2709    187.4947    116.4993   9.8702529103e+01   2.0705291191e+01    0.1504904    0.1448736   1.39 -0.0002403367    1.001    0.001
        25  -8.4742    190.2665    114.2722   9.7586805272e+01   2.0468336527e+01    0.2487762    0.1787934 -74.33  0.001060886    2.133    0.531
        26  -7.4365    171.0121    112.9290   1.0118917046e+02   2.5122133284e+01    0.1770142    0.1728584  -1.30 0.0002975266    1.003    0.003
        27  -9.4714    188.0437    106.0253   9.5889125195e+01   2.2441767415e+01    0.2831282     0.245212  -8.35 0.0003366401    1.206    0.171
        28  -7.4643     30.6283    107.8799   1.3623157676e+02   4.9973743362e+01    0.1717084   0.09784787 -77.80 0.0005917125    1.658    0.397
        29  -9.1803    192.0879    100.8832   9.3740180110e+01   2.2391254913e+01    0.2285181    0.2087652 -67.07 0.0004037513    1.226    0.184
        30  -8.4593    245.0650    100.0064   8.4566230013e+01   1.0503257587e+01    0.2133919    0.1986819 -22.89 0.0006288058    1.047    0.045
        31  -8.2938    144.4423     97.5739   1.0304057005e+02   3.4088287420e+01    0.3622823     0.239607   5.83  0.001383912    2.595    0.615
        32  -9.3715    186.9698     94.0224   9.2875615305e+01   2.4796420874e+01    0.2517439    0.1919546 -71.41  0.001026551    1.725    0.420
        33  -8.5993    151.6378     89.7875   9.9154818803e+01   3.3946422606e+01     0.374849    0.2102583 -46.47 0.0009645983    1.855    0.461
        34  -9.0508    154.7570     86.5134   9.7495671146e+01   3.3827837285e+01    0.4758171    0.3628492 -41.30  0.001763705    1.302    0.232
        35  -7.0826    137.3011     88.6625   1.0222372875e+02   3.7408291204e+01    0.1540547    0.1208448 -74.63 0.0007036219    1.664    0.399
        36  -8.0705    211.8737     79.5280   8.4460402768e+01   2.1167902772e+01    0.2285122    0.1963022  11.06 0.0003664566    1.272    0.214
        37  -9.0720    163.4810     78.0373   9.3079454362e+01   3.3260184946e+01    0.3139983    0.2805364 -19.24 0.0006987703    1.126    0.112
        38 -10.6453    167.8848     74.0793   9.0973921203e+01   3.2861461079e+01    0.5734624    0.5155989 -65.90  0.001831351    1.227    0.185
        39  -9.3960    185.1520     77.3394   8.8535306782e+01   2.8056515177e+01    0.2694071    0.2126512 -16.77 0.0006798434    1.348    0.258
        40  -9.1505    146.6112     75.7023   9.6116290200e+01   3.7700221498e+01    0.4252518     0.294096 -64.10 0.0008890434    1.969    0.492
        41  -7.1324     44.3001     66.7162   1.2326295490e+02   5.7637138566e+01    0.1151779   0.09557643 -88.77 0.0001807045    1.551    0.355
        42  -8.6067    158.6935     58.3327   8.7993623240e+01   3.7693364157e+01    0.2942647    0.2231738 -62.60 0.0009658042    1.608    0.378
        43 -10.0076    163.3851     63.1806   8.8560132985e+01   3.5763470470e+01    0.4223705    0.3259041 -15.04  0.002022427    1.403    0.287
        44  -9.6086    157.9524     62.0414   8.9328193727e+01   3.7289402434e+01    0.4445868    0.3108062  36.83  0.001693296    1.518    0.341
        45 -11.9313    183.1409     58.8176   8.3455644341e+01   3.1469966416e+01     0.959725    0.8863542 -30.73   0.00371676    1.076    0.071
        46 -10.9325    175.8758     55.1525   8.3650733507e+01   3.3857411574e+01    0.5935534    0.4810672 -13.12  0.002219664    1.319    0.242
        47  -9.5038    194.7966     57.5279   8.1087022311e+01   2.8708721833e+01    0.3394491    0.2408072 -43.42  0.001618797    1.411    0.291
        48  -8.4530    154.3408     54.1805   8.7559057967e+01   3.9411952367e+01    0.2343458    0.1909195  -5.11  0.001000574    1.332    0.249
        49  -9.4527    190.1340     51.7048   8.0140482987e+01   3.0724780032e+01    0.3271218    0.2995215  65.83  0.001094973    1.100    0.091
        50  -8.8619    134.6492     47.8262   8.9767540270e+01   4.5138560140e+01    0.3146755    0.2299615  70.84  0.001495036    1.668    0.401
        51  -9.8505    249.8181     43.6542   7.0053313051e+01   1.7268336187e+01    0.3288628    0.2283617 -26.65 0.0005625844    1.398    0.285
        52  -9.2629    180.3387     23.4314   7.3075345218e+01   3.6827697989e+01    0.6230901    0.3110124  55.09  0.002675248    1.858    0.462
        53 -10.2929    177.1633     34.0495   7.6865262965e+01   3.6398091389e+01    0.6775786    0.4034221 -74.92  0.002688912    2.534    0.605
        54 -10.1761    178.4116     29.8456   7.5355518063e+01   3.6586651341e+01    0.6097533    0.3842365 -67.22  0.002660062    2.070    0.517
        55  -9.8307    184.0075     40.0272   7.7617742160e+01   3.3876652154e+01    0.3053854    0.2666064   2.01 0.0004769291    1.246    0.197
        56 -10.3448    185.8513     35.7615   7.6032958591e+01   3.3946251149e+01     0.309003     0.274328  18.35 0.0006014076    1.218    0.179
        57 -10.1331    203.6302     38.2783   7.4199828119e+01   2.9081966068e+01    0.3000075    0.2888851 -48.30 0.0004546671    1.030    0.029
        58  -7.7026    222.7702     35.5832   7.1016210692e+01   2.4643476346e+01    0.1984185    0.1312594  86.82  0.000952807    1.702    0.412
        59  -8.0101    250.0560     32.7844   6.7381631012e+01   1.8546503287e+01     0.219979      0.13913  38.54  0.001085387    2.064    0.515
        60  -8.4763    242.7124     33.1800   6.8208065078e+01   2.0180111530e+01     0.264101    0.1659914 -75.35  0.001291698    1.852    0.460
        61  -9.2281    195.7104     31.5074   7.3333289016e+01   3.1934566414e+01    0.4881353      0.27799 -79.52  0.001683113    2.538    0.606
        62  -8.3300    190.7858     31.3941   7.3990840877e+01   3.3211933002e+01    0.2198324    0.1393741  65.72 0.0004001902    1.542    0.351
        63 -10.1283    212.0841     30.2849   7.0862306315e+01   2.7929240914e+01    0.3217216    0.2805627  19.92  0.000668461    1.315    0.240
        64  -8.4689    162.1842     25.3445   7.6526781957e+01   4.1286352338e+01    0.2365059    0.1890709   0.34 0.0003406606    1.376    0.273
        65 -10.3386    144.2192     24.0961   7.9336182779e+01   4.5964329035e+01     0.251711    0.2256055  16.35  0.000293054    1.106    0.096
        66  -8.9258    203.5961     23.2464   6.9930445260e+01   3.0880680954e+01    0.5208112    0.2171205  88.38  0.001558416    4.532    0.779
        67  -7.4788      1.3861    234.3996   1.5279924553e+02   2.7304542589e+01   0.09408233   0.06312972  73.36 0.0001121963    1.023    0.022
        68  -9.0626     66.3158    245.4457   1.4344611935e+02   1.8412969021e+01    0.1749726    0.1356707  67.10 0.0006520106    1.095    0.086
        69  -7.9975    155.1691     19.1847   7.5643887369e+01   4.3754020345e+01    0.1884387    0.1610341 -57.27 0.0004181908    1.300    0.231
        70  -7.2490     91.3400    241.2993   1.3903408950e+02   1.5759344955e+01   0.09518604    0.0829374  24.97 0.0007035236    1.665    0.400
        71  -7.5632    138.2377    225.9747   1.2924852970e+02   1.1107161668e+01    0.1324347    0.1010999 -58.13 0.0004771076    1.575    0.365
