#   1 NUMBER                 Running object number                                     
#   2 MAG_AUTO               Kron-like elliptical aperture magnitude                    [mag]
#   3 X_IMAGE                Object position along x                                    [pixel]
#   4 Y_IMAGE                Object position along y                                    [pixel]
#   5 X_WORLD                Barycenter position along world x axis                     [deg]
#   6 Y_WORLD                Barycenter position along world y axis                     [deg]
#   7 A_WORLD                Profile RMS along major axis (world units)                 [deg]
#   8 B_WORLD                Profile RMS along minor axis (world units)                 [deg]
#   9 THETA_WORLD            Position angle (CCW/world-x)                               [deg]
#  10 FWHM_WORLD             FWHM assuming a gaussian core                              [deg]
#  11 ELONGATION             A_IMAGE/B_IMAGE                                           
#  12 ELLIPTICITY            1 - B_IMAGE/A_IMAGE                                       
         1 -14.5637    242.0385     10.3192   3.5571373020e+02   2.5022845616e+01     1.933187     1.026074 -58.13    0.0116675    1.456    0.313
         2 -10.2479      3.2715     10.3001   6.1510912896e+01   7.6492319533e+01    0.3040182    0.1015685 -28.51   0.00114064    3.934    0.746
         3 -10.2271    211.5146      8.5101   3.5718133559e+02   3.1564438849e+01    0.1277211   0.09609739 -67.22 -4.619795e-05    1.038    0.037
         4 -10.0699      2.0238      3.7234   5.9336910122e+01   7.7779999071e+01    0.2242955    0.1163553 -40.00   0.00128711    1.647    0.393
         5  -9.5592     27.6786      2.6734   3.7414969742e+01   7.5081160167e+01    0.1275143     0.083496   4.88  0.000704773    1.685    0.407
         6  -9.4031    104.8113      1.5805   7.2482894448e+00   5.8598128918e+01    0.1872368    0.1158028  82.61 0.0005997743    1.595    0.373
         7 -10.9559     28.9129    241.8725   8.3087587763e+01   1.9391439232e+01    0.4752123    0.1442703  41.02  0.002260545    2.150    0.535
         8 -11.1899    239.9370    219.3948   3.6649810737e+01  -4.3190766925e+00    0.3952564     0.231936   0.81  0.002405306    1.710    0.415
         9 -11.1823    212.8763    250.2865   4.5813061895e+01  -5.1496551564e+00    0.6060121    0.1124008  33.00  0.002289196    4.545    0.780
        10 -12.0558    212.7032    242.4801   4.4741451831e+01  -4.1577323333e+00    0.6227437    0.3174522 -12.37  0.003325715    2.444    0.591
        11 -11.7611    248.2126    213.5902   3.4420899226e+01  -4.5041260222e+00    0.5064993    0.2769702 -27.64  0.003233874    1.552    0.356
        12 -12.3642    234.1481    245.9535   4.1585474135e+01  -6.9293354710e+00    0.6928628    0.4020726 -15.38  0.004703815    1.538    0.350
        13 -11.8485    242.1252    237.2714   3.9024297076e+01  -6.7435953267e+00    0.5880406    0.2747653 -16.80  0.002407636    2.327    0.570
        14 -11.7157    232.1682    234.8459   4.0288049594e+01  -5.3906247152e+00    0.5248916    0.3026483   7.11  0.003345691    1.628    0.386
        15 -11.5260    236.9831    227.5403   3.8391651512e+01  -5.0160537966e+00    0.4712505    0.2236173 -23.78  0.002269033    2.036    0.509
        16 -11.9234    247.3269    226.3521   3.6553691790e+01  -5.9863506199e+00    0.5580199    0.2524644 -25.04  0.002580057    2.039    0.510
        17 -11.4068    218.9727    245.4573   4.4072508280e+01  -5.2373013842e+00    0.3290054    0.2023404 -21.25  0.001708196    1.510    0.338
        18 -12.5200    224.1083    241.3704   4.2603935829e+01  -5.3050846221e+00    0.7805949    0.2926173 -39.90   0.00410224    2.860    0.650
        19 -12.0242    243.3983    245.1028   3.9965169363e+01  -7.7773138340e+00    0.5808509    0.2563601 -22.36  0.003397977    2.226    0.551
        20 -11.4929    248.8693    248.9097   3.9646983244e+01  -8.7396005335e+00    0.4041955    0.2196068 -12.07   0.00245107    1.631    0.387
        21 -12.2006    249.0901    240.0356   3.8329269067e+01  -7.7712676544e+00    0.6441073    0.2078009 -37.23  0.003376538    3.002    0.667
        22 -11.6841    201.6617    249.0411   4.7639806372e+01  -3.7134003726e+00     0.461806    0.2130518  17.41  0.002426045    2.216    0.549
        23 -11.1977    184.9341    250.1070   5.0883391187e+01  -1.8518795953e+00    0.3991033    0.1392575  30.90  0.001914374    2.347    0.574
        24 -12.2144    169.0025    248.3973   5.3734567672e+01   3.8239727148e-01    0.6393462    0.2797537  32.05  0.003343588    1.837    0.456
        25 -11.1031    110.0531    250.1202   6.6130795788e+01   7.9194064832e+00    0.4187695     0.187537  24.41  0.001949144    2.233    0.552
        26 -11.7632    152.0054    249.4932   5.7275443116e+01   2.4302709712e+00    0.5414307    0.2178967  28.87  0.002287727    2.072    0.517
        27 -12.2291    158.5394    245.2258   5.5416123624e+01   2.2099766658e+00    0.4800529    0.2396579  30.97  0.002599508    1.609    0.379
        28 -12.2902    143.0491    248.3920   5.8979705508e+01   3.7849344597e+00     0.598044     0.278891  31.21   0.00289303    1.700    0.412
        29 -12.6603    135.1322    243.8200   6.0094799911e+01   5.5793888459e+00    0.5789183    0.2833661  35.15  0.003027201    1.617    0.382
        30 -12.3379    125.3080    249.6373   6.2834360271e+01   5.9612649640e+00    0.9058067    0.2567843  31.22  0.003572585    2.891    0.654
        31 -12.1624    115.8916    244.2387   6.4264996451e+01   8.1327152301e+00    0.4344336    0.2796639  49.92  0.002345979    1.534    0.348
        32 -12.6361    107.9978    241.4171   6.5689042726e+01   9.6983347428e+00     0.714016     0.365215  53.73  0.003490477    2.210    0.548
        33 -12.4436     98.9308    245.9727   6.8128481617e+01   1.0114548705e+01    0.7038033    0.3892321  53.73  0.003764458    1.857    0.461
        34 -11.6703     90.1397    247.8638   7.0216245031e+01   1.0937275854e+01    0.4546592    0.2582488  50.89  0.002187292    1.601    0.375
        35 -11.2593     83.5849    246.8816   7.1558694831e+01   1.1963173199e+01    0.3760462    0.1638136  39.91  0.001469179    1.714    0.417
        36 -11.6286     76.3649    248.1143   7.3230415870e+01   1.2661074379e+01    0.4764483    0.2362527  45.99  0.002238588    1.600    0.375
        37 -11.4937     71.8786    240.7065   7.3630995727e+01   1.4603769060e+01     0.501178     0.246491  58.62  0.002495033    2.115    0.527
        38 -11.5767     64.7650    249.2486   7.5822769081e+01   1.3893580711e+01    0.5816864    0.2197342  35.17   0.00270792    1.945    0.486
        39 -10.3777     57.6506    247.3015   7.7224056583e+01   1.5112172305e+01    0.2827053    0.1360297  53.16  0.001507035    1.766    0.434
        40 -10.8690     50.7507    250.0514   7.8872100163e+01   1.5412085463e+01    0.4534604    0.1342381  32.37  0.001988219    2.527    0.604
        41 -11.1364     35.0311    248.4078   8.2102654136e+01   1.7485256494e+01    0.4751004     0.153398  46.60  0.002302783    2.129    0.530
        42 -10.0716     27.4343    250.1716   8.3761769268e+01   1.7964385245e+01    0.2416059    0.1056858  44.75  0.001243084    1.593    0.372
        43 -11.3538     21.0539    248.8150   8.5018620646e+01   1.8877039725e+01    0.4997871    0.1747725  40.43  0.002400551    1.902    0.474
        44 -10.2113     10.5948    248.5726   8.7134194472e+01   1.9955075621e+01    0.3662281    0.1281794  49.31   0.00195085    1.909    0.476
        45 -11.9931      3.9934    243.1104   8.8308689743e+01   2.1613886521e+01    0.6600162    0.2513171  70.74   0.00343468    2.332    0.571
        46 -10.6925    202.5250    240.6343   4.6302882852e+01  -2.7220870758e+00    0.3246004    0.1923509  -2.72  0.001918825    1.806    0.446
        47 -12.6721    124.0781    240.1351   6.2035319039e+01   7.7118594997e+00    0.7125975    0.2435354  37.19  0.003089968    2.265    0.559
        48 -11.6434     16.4512    239.4751   8.5623734166e+01   2.1132876176e+01    0.6617754    0.1911339  42.93  0.003188262    2.190    0.543
        49 -11.7788     82.5950    239.2588   7.1120551673e+01   1.3496792900e+01    0.5696517    0.2158118  39.43  0.002631888    1.967    0.492
        50 -12.2317    150.1149    238.4565   5.6280021676e+01   4.3936063921e+00    0.4819158     0.224657  32.39  0.002433513    1.742    0.426
        51 -10.5788     45.1206    236.8288   7.9302534432e+01   1.8594564561e+01    0.3549416    0.1588659  55.13  0.001769805    1.916    0.478
        52 -10.7350    171.0024    239.6911   5.2183818413e+01   1.3899912881e+00    0.3406327      0.19554   8.29  0.001791533    2.045    0.511
        53 -10.5625    195.9884    236.5054   4.6915618676e+01  -1.3640074882e+00     0.298444     0.165474   8.83   0.00162112    1.990    0.497
        54 -10.6712    184.3302    236.3572   4.9107777192e+01   1.3681747288e-01    0.2547108    0.1612957  16.76  0.001541401    1.391    0.281
        55 -11.9192     94.5877    235.6742   6.8092033425e+01   1.2569554829e+01    0.4595256    0.2119663  41.41  0.002254934    1.720    0.419
        56 -10.6319     38.1029    241.2283   8.1085665833e+01   1.8522564726e+01    0.3285021    0.1510932  50.99  0.001345783    1.678    0.404
        57 -11.0305    161.6415    235.1513   5.3457333919e+01   3.3368813499e+00    0.3309214     0.173481  12.04  0.001521795    2.534    0.605
        58 -10.4073      6.6488    235.1248   8.7533089587e+01   2.2928807322e+01    0.2800055    0.1237999  58.36  0.001444394    1.725    0.420
        59 -11.4933    140.1128    235.0832   5.7965139839e+01   6.3323792211e+00    0.4388474    0.1669661  32.62  0.001947802    2.152    0.535
        60 -11.2335     31.9695    232.1640   8.1953127460e+01   2.0991419216e+01    0.5146187    0.2213582  55.56  0.002612399    1.917    0.478
        61  -9.7189      1.4649    234.4380   8.8593987249e+01   2.3536619795e+01     0.211916   0.09822707 -88.23   0.00118824    2.096    0.523
        62 -10.6915    204.6305    231.9052   4.4646627519e+01  -1.8037927823e+00    0.3612115    0.2058912  -4.95  0.001987605    2.060    0.514
        63 -10.2869     40.0663    230.3661   8.0045833243e+01   2.0466521134e+01    0.3465614     0.175975  77.81  0.001786104    2.115    0.527
        64 -11.3221     21.0590    229.1619   8.4219107102e+01   2.2740039609e+01    0.5181848    0.2407507  45.75  0.002838489    1.584    0.369
        65 -10.9197    214.6124    229.6825   4.2520795687e+01  -2.7175744887e+00    0.2841949    0.1595084 -29.95  0.001729382    1.716    0.417
        66 -10.5984    174.2711    229.7005   5.0135278694e+01   2.4590393480e+00    0.2563053    0.1305529  14.22  0.001177708    2.470    0.595
        67 -11.1694    125.7914    230.5385   6.0523141460e+01   9.1456020868e+00    0.4075651    0.1108053  31.96  0.001453867    3.161    0.684
        68 -10.6626     11.9776    226.4579   8.6102310757e+01   2.4184262557e+01    0.3601674    0.1248202  51.80  0.001537699    2.103    0.524
        69 -11.0944      5.8171    227.2109   8.7464015937e+01   2.4601647538e+01    0.4145859    0.2329858  71.97  0.002259973    1.507    0.336
        70 -11.1730      2.2964    220.4973   8.8020763848e+01   2.6306804580e+01    0.3758239    0.1795074  80.76  0.001862736    1.892    0.471
        71 -10.4275    229.4987    227.4590   3.9617986333e+01  -4.1674916909e+00    0.3904379    0.2027323  -4.17  0.002070592    2.414    0.586
        72 -11.0470     62.6372    230.1788   7.4892995244e+01   1.7824154912e+01    0.5446336    0.2203853  55.52  0.002385552    2.478    0.597
        73 -11.4227    114.2558    228.4330   6.2858612497e+01   1.1176977861e+01    0.5904274    0.1522192  39.14  0.002154012    2.980    0.664
        74 -10.8146     95.7647    228.4457   6.7089913701e+01   1.3782461311e+01    0.4137363    0.1363034  44.53  0.001637864    2.617    0.618
        75 -11.0983     85.9357    226.4986   6.9170707510e+01   1.5515768773e+01    0.4864476    0.2210903  48.93  0.002242323    2.008    0.502
        76 -10.6316     73.5635    226.1766   7.2028310257e+01   1.7234276299e+01    0.3537646    0.1661461  39.75  0.001725147    1.663    0.399
        77  -9.3590     33.6367    224.3199   8.1157654849e+01   2.2426560895e+01    0.1420478   0.06595644  54.66 0.0005532285    1.776    0.437
        78 -11.2364    130.7291    235.2534   6.0013238629e+01   7.6211155099e+00    0.3056674    0.1493886  36.06  0.001532731    1.649    0.394
        79 -10.2745     54.5073    222.1013   7.6166342396e+01   2.0487682009e+01    0.3574977    0.1396576  45.20   0.00162573    1.998    0.499
        80 -10.4718     44.1340    221.5123   7.8559041251e+01   2.1841814310e+01     0.357124    0.1780828  56.26  0.001814617    1.753    0.430
        81 -11.6966     15.0344    218.6023   8.5114522494e+01   2.5539380490e+01    0.7566331    0.1653052  49.57  0.003017257    3.031    0.670
        82 -10.9472    103.3329    230.1757   6.5538943920e+01   1.2396667413e+01     0.363275    0.1735623  46.78  0.001722724    1.909    0.476
        83  -9.7663     63.0707    220.8504   7.4042105558e+01   1.9685845118e+01    0.2394002    0.1036113  50.75  0.001078999    2.043    0.511
        84 -10.5551    227.1954    218.6926   3.8644419293e+01  -2.7551434212e+00    0.2994679    0.1615665 -16.47  0.001685148    1.958    0.489
        85 -10.2666    223.8509    225.2325   4.0233763212e+01  -3.2255426331e+00    0.2239093    0.1193452 -13.32  0.001227029    2.112    0.526
        86 -10.0624     47.6098    229.2884   7.8269384646e+01   1.9821850877e+01    0.3109396    0.1153072  49.67  0.001409366    2.177    0.541
        87  -9.2499     76.6431    217.2960   7.0472979903e+01   1.8654629151e+01    0.1453637   0.08165219  54.70 0.0004471098    1.698    0.411
        88 -10.5754     34.5919    215.2816   8.0409662256e+01   2.4249753228e+01     0.398817    0.1619033  43.97  0.001903775    1.874    0.466
        89 -10.7913     25.4415    210.6705   8.2318710333e+01   2.6227863197e+01     0.463614    0.2350255  78.01  0.002358502    1.938    0.484
        90 -11.0638      3.0248    212.3615   8.7602825247e+01   2.7973486722e+01     0.374698    0.2007476  60.08  0.002044645    1.463    0.316
        91 -10.2148    232.6385    212.5415   3.6752618589e+01  -2.5808634187e+00    0.2401104    0.1397595 -13.29  0.001361133    1.716    0.417
        92  -9.8134     45.3449    212.3136   7.7634756733e+01   2.3683178660e+01    0.2862713    0.0901602  46.08  0.001160442    2.463    0.594
        93 -10.6082    236.7114    206.3909   3.5085508195e+01  -2.2404084487e+00    0.3389232     0.172903 -31.69  0.001972184    1.738    0.425
        94 -10.2241    247.0206    205.7989   3.3350322931e+01  -3.3694868848e+00    0.2443622    0.1305168 -28.21  0.001416212    1.597    0.374
        95 -10.4115    227.0171    204.6184   3.6399643820e+01  -8.0569767034e-01    0.4406122    0.1327639 -30.08  0.001602285    4.351    0.770
        96  -9.5602    215.3296    206.9907   3.8814754129e+01   3.5528128406e-01     0.197294   0.07910734 -23.03 0.0007048293    4.296    0.767
        97  -9.5452     51.7573    206.7050   7.5628283651e+01   2.4162245601e+01    0.1991945    0.1003447  86.94  0.000654835    2.348    0.574
        98 -11.5503     12.9556    204.5311   8.4993686292e+01   2.8808535643e+01    0.5890415    0.2269965  53.67  0.002536386    2.071    0.517
        99 -10.3604      2.3536    205.8743   8.7540998542e+01   2.9446249602e+01    0.2966418    0.1600772  71.29  0.001531635    1.557    0.358
       100 -10.1696     38.8870    205.0959   7.8706225516e+01   2.6030297988e+01    0.3173468    0.1305796  57.81  0.001368127    2.316    0.568
       101 -10.5992    250.3533    200.4562   3.1960098841e+01  -3.0529788249e+00    0.3160817    0.1162176 -35.95  0.001610485    2.354    0.575
       102 -10.0929     29.7134    201.3350   8.0736459931e+01   2.7881432903e+01    0.3132924    0.1561738  57.76  0.001547097    1.754    0.430
       103 -10.3684    243.6963    199.3841   3.2811881980e+01  -2.1303503532e+00    0.3380044    0.1179272 -32.10   0.00148023    2.644    0.622
       104  -9.2150     45.0171    199.4975   7.6748131064e+01   2.6604807903e+01    0.2053335   0.07121378  48.34 0.0008089812    2.439    0.590
       105 -11.7135     18.8887    194.1588   8.3028062037e+01   3.0620822461e+01    0.8813509    0.2511989  58.30  0.003197229    3.424    0.708
       106 -11.7196      5.4958    195.2871   8.6404335071e+01   3.1560689591e+01    0.5701544    0.3111862  62.02  0.003090395    1.506    0.336
       107 -11.3701      3.7048    188.3179   8.6567501513e+01   3.3319509184e+01    0.4454906    0.2338839  64.98  0.002017929    1.603    0.376
       108 -10.1297    237.2796    196.6813   3.3378258141e+01  -9.7926045430e-01    0.2706409    0.1172721 -36.33  0.001416255    2.063    0.515
       109  -9.5477     33.2333    193.9893   7.9359267870e+01   2.9209235326e+01    0.1702613    0.1024297 -82.36 0.0008829943    1.644    0.392
       110 -10.6030    246.1334    191.9679   3.1185405271e+01  -1.4167305912e+00    0.2755033    0.1414401 -34.01   0.00160388    1.674    0.402
       111 -10.4844     27.0515    186.8704   8.0482204529e+01   3.1541210835e+01    0.5523676    0.1103057  43.83  0.001915367    3.384    0.705
       112 -10.1870    249.7509    184.1952   2.9304547912e+01  -7.9111389676e-01    0.2682442    0.1251985 -32.98  0.001477445    1.807    0.447
       113 -12.6110      6.2502    174.6907   8.5306251107e+01   3.6360092903e+01    0.9318044     0.388735  85.87  0.004163605    2.259    0.557
       114 -10.4404     16.2425    181.9265   8.3029296842e+01   3.3763637373e+01    0.3667311    0.1906462  69.80  0.001722246    1.769    0.435
       115 -10.6575     31.1504    172.9872   7.8341703138e+01   3.4516984577e+01    0.4995928    0.1752784 -87.07  0.001755188    3.376    0.704
       116 -10.7966     19.4126    172.1294   8.1566300943e+01   3.5870531785e+01    0.5119981    0.2446813  80.37  0.002306941    2.088    0.521
       117 -11.1849     10.2387    166.3143   8.3770546714e+01   3.8101013379e+01    0.2785687      0.15233  79.74   0.00135764    1.671    0.402
       118 -12.3033     10.8543    153.4375   8.2800823444e+01   4.1297816285e+01    0.9625501    0.3544463  56.62  0.003845911    2.649    0.623
       119 -10.8463     20.6294    141.6693   7.8841538634e+01   4.3554884551e+01    0.4658398    0.2182374  83.11  0.001928148    2.287    0.563
       120 -11.4922      9.7323    137.2510   8.2012799062e+01   4.5553709645e+01    0.6405224    0.3153387 -78.13   0.00299136    1.800    0.444
       121  -9.2807    219.1697    133.1881   2.4420953154e+01   1.1542704849e+01    0.1646018    0.1418504 -56.46 0.0002600158    1.269    0.212
       122 -11.4864      5.3036    125.6774   8.2615179646e+01   4.8856579562e+01    0.7308928    0.3450149  77.04  0.003216532    2.153    0.536
       123 -10.2224    140.2774    121.2866   3.7665671696e+01   2.9528613867e+01    0.3068106    0.2452286  88.26            0    1.533    0.348
       124  -9.1672    172.3037    119.6525   2.9946290899e+01   2.3026489063e+01    0.1517301    0.1154416 -77.48 0.0007040632    1.694    0.410
       125 -10.0105     92.9595    118.2495   5.0577543405e+01   3.9930672298e+01    0.2126942    0.1317741  39.49 0.0008846453    1.579    0.367
       126 -10.5814     10.7368    113.6287   7.9612827056e+01   5.1675933880e+01    0.3897029    0.1687914 -89.21   0.00158811    2.361    0.577
       127  -9.5470    236.4441    112.4701   1.7617151104e+01   1.1942770129e+01    0.1270316    0.1067682 -35.29  0.000263371    1.051    0.049
       128  -9.5702    208.0262    110.7345   2.1390855113e+01   1.7415325399e+01    0.1811665    0.1723404 -45.42 0.0004285406    1.059    0.056
       129 -10.3516      2.7685     94.0857   8.0756531342e+01   5.7196607410e+01    0.3194883    0.1530607  76.74  0.001386865    2.347    0.574
       130  -9.2890    101.6811     93.3535   4.1372657717e+01   4.4218606392e+01    0.1659181    0.1241281  84.71 0.0007046786    1.747    0.428
       131  -9.1174    150.6462     91.7267   2.7598854270e+01   3.3428198587e+01    0.1521801    0.1221874  20.08 0.0007001513    1.640    0.390
       132 -10.1920    192.9572     84.4940   1.7673244991e+01   2.5063823790e+01    0.2384066    0.1768959 -59.62 0.0004319536    1.320    0.242
       133 -10.0802     24.3563     68.3238   6.6538263113e+01   6.2337880160e+01    0.1498659   0.08949681 -33.21 0.0007045551    1.768    0.434
       134  -9.7317    231.2811     58.5919   6.7524688181e+00   2.1052276706e+01    0.1487402    0.1165139  61.82 0.0003855071    1.498    0.332
       135 -10.4635      2.8015     52.6777   7.4817175808e+01   6.7451973926e+01    0.3018304     0.141403 -45.68  0.001484545    1.820    0.451
       136 -11.1251     12.6903     42.3111   6.6334465770e+01   6.9299470978e+01    0.4415432    0.1968047  -7.18  0.001837348    2.978    0.664
       137  -9.3667    161.4325     39.5755   1.0615601961e+01   3.9684156812e+01    0.1433756    0.1252865 -83.31 0.0001164397    1.012    0.012
       138  -8.9717     99.4640     33.4550   2.1602111197e+01   5.6255409825e+01    0.1444364    0.1320138  68.49 2.339535e-05    1.054    0.051
       139 -11.9746    193.3960    244.6353   4.8549653089e+01  -2.1506775081e+00     0.561847    0.2871835  10.61   0.00290749    2.290    0.563
       140 -10.3748      9.3926     26.8008   6.3482567372e+01   7.2841775607e+01     0.184402   0.09225871 -48.18 0.0007362403    1.702    0.412
       141 -10.8731     45.3840    244.8100   7.9713810347e+01   1.7014630506e+01    0.3876334    0.1713181  43.07  0.001805346    1.635    0.388
       142 -12.4068    178.4806    243.2756   5.1201087321e+01  -1.0050547060e-01    0.5151694    0.2536625  18.98  0.002650481    2.046    0.511
       143 -10.9126     62.1942    241.5997   7.5843007599e+01   1.5639668339e+01    0.4442153    0.1668384  44.95  0.002103198    2.009    0.502
       144 -11.1878     53.8299    240.2590   7.7595421697e+01   1.6906118203e+01    0.4455203    0.2192755  63.35  0.002176928    2.065    0.516
