#   1 NUMBER                 Running object number                                     
#   2 MAG_AUTO               Kron-like elliptical aperture magnitude                    [mag]
#   3 X_IMAGE                Object position along x                                    [pixel]
#   4 Y_IMAGE                Object position along y                                    [pixel]
#   5 X_WORLD                Barycenter position along world x axis                     [deg]
#   6 Y_WORLD                Barycenter position along world y axis                     [deg]
#   7 A_WORLD                Profile RMS along major axis (world units)                 [deg]
#   8 B_WORLD                Profile RMS along minor axis (world units)                 [deg]
#   9 THETA_WORLD            Position angle (CCW/world-x)                               [deg]
#  10 FWHM_WORLD             FWHM assuming a gaussian core                              [deg]
#  11 ELONGATION             A_IMAGE/B_IMAGE                                           
#  12 ELLIPTICITY            1 - B_IMAGE/A_IMAGE                                       
         1  -9.6928     29.6252     14.0634   9.9256055337e+01   6.9388384390e+01    0.6575608    0.3100622 -25.48  0.002449884    2.318    0.569
         2 -10.6026     19.1995      6.8684   1.0100271251e+02   7.1581313427e+01    0.7767258    0.6627243 -87.75  0.004197718    2.344    0.573
         3 -11.0684     23.9234     32.3428   1.0924847092e+02   6.6704493897e+01     1.401235    0.4110411 -41.08  0.002930445    2.944    0.660
         4 -10.3876     10.2780     18.9933   1.1075479175e+02   7.0236562200e+01     1.280302    0.4182996 -27.15  0.003943432    7.155    0.860
         5 -10.1476      4.9403     41.7386   1.2026315000e+02   6.6160986789e+01    0.6991006    0.2921083 -69.32  0.003487452    2.351    0.575
         6  -9.6944      2.2226     14.3168   1.1306333201e+02   7.1595871846e+01    0.4999597    0.2134534 -64.71  0.002409229    3.018    0.669
         7 -10.3869      5.1642      4.7762   1.0752398424e+02   7.3064982672e+01     0.435524    0.3262936 -31.09  0.001757654    1.040    0.038
         8 -10.3924    130.0918     48.6213   7.8890357640e+01   4.6299175566e+01     1.032835    0.3831984 -26.55  0.002093281    3.350    0.702
         9 -10.7530     37.3368      9.8230   9.3639287235e+01   6.9160167886e+01     1.069269    0.3394633 -45.37   0.00236201    3.668    0.727
        10  -9.8946     63.7961      3.2725   7.9425667883e+01   6.6095011746e+01    0.5399913    0.2751758 -28.31  0.002807793    1.827    0.453
        11 -10.2965     69.5770     40.4278   9.3961897443e+01   5.9677206192e+01      1.02226    0.3659998 -38.33  0.003562429    2.587    0.613
        12 -10.4038     73.7121     17.2225   8.2679301762e+01   6.2620406856e+01      1.34743    0.3293301 -31.76  0.004526635    3.911    0.744
        13  -9.1839     78.1312      3.6395   7.4769865265e+01   6.3441369183e+01    0.5445567    0.2602178 -11.77  0.001822229    2.392    0.582
        14 -10.4457     80.9572     23.4250   8.3007938973e+01   6.0449513324e+01     1.335006    0.4485877  33.43   0.00402839    5.040    0.802
        15 -10.4743     46.2985     29.7989   9.8694139993e+01   6.4820405620e+01    0.6096006       0.3798 -51.91  0.003364838    1.765    0.434
        16  -9.9421     64.4729     13.5303   8.4253525563e+01   6.4703706261e+01    0.3963343    0.3037881  -3.85  0.002445013    1.168    0.144
        17  -9.9990     63.2472     21.3299   8.8331558598e+01   6.3794987948e+01    0.7164887    0.3356384 -43.74  0.002612745    2.328    0.571
        18  -9.3130    102.8720     22.0529   7.5798933210e+01   5.6248915398e+01      0.54505    0.2572013 -28.28  0.001338263    2.076    0.518
        19 -10.3967     52.0017     13.7597   8.9221081499e+01   6.6613406362e+01     1.143688    0.6062472  11.12  0.005060664    2.980    0.664
        20  -8.5537    111.5577     22.1835   7.3550107724e+01   5.4323647042e+01    0.4300677    0.2226057 -29.06  0.001925383    1.907    0.476
        21  -7.9711    136.5092      1.4662   6.0025877953e+01   5.0519616882e+01    0.2043641    0.1142079  53.26 0.0007271077    1.574    0.365
        22  -8.9075    131.6893      5.9861   6.2624187211e+01   5.1313133933e+01    0.3997798    0.2818155  26.25  0.002075268    1.464    0.317
        23  -9.5839    124.5736      5.4838   6.3820402618e+01   5.3094552891e+01    0.6527609    0.2203333  53.64  0.002512872    2.450    0.592
        24  -9.6193    131.0813     16.6750   6.6853355621e+01   5.0379633272e+01    0.6039364    0.3285463  70.96  0.002570599    2.164    0.538
        25  -9.1605    133.8744     12.1756   6.4571379827e+01   5.0170984758e+01    0.4560966    0.2235557 -41.78  0.001909271    2.320    0.569
        26  -9.5383    119.0668     21.5345   7.1433892250e+01   5.2686264296e+01    0.3587367    0.2585415 -41.44 0.0007237296    1.532    0.347
        27  -9.0260    120.5389     15.6933   6.8764112650e+01   5.3018939784e+01    0.5190877    0.2721168  20.25   0.00192749    2.704    0.630
        28  -8.7203    125.1741     12.9114   6.6638392730e+01   5.2215540828e+01    0.2441481    0.2169346 -39.96 0.0006802936    1.249    0.200
        29  -8.5662    126.8599      9.1891   6.4821525904e+01   5.2187353113e+01    0.2704155    0.2005098  35.53 0.0004527424    1.283    0.220
        30  -8.2769    140.2716     17.5206   6.5323940943e+01   4.8013661354e+01    0.3600911   0.09849555 -30.39 0.0007917655    3.358    0.702
        31  -8.7277     95.9723     16.9540   7.5557739345e+01   5.8347493550e+01    0.2759566    0.1791287 -30.67 0.0005542084    1.535    0.348
        32  -8.5302     96.7851     12.3979   7.3334356657e+01   5.8713244422e+01    0.3125143    0.2043035  20.27  0.001594494    1.615    0.381
        33  -9.2831    109.9223      5.3416   6.6935335781e+01   5.6552974569e+01    0.8373755    0.2309929 -26.19  0.002977428    3.395    0.705
        34  -8.6888    112.1429     15.5468   7.0684813067e+01   5.4981015102e+01    0.3098637    0.1938332 -34.74 0.0006835052    1.675    0.403
        35  -9.1180    114.1454     10.0632   6.7938890567e+01   5.5113408827e+01    0.3367873    0.1993241  36.11 0.0002899641    1.655    0.396
        36  -8.7712    104.5079     15.0073   7.2389656286e+01   5.6750119236e+01    0.4571012    0.2523293  -0.53  0.001768712    2.392    0.582
        37  -9.0917    101.9260      8.1464   7.0097234793e+01   5.8065599225e+01    0.3168055    0.1799282 -39.30  0.001166967    2.008    0.502
        38  -9.5980     85.2676     13.0711   7.6998455004e+01   6.0986908624e+01    0.4322058    0.2661343 -50.78  0.001573526    2.417    0.586
        39  -7.9407     80.6725     12.6982   7.8270812702e+01   6.1921296350e+01    0.2599925    0.1537628 -40.54  0.001163182    1.931    0.482
        40  -8.4615    141.8150     12.4617   6.3171184843e+01   4.8161041408e+01    0.2700563      0.21089 -57.32 0.0007908803    1.498    0.332
        41  -8.5931    137.4443      9.2344   6.2779356532e+01   4.9577845311e+01    0.1963536     0.124793 -35.54 0.0009493164    1.673    0.402
        42  -8.0438     68.0574      9.1402   8.0832024618e+01   6.4659483448e+01     0.196288    0.1467511  10.32 0.0003876409    1.237    0.191
        43  -8.5923     97.6823      5.7012   7.0114538090e+01   5.9237402187e+01    0.2784874    0.1846929  21.59 0.0008193624    1.517    0.341
        44  -8.7084     95.9722      3.0368   6.9360476376e+01   5.9866968634e+01    0.3364357    0.1984842  -2.84  0.001138533    1.843    0.458
        45  -8.6628     85.6717      5.1931   7.3220192912e+01   6.1793938628e+01    0.4108979     0.258657 -16.28  0.002211564    1.542    0.352
        46  -8.4101     89.0607      2.6764   7.1064847509e+01   6.1358280396e+01    0.3020778    0.1755356 -15.44  0.001248444    1.711    0.415
        47  -7.6554    143.4895      5.0193   6.0149187738e+01   4.8453237826e+01    0.1955073   0.09913003 -46.72 0.0004716054    2.381    0.580
        48  -8.9445    115.4565      4.4174   6.5300918823e+01   5.5360103387e+01    0.2753053     0.201767 -33.57 0.0006165321    1.484    0.326
        49  -7.2642    139.3176      3.3231   6.0235442465e+01   4.9656019109e+01    0.1504785   0.09263631  34.60 0.0006520787    1.668    0.401
        50  -8.5543    104.5013      2.0086   6.6771295394e+01   5.8091321311e+01    0.2654136    0.1546226  40.81 0.0007680116    1.559    0.359
        51  -7.4771    151.2867      1.6914   5.7707216425e+01   4.6760063532e+01    0.1379653     0.101671 -61.02 0.0006190166    1.572    0.364
        52  -9.1749    110.8897    106.9380   1.0164582570e+02   3.9045482034e+01    0.8683657    0.4070974  37.97  0.003418068    2.359    0.576
        53  -9.7914    207.9416    249.6726   1.0732991406e+02  -2.8612296720e+00    0.3546966    0.1020885  42.89  0.001616709    2.720    0.632
        54 -10.0911    199.5244    249.2108   1.0864982644e+02  -1.5450436353e+00    0.3961722    0.1989335  50.65  0.002221667    2.115    0.527
        55 -10.6844    190.6689    246.4912   1.0976122712e+02   1.1240895717e-01     0.403182    0.2986858 -27.43  0.002903369    1.701    0.412
        56  -7.6314    101.4421    250.4401   1.2516973037e+02   1.2970812901e+01    0.1082314   0.07980515  55.57 0.0001527193    1.008    0.008
        57 -11.0061    120.9857    111.3174   1.0009273213e+02   3.6164544559e+01      1.20146    0.5368354 -52.68  0.003634956    2.344    0.573
        58 -10.4315    108.3047     99.4558   1.0045194629e+02   4.1148023678e+01     0.923722    0.5568162  66.98  0.002807339    2.615    0.618
        59 -10.1673     91.8854    113.0675   1.0817758170e+02   4.1025462122e+01       0.5926    0.3877813 -79.28  0.001633748    1.992    0.498
        60  -8.8021     92.9690    103.5098   1.0569113224e+02   4.2978488550e+01     0.644472    0.3501541  26.74  0.002647061    2.591    0.614
        61  -8.3360      1.4151    116.4355   1.3310674443e+02   5.0211991703e+01    0.2383065   0.08475003 -75.17 0.0009232569    2.134    0.531
        62  -8.9507    153.1038    115.6254   9.3367529678e+01   2.8567491546e+01    0.2670296    0.2057869 -54.07  0.001060712    1.380    0.276
        63 -10.2281     78.0379    112.9617   1.1193510053e+02   4.3193975653e+01    0.5254558    0.3178507 -80.83  0.001841802    2.206    0.547
        64  -9.6373     81.0679    101.0442   1.0848136185e+02   4.5430731331e+01     0.877512    0.3464623 -47.54  0.001298042    2.393    0.582
        65 -10.3153     14.5086    111.6750   1.2919823856e+02   5.0375633069e+01    0.7451359    0.2886393  60.25  0.003130946    3.787    0.736
        66  -8.9492     14.0365    105.0279   1.2850583806e+02   5.1891574988e+01    0.2767954    0.1422201 -44.56  0.001243121    2.158    0.537
        67  -7.8648    167.4867    114.0428   8.9752874581e+01   2.5675516988e+01    0.2265969    0.1481175 -42.74 0.0005210146    1.544    0.352
        68  -9.9974     66.4982    103.4717   1.1322090391e+02   4.6960935696e+01    0.6990654    0.5149348  11.81  0.003781791    1.867    0.464
        69  -9.0093     65.1824     85.9733   1.0964504645e+02   5.1069417265e+01    0.6558595    0.3826511  -9.84  0.002430572    4.059    0.754
        70 -10.1188     65.7784    111.1008   1.1496357437e+02   4.5320063876e+01    0.4366061    0.3758588  55.94   0.00122813    1.245    0.197
        71  -9.2695     59.1230    109.6075   1.1654594081e+02   4.6507848613e+01    0.3905253    0.1940977 -68.59  0.001497548    1.990    0.497
        72  -8.0894    189.0177    112.4919   8.4874744711e+01   2.1054837486e+01    0.2282346    0.2003322 -26.31 0.0005343765    1.131    0.116
        73  -8.6018    158.9074    111.9819   9.1127405916e+01   2.8000709549e+01    0.2301307    0.2190305 -62.56 0.0004884213    1.099    0.090
        74  -9.0915    141.3964    111.1429   9.4987260949e+01   3.2006376492e+01    0.3445922    0.2729459 -34.55  0.001710303    1.310    0.236
        75  -8.8388     35.0826    111.3588   1.2356374986e+02   4.8723173839e+01    0.2572214    0.1554149 -40.55  0.001327534    1.979    0.495
        76 -10.9368     20.9838    100.8216   1.2597266280e+02   5.2317812701e+01     1.226706     0.531615  88.81  0.004334614    3.520    0.716
        77  -8.0874     23.4399     69.0290   1.1955696788e+02   5.9198329375e+01    0.1727169    0.1258296 -62.43 0.0003217666    1.120    0.107
        78 -10.0842     20.2158     85.8018   1.2384232629e+02   5.5740315573e+01    0.7306259    0.1461924 -59.73  0.002389457    3.104    0.678
        79 -10.6346     25.4022     78.0104   1.2074024076e+02   5.7072515393e+01    0.7540815    0.4411568  89.42  0.002079618    2.249    0.555
        80 -10.6486     32.4642     64.3268   1.1526252899e+02   5.9462107689e+01     1.137318    0.4497285 -32.15  0.003956582    4.378    0.772
        81 -10.0192     34.4655     90.5354   1.2024457692e+02   5.3496392053e+01    0.6176447    0.2566698 -77.35  0.001720121    3.274    0.695
        82 -10.0064     37.0547     80.8663   1.1748988695e+02   5.5419642467e+01    0.7134063    0.3727705 -16.22  0.002872961    4.078    0.755
        83  -7.8397    250.4819    110.5069   7.3762476609e+01   7.9267633549e+00    0.1380689    0.1228208 -16.28 0.0004284627    1.011    0.011
        84  -8.2411    149.6968    109.9880   9.2727442220e+01   3.0438300078e+01    0.2160206    0.1938934 -43.06 0.0004338986    1.115    0.103
        85  -9.1681     32.5067    108.0332   1.2377582322e+02   4.9716982388e+01    0.2418714    0.1493315 -56.15 0.0009364855    1.426    0.299
        86  -8.8685    244.4604    107.2466   7.3892776608e+01   9.6342533145e+00    0.2712241    0.1295665 -27.35 0.0009166837    2.018    0.504
        87 -10.8937     44.6463    102.3993   1.1936676794e+02   4.9805081211e+01    0.8476875    0.4393033  69.74  0.002839497    3.325    0.699
        88  -8.3761     40.0418    107.0059   1.2148763881e+02   4.9229152300e+01    0.1910781    0.1565082 -72.62 0.0003995239    1.020    0.020
        89  -9.4901    139.4891    104.5785   9.3753297889e+01   3.3754936184e+01    0.4970661    0.3202585 -59.26  0.002132862    1.856    0.461
        90  -8.9141    140.7249     99.7039   9.2151380589e+01   3.4472468282e+01     0.411059    0.3129743  12.22  0.001589798    1.724    0.420
        91  -9.5454      6.3628    103.6669   1.3045647542e+02   5.2708794220e+01    0.3729808    0.1950186  77.17  0.001377694    2.134    0.531
        92  -8.8131    165.8981    103.8682   8.7457542212e+01   2.7970872986e+01    0.3137914    0.2085528 -43.81 0.0004254575    1.519    0.342
        93  -9.6358    149.5462    103.2607   9.1001174022e+01   3.1809347078e+01    0.4659744    0.2876172 -55.38  0.000931712    1.888    0.470
        94  -8.8663    151.0739     96.1322   8.8706649897e+01   3.2862309025e+01    0.6845565    0.3496319  24.81  0.001915146    4.648    0.785
        95  -7.8942    249.5349    104.4962   7.2482272814e+01   8.9875542658e+00    0.1386704    0.1238896 -20.11 0.0001826616    1.018    0.018
        96 -10.3683     62.9969     95.8813   1.1262155490e+02   4.9138632734e+01     0.570269    0.3446771 -85.33  0.001623131    2.444    0.591
        97  -9.2515    159.0050    101.0033   8.8220542189e+01   3.0104966481e+01    0.3790701    0.2085284 -45.12 0.0009062988    1.851    0.460
        98  -9.4268     94.3693     97.2064   1.0374911179e+02   4.4133402499e+01    0.3261801    0.2473643 -66.95 0.0005751236    1.403    0.287
        99  -8.8380     96.0312     90.9660   1.0165306244e+02   4.5205083986e+01    0.4438158    0.2908594 -10.67  0.001483843    2.732    0.634
       100  -9.9197    241.3350     92.4630   7.0769771220e+01   1.2476252893e+01    0.4899577    0.1570007 -31.03  0.001695545    2.884    0.653
       101  -8.6297    164.6003     94.4794   8.5190050389e+01   3.0037304728e+01    0.2818165    0.2238273 -43.00 0.0006391121    1.263    0.208
       102  -8.7933    140.0244     75.0995   8.5191247986e+01   3.9406091457e+01    0.5780672    0.2913664 -37.06  0.001218499    1.963    0.491
       103  -9.8862    138.7897     91.4887   9.0348503660e+01   3.6539134583e+01    0.7074347    0.4367104 -48.16  0.001791437    1.659    0.397
       104  -9.4172    140.4884     82.5610   8.7338944545e+01   3.7895372790e+01    0.6513419    0.3411067 -35.93  0.002032517    1.934    0.483
       105  -8.1453    248.4711     93.4860   6.9993006785e+01   1.0800442992e+01    0.1397699    0.1251356 -14.59 0.0008093468    1.048    0.046
       106 -10.1644      4.6319     89.7504   1.2921402777e+02   5.5888781244e+01    0.5682865    0.2997761  80.90  0.002002048    2.195    0.544
       107  -9.0378    157.8114     90.7867   8.5662799584e+01   3.2324492975e+01    0.4535955    0.2085009 -31.50  0.001605232    2.460    0.593
       108  -9.7105    111.2674     89.9356   9.7083678932e+01   4.2607829102e+01    0.7593315    0.3999292  28.89  0.002853883    2.742    0.635
       109  -9.1403    150.5558     89.0460   8.6830557743e+01   3.4345199783e+01    0.3145497    0.2504337 -44.57 0.0008559873    1.259    0.206
       110 -10.2314     85.4254     86.7263   1.0363306629e+02   4.7910741808e+01    0.5147673    0.3823549  74.45 0.0009210259    1.843    0.457
       111  -9.5466     87.6092     78.9282   1.0081002949e+02   4.9221350995e+01    0.5510065    0.3588884   7.55   0.00185167    2.562    0.610
       112 -10.3955     47.9726     84.4963   1.1474891413e+02   5.3492102682e+01    0.6175835    0.4017426 -79.18  0.001607998    1.776    0.437
       113  -9.3768     48.6124     77.6090   1.1293979552e+02   5.4948428798e+01    0.6216484    0.4030457 -11.09  0.003153629    2.316    0.568
       114  -8.7506    163.5259     87.1880   8.3368324406e+01   3.1638571258e+01    0.3531947    0.2429756 -54.09 0.0008882537    1.651    0.394
       115  -8.9801    174.7547     89.6166   8.1669326169e+01   2.8504302832e+01    0.2702514    0.2600889 -24.85 0.0003125879    1.027    0.026
       116 -10.4099    103.9738     82.7595   9.7087049394e+01   4.5502697816e+01    0.5586709    0.3237401 -57.35 0.0009331781    1.976    0.494
       117  -9.7093    104.8392     72.5359   9.3759543717e+01   4.7417558984e+01    0.8598834    0.5004949 -24.34  0.002659749    2.306    0.566
       118  -9.7076    109.8883     63.8386   8.9507035759e+01   4.8093336837e+01    0.5586228    0.3460934 -47.45   0.00254115    1.658    0.397
       119  -9.0467    110.5929     58.2193   8.7408747358e+01   4.8981623403e+01     0.437627    0.3050554  10.94  0.001125488    1.926    0.481
       120  -8.7124    170.1748     83.6528   8.0928180075e+01   3.0673494763e+01    0.2700654    0.2063362 -47.48 0.0007165744    1.355    0.262
       121  -8.9438    156.7222     69.5227   7.9594982639e+01   3.6430700141e+01    0.5276564    0.2180308 -36.01  0.001740362    2.372    0.578
       122  -8.9058    157.7134     82.8358   8.3391230810e+01   3.3822646069e+01     0.536568    0.2794172 -30.39   0.00169713    2.089    0.521
       123  -9.1458    157.0535     76.6983   8.1713581707e+01   3.5090579287e+01    0.4886923     0.254537 -38.08  0.001515698    1.888    0.470
       124  -9.8084    230.6305     81.0010   6.9462901353e+01   1.6561847963e+01    0.2679244    0.2460959  35.90  0.000424712    1.148    0.129
       125  -9.5066    235.2563     77.0141   6.7771087932e+01   1.6092766385e+01    0.2881396    0.2317087  35.41 0.0006834763    1.364    0.267
       126  -8.7509    119.0745     80.5918   9.2250347359e+01   4.2951626139e+01    0.3706494    0.2336722 -59.30  0.000584262    1.972    0.493
       127  -8.1650    119.8543     76.1720   9.0696502443e+01   4.3661839041e+01    0.2655845    0.2201863  36.23 0.0008559049    1.252    0.201
       128  -9.1658     74.2463     79.2525   1.0504848439e+02   5.1263195323e+01    0.6826524    0.2457906 -52.32  0.001759424    2.532    0.605
       129  -7.7563     63.4678     81.9895   1.0919269096e+02   5.2176731107e+01     0.205563    0.1188256 -56.21 0.0006720697    1.543    0.352
       130  -9.1500    150.0087     79.8195   8.4252982158e+01   3.6204194533e+01    0.5314962    0.2283227 -34.42   0.00119833    2.411    0.585
       131  -9.5049      5.2334     78.9211   1.2747994173e+02   5.8236241942e+01    0.5307162    0.2732769 -31.02   0.00292902    2.489    0.598
       132  -9.4962    115.3632     72.2785   9.0706453805e+01   4.5357644613e+01    0.7136588    0.3392388 -41.99  0.001640728    2.026    0.506
       133  -7.7388    174.3738     79.1356   7.8752818114e+01   3.0437344384e+01    0.2286137    0.1349921 -45.38  0.000937297    1.760    0.432
       134  -8.2706    166.3265     78.9828   8.0379003460e+01   3.2435381081e+01     0.221995    0.1890587 -31.54  0.000530441    1.168    0.144
       135  -8.2379    184.3083     78.0911   7.6492176896e+01   2.8164266390e+01    0.2526996    0.2089613  38.49 0.0006267066    1.247    0.198
       136  -9.4836    127.3612     75.1955   8.8407724601e+01   4.2237953749e+01    0.4594311    0.3026656 -57.68 0.0008370729    1.848    0.459
       137  -9.2928    129.1160     69.3563   8.6113673621e+01   4.2947024652e+01    0.7434615    0.3986079  20.95  0.002208192    4.361    0.771
       138  -8.6528    130.4959     64.9639   8.4340269333e+01   4.3435640555e+01    0.4134514    0.2450128 -39.19  0.001286323    1.654    0.395
       139  -9.9965     81.6539     72.5325   1.0078373164e+02   5.1541923991e+01    0.4449043     0.318075 -74.88 0.0009847073    1.955    0.488
       140  -9.1729     83.4256     64.7254   9.7804204340e+01   5.2845532424e+01    0.5650789    0.3679779  -2.14  0.002457127    2.493    0.599
       141  -8.8265    163.0490     73.3325   7.9390158786e+01   3.4223542079e+01    0.3674447    0.2413675 -59.37  0.001127003    1.950    0.487
       142 -10.7420     54.8876     70.8722   1.0910892920e+02   5.5683413036e+01    0.7790039    0.5305201  77.02  0.001132962    2.434    0.589
       143  -9.3616     54.7245     63.6355   1.0713406447e+02   5.7238909915e+01    0.3781833    0.3197492 -16.67  0.001790208    1.253    0.202
       144 -10.1544     61.9477     60.9533   1.0379888848e+02   5.6859665433e+01    0.6361455    0.3142288  28.58 0.0005531468    2.461    0.594
       145  -8.7945    220.4910    248.9313   1.0518924889e+02  -4.6446159882e+00    0.1412033    0.1035481 -20.77  0.001036041    1.599    0.375
       146  -9.9010    167.8694    248.6257   1.1385497740e+02   3.3680805260e+00     0.276951    0.1845482  60.13  0.001796122    1.733    0.423
       147  -9.8665     15.9432     70.6610   1.2249195617e+02   5.9384687953e+01    0.4772793    0.1743323 -61.66  0.001417764    2.010    0.503
       148  -9.3901    152.0211    248.7848   1.1654451796e+02   5.7771777978e+00    0.2388696    0.1586397 -53.27  0.001630642    1.998    0.499
       149  -9.6261     16.9322     60.9959   1.2012967650e+02   6.1406601345e+01    0.6431645    0.2289364 -60.77  0.003068893    2.100    0.524
       150 -10.7834     21.9043     53.5554   1.1647196466e+02   6.2621343323e+01    0.7061324     0.393769 -87.66   0.00277566    3.405    0.706
       151 -10.3756     12.2142     45.7139   1.1828205235e+02   6.4922235858e+01    0.8424912    0.3999218   0.83  0.003941125    3.157    0.683
       152 -12.0485    240.6333    243.4658   1.0117746683e+02  -7.0242800137e+00    0.2286656     0.181069  24.93  0.001766873    1.188    0.158
       153  -8.7289      4.9193    236.9184   1.3962553059e+02   2.6459491516e+01    0.1536087    0.1132339  76.33 0.0004498698    1.184    0.155
       154  -9.8589    187.9496    233.6507   1.0848995669e+02   2.0800294851e+00    0.2569145    0.2187771  81.45  0.001790008    1.743    0.426
       155  -7.5461    118.3885    228.8144   1.2017648827e+02   1.3797162426e+01    0.1322859    0.1085919 -49.00 0.0004254099    1.601    0.376
       156  -9.5738      6.7640     32.6888   1.1700340470e+02   6.7868623729e+01    0.2893564    0.1766962 -26.95 0.0008669386    1.625    0.384
       157 -10.0458      7.3029     28.4228   1.1545226992e+02   6.8665577325e+01    0.3154088    0.2792865  11.01  0.001052195    1.409    0.290
       158  -8.8477    169.5514     71.9056   7.7599561647e+01   3.2863029188e+01    0.3255455    0.1921044 -34.62  0.001186426    1.675    0.403
       159  -8.8453    240.0328     71.6782   6.5755192413e+01   1.5776764691e+01    0.1903951    0.1882578  -5.57  0.000761601    1.076    0.071
       160  -8.6336    153.8391     35.2841   6.8989467738e+01   4.2424268035e+01     0.386469    0.2539909 -53.62  0.001261307    1.808    0.447
       161  -9.2976    149.7784     47.9652   7.4134522690e+01   4.1644052445e+01    0.4727801    0.2025907 -31.76  0.001744828    2.320    0.569
       162 -10.1807    153.2127     40.8565   7.1013582678e+01   4.1820025553e+01    0.4688618    0.4211604  -3.73  0.001531217    1.149    0.130
       163  -9.3804    147.0554     69.3733   8.1732710568e+01   3.8791523693e+01    0.4455729    0.2724332 -53.99   0.00102041    1.984    0.496
       164  -8.6767    147.2065     63.9746   7.9981933737e+01   3.9693276876e+01    0.4098338    0.2650505 -14.85  0.001387396    1.957    0.489
       165  -8.4081    146.5161     58.9937   7.8523864025e+01   4.0698524293e+01    0.3154526     0.196918 -45.15 0.0007029639    1.686    0.407
       166  -9.1563    147.5051     54.0093   7.6655387137e+01   4.1267378359e+01    0.5115439    0.2040876 -34.46  0.001591067    2.449    0.592
       167  -9.7561     94.9177     68.3794   9.5388176851e+01   5.0109795758e+01    0.4291656    0.2577135 -51.85 0.0007923945    1.729    0.422
       168  -9.3531     96.9316     59.0563   9.1702560564e+01   5.1540084851e+01    0.7860487    0.4515596 -31.74  0.003521168    1.785    0.440
       169  -9.2366    121.0250     65.7961   8.7082275433e+01   4.5384938323e+01    0.4477949    0.2656519 -48.33   0.00105978    1.797    0.444
       170  -8.3965    122.3095     61.3304   8.5259546040e+01   4.5915799744e+01     0.329423    0.2037418  36.42  0.001002962    1.760    0.432
       171  -9.2891    141.9323     47.5894   7.5735098839e+01   4.3633384094e+01     0.622388    0.2739466 -27.14  0.001544135    2.465    0.594
       172  -8.9732    138.9092     56.7393   7.9545590386e+01   4.2900281329e+01    0.5018405    0.2377837 -49.02 0.0005045437    2.600    0.615
       173  -8.0486    139.0390     52.4676   7.8071751974e+01   4.3567117028e+01    0.2594762    0.2311432 -17.42 0.0008493838    1.122    0.109
       174  -8.7098    137.9659     66.1548   8.2869828052e+01   4.1505254017e+01    0.3372978    0.2084901 -44.67   0.00052398    1.662    0.398
       175  -8.5043    138.3588     62.3245   8.1529010028e+01   4.2083839296e+01    0.3171567    0.2138172  25.63   0.00137407    1.837    0.456
       176  -8.0633    170.6411     65.2181   7.5353037858e+01   3.3700238797e+01    0.2124315    0.1457011 -20.68 0.0003664732    1.604    0.377
       177  -8.3619    157.4621     63.3926   7.7516392094e+01   3.7286601985e+01    0.2614601    0.2325349 -62.62 0.0006748496    1.231    0.188
       178  -8.4847     10.4801     60.9724   1.2248610503e+02   6.1827418837e+01    0.3148443    0.1872329  74.49  0.001694736    2.549    0.608
       179  -9.1150     87.5050     57.3042   9.4038050894e+01   5.3593661403e+01    0.6576033    0.2157521 -41.61  0.001775808    2.839    0.648
       180 -10.2904     89.8532     38.2021   8.6252687027e+01   5.6537756810e+01    0.8948144    0.3473505  34.79  0.003157849    3.390    0.705
       181 -10.2240     85.1418     48.0227   9.1506609175e+01   5.5724896156e+01    0.4740832    0.3676406 -84.37 0.0009867406    2.145    0.534
       182  -8.9826     80.1644     46.2694   9.2504440769e+01   5.6904495683e+01    0.4763255    0.2020615 -32.85  0.001154313    2.510    0.602
       183  -9.8472     73.0184     59.1790   9.9429571404e+01   5.5618537458e+01    0.4606471    0.2489963 -54.66 0.0009956469    1.992    0.498
       184  -9.3802     74.9103     51.0553   9.6018492483e+01   5.6893692383e+01    0.5622457     0.342095  -8.73  0.002390141    2.678    0.627
       185  -9.1211    164.5312     60.7265   7.5195156540e+01   3.5960585737e+01    0.5407187    0.2009637 -24.89  0.001606977    3.630    0.724
       186  -8.4828    130.1159     57.9011   8.2087253843e+01   4.4760403722e+01    0.3127179    0.2091286 -46.33 0.0006902631    1.582    0.368
       187  -7.8004      3.5161    223.4870   1.3931730930e+02   2.8829400415e+01   0.09909073   0.06692294  71.87 0.0002267779    1.009    0.009
       188  -9.0399    132.8669     36.0740   7.3725894121e+01   4.7518699358e+01    0.3887827    0.2228492 -36.83 0.0007128514    1.764    0.433
       189 -10.6621    134.0370     31.0734   7.1627026984e+01   4.7915824324e+01    0.3734326    0.2751366   3.87  0.001832579    1.545    0.353
       190  -9.5646     43.2450     52.8154   1.0807684561e+02   6.0804493596e+01     0.492873    0.3839415  89.78    0.0022645    1.879    0.468
       191  -9.1438     53.6224     38.2529   9.9079053178e+01   6.2373864805e+01    0.5895544    0.1975011 -38.93   0.00232468    2.774    0.640
       192 -10.1228     50.0075     53.8669   1.0587199214e+02   5.9820629547e+01    0.6700555    0.3160885 -58.77  0.002715552    2.311    0.567
       193  -9.6491     55.7529     43.6972   1.0027639853e+02   6.1084031739e+01    0.7012099    0.3857579 -10.85  0.002782427    3.503    0.715
       194  -9.2971    118.2815     54.8111   8.4106894628e+01   4.7944149374e+01    0.4694942     0.262616 -37.89 0.0009785643    1.739    0.425
       195  -9.1947    121.0375     46.9876   8.0602475800e+01   4.8636075241e+01    0.4088536    0.2351523 -34.71 0.0004459324    1.702    0.413
       196  -8.4262    122.2193     41.7762   7.8400506833e+01   4.9183707987e+01    0.4786713    0.2658444   8.21  0.001568992    3.775    0.735
       197  -7.4687    157.6911     55.6875   7.5005038926e+01   3.8477198445e+01    0.1575897    0.1162207  20.81 0.0004353973    1.625    0.385
       198  -9.6864    162.9908     53.1203   7.3092436173e+01   3.7541804315e+01    0.4365496    0.2275159 -26.47  0.001480801    2.043    0.511
       199  -9.4201    105.3183     51.9580   8.6724242348e+01   5.1178479352e+01    0.5802791    0.3736671 -37.39  0.001801813    1.490    0.329
       200  -9.2167    112.2209     45.5084   8.2426928970e+01   5.0817197319e+01    0.7819417    0.3706589 -21.20  0.002407918    2.926    0.658
       201  -8.8039    232.2340     70.5496   6.6536000358e+01   1.7723289356e+01    0.3263053    0.1103384  50.54  0.001143985    3.042    0.671
       202  -9.3113    157.5271     49.0351   7.2869099501e+01   3.9541490203e+01    0.3114346     0.232819 -55.31   0.00089159    1.522    0.343
       203 -10.0091     37.7789     42.1687   1.0678121520e+02   6.3504162922e+01    0.3620348    0.2861378 -89.28   0.00154011    1.971    0.493
       204 -10.5818     35.9125     37.9778   1.0610053544e+02   6.4504133313e+01    0.5649661    0.2936073 -30.30 0.0003773841    2.013    0.503
       205 -10.1744    153.0144    220.9491   1.1296146954e+02   9.5154308209e+00    0.2000318      0.18478  44.61 0.0003396805    1.138    0.121
       206  -7.5933     26.2770    215.7795   1.3525311618e+02   2.7964282052e+01    0.1237366    0.1062304  84.64  0.000654381    1.343    0.256
       207 -10.1713     10.9515    207.3339   1.3738564435e+02   3.0987387252e+01    0.4794671    0.2434549  27.77  0.002965731    2.817    0.645
       208  -7.4294    154.7915    206.3609   1.1059700657e+02   1.1465835691e+01      0.16943    0.1023666  36.77 0.0001402641    1.507    0.336
       209  -9.2018    191.3629    192.9875   1.0154152477e+02   7.0582930393e+00    0.6590216    0.3682279 -65.20  0.002244516    5.644    0.823
       210  -9.8407     60.2574     33.7172   9.4753444649e+01   6.2255699796e+01    0.6382616    0.3120538 -43.57  0.002650853    1.897    0.473
       211  -9.8973     76.1185     31.9668   8.8278792748e+01   6.0023566960e+01    0.4486645    0.3139395  57.57  0.001182214    1.968    0.492
       212  -7.4928     30.0154    174.4668   1.3176463363e+02   3.5471730432e+01    0.1220255   0.09705306 -23.40  0.000457562    2.210    0.548
       213  -9.5030    246.2424    166.0043   8.6655911828e+01   9.5747066666e-01    0.2987587      0.21207  48.89 0.0005726645    1.621    0.383
       214  -9.3178    246.6743    161.2132   8.5603985558e+01   1.5189281677e+00    0.2487857    0.2047157  20.67  0.000444033    1.110    0.099
       215  -8.7798    146.5916     41.2478   7.2523137505e+01   4.3425186298e+01    0.3914459    0.1749431 -31.95  0.001500636    2.210    0.547
       216  -8.8943    144.2053     36.5589   7.1393831806e+01   4.4676340987e+01    0.3128471    0.2404909 -44.20 0.0005834253    1.388    0.279
       217  -8.8446    105.0107     40.8751   8.2719166513e+01   5.3090204054e+01    0.3743961     0.227895 -49.33 0.0009987386    1.972    0.493
       218  -8.6425    106.0593     36.2431   8.0636789656e+01   5.3586197269e+01    0.2769672    0.2236494  -0.76 0.0008161484    1.263    0.208
       219  -8.9737    139.4555     39.8919   7.3604473423e+01   4.5380017931e+01    0.4495997    0.2536993 -32.67  0.001554178    1.763    0.433
       220  -8.2143    160.4438     39.4108   6.9106918794e+01   4.0180936683e+01    0.3550473    0.1482711 -27.23  0.001156599    2.485    0.598
       221  -9.0727    101.9759    162.5380   1.1485696886e+02   2.8564434236e+01    0.2158971    0.1795999 -65.73  0.001292771    1.214    0.176
       222  -7.2893      7.3494     37.2571   1.1805354392e+02   6.6929959035e+01    0.1161028   0.06554221 -35.41 0.0006964194    1.600    0.375
       223  -8.8039    118.9461     34.7931   7.6622395951e+01   5.0961828593e+01    0.3377541    0.1878613 -35.41 0.0006613031    1.788    0.441
       224  -8.5023    168.0705    158.9288   9.9781657272e+01   1.7117072194e+01    0.2004405    0.1907437  33.27 0.0003243231    1.024    0.023
       225  -9.3246    101.0246     32.4718   8.0585721982e+01   5.5204539835e+01    0.5481995     0.237122 -33.54  0.001547885    2.222    0.550
       226  -8.3852     97.3824     31.6150   8.1308415419e+01   5.6078712289e+01     0.401511    0.1561433 -29.96  0.001445661    2.584    0.613
       227  -7.6913     23.3233    157.3061   1.3172136102e+02   3.9680993554e+01    0.1060499   0.07838377 -52.99 0.0005706286    1.643    0.391
       228  -9.2479    225.2993     32.5856   5.7418131339e+01   2.4472251343e+01    0.3635109    0.2414972 -24.96 0.0009467448    1.530    0.346
       229  -9.0954    110.2960     32.9731   7.8189877096e+01   5.3154375505e+01     0.375084    0.2266629 -44.78  0.001230138    1.873    0.466
       230  -9.2737    152.4951     28.5428   6.6923843288e+01   4.3633474064e+01    0.3400803    0.1876842 -18.19  0.001427062    2.038    0.509
       231  -8.0455    156.1336     27.1786   6.5776439696e+01   4.2869827807e+01    0.2799277    0.1944836  82.98 0.0009339398    1.708    0.414
       232  -8.5884     92.0661     20.9613   7.8437553093e+01   5.8640488517e+01    0.3037086    0.2146428  18.87 0.0008359966    1.467    0.318
       233  -8.9324    144.1114     26.1293   6.7701147215e+01   4.6052777980e+01    0.2516834    0.2094353 -21.74 0.0009208712    1.233    0.189
       234  -7.9132    110.4137     26.7699   7.5698908106e+01   5.3987091276e+01    0.2909764    0.1377286 -22.46  0.001179416    2.286    0.562
       235  -9.0477    246.8449    155.8972   8.4469480945e+01   2.2061190883e+00    0.2142006     0.179771   5.49 0.0003358792    1.031    0.030
       236  -8.8232    128.2562     25.5766   7.0867372138e+01   5.0017755439e+01     0.295884    0.2346726 -37.46 0.0008534567    1.334    0.250
       237  -7.2706    198.1827     25.6314   5.8782798404e+01   3.2132300375e+01    0.1911114      0.12313  55.82            0    1.519    0.342
       238  -9.2642     91.3902     26.4117   8.0967842869e+01   5.8031555460e+01    0.3852962    0.2406414 -49.58   0.00133109    2.091    0.522
       239  -8.5657    140.4167     23.1840   6.7374509559e+01   4.7331538017e+01     0.195125    0.1293368 -38.32   0.00060926    1.588    0.370
       240 -10.4200    214.8064    154.1818   8.9647207360e+01   8.5364770038e+00    0.2599434    0.2303196  32.65 0.0004449222    1.112    0.101
       241  -9.9838    237.6146    145.9172   8.3862342861e+01   5.3247186244e+00    0.6048092    0.2439658  35.15  0.002315791    2.901    0.655
       242  -8.2629    133.6770    145.6931   1.0463024201e+02   2.6451077223e+01    0.3434772    0.1312089 -53.94  0.001220824    2.958    0.662
       243  -9.7245     66.8382    143.8271   1.2020203079e+02   3.7785883918e+01    0.4709962    0.3040326  85.89  0.002197252    1.693    0.409
       244  -9.0953    233.9087    136.2926   8.2351876505e+01   7.4629014275e+00    0.2299426     0.210543   0.80 0.0002687815    1.048    0.046
       245  -7.3920    219.4196    135.4619   8.4676773886e+01   1.0533729032e+01    0.1391886    0.1306619  -6.86 0.0001304355    1.068    0.064
       246  -7.2357    162.2902    135.7583   9.6090438341e+01   2.2641397787e+01     0.138007    0.1144068  79.45            0    1.466    0.318
       247  -8.4046    112.3397    133.9496   1.0731707754e+02   3.2897093203e+01     0.277205    0.1878194  62.78  0.001135334    1.679    0.405
       248 -10.0315    140.6030    118.3242   9.6957541760e+01   3.0702339315e+01    0.6989476     0.393721 -57.83  0.001094741    2.154    0.536
       249  -8.5920     41.0459     20.6317   9.7038690899e+01   6.7017503768e+01    0.2294105    0.1413469 -30.81 0.0005304375    1.375    0.273
       250  -7.3739    155.4814     18.4692   6.2888848803e+01   4.4043662303e+01    0.1425826    0.1357855  54.72 0.0001123941    1.015    0.015
       251 -10.8382    133.7080    109.8652   9.6534743539e+01   3.3894128471e+01     1.011037      0.49291 -51.32  0.002351207    2.178    0.541
       252  -9.7101    134.7449    131.4685   1.0139186356e+02   2.9179034848e+01    0.6309695    0.4704611 -47.29  0.002898364    1.361    0.265
       253  -9.3016    135.4069    122.2663   9.9141464285e+01   3.0961104795e+01    0.4790737     0.281543 -41.85  0.001794206    1.751    0.429
       254 -10.0523    130.3559    118.7067   9.9528000674e+01   3.2730816840e+01    0.4950837     0.354397  85.58   0.00081468    2.025    0.506
       255  -7.4263     86.4371    134.0000   1.1376704655e+02   3.7193737054e+01    0.2772976   0.07610332  37.86 0.0009189226    3.808    0.737
       256  -6.9260    166.5610    131.5038   9.4190002428e+01   2.2545576523e+01    0.1456054     0.143059  36.70 7.884225e-05    1.025    0.024
       257  -9.7257     98.5702    128.6272   1.0968113833e+02   3.6449554917e+01    0.6020939    0.3562454  77.25   0.00227225    2.941    0.660
       258  -7.9711     82.0228    130.1562   1.1419301497e+02   3.8719918169e+01    0.3122026    0.1438857 -76.27  0.001057829    3.779    0.735
       259  -9.9215    117.0556    125.8302   1.0444372071e+02   3.3791981632e+01    0.6732862    0.4192064  63.34  0.002395944    2.033    0.508
       260 -10.4041     70.4571    126.2061   1.1647917704e+02   4.1258020585e+01    0.5317152    0.4702369 -68.58   0.00155992    1.071    0.066
       261  -7.8449    161.0096    128.7684   9.4765647592e+01   2.4266030162e+01     0.273286    0.1679091 -76.87 0.0009044404    3.703    0.730
       262 -10.1252     58.4331    124.6890   1.1937063500e+02   4.3155323499e+01     0.610523    0.3353322  78.23  0.002669745    2.700    0.630
       263  -9.7856     27.4053    123.0951   1.2721578869e+02   4.6779677388e+01    0.5226629    0.2535054  74.28  0.002183475    2.699    0.629
       264  -8.2454    147.8329    125.0005   9.6856139115e+01   2.7820935535e+01     0.248961    0.1753858 -73.60  0.001087355    1.987    0.497
       265  -9.5009     41.4613    122.0208   1.2342019764e+02   4.5674242468e+01    0.5064246    0.2233156 -81.85  0.002138376    2.772    0.639
       266  -8.7489    157.3914    121.8667   9.3928660564e+01   2.6397826991e+01    0.2935905    0.2076462  72.71  0.001183211    1.914    0.477
       267  -9.1747    152.1166    121.3402   9.4998028716e+01   2.7643258054e+01    0.2602347    0.2094406 -28.38 0.0007934388    1.346    0.257
       268 -10.5498    128.3876    100.7600   9.5505804165e+01   3.6894720433e+01     1.091299    0.7024652 -20.45   0.00310948    2.276    0.561
       269  -8.6109    125.9791     84.0051   9.1432774430e+01   4.0816825932e+01    0.5848807     0.326056  23.06  0.001991068    3.293    0.696
       270 -10.4653    123.3409     92.3034   9.4504320057e+01   3.9690701573e+01     1.038534    0.5153254 -38.53  0.002089292    2.072    0.517
       271 -10.0727    108.5778    114.3829   1.0403234096e+02   3.7848763985e+01    0.8067764    0.4977185  79.45  0.001630368    3.061    0.673
