#   1 NUMBER                 Running object number                                     
#   2 MAG_AUTO               Kron-like elliptical aperture magnitude                    [mag]
#   3 X_IMAGE                Object position along x                                    [pixel]
#   4 Y_IMAGE                Object position along y                                    [pixel]
#   5 X_WORLD                Barycenter position along world x axis                     [deg]
#   6 Y_WORLD                Barycenter position along world y axis                     [deg]
#   7 A_WORLD                Profile RMS along major axis (world units)                 [deg]
#   8 B_WORLD                Profile RMS along minor axis (world units)                 [deg]
#   9 THETA_WORLD            Position angle (CCW/world-x)                               [deg]
#  10 FWHM_WORLD             FWHM assuming a gaussian core                              [deg]
#  11 ELONGATION             A_IMAGE/B_IMAGE                                           
#  12 ELLIPTICITY            1 - B_IMAGE/A_IMAGE                                       
         1 -14.3889    159.1990     48.5762   8.4193135166e+01   3.9030347217e+01      1.64069     1.197619   3.39  0.005433633    1.641    0.391
         2 -14.3251    171.2439     32.8170   7.6896204922e+01   3.8111371060e+01     1.063917    0.9083106 -10.65  0.003464805    1.237    0.191
         3 -13.3597    175.1624     25.6719   7.4009769446e+01   3.7962687494e+01    0.5328099    0.4640432  10.34  0.001250008    1.237    0.191
         4 -12.0937    189.6579     14.7756   6.8644705583e+01   3.5448642490e+01     0.266313    0.2292094  81.32 0.0008273266    1.128    0.114
         5 -13.2564    187.7267      2.6063   6.5336090417e+01   3.7102949786e+01    0.7776648    0.3496632  70.65  0.002774526    2.064    0.516
         6 -12.2951    185.9017    221.1273   1.1920105228e+02   3.7881413326e+00    0.3656095    0.1469244  34.18  0.001619159    2.406    0.584
         7 -18.6521     62.0073    242.2713   1.4349822329e+02   1.9047218409e+01     5.829216     4.656139  53.31   0.04724842    1.245    0.197
         8 -11.4457    143.8870    200.4711   1.2402632942e+02   1.4136152191e+01    0.3653254    0.1796896  50.91  0.001721064    1.976    0.494
         9 -11.7271    135.8275    196.5491   1.2504193011e+02   1.6192049030e+01    0.3767163    0.2515183  85.35  0.001877236    2.311    0.567
        10 -10.5430    177.0062    196.0167   1.1681704323e+02   9.0464768218e+00    0.2965525    0.1851624 -69.06  0.001278508    3.291    0.696
        11 -11.9867    180.2870    193.8953   1.1581636167e+02   8.7917756147e+00    0.5520573    0.3451039 -67.51  0.002411169    3.211    0.689
        12 -10.8201    165.3108    208.1308   1.2103624750e+02   9.1955832890e+00    0.2375476    0.1603579  44.40 0.0005113666    1.285    0.222
        13 -12.4337    207.6593    185.3981   1.0905395243e+02   5.1170451815e+00    0.4019027    0.3061301  14.86  0.001215375    1.270    0.212
        14 -12.3751    212.0736    181.6794   1.0752049448e+02   4.8625318759e+00    0.3506827    0.2768007 -15.63  0.001433213    1.272    0.214
        15 -10.7618    223.8554    184.1375   1.0584633995e+02   2.3858190695e+00    0.1812391    0.1341147  12.47  0.001039032    1.281    0.219
        16 -11.6498    130.3871    206.1668   1.2749346625e+02   1.5413161924e+01    0.2402605    0.1791189  58.71 0.0009034856    1.275    0.216
        17 -11.5298     36.0065    183.9515   1.4359132489e+02   3.2611626233e+01    0.1634299    0.1298362  81.26 0.0003481935    1.020    0.019
        18 -12.2498    120.0332    205.0730   1.2936608760e+02   1.7275464099e+01    0.2278617    0.1912285  39.39 0.0005114852    1.188    0.158
        19 -11.8522    113.9671    177.8183   1.2673316362e+02   2.3368076675e+01    0.3812066    0.2071974  70.08   0.00152052    3.143    0.682
        20 -11.8297    198.7105    178.1083   1.0934861246e+02   7.8847971846e+00    0.3437676    0.2753639 -47.38 0.0009184883    1.507    0.336
        21  -9.9993      3.1915    176.3300   1.4929385354e+02   3.7142308666e+01   0.09655623   0.06079341 -68.64  0.000295438    1.491    0.329
        22 -11.5026    179.0447    174.4964   1.1251595379e+02   1.2208288091e+01    0.2657416    0.2143752 -34.10  0.001042659    1.329    0.247
        23 -12.0076     11.6888    205.6334   1.4950549973e+02   3.0829923826e+01    0.2576541    0.2111038  80.74  0.001948113    1.208    0.172
        24 -11.9687    138.3463    171.6953   1.2048561769e+02   2.0350641087e+01     0.436713    0.3188773 -85.59  0.002214799    1.881    0.468
        25 -11.4997    144.1740    168.0866   1.1858205725e+02   1.9975640858e+01    0.5301704      0.22238  49.75  0.002073345    2.466    0.595
        26 -10.8439    225.4530    166.5053   1.0202711613e+02   4.6351519899e+00    0.1362893    0.1183132   8.03  6.25785e-05    1.011    0.011
        27 -12.9764    112.1512    196.3018   1.2976172548e+02   2.0116143745e+01    0.5656161    0.3703934  19.24  0.002657941    2.396    0.583
        28 -11.7174    102.7679    162.3469   1.2675727055e+02   2.8333409028e+01    0.2239358    0.2088239 -76.50 0.0002817543    1.080    0.074
        29 -10.0196     32.0144    161.5447   1.4236843912e+02   3.7617788223e+01    0.1544847    0.1092136  39.09 0.0005179785    1.576    0.365
        30 -12.3037     24.7302    156.9709   1.4348702484e+02   3.9270963118e+01    0.4119323    0.2527235  45.24  0.002448251    1.670    0.401
        31 -11.9958    133.6951    145.0102   1.1644214032e+02   2.6537294878e+01     1.063763    0.2513298 -53.14  0.002646444    6.024    0.834
        32 -11.2074      8.9783    149.9099   1.4623485785e+02   4.2080476854e+01    0.3337486    0.2067137 -66.17  0.002203877    1.415    0.293
        33 -13.0597      3.4222    128.6361   1.4559932512e+02   4.7007449201e+01     1.037694    0.2728325 -79.03  0.004074256    3.654    0.726
        34 -13.1463      4.3183    137.9390   1.4623573831e+02   4.4955612400e+01    0.8799098    0.2576566 -62.18  0.004253298    2.595    0.615
        35 -13.4633    105.4212    192.9283   1.3067061009e+02   2.1800077988e+01    0.7187156    0.4992523   0.36  0.003410814    3.100    0.677
        36 -19.1427     51.4994    106.8107   1.3001853417e+02   4.7704426942e+01     16.71669    0.8349767 -60.77   0.02589079   17.377    0.942
        37 -12.2505    114.4154    140.1757   1.2002700414e+02   3.1086218678e+01    0.4752712    0.2726285 -38.86  0.001907117    2.033    0.508
        38 -12.5834    104.2011    140.2384   1.2251989971e+02   3.2823381902e+01    0.2900592    0.2564711  57.59 0.0004369533    1.132    0.116
        39 -11.5079    105.8293    130.8350   1.2024328009e+02   3.4598642929e+01    0.3485292    0.2884561 -82.05  0.001086004    1.319    0.242
        40 -11.5170    107.8702    126.7848   1.1887423870e+02   3.5131307704e+01    0.3215213     0.256633 -30.21 0.0007320984    1.427    0.299
        41 -12.6624      7.7766    143.5653   1.4595691384e+02   4.3511477079e+01    0.3568835    0.2901964 -17.69  0.002434498    1.855    0.461
        42 -11.5272    119.4045    130.3376   1.1675610129e+02   3.2296792172e+01    0.3063658     0.260916 -31.07 0.0007528758    1.275    0.216
        43 -12.1658    135.4962    122.1530   1.1094329652e+02   3.0923707235e+01     0.700913    0.1917111 -47.64  0.002064914    3.772    0.735
        44 -11.6559    160.5322    128.1939   1.0654168818e+02   2.4503847183e+01    0.3365111    0.3196072  71.44  0.001850319    1.147    0.128
        45 -11.9982    125.4846    127.2134   1.1456571164e+02   3.1823411298e+01    0.6200799    0.3606007  71.88  0.002121768    3.622    0.724
        46 -13.0427     90.2535    122.2527   1.2247088798e+02   3.9041513649e+01    0.4759759    0.3703061 -40.35  0.001411139    1.343    0.255
        47 -11.9325     12.9995    142.2574   1.4467963754e+02   4.3394224424e+01    0.2366555    0.1848874  43.66 0.0003695298    1.470    0.320
        48 -10.9830    113.3029    119.2991   1.1581994334e+02   3.5791009561e+01    0.2360242    0.2153361 -12.11 0.0004117115    1.212    0.175
        49 -11.1231    174.5099    148.9989   1.0823781637e+02   1.7627563347e+01    0.2687353    0.2471755  46.37 0.0007894826    1.110    0.099
        50 -11.6818    169.8907    115.6758   1.0138313162e+02   2.4872097172e+01    0.5532466    0.3608022 -70.41  0.002118965    2.689    0.628
        51 -12.0576      4.7323    112.2494   1.4359464626e+02   5.0474938992e+01    0.3781318    0.2377382   1.66  0.002374685    2.418    0.586
        52 -10.9348    205.3492    110.0928   9.2768056610e+01   1.7868474788e+01    0.3283862    0.2220956  42.16  0.001015155    1.495    0.331
        53 -11.3751     94.3004    110.1234   1.1872981107e+02   4.1086060725e+01    0.2347769    0.2004649  17.71 0.0008332521    1.349    0.259
        54 -11.2087    134.4463    103.6180   1.0653178909e+02   3.4957471952e+01    0.3803934    0.1453845 -40.98  0.001306024    2.610    0.617
        55 -10.1500     13.5092     59.8666   1.3249706790e+02   6.1275977223e+01    0.1737183   0.09221548 -60.74  0.000434779    1.479    0.324
        56 -10.9724    160.4358    248.2244   1.2742205231e+02   4.2274643105e+00    0.2211511    0.1146374 -50.71  0.001284871    2.566    0.610
        57 -11.0959     17.7230    237.6655   1.5019112767e+02   2.4678731628e+01   0.08147202   0.06797089 -72.94 0.0006998487    1.606    0.377
        58 -13.7730    196.3100    195.8681   1.1310478461e+02   5.6097564862e+00    0.7486219    0.5240626  43.41   0.00167736    1.331    0.249
        59 -10.5507    133.9691     29.8681   8.3167044335e+01   4.7714980888e+01    0.3389391    0.1984423  84.87  0.001234187    3.334    0.700
        60 -12.2076    188.6548    186.7421   1.1291804831e+02   8.3957206683e+00    0.5566617    0.4003507 -55.42  0.002395883    1.860    0.462
