#   1 NUMBER                 Running object number                                     
#   2 MAG_AUTO               Kron-like elliptical aperture magnitude                    [mag]
#   3 X_IMAGE                Object position along x                                    [pixel]
#   4 Y_IMAGE                Object position along y                                    [pixel]
#   5 X_WORLD                Barycenter position along world x axis                     [deg]
#   6 Y_WORLD                Barycenter position along world y axis                     [deg]
#   7 A_WORLD                Profile RMS along major axis (world units)                 [deg]
#   8 B_WORLD                Profile RMS along minor axis (world units)                 [deg]
#   9 THETA_WORLD            Position angle (CCW/world-x)                               [deg]
#  10 FWHM_WORLD             FWHM assuming a gaussian core                              [deg]
#  11 ELONGATION             A_IMAGE/B_IMAGE                                           
#  12 ELLIPTICITY            1 - B_IMAGE/A_IMAGE                                       
         1 -12.6403     53.8290    147.0040   1.0444083429e+02   3.8823335047e+01     5.742284    0.5518765 -63.27   0.01210747    7.736    0.871
         2 -13.5029    199.9140     42.0698   4.1866698083e+01   3.0207730814e+01     1.235908     1.090704 -26.71  0.006493739    1.351    0.260
         3 -13.7286    210.1112     32.1511   3.8320256546e+01   2.9160994305e+01     1.109476     0.861764 -13.98  0.001669082    1.788    0.441
         4 -12.8804    235.3336      6.2381   3.0541774879e+01   2.6709486668e+01     0.821373    0.6008944 -82.07  0.005586344    1.133    0.117
         5  -9.4435     60.2362      7.4539   5.9119494885e+01   6.6050157775e+01    0.1592028    0.1105768  55.52 0.0006178148    1.617    0.382
         6 -10.9658    192.9142    195.1036   7.8707761648e+01   3.9575472217e+00     0.912935    0.4518076 -60.95  0.002804688    5.288    0.811
         7 -10.5375    140.0556    249.4436   9.8478245770e+01   2.9051080186e+00    0.2729883    0.2228715 -67.83  0.001742045    1.552    0.356
         8  -9.8074    129.1973    249.8295   1.0073595228e+02   4.4896264121e+00    0.1719598    0.1380678  18.52 0.0007099921    1.329    0.247
         9 -11.1382    115.8387    244.9481   1.0288236286e+02   7.3830549683e+00    0.5691795    0.2417122 -59.76  0.002595903    2.837    0.648
        10 -10.5502    120.0006    244.9964   1.0202842322e+02   6.7424177068e+00    0.2375996    0.1650127  49.06 0.0006658931    1.284    0.221
        11 -13.7062     54.7957    186.1940   1.0958578754e+02   2.8904190155e+01     4.828109     2.084152  73.48   0.01499877    4.659    0.785
        12 -10.6813    111.0994    203.2187   9.8333277397e+01   1.6542301953e+01    0.3173039    0.2387743 -82.61 0.0009703232    1.537    0.349
        13 -10.2823    107.7768    203.8160   9.9199674258e+01   1.6956835910e+01     0.272848    0.1876914 -84.95 0.0009567803    1.811    0.448
        14  -8.5407     96.3295    202.3010   1.0167108772e+02   1.9134192951e+01    0.1337953    0.1107889 -14.53 0.0004873556    1.645    0.392
        15 -10.4907    121.5173    197.2912   9.4955703252e+01   1.6089514534e+01     0.422626    0.2538989 -74.82   0.00178407    2.359    0.576
        16  -9.8662    111.4849    197.4852   9.7364679210e+01   1.7749995959e+01    0.2998444    0.1335308  37.42 0.0009304358    2.127    0.530
        17 -14.5967      9.8794    206.7261   1.2158622687e+02   2.9070098505e+01    0.9935309    0.8996906  -2.75  0.004336877    1.662    0.398
        18 -15.4522      2.6867    197.1930   1.2249588661e+02   3.1848316303e+01     16.73196          nan -74.64   0.03447735   12.346    0.919
        19 -14.9075     44.9504    198.9281   1.1329903548e+02   2.7103800739e+01     8.556573     2.966847  65.48    0.0110964    6.777    0.852
        20  -9.7091    147.4937    187.1311   8.7085826035e+01   1.3669782632e+01    0.3550557    0.1997644 -41.79  0.001075366    1.893    0.472
        21 -13.1422     21.0976    221.7570   1.2026766169e+02   2.4680542475e+01    0.5361543    0.4707392 -73.93    0.0013618    1.363    0.266
        22  -8.9419     79.5718    182.8333   1.0297529543e+02   2.6276899936e+01    0.2712617      0.16644 -81.95  0.001127455    1.867    0.465
        23 -10.0629     99.5686    180.7128   9.7597081942e+01   2.3624920151e+01      0.27173    0.2636437  -9.93 0.0006840311    1.177    0.150
        24  -8.3590     89.3694    179.8318   1.0003997717e+02   2.5492424025e+01    0.1947336     0.128153 -52.19 0.0003908151    1.564    0.361
        25 -10.0616    187.2083    175.7472   7.6058814525e+01   8.6391776539e+00    0.3389225    0.2917525 -46.17  0.001261487    1.219    0.180
        26  -9.3089     89.4317    211.0551   1.0444362813e+02   1.8251082869e+01    0.1947947    0.1662609  56.47 0.0003729791    1.048    0.046
        27 -12.1444     81.6021    159.2043   9.8674576177e+01   3.1812073517e+01     1.063645    0.6273308  68.52 0.0004104417    2.360    0.576
        28 -12.9548     69.9470    154.0578   1.0102061158e+02   3.4857815149e+01    0.6466326    0.5195172 -52.55  0.001105072    1.241    0.194
        29 -14.3706     68.7330    144.3431   9.9664243008e+01   3.7505402368e+01     4.820859     2.188242  63.60   0.01337345    5.222    0.808
        30  -8.5262    193.4893    170.4874   7.3676069836e+01   8.5026811436e+00    0.1437213    0.1341071 -15.10 2.158232e-05    1.023    0.022
        31  -9.9581    240.7359    169.3983   6.4704992197e+01   5.3510765004e-01    0.1724198    0.1191971  24.11 0.0009463512    1.619    0.382
        32  -8.7000    184.8223    167.8354   7.4914354239e+01   1.0654804488e+01    0.1982269     0.178289 -74.62 0.0006614699    1.354    0.261
        33  -9.1704    110.8616    168.0330   9.2477571055e+01   2.4723456933e+01    0.2376441    0.1987877  83.11 0.0006040065    1.310    0.237
        34  -9.8967    230.3633    166.2079   6.5824377186e+01   2.7648105333e+00    0.1956505     0.113377 -44.99 0.0009457339    1.691    0.409
        35  -7.9429    120.3141    165.6253   8.9584574381e+01   2.3580900995e+01    0.1616685    0.1185536  80.30   0.00070311    1.792    0.442
        36 -17.1118     14.8620    242.8897   1.2269182140e+02   2.0994764011e+01     6.227995     4.690339  47.69   0.02689252    1.306    0.234
        37  -7.8683    130.3308    159.6445   8.5825157486e+01   2.3097100550e+01    0.1626576    0.1217578  81.27 0.0007044774    1.785    0.440
        38 -10.0185     32.8964    156.3944   1.1162491872e+02   3.8813053407e+01    0.3058053     0.227869  59.75  0.001741217    1.355    0.262
        39 -11.5810     89.0903    152.1704   9.5319436992e+01   3.2383029842e+01    0.7015452    0.5174205 -17.68  0.003193544    1.926    0.481
        40 -10.6034    133.7186    145.0693   8.1792325834e+01   2.5845449784e+01     1.244542    0.3306049 -55.16  0.002816152    5.851    0.829
        41  -9.1866    174.7112    149.1532   7.3000468858e+01   1.6499453813e+01    0.2439882    0.1886716 -61.00 0.0008254806    1.468    0.319
        42 -11.2979     68.4349    172.6057   1.0434414015e+02   3.0406001026e+01    0.3825043    0.2930576 -32.52  0.001492958    1.688    0.408
        43  -9.7004     38.7447    146.4313   1.0868424643e+02   4.0719258117e+01    0.2779729    0.2032378  76.13  0.000923285    1.417    0.294
        44 -10.8366     29.2373    143.6120   1.1101363327e+02   4.2396234024e+01    0.4061534    0.3655605  -7.73  0.002256999    1.391    0.281
        45 -10.2731    102.8965    138.2225   8.8558775541e+01   3.3466247546e+01    0.6856767    0.3934807 -26.54  0.002372886    3.013    0.668
        46 -10.1270    105.9046    131.0132   8.6064661084e+01   3.4676435667e+01     0.404574    0.3231125 -66.59  0.001396644    1.309    0.236
        47 -11.5857     89.9329    138.0251   9.2234636619e+01   3.5796251777e+01    0.2958406    0.2641539 -45.87 0.0003470308    1.125    0.111
        48 -11.5152     73.0326    167.6676   1.0238801051e+02   3.0978296220e+01    0.4878272    0.3230064 -51.87  0.001149656    1.534    0.348
        49 -11.1255     40.4792    127.9895   1.0530707212e+02   4.5218750737e+01    0.6601897    0.1814353 -66.73  0.002119241    3.454    0.710
        50 -10.0940    135.8183    128.9183   7.7432589899e+01   2.9159825674e+01    0.3450291    0.2196681 -50.52  0.001320771    1.562    0.360
        51  -9.4953    111.5770    129.2791   8.4049330595e+01   3.4011797302e+01    0.2948398    0.2494081   7.34 0.0009312136    1.413    0.292
        52  -9.5612     32.3020    130.3188   1.0821018428e+02   4.5462276480e+01    0.2322204    0.1973009 -85.75 0.0007556733    1.114    0.103
        53 -10.6618     29.0000    129.0080   1.0902229877e+02   4.6105343276e+01    0.3492045    0.1606584 -60.06  0.001586697    1.783    0.439
        54  -9.2313    160.9928    128.3288   7.1160040273e+01   2.3859065349e+01    0.3501717    0.1625236 -53.23  0.001210005    2.473    0.596
        55  -8.3029    147.5985    174.4445   8.4618315264e+01   1.6405588565e+01    0.1457395    0.1438296   1.96 4.495016e-05    1.014    0.014
        56 -10.2635     99.0011    125.1526   8.6679663219e+01   3.7387189639e+01    0.3268294    0.2763883 -21.01   0.00161705    1.351    0.260
        57 -10.3891    118.3320    123.2819   8.0697203125e+01   3.4098908218e+01    0.5518255    0.3639773  11.24  0.002085001    2.520    0.603
        58  -8.6478     89.4845    122.5442   8.8904837054e+01   3.9720288548e+01    0.2136765    0.1432905  51.27 0.0001911746    1.656    0.396
        59  -8.3376     86.6641    120.3205   8.9239965447e+01   4.0749630980e+01    0.2310343    0.1268064  58.17 0.0007607021    2.634    0.620
        60 -11.4309     34.6469    118.8346   1.0558410546e+02   4.8124015278e+01    0.4007266    0.2968259 -10.70  0.002171119    1.709    0.415
        61  -9.2323    107.9241    118.3735   8.2405014507e+01   3.7329110966e+01    0.2350117    0.2078184 -63.92 0.0003346466    1.151    0.131
        62  -9.9668     45.2532    118.0078   1.0197434099e+02   4.7209506553e+01    0.2024693    0.1648713 -63.39 0.0004022979    1.091    0.084
        63 -10.0119    231.3398    113.7136   5.4381664314e+01   1.1873664184e+01    0.2674941    0.2340333 -48.79 0.0008267815    1.045    0.043
        64 -10.0609    134.6833    112.7261   7.3583083461e+01   3.3058979692e+01    0.4590845    0.1429919 -43.82  0.001357482    3.175    0.685
        65  -9.4810    205.2598    110.0590   5.7759299016e+01   1.7856705362e+01    0.2966796    0.2150047  40.39  0.001029855    1.586    0.370
        66 -10.4466    116.1372    108.8247   7.7552335080e+01   3.7891013097e+01    0.5348975    0.3584673  59.72   0.00227668    1.797    0.443
        67 -11.2695     33.8768    109.5573   1.0414545671e+02   5.0505223943e+01    0.3186183    0.2381406  49.24  0.001770438    1.553    0.356
        68 -11.4262     42.7611    104.6136   1.0008708368e+02   5.0800229227e+01    0.5727806       0.2718  46.02  0.002387832    2.644    0.622
        69  -8.3311    138.4953    105.4914   7.0661615555e+01   3.3788930277e+01    0.1573866    0.1517038 -74.23 -9.676551e-05    1.051    0.048
        70  -9.5075    241.6613    101.3176   5.0181675207e+01   1.2006941763e+01    0.1396893   0.09356123 -65.16 0.0007048926    1.706    0.414
        71  -9.5737     34.1444    100.2000   1.0218448106e+02   5.2763623940e+01    0.2097815    0.1624064 -41.63 0.0006843032    1.201    0.167
        72  -9.9010     30.7467     98.4333   1.0303199612e+02   5.3510973254e+01    0.1911401     0.178955 -66.25  0.001026169    1.115    0.103
        73  -9.4865    125.6970     92.9958   7.0472335090e+01   3.9279445251e+01    0.3224945    0.2367577 -77.44  0.001393067    1.900    0.474
        74  -9.0453    156.0912     88.2215   6.1707245393e+01   3.3219460576e+01    0.3055077    0.1911018 -64.96 0.0008700929    2.166    0.538
        75 -10.2825    135.9744    211.5278   9.3913719723e+01   1.0608425300e+01    0.2401887    0.1907019  88.07  0.001279067    1.616    0.381
        76  -9.0491    114.5559     83.9697   7.0853966387e+01   4.3561850078e+01    0.3352945    0.2373721  85.61  0.001380355    2.296    0.565
        77  -9.2914    158.5410     82.9925   5.9712290003e+01   3.3617479433e+01    0.2319157    0.1474967 -39.82 0.0005430192    1.561    0.359
        78  -8.3644    184.6739     77.2814   5.3134683283e+01   2.8408729327e+01    0.1503325     0.108832 -74.77  0.000273408    1.597    0.374
        79  -8.7247     56.0414     66.4687   8.4858330153e+01   5.7756798381e+01    0.1906028      0.13151  31.08 0.0004204027    1.515    0.340
        80 -13.0333    189.3145     49.8091   4.5227206587e+01   3.1627713794e+01      1.04177    0.8316993  34.46 0.0008833501    1.612    0.380
        81  -9.9621    183.7494    210.0050   8.3331277324e+01   2.8091089254e+00    0.1744914    0.1132882 -40.80 0.0007666548    1.598    0.374
        82  -8.3072     83.1902     61.4095   7.3189982002e+01   5.4242663909e+01    0.1940267    0.1325781  52.93 0.0009359272    1.703    0.413
        83 -11.0411     18.0783     32.9488   8.9795723323e+01   6.8460252050e+01    0.3322158    0.1440814  35.42  0.001426905    2.798    0.643
        84  -9.9509    190.9855    209.4961   8.1762498776e+01   1.7084900902e+00    0.1952477    0.1084806  15.06 0.0008100889    2.532    0.605
        85  -9.1922     38.8945    211.5856   1.1580612956e+02   2.4934617040e+01    0.2385812    0.1362206  70.20 0.0006912193    1.672    0.402
        86  -9.2587    189.7852     14.8885   3.6294285077e+01   3.5883019058e+01    0.1869731    0.1680381  68.19 0.0008131664    1.219    0.180
        87  -8.3139    224.2802    206.6923   7.4818820188e+01  -3.0384697032e+00    0.1099718    0.1036124 -62.04 0.0002239108    1.558    0.358
        88  -8.3309     66.5148     51.5302   7.5573352446e+01   5.8951454727e+01    0.1362055    0.1206601  -3.30 0.0001719534    1.003    0.003
