#   1 NUMBER                 Running object number                                     
#   2 MAG_AUTO               Kron-like elliptical aperture magnitude                    [mag]
#   3 X_IMAGE                Object position along x                                    [pixel]
#   4 Y_IMAGE                Object position along y                                    [pixel]
#   5 X_WORLD                Barycenter position along world x axis                     [deg]
#   6 Y_WORLD                Barycenter position along world y axis                     [deg]
#   7 A_WORLD                Profile RMS along major axis (world units)                 [deg]
#   8 B_WORLD                Profile RMS along minor axis (world units)                 [deg]
#   9 THETA_WORLD            Position angle (CCW/world-x)                               [deg]
#  10 FWHM_WORLD             FWHM assuming a gaussian core                              [deg]
#  11 ELONGATION             A_IMAGE/B_IMAGE                                           
#  12 ELLIPTICITY            1 - B_IMAGE/A_IMAGE                                       
         1 -13.0846    157.7600     84.1713   5.7463039275e+01   3.3311208981e+01     1.374783    0.8456003 -47.62  0.006202197    1.647    0.393
         2 -12.4227     10.3334     49.7896   9.6360282391e+01   6.5594890931e+01     1.099996    0.6628331 -39.01  0.006587967    1.353    0.261
         3 -11.2645     12.1785      2.1838   7.6164982646e+01   7.3083307059e+01    0.3032792     0.169048  16.34  0.001415825    1.617    0.382
         4 -11.2159      8.0678     33.7548   9.2264600140e+01   6.8724894090e+01     1.141516    0.6997681  55.34  0.005407636    4.048    0.753
         5 -12.1213      8.8777     24.7343   8.8423366291e+01   7.0182244509e+01    0.8685201    0.2905338  13.91  0.003479296    4.136    0.758
         6 -10.9963     26.7721      2.6923   6.8663184347e+01   7.1208989037e+01    0.2752504    0.1858272  41.30  0.001362098    1.675    0.403
         7 -11.7913     21.8314      5.9401   7.2830175464e+01   7.1487944401e+01    0.5666969    0.5063626 -12.64  0.003327752    1.439    0.305
         8 -12.0378      4.4615     17.7776   8.8030862137e+01   7.1648931402e+01    0.4034698    0.3679513  43.36  0.002134705    1.788    0.441
         9 -11.1731      9.7652     15.6808   8.4093244699e+01   7.1506002501e+01    0.2905142    0.1652484  -8.69 0.0008363654    1.747    0.428
        10 -12.2486      8.4452      9.2036   8.1843181505e+01   7.2555909158e+01    0.6914216    0.3723055   8.20   0.00350207    1.836    0.455
        11  -9.6559     21.8505     18.6126   7.8881733773e+01   6.9826711567e+01    0.8024883    0.7253604  84.92  0.005454446    2.218    0.549
        12 -10.5063     22.5250     13.1032   7.5982313396e+01   7.0501791042e+01    0.2118625   0.09985055 -34.50  0.001167833    2.029    0.507
        13 -11.9923     17.9147     31.5866   8.6356933641e+01   6.8243270603e+01     1.040063    0.6813394 -59.85   0.00596899    2.257    0.557
        14 -12.4773    129.0759     19.1624   4.4210732608e+01   4.9418945117e+01    0.2817239    0.2440605 -11.42 0.0006175799    1.373    0.272
        15 -11.1592     98.7739     22.3859   5.1777245462e+01   5.5998595598e+01    0.4959455    0.3170983  34.22  0.002658891    1.570    0.363
        16 -11.8495    238.0131     17.8582   3.1206053349e+01   2.4975542693e+01    0.2656984    0.1761717 -78.49 0.0003034935    1.271    0.213
        17 -11.5043    233.6638     11.6885   3.0332471401e+01   2.6543867046e+01    0.3572902    0.1240543 -34.24  0.001692439    2.895    0.655
        18 -10.5385     33.3196     16.2427   7.2123933302e+01   6.8699609877e+01    0.5004347    0.2624378  11.13  0.001885939    2.460    0.593
        19 -11.1641     47.0302     17.0123   6.6410899556e+01   6.6561301341e+01     0.575898    0.3457923  11.13  0.002951637    1.864    0.463
        20  -9.9993     43.4932      8.6986   6.4037534702e+01   6.8069308341e+01    0.3791136    0.2186927 -34.37  0.001967462    1.974    0.493
        21 -12.4939     40.4834     16.1697   6.8824916536e+01   6.7678190160e+01     0.447776    0.3475257 -39.19 0.0009266763    1.655    0.396
        22 -10.7058     39.7017     11.0401   6.6775198041e+01   6.8403535081e+01    0.2352937    0.1520783  39.64 0.0004947126    1.493    0.330
        23 -10.8168     70.5267     14.6776   5.6787954165e+01   6.2648444105e+01    0.4263501    0.2269651  -4.38  0.002011254    2.654    0.623
        24 -11.1333     77.8949     11.0471   5.3047724481e+01   6.1545498099e+01    0.4019224    0.1772284  49.84  0.000763607    1.859    0.462
        25 -10.5274     62.7171     15.0358   5.9554900599e+01   6.4083721371e+01    0.2503158     0.221038  84.30  0.001632307    1.699    0.411
        26  -9.5505     65.5066     11.9750   5.7284049178e+01   6.3881479369e+01    0.1623211   0.09247365  11.11 0.0004291256    2.242    0.554
        27 -10.5787    117.5404     12.2375   4.4136427020e+01   5.2774070095e+01    0.4650426    0.2750684  -7.28  0.002368857    2.317    0.568
        28 -12.3778    128.6618     11.3471   4.1849107090e+01   5.0270787243e+01    0.4135849    0.2884279  87.96  0.002338878    1.525    0.344
        29 -10.5698    100.2620     12.7510   4.7934902093e+01   5.6634804893e+01     0.262096    0.2159877  17.59  0.001070575    1.297    0.229
        30 -10.4312    157.3023     12.0083   3.7777942364e+01   4.3455320930e+01    0.1775659    0.1550825 -77.28  0.001026956    1.123    0.109
        31  -9.9536    138.3023     11.4171   4.0309540073e+01   4.7998587322e+01    0.2094511    0.1389373 -56.60 0.0009007513    1.711    0.416
        32 -11.3457    164.2797      7.9689   3.5847475379e+01   4.2203475800e+01    0.3782566    0.2325212 -15.77 0.0009382378    2.251    0.556
        33 -11.5516    204.2637      1.8671   3.0546045264e+01   3.3735765609e+01    0.6133687    0.1924891  64.69  0.002785738    2.733    0.634
        34 -12.5105    215.6877      7.2204   3.0773160684e+01   3.0740338951e+01    0.4736827    0.2975492  69.83   0.00237854    1.512    0.339
        35 -12.2499    213.2080      4.3977   3.0382261724e+01   3.1559214009e+01    0.4378847    0.2276124 -78.85  0.002410777    1.821    0.451
        36  -9.6394    170.3552      8.7942   3.5358924763e+01   4.0708010949e+01    0.1477383     0.120884  -8.51 0.0004675221    1.665    0.400
        37 -11.1798    146.1908      6.8971   3.7854737002e+01   4.6550565828e+01    0.4427828    0.2387977  46.82  0.001559427    1.923    0.480
        38 -11.0876    148.5360      2.0280   3.6184991871e+01   4.6421832760e+01    0.3884042    0.2627438  89.93  0.002118245    1.400    0.285
        39 -10.3585    191.5780      7.7298   3.2928407233e+01   3.5955447347e+01    0.4021905    0.2314275 -41.64  0.001683732    1.730    0.422
        40 -10.8831    187.1632      6.1427   3.2979615669e+01   3.7108030192e+01    0.2960372    0.1828648 -81.13  0.001063677    1.500    0.333
        41  -9.7745    100.6754      7.6853   4.6015382784e+01   5.6993626428e+01    0.1683858     0.128895  -7.51 0.0004323168    1.526    0.345
        42 -11.3315     97.9346      4.5050   4.5461765802e+01   5.7862870109e+01     0.322416    0.2445756  18.80  0.001799965    1.441    0.306
        43 -10.5786     91.0183      6.7038   4.7870329594e+01   5.9186916456e+01     0.467781    0.1753192  46.31  0.002109583    2.210    0.547
        44  -9.5880     72.4668      5.5357   5.2354868547e+01   6.3133261717e+01    0.2755389    0.1956899 -73.47 0.0007942906    2.582    0.613
        45 -10.2634     74.3236      2.3679   5.0491474244e+01   6.3026981698e+01    0.2803254    0.2228108 -39.43  0.001379468    1.598    0.374
        46 -10.0034     81.4610      5.6695   4.9888522939e+01   6.1294139039e+01    0.1848011    0.1164862 -26.60 0.0002834259    1.808    0.447
        47 -12.0976    179.0119      4.1857   3.3311446811e+01   3.9150600131e+01    0.2315762    0.1895958 -81.41 0.0003223002    1.060    0.057
        48 -10.3934    118.8765      3.9290   4.1173456678e+01   5.3182444115e+01    0.2443563    0.1623256  77.66  0.001392119    1.457    0.313
        49 -10.9209     67.8580      3.7679   5.2988484072e+01   6.4191819307e+01    0.2249078     0.151569  44.48 0.0004492303    1.219    0.180
        50 -10.4373    243.1248      3.0673   2.8092121188e+01   2.5610813517e+01    0.1565205     0.134978 -82.00 0.0007466213    1.267    0.211
        51 -11.0785    194.9102      2.2896   3.1407381188e+01   3.5747533883e+01    0.3588029    0.1797929 -85.03  0.001784145    1.961    0.490
        52 -10.1705    126.4834      2.7035   3.9519576504e+01   5.1521343473e+01      0.20219    0.1547443  36.22 0.0005010235    1.411    0.291
        53 -10.5640    237.1966      2.3791   2.8330098963e+01   2.6843619798e+01    0.1634098   0.08433522 -86.60 0.0009562463    1.732    0.422
        54 -10.7440    230.8923      1.6944   2.8602695322e+01   2.8173142383e+01    0.1601449     0.132046  88.96 0.0004173185    1.220    0.180
        55 -10.1318    108.0809      1.5710   4.2349098860e+01   5.5830366257e+01    0.1780367    0.1286541  58.83 0.0004734005    1.136    0.120
        56  -9.6373     32.8873      1.3407   6.5057596657e+01   7.0474817961e+01    0.2162678   0.09620781  48.04  0.001091626    2.568    0.611
        57  -9.2069    177.2787    168.6875   7.3365671509e+01   1.2096291655e+01    0.1391366    0.1177449 -84.85 0.0002362265    1.565    0.361
        58 -12.3048    226.3012    245.5387   7.7700583177e+01  -8.7579094068e+00    0.6434932    0.3281368  -8.00  0.003039638    2.788    0.641
        59 -11.7201    234.8632    248.8867   7.6710335042e+01  -1.0253723877e+01     0.334471    0.1839311 -27.74  0.002013423    1.681    0.405
        60 -12.0135    232.3231    245.1571   7.6560848912e+01  -9.4491485094e+00    0.5463915    0.1853972 -31.63  0.002434419    3.060    0.673
        61 -11.5510     89.0349    249.5114   1.0605258183e+02   1.0307057021e+01    0.3055144    0.2305412  43.37 0.0008274561    1.117    0.105
        62 -10.2240     72.5226    250.1311   1.0954100610e+02   1.2468333143e+01    0.2125686    0.1666729  16.51  0.001095405    1.632    0.387
        63 -13.1474     19.0600    237.3442   1.1935825396e+02   2.1507470281e+01     1.352171    0.4179217  53.21   0.00605388    2.743    0.635
        64 -11.9163      4.5415    236.2254   1.2210242232e+02   2.3196215132e+01    0.4465501    0.3717481  86.96  0.002550323    1.208    0.172
        65 -13.3597      5.6346    245.1923   1.2234477261e+02   2.1287083856e+01    0.9519107    0.5539297  37.57  0.004837497    1.644    0.392
        66 -12.7741     22.1445    249.0662   1.1946091210e+02   1.8818810432e+01    0.8304505    0.2383989  34.99  0.003785359    2.915    0.657
        67 -11.2987     17.2717    247.4104   1.2028794403e+02   1.9665264068e+01    0.2647783    0.1720772  59.03 0.0005102394    1.202    0.168
        68  -9.5947     99.1895    164.8496   9.1726965600e+01   2.7541692895e+01    0.1978078    0.1756398 -24.57 0.0003639726    1.274    0.215
        69 -10.5262     10.3852    162.8728   1.1568771981e+02   3.9310027835e+01     0.302126    0.1542736  40.16 0.0009529215    1.997    0.499
        70 -12.7889     21.4443    157.3052   1.1215759627e+02   3.9735333690e+01    0.6391277    0.4793618   7.84   0.00090353    1.719    0.418
        71  -9.4475    216.3949    155.1951   6.2844592382e+01   7.5403568924e+00     0.187759     0.119785 -48.42 0.0003542993    1.560    0.359
        72 -10.2331     11.3582    153.6160   1.1451392927e+02   4.1502666843e+01    0.2454419    0.1671189   9.89  0.001377948    1.910    0.476
        73  -9.9152    177.1559    150.7501   6.9568838224e+01   1.5804660471e+01    0.2387378    0.1940544  69.45  0.001188494    1.521    0.343
        74 -10.3665    207.0520    146.6450   6.2737897590e+01   1.0831184465e+01    0.1911077    0.1804343  27.27 0.0005986983    1.138    0.121
        75 -10.4104     17.9309    146.9078   1.1193742672e+02   4.2628077526e+01    0.2940671    0.2009642 -22.49  0.001070653    1.942    0.485
        76  -9.3460     41.1800    146.3483   1.0509679612e+02   4.0506505918e+01    0.1797246    0.1209316  42.36 0.0002624443    1.564    0.361
        77  -9.7211    220.4559    143.9613   5.9792386576e+01   8.8685054307e+00    0.2112106    0.1223792 -40.86 0.0006839164    1.539    0.350
        78  -9.8721     10.3554    144.4033   1.1380802799e+02   4.3851847598e+01    0.2187333    0.1148049  -8.10 0.0009566449    3.171    0.685
        79  -9.5852     81.8854    139.7951   9.1752414009e+01   3.6629566665e+01    0.2111418    0.1752704  72.54  0.001061862    1.347    0.258
        80 -10.3479     55.1491    138.9965   9.9688512126e+01   4.0699555475e+01    0.3433354    0.2952161  54.37  0.001469526    1.226    0.185
        81 -10.3702      9.3976    135.7526   1.1309704769e+02   4.6055996367e+01    0.2731293    0.1118669 -77.88  0.001161889    2.291    0.563
        82  -9.6582     20.9647    135.2858   1.0956927168e+02   4.5267800842e+01    0.1825063    0.1562289 -70.56 0.0007898734    1.009    0.009
        83  -9.7324      2.5312    135.5000   1.1508560155e+02   4.6583659945e+01    0.1278664    0.1048665 -72.93 2.720815e-05    1.019    0.019
        84 -10.0048    249.2912    134.0557   5.3256159631e+01   5.6326031708e+00    0.1873754    0.1434615 -39.43 0.0006381132    1.088    0.081
        85  -9.9965    112.0000    133.0107   8.1532246980e+01   3.2933286030e+01    0.2601676   0.08766885 -50.65 0.0008017441    2.938    0.660
        86 -11.0844     54.6788    132.5884   9.8669069927e+01   4.2375117645e+01    0.3580114    0.2420638  52.59  0.001040194    1.669    0.401
        87 -11.4295     36.3754    130.2621   1.0403277631e+02   4.5076072223e+01    0.5254244    0.2498218 -46.52  0.002277334    2.070    0.517
        88 -11.4058     73.8916    129.3236   9.2001396517e+01   4.0489294372e+01    0.3535519    0.3194839  55.65 0.0009172444    1.168    0.144
        89  -9.2434      9.4433    129.4584   1.1231754320e+02   4.7601921810e+01    0.1295582    0.1081788 -70.14 8.016481e-05    1.008    0.008
        90 -10.5278     48.5266    126.1163   9.9413931457e+01   4.4758172453e+01    0.2392756    0.2154011  76.28 0.0003584306    1.189    0.159
        91 -10.7397     24.2255    126.0602   1.0722423850e+02   4.7282886018e+01    0.2240893     0.187902  32.46 0.0004506725    1.346    0.257
        92 -11.2121     21.5634    121.3135   1.0734986764e+02   4.8683676143e+01    0.7168587    0.2417042 -41.98  0.001818966    3.471    0.712
        93 -11.1338     13.2785    126.0277   1.1068297616e+02   4.8170589475e+01    0.3466365    0.1901287  24.53 0.0003138312    2.078    0.519
        94 -10.8907     10.7719    122.6168   1.1101076936e+02   4.9187591514e+01    0.2808197    0.2370646  75.10  0.001314077    1.258    0.205
        95  -9.9581    220.0280    124.3063   5.5678225193e+01   1.2507366994e+01    0.1853434    0.1760059 -51.70 0.0004886952    1.072    0.067
        96 -10.1400      2.6946    122.7035   1.1356383130e+02   4.9691840330e+01    0.2298958    0.1266695 -67.20 0.0006156827    1.461    0.316
        97  -9.9645      1.3447    119.2002   1.1355572070e+02   5.0620127338e+01    0.1935376    0.1412813 -88.43 0.0005540251    1.313    0.238
        98 -10.5528     72.8875    118.0438   8.9824869009e+01   4.3408869346e+01    0.4289223    0.2588097 -79.08  0.001665731    2.574    0.611
        99 -11.0064     15.0525    117.5194   1.0889924733e+02   5.0126432961e+01    0.4346215    0.2386322 -52.83  0.002231904    1.559    0.358
       100 -10.0376     85.9835    116.4949   8.5295438659e+01   4.1639742442e+01    0.2170711    0.1495118  35.44 0.0003482767    1.496    0.331
       101  -9.8750    213.9912    115.5121   5.4738524058e+01   1.5263622993e+01    0.1911173    0.1390203  51.64 0.0004855238    1.516    0.340
       102 -11.0640    249.3265    112.2856   4.8892002993e+01   9.2380903983e+00    0.2340486    0.1858218 -55.03 0.0004341747    1.156    0.135
       103 -10.1636     94.9805    112.5254   8.1524278816e+01   4.0966824658e+01    0.2870823    0.2178218 -67.86 0.0009426531    1.520    0.342
       104 -11.5543     37.5794    110.3606   1.0001906383e+02   4.9869576999e+01     0.542592    0.2767548  48.30  0.002338499    2.499    0.600
       105 -10.3357      1.3557    108.7759   1.1218632309e+02   5.3123078205e+01    0.3367177     0.156506 -89.94  0.001449765    2.721    0.633
       106  -9.8489      2.4884    105.5021   1.1133927412e+02   5.3839299566e+01    0.2260159    0.1019051 -67.23 0.0006285697    1.789    0.441
       107 -12.2317     14.4592    109.3232   1.0782163903e+02   5.2159112048e+01    0.4794668    0.3134959  12.24  0.002666411    1.811    0.448
       108 -11.9901     55.1828    109.3623   9.3730115334e+01   4.8036361508e+01    0.4975217    0.2909496 -48.81  0.001340547    1.567    0.362
       109 -11.2545     24.5063    107.0495   1.0394320570e+02   5.1915160935e+01    0.2882198    0.2554409  -8.91  0.001806876    1.239    0.193
       110  -9.9971    243.5494    104.5191   4.8071168252e+01   1.1536218916e+01    0.1301101    0.1092204 -48.38 9.754636e-05    1.012    0.012
       111 -11.2779    121.4300     99.8454   7.0481403853e+01   3.8469176710e+01    0.7006625    0.4100233 -20.51  0.002469118    2.966    0.663
       112 -10.1317     51.7138    104.1530   9.3740913245e+01   4.9726108446e+01      0.27119    0.1753364 -14.83  0.001230924    2.068    0.517
       113 -10.0723     14.6717    102.9935   1.0669012429e+02   5.3660510192e+01    0.1864942    0.1439357 -64.63 0.0005572301    1.132    0.117
       114 -11.4391      4.6022     98.3385   1.0950476761e+02   5.5410889638e+01    0.3456598    0.2576991  88.98  0.002048513    1.466    0.318
       115 -11.5083    143.7422     98.7596   6.4510140403e+01   3.3762308116e+01    0.6476508    0.3695829  51.79   0.00270934    1.769    0.435
       116 -10.9885     62.2608     98.9019   8.8761599559e+01   4.9525374015e+01    0.3617599    0.2939062  11.38  0.001116441    1.329    0.248
       117 -10.1983     66.5723     98.2231   8.7086187754e+01   4.9045096382e+01     0.210268    0.1686536 -44.90 0.0003836914    1.177    0.150
       118  -9.9074     22.6241     99.5815   1.0320602329e+02   5.3856481211e+01     0.425541    0.1970841  -4.71  0.001628741    3.680    0.728
       119 -10.8257     51.2057     98.5986   9.2605131599e+01   5.1094592460e+01    0.3655053    0.2059247 -32.74  0.001581097    2.027    0.507
       120 -11.1702     10.7826     90.9771   1.0595178187e+02   5.6745828903e+01    0.3015248    0.1917678   8.38 0.0006172704    1.820    0.451
       121  -9.3883     10.4723     87.4971   1.0540677947e+02   5.7565510648e+01    0.2020624   0.09117348 -54.57 0.0009799717    1.734    0.423
       122 -11.2273     14.0095     97.5227   1.0596048658e+02   5.5001773345e+01    0.3514183    0.1605056 -60.21  0.001681294    1.767    0.434
       123 -11.5112     37.6060     94.8557   9.6685937194e+01   5.3550699197e+01    0.3325921    0.2492418  48.34  0.001010965    1.606    0.377
       124  -9.8692    173.4568     83.5071   5.4192261353e+01   2.9787056583e+01    0.2445411    0.1380856 -38.43 0.0008323726    1.780    0.438
       125 -11.3328    163.9673     88.7379   5.7394316319e+01   3.1043270982e+01    0.3714266    0.3096092 -31.78  0.001288301    1.285    0.222
       126 -12.1290     37.0150    243.8661   1.1623467991e+02   1.8186874184e+01    0.6755112    0.3131855 -86.87  0.003341449    2.344    0.573
       127 -11.6940     21.6011     86.9697   1.0099318087e+02   5.6869210533e+01    0.5357295    0.2239009 -56.79  0.001880509    1.961    0.490
       128  -9.1330    113.4460     93.4794   7.0915599047e+01   4.1488735471e+01    0.1505754     0.145486   3.66 9.523399e-05    1.044    0.042
       129  -9.1985    250.3065     95.6892   4.5436095733e+01   1.1746373422e+01    0.1293233   0.08433526 -63.90 0.0003887644    1.617    0.381
       130  -9.4255     46.5520     92.5716   9.2821054519e+01   5.3060316015e+01    0.1359048    0.1248755 -38.00 8.535381e-05    1.032    0.031
       131 -10.4690     96.0748     90.1562   7.5107556081e+01   4.5700574167e+01    0.3739056    0.2386062  16.61  0.001530371    2.248    0.555
       132 -10.6665     57.7898     90.0043   8.8029746053e+01   5.2174573569e+01    0.3849605    0.2410627  22.93  0.001847809    1.746    0.427
       133 -10.2201     83.0197     88.9145   7.8934687987e+01   4.8393190003e+01    0.2214378    0.2034671 -18.76 0.0005997136    1.060    0.056
       134 -10.8103     77.9969     88.1877   8.0407916755e+01   4.9424807916e+01    0.3728593    0.3127639  21.53   0.00200983    1.214    0.176
       135 -12.1453    166.6894     83.9860   5.5609813750e+01   3.1268675936e+01    0.7546062    0.5114914  63.30  0.002568348    1.524    0.344
       136 -10.8678     65.1869     87.4065   8.4647823734e+01   5.1666273168e+01    0.4454392    0.2134508 -49.88  0.001872229    1.998    0.500
       137 -10.6896     46.0279     87.0428   9.1609526190e+01   5.4371453041e+01    0.3438088     0.230067  77.37  0.001501603    2.770    0.639
       138 -11.6180      4.4961     85.4994   1.0733225572e+02   5.8383006398e+01    0.4403307    0.1748565 -49.82  0.002102338    1.949    0.487
       139  -9.4335    120.9746     87.0122   6.6992112169e+01   4.1168802337e+01    0.1795531    0.1775616 -26.20  0.000689864    1.028    0.027
       140 -11.7094     30.9676     82.0719   9.6174618287e+01   5.7129622493e+01    0.4055155    0.3442974  10.54  0.001557535    1.251    0.201
       141  -9.6199    116.6787     83.6941   6.7190188631e+01   4.2750248621e+01    0.1519229    0.1179126   9.10 0.0002149822    1.638    0.389
       142 -12.1765     20.9523     78.5779   9.9340009162e+01   5.8803406454e+01     1.045702    0.3382695 -52.93  0.004373375    2.383    0.580
       143 -10.5028    249.8828    246.8513   7.3793414417e+01  -1.1727173046e+01    0.1814274    0.1200505  -3.85   0.00106136    1.256    0.204
       144 -10.8580      6.6562     41.3843   9.5567013577e+01   6.7450185097e+01    0.2939513    0.1828569 -31.32 0.0009139603    1.326    0.246
       145 -11.0905     10.2302     63.3998   1.0015538119e+02   6.2861171468e+01    0.3344309    0.2519689  -3.62 0.0008230888    1.356    0.263
       146 -13.0926     11.5625     75.1730   1.0239795243e+02   6.0253615891e+01     1.042979    0.5134075  19.60  0.005360646    2.239    0.553
       147 -10.8802     15.2039     59.5672   9.6916848813e+01   6.3290564947e+01    0.2610379    0.1801257 -21.15 0.0004660374    1.356    0.263
       148 -13.9472     16.6145     67.7218   9.8473798960e+01   6.1492583742e+01    0.4720727    0.3364572   5.82   0.00179902    1.485    0.326
       149 -11.0095     19.7814     61.9757   9.5547692299e+01   6.2430548185e+01    0.2921149    0.2209201 -58.81 0.0004607799    1.380    0.275
       150 -13.0959      4.7795     65.7906   1.0312847319e+02   6.2700375620e+01    0.6945351    0.3952812  89.04  0.002416045    3.219    0.689
       151 -11.6657      5.2723     58.9594   1.0124892625e+02   6.4096659697e+01     0.237682    0.2027567 -38.18 0.0002927046    1.083    0.077
       152  -9.6117     70.8396     79.5934   8.0358551130e+01   5.2426564231e+01    0.1843048    0.1310295  46.28 0.0001631147    1.562    0.360
       153 -10.6435     60.9737     78.1879   8.3515372145e+01   5.4261773324e+01    0.3095091    0.1968442 -49.64 0.0007713268    1.553    0.356
       154 -11.0302     61.9155     72.1711   8.1330481009e+01   5.5346267662e+01    0.3560616    0.1810795 -44.28 0.0006161482    1.885    0.469
       155  -9.2997    228.7278     78.6729   4.4560473882e+01   1.8539735169e+01    0.1183206    0.1027511  -6.14  0.000338051    1.582    0.368
       156 -12.7844     44.7158     75.2569   8.8891705309e+01   5.7088589980e+01    0.3078069     0.266482  37.05 0.0005803104    1.320    0.243
       157 -12.0976     31.0688     63.8365   9.1169030608e+01   6.0991696773e+01    0.8937387    0.6975977  73.36  0.005009932    2.093    0.522
       158 -10.8090     26.6758     56.0147   9.0701567275e+01   6.2986952154e+01    0.2919006    0.2061707 -30.90  0.000393741    1.231    0.188
       159 -13.2463     37.2982     50.0642   8.3996762505e+01   6.2932472923e+01    0.7496939    0.6079493 -12.58  0.003254951    1.075    0.069
       160  -9.2796    121.6704     76.2813   6.3657425824e+01   4.3041339826e+01    0.1468543    0.1172351  89.58 0.0007002506    1.604    0.377
       161 -10.8262     75.7419     74.8845   7.7191330673e+01   5.2549688082e+01    0.4031889    0.3003769  10.52  0.002053224    1.519    0.342
       162 -11.5085     77.2650     69.8608   7.5068027140e+01   5.3255562272e+01    0.4968206    0.3307897  35.81  0.001426438    1.479    0.324
       163 -10.6308     76.7192     63.4233   7.3141687246e+01   5.4545611336e+01    0.3653597     0.295076 -50.12  0.001319744    1.402    0.287
       164 -11.1631     90.7131     74.6342   7.2119293949e+01   4.9847351870e+01    0.3496864    0.2382229 -14.54  0.001039037    1.929    0.482
       165 -11.3751     51.6482     62.7494   8.2282370423e+01   5.8694712147e+01    0.3423729    0.3216236  -3.12 0.0009015516    1.128    0.113
       166 -10.2545     53.7892     74.0737   8.4998901513e+01   5.6146651880e+01    0.2362427      0.19271 -47.63 0.0006249723    1.233    0.189
       167 -12.2753     50.3708     68.7894   8.4717539817e+01   5.7687514805e+01    0.5260903    0.4044083  -8.51 0.0008529608    1.329    0.247
       168 -10.7561    207.6063     73.3775   4.6184460102e+01   2.3790862318e+01    0.2210762    0.2100938 -64.54 0.0002872326    1.130    0.115
       169  -9.8848    145.7949     74.2056   5.7278236722e+01   3.7866664793e+01    0.2008043    0.1769844  11.59 0.0007334444    1.346    0.257
       170  -9.7558    100.4998     71.7717   6.8193025181e+01   4.8424222047e+01    0.2304181    0.1739668 -78.20   0.00043458    1.985    0.496
       171  -9.4706    128.9897     71.5106   6.0384636243e+01   4.2233243475e+01    0.3075019    0.1960766  28.98  0.001317315    2.040    0.510
       172  -9.9210    128.3076     66.8350   5.9152174537e+01   4.3187082359e+01    0.3777946    0.2516897 -87.89  0.001560398    2.470    0.595
       173  -9.4421    167.7798     69.8032   5.1676668079e+01   3.3427287472e+01    0.1873269    0.1551447 -84.14 0.0003271012    1.250    0.200
       174 -10.1985    123.2941     69.0132   6.1051314750e+01   4.3961888773e+01    0.2625097    0.1983446  27.19 0.0008882806    1.516    0.340
       175  -9.8013     42.7708     68.4045   8.7651067664e+01   5.8744173180e+01    0.1760904    0.1618597 -26.98  0.001108872    1.103    0.093
       176 -10.8438     94.0268     66.3032   6.8413315113e+01   5.0729247800e+01    0.3802459    0.2649629  15.11  0.001067774    1.810    0.448
       177  -9.8866     99.5735     65.2592   6.6389309285e+01   4.9779251656e+01    0.2023827    0.1937855 -28.12 0.0008417407    1.096    0.087
       178 -11.5380     25.6966     90.9276   1.0028262488e+02   5.5615086034e+01    0.4906274    0.2786705 -38.05  0.001668673    1.682    0.405
       179 -11.0721    120.6130     61.5263   5.9425737544e+01   4.5820009616e+01    0.4655167    0.3480546 -66.78  0.002297302    1.710    0.415
       180 -10.2373    153.4496     63.6549   5.2725777902e+01   3.7804566448e+01    0.2445051    0.1283126  57.10 0.0005663142    1.813    0.448
       181  -9.8576    106.7117     62.6687   6.3487435714e+01   4.8710918311e+01    0.2844683    0.1666651  34.48  0.001246566    1.871    0.465
       182  -9.5824    201.9330     61.9813   4.4328941403e+01   2.6796847072e+01    0.1623319    0.1432609 -76.48 0.0005963988    1.014    0.014
       183 -11.0507     85.6891     61.8161   6.9583029203e+01   5.3160415068e+01    0.2822859    0.1732992  30.13 0.0007404424    1.733    0.423
       184  -9.3388    155.2932     60.3069   5.1436252950e+01   3.7889376796e+01    0.1386044    0.1101631  26.08 0.0001427999    1.581    0.368
       185  -9.4179     98.4005     60.4409   6.5161693631e+01   5.0845560136e+01    0.1390575    0.1309961  20.88 3.419328e-05    1.014    0.013
       186  -9.9141     69.5689     60.1870   7.4583558859e+01   5.6379825430e+01    0.1980745    0.1222511 -28.48 0.0009495207    1.730    0.422
       187 -11.6052     59.3800     58.4330   7.7796142884e+01   5.8356788695e+01     0.397249    0.2728933 -35.46  0.001309557    1.406    0.289
       188 -10.1537     55.5955     53.8688   7.7687344175e+01   5.9753358503e+01    0.2922753    0.2060947  -6.75  0.001539512    1.555    0.357
       189 -11.3388     62.6207     50.9332   7.3911619642e+01   5.9149364255e+01    0.3614151    0.2060325 -27.89  0.001124558    1.895    0.472
       190  -9.7587    147.0372     57.0003   5.2117177716e+01   4.0358202390e+01    0.2117307    0.1988669  88.86 0.0003941089    1.043    0.041
       191 -11.3760     75.2375     56.1296   7.1165006207e+01   5.6091801626e+01    0.2212707     0.208659  -7.24 0.0002893428    1.095    0.087
       192  -9.7582     68.4345     56.4423   7.3703822090e+01   5.7233917425e+01    0.1358107    0.1208883   2.68 8.417155e-05    1.015    0.015
       193  -9.4615    230.6642     55.3188   3.9393827412e+01   2.1641550190e+01    0.1358888   0.08077712 -67.23 0.0006992515    1.701    0.412
       194 -10.1404    132.2455     54.5668   5.4523409732e+01   4.4220365593e+01    0.3569899    0.1241849  53.28  0.001285591    2.596    0.615
       195  -9.5044     82.4509     54.5193   6.8151657747e+01   5.5017786565e+01    0.1385668    0.1246596  13.17 1.816031e-05    1.027    0.027
       196 -10.1684    120.5659     52.1938   5.6501048034e+01   4.7281901911e+01    0.3628862    0.2200589  27.31  0.001187273    2.257    0.557
       197  -9.4107    168.6921     52.2817   4.6882727966e+01   3.5896466715e+01    0.1404139   0.09991311 -75.81 0.0005073634    1.562    0.360
       198 -11.0694     88.0978     51.1101   6.5137672936e+01   5.4459492923e+01    0.2813012    0.2426585  21.61 0.0006659762    1.095    0.086
       199 -11.5819    128.9173     49.2422   5.3632823802e+01   4.5779807312e+01    0.4928505      0.39393   8.56  0.002164669    1.562    0.360
       200 -10.9026     76.9174     51.0053   6.8774309400e+01   5.6632742023e+01    0.7567937    0.1962906  42.99  0.002480636    3.656    0.727
       201 -10.1648     78.5272     47.0930   6.6818228046e+01   5.6947471895e+01    0.2143539    0.1603539 -36.74 0.0004101995    1.418    0.295
       202 -11.9959     26.8400     49.7521   8.8593720612e+01   6.4161227496e+01    0.4974836    0.3682389 -55.26  0.002079774    1.544    0.352
       203 -11.6941     35.0434     42.6265   8.2321007375e+01   6.4514469014e+01    0.6396384    0.3342753   8.17  0.002920903    2.609    0.617
       204 -12.4665    105.1504     52.7127   6.0659099276e+01   5.0647946147e+01    0.3318329    0.2740531  46.35 0.0003759931    1.131    0.116
       205 -11.3111    199.9020     49.6093   4.1706002378e+01   2.9043991630e+01    0.2590491    0.2026542  85.16 0.0003229921    1.196    0.164
       206 -10.7011     53.3055     49.8391   7.7160905494e+01   6.0798666513e+01    0.2875608    0.1814298  28.15   0.00107382    1.543    0.352
       207  -9.1452    205.7180     48.7140   4.0779039881e+01   2.7872765634e+01    0.1155416    0.1015986  35.40 0.0001656692    1.521    0.343
       208  -9.4788    120.1071     47.3904   5.5078424374e+01   4.8085204821e+01    0.1845736    0.1271143  67.27 0.0005045465    1.545    0.353
       209 -10.3516    142.9892     45.5222   4.9582185850e+01   4.2974516660e+01    0.2564993    0.1993085 -74.56 0.0007206141    1.453    0.312
       210 -10.0419    139.3770     43.1971   4.9599937376e+01   4.4148770456e+01    0.2676044    0.2098424 -46.56  0.001481691    1.364    0.267
       211 -10.1085    112.4850     46.0069   5.6495284527e+01   5.0013206620e+01    0.2768432    0.1730423  39.80 0.0009827117    1.587    0.370
       212 -10.9125     98.4647     39.5727   5.8005313222e+01   5.3985477530e+01    0.4584367    0.1859301  47.99  0.001895584    2.187    0.543
       213 -10.8001     92.0541     43.9087   6.1383038982e+01   5.4735062411e+01    0.3828193    0.3149222 -70.68  0.001742173    1.673    0.402
       214 -10.1886     95.6884     42.9925   5.9994140636e+01   5.4105497506e+01    0.2118923    0.1679184  22.93 0.0004587859    1.284    0.221
       215 -10.4720     83.4053     45.0279   6.4464169342e+01   5.6318080648e+01    0.2773515    0.1781066  49.22 0.0009263388    1.535    0.349
       216 -12.2766     53.0175     40.8436   7.3909759527e+01   6.2319803812e+01    0.6195865    0.5148834  35.95   0.00348752    1.304    0.233
       217 -12.8300     57.5357     34.6043   6.9655864608e+01   6.2535737963e+01    0.3837241     0.322019 -31.48 0.0002313466    1.311    0.237
       218 -11.3117     67.4985     41.9235   6.8756249635e+01   5.9754348784e+01    0.3838955    0.2852595  36.42  0.001497744    1.264    0.209
       219 -11.1658     71.4898     41.0517   6.6998871877e+01   5.9167413082e+01    0.3901418    0.2475454 -48.34  0.001513238    2.007    0.502
       220 -12.5073     73.2279     36.9172   6.4819370297e+01   5.9439165457e+01    0.8205231    0.4189166  34.16  0.002242296    1.952    0.488
       221 -10.7541    124.7254     42.2490   5.2375961910e+01   4.7726056610e+01    0.2999892    0.2154204  82.62  0.001517402    1.682    0.406
       222  -9.8151    106.9984     42.7881   5.6824361819e+01   5.1686198536e+01    0.1950469    0.1611613  49.96 0.0003686039    1.112    0.101
       223 -12.3442     67.5044    236.4896   1.0930664330e+02   1.5871957539e+01    0.9271021    0.3260896  34.24  0.003902973    2.579    0.612
       224 -10.2080    109.4295    242.6608   1.0095048913e+02   8.6449183491e+00    0.2560235    0.1550208  54.04  0.000804059    1.677    0.404
       225 -10.8168     88.8296    241.4546   1.0524139252e+02   1.1902074706e+01    0.2404641    0.1589668 -43.25  0.001305149    1.973    0.493
       226 -12.5022     75.9897    239.2897   1.0776662589e+02   1.4143813708e+01    0.7090359    0.4955993 -30.25   0.00379817    2.273    0.560
       227  -9.3699     50.3028    240.3242   1.1326890814e+02   1.7307425963e+01    0.1090917   0.09517709 -33.02 0.0006912802    1.638    0.389
       228 -10.0431    195.2969    238.6264   8.2426112462e+01  -3.5972975865e+00    0.2188892    0.1824719   4.17  0.001433507    1.030    0.029
       229 -10.7581    243.9467    237.3735   7.3257165626e+01  -9.7963122865e+00    0.1921294    0.1421625 -30.15 0.0008833561    1.376    0.273
       230 -12.1243     30.4167    233.6769   1.1684486594e+02   2.1036233217e+01    0.5057794    0.2444178 -84.18  0.002634066    2.067    0.516
       231 -10.3592    159.8171    236.1670   8.9262946567e+01   2.0954242534e+00    0.1809194    0.1422809   4.73 0.0004350958    1.313    0.239
       232  -9.8569    177.3730    234.8660   8.5416057853e+01  -3.6222052278e-01    0.1808929    0.1118155 -29.74 0.0009477115    1.777    0.437
       233 -10.8272    152.9399    231.1269   8.9957115324e+01   4.0663306505e+00    0.4243101     0.249111 -77.80  0.001487163    4.934    0.797
       234 -10.6838     30.0519     32.9317   8.0898070784e+01   6.6715061044e+01    0.3392532    0.2177699  -8.28  0.000977735    1.585    0.369
       235 -12.5703     27.7200     38.0664   8.4011327001e+01   6.6141387456e+01    0.3469077    0.2423546  12.83 0.0003754887    1.353    0.261
       236 -11.4872     24.2882     34.9991   8.4494928921e+01   6.7028734223e+01    0.3525523    0.2128002 -30.97 0.0008016042    1.470    0.320
       237 -10.8736    152.6111     39.1121   4.5981022441e+01   4.1525146300e+01    0.2449938    0.2020014  69.46 0.0005281693    1.098    0.089
       238 -11.5108     44.4130     38.6182   7.6642326362e+01   6.3942997068e+01    0.3850406     0.250938  32.95  0.002211942    1.503    0.335
       239 -11.1578    225.0908     38.2835   3.6399321044e+01   2.5106436517e+01    0.2618356    0.1796371 -86.09 0.0004608636    1.360    0.265
       240 -10.0795    116.3287     39.3068   5.3347596155e+01   5.0052202607e+01    0.2260274    0.1786863  57.96 0.0005823229    1.170    0.146
       241  -9.4049    160.4175     38.4379   4.4503420160e+01   3.9746045889e+01    0.1343406    0.1196967  84.98 3.852599e-05    1.018    0.017
       242 -10.1131      1.6349     37.6922   9.6952018003e+01   6.8461163647e+01    0.2055078    0.1038379 -41.02 0.0007760825    1.551    0.355
       243 -10.2320    131.3566     42.3392   5.0971096467e+01   4.6161390025e+01    0.2869848    0.2146534 -75.36 0.0008083595    1.642    0.391
       244 -10.3499     84.6857     34.9330   6.0342057741e+01   5.7476752043e+01    0.1739351    0.1550113  18.59 0.0002889897    1.050    0.047
       245  -9.5378    134.5133     35.4978   4.8230964674e+01   4.6294717714e+01    0.1361608    0.1224553  71.23 0.0008102324    1.039    0.037
       246 -10.3975    107.1580     34.3650   5.3906702910e+01   5.2754866047e+01    0.3102387     0.176019  59.85  0.001040584    1.707    0.414
       247 -12.3745    101.0345     29.2296   5.3658361501e+01   5.4732418128e+01    0.6288172    0.3454127  47.58  0.001160134    1.592    0.372
       248  -9.7198    201.9086     34.2935   3.7931434748e+01   3.0627220518e+01    0.1785766    0.1438012  87.58 0.0004285516    1.104    0.094
       249 -11.1691    221.7091     32.1207   3.5431717348e+01   2.6600879813e+01    0.2088817    0.1689976 -76.83 0.0002629594    1.027    0.027
       250 -10.3174    205.8635     32.5907   3.7117694736e+01   2.9962607176e+01    0.1894889    0.1640537 -44.21 0.0005431742    1.281    0.219
       251 -10.1295    178.1352     32.8517   4.0464125368e+01   3.6251347527e+01     0.168293    0.1523382  43.09 0.0004935422    1.334    0.250
       252 -10.5159    166.5082     32.5511   4.1995012337e+01   3.9029472057e+01    0.2440253    0.1319576 -31.55   0.00117636    2.052    0.513
       253 -10.6611     48.4578     31.6693   7.2132700543e+01   6.4402235430e+01    0.2446896    0.1785325   9.96 0.0005311047    1.284    0.221
       254 -10.4986     50.4790     27.5249   6.9569876210e+01   6.4668776677e+01    0.2806966    0.1694904  15.50  0.001410844    1.826    0.452
       255  -9.2580    145.6933     31.3848   4.4956487276e+01   4.4132631386e+01      0.14245   0.09484889 -68.93 7.804368e-05    1.799    0.444
       256  -9.6686     89.0724     31.5429   5.7766230766e+01   5.7011181765e+01    0.2027283    0.1182011  50.90   0.00101817    1.559    0.359
       257  -9.6339     44.4307     31.5007   7.3775583716e+01   6.5027616833e+01    0.1247193    0.1037271   1.62 3.445869e-05    1.012    0.012
       258 -10.1723    236.5698     30.1336   3.3710793404e+01   2.3793374446e+01    0.2234106    0.1350142  57.10  0.001193682    1.970    0.492
       259 -11.0094     69.8563     26.5741   6.1901483788e+01   6.1430706228e+01    0.4613396    0.2617456  28.87  0.001835986    1.809    0.447
       260  -9.8206    111.0410     28.0049   5.0799177976e+01   5.2640887258e+01    0.2272679    0.1430215  32.18 0.0008836238    1.770    0.435
       261 -10.1196     60.2913     27.2320   6.5597904191e+01   6.3075998836e+01    0.1908095    0.1562172 -33.37 0.0006721155    1.399    0.285
       262 -11.1168     59.1057     21.6385   6.3692445051e+01   6.3981825805e+01    0.2192368    0.1763162   5.41 0.0004843161    1.141    0.124
       263 -11.1727    128.0535     26.6874   4.6760847762e+01   4.8856181378e+01    0.5303767    0.3097961  69.02  0.002432372    1.662    0.398
       264 -10.2047    214.5025     25.7849   3.4766747552e+01   2.8910563850e+01    0.2077128    0.1491669  81.57 0.0004748717    1.260    0.206
       265  -9.9962    204.0272     26.0165   3.5839128993e+01   3.1168661823e+01    0.2042651    0.1227526 -66.58 0.0004947705    1.602    0.376
       266 -11.0645    193.0662     25.0436   3.6772899326e+01   3.3740467736e+01     0.299305     0.130095 -50.76 0.0009563492    2.250    0.556
       267 -10.4378    169.1979     25.9750   3.9896260589e+01   3.9168165759e+01    0.1836073     0.160866  57.33            0    1.220    0.181
       268 -12.2413    165.0360     23.0865   3.9701353099e+01   4.0476530213e+01    0.4956193    0.2415318  77.50            0    2.080    0.519
       269 -10.5019    185.6771     23.2565   3.7176142254e+01   3.5635074949e+01    0.2840805    0.2203713 -18.59  0.001705857    1.708    0.415
       270 -12.1497     74.6460    234.1225   1.0752833916e+02   1.5387880550e+01    0.4304309    0.3130312  89.25  0.002233802    1.456    0.313
       271 -10.2574     24.0755    232.6896   1.1806414685e+02   2.1939705616e+01       0.1979    0.1697016  82.45 0.0006681048    1.156    0.135
       272 -10.3158     93.9719     22.4981   5.3051769933e+01   5.7027917296e+01    0.2558097    0.1818937  28.06 0.0006958613    1.428    0.300
       273 -10.7147    103.2579     19.4438   4.9635411687e+01   5.5317563182e+01    0.2313081    0.1812599 -75.39 0.0007168592    1.668    0.400
       274 -11.2314    108.4811     17.3810   4.7728853115e+01   5.4353575916e+01    0.2910716    0.1954888  50.44   0.00017398    1.275    0.216
       275  -9.4308    226.4835     22.4045   3.3004842628e+01   2.6783749010e+01    0.1189229   0.09527594 -76.54 0.0002938035    1.033    0.032
       276 -10.6478     67.6290     21.7473   6.0690716110e+01   6.2425695761e+01    0.3566637    0.1537849  53.07  0.001302226    2.434    0.589
       277 -10.0724    120.3646     21.0865   4.6485110958e+01   5.1255369324e+01    0.1646523    0.1569312 -17.56 0.0004317584    1.201    0.167
       278  -9.4428    104.3004    231.6882   1.0071663320e+02   1.1571708767e+01    0.1359022   0.09293602  62.85 0.0003183022    1.606    0.377
       279 -10.2003     38.2432    232.8238   1.1517105509e+02   2.0319856511e+01    0.1794098     0.135629  69.37  0.000535307    1.106    0.096
       280 -10.4638    172.8347     20.1137   3.7924854968e+01   3.8967175391e+01    0.2034085    0.1508967 -77.36 0.0006914528    1.282    0.220
       281  -9.6040    139.9488     19.9732   4.2578407837e+01   4.6768040312e+01    0.2045248     0.135554  41.58 0.0006623891    1.624    0.384
       282  -9.4472     89.6085     20.7246   5.3556085670e+01   5.8148783938e+01    0.1400703   0.08245552  32.70 0.0006994133    1.733    0.423
       283  -9.4249    170.4265    229.4598   8.5990174802e+01   1.6232855111e+00    0.1309012    0.1150684  16.73  0.000131359    1.024    0.024
       284 -11.3026      4.6368    226.7182   1.2158356400e+02   2.5158869304e+01    0.3297203    0.1660109  55.10    0.0019138    1.642    0.391
       285 -11.0924    120.8355    226.3511   9.6312472851e+01   1.0079379276e+01    0.2197652     0.188195 -80.09 0.0008579573    1.354    0.261
       286 -10.0432     65.9684    226.2350   1.0862278936e+02   1.8237597539e+01    0.2096091    0.1773628 -86.70 0.0006656919    1.178    0.151
       287  -9.3189    190.4935    226.4882   8.1389260236e+01  -9.4085342990e-01    0.1319907    0.1104052   5.48 -1.64444e-05    1.045    0.043
       288  -9.5596    181.5155     19.5209   3.6747746353e+01   3.7012188112e+01    0.1264088    0.1083356  83.82 0.0008092172    1.067    0.063
       289  -9.7499     54.6616     18.7427   6.4128087502e+01   6.5094793175e+01    0.1461675    0.1397798  37.26  0.001019987    1.371    0.271
       290  -9.0897     86.3376     18.7593   5.3705243558e+01   5.9043370535e+01    0.1171117   0.09637463  80.82 0.0001978433    1.550    0.355
       291  -9.3716    194.9804     16.9982   3.4714224853e+01   3.4217461724e+01    0.1478204    0.1199362 -86.24            0    1.023    0.022
       292  -9.7625     74.7916     16.2924   5.6111819911e+01   6.1647777084e+01     0.350293    0.1598452  51.14  0.001694842    1.918    0.479
       293 -11.3770     21.1879    222.0147   1.1793537592e+02   2.4522808329e+01    0.2684144    0.1737744  75.79   0.00100363    1.342    0.255
       294  -9.6904    126.6492    221.8571   9.4357999870e+01   1.0052995082e+01    0.1843199    0.1542186  66.39 0.0004328729    1.332    0.249
       295  -9.9595    123.6926    221.6915   9.5002514510e+01   1.0562547245e+01    0.2245904    0.1650161 -27.11 0.0009043991    1.725    0.420
       296 -10.0756     37.9976    217.6940   1.1400167254e+02   2.3620654412e+01    0.1775782    0.1447692  55.64 0.0006763965    1.116    0.104
       297 -10.0586    184.5536     14.9309   3.5307279452e+01   3.6807113358e+01      0.15584    0.1077185  15.88 0.0008078807    2.553    0.608
       298 -11.8669      9.9806    217.1766   1.1994874060e+02   2.6697148414e+01    0.3434026    0.2236406  47.32  0.001920915    1.388    0.279
       299 -11.4098     29.5392    215.8955   1.1570346077e+02   2.4973675871e+01    0.3897655    0.2701748  27.30  0.001775471    1.668    0.400
       300 -10.2707     23.4215    216.6878   1.1708424884e+02   2.5454850805e+01     0.181319     0.153137  -4.35  0.001169011    1.759    0.431
       301  -9.2454     96.6598     13.2755   4.8970745891e+01   5.7377801687e+01    0.2067038    0.1194185  63.15 0.0003229367    1.638    0.389
       302  -9.6203     31.0444     12.7207   7.1552132604e+01   6.9455506199e+01    0.1582562    0.1209104  12.20 0.0005821044    1.064    0.060
       303 -10.8245    227.8185     12.4267   3.0902236235e+01   2.7649185351e+01    0.2845427   0.09257383  70.32  0.001315775    2.763    0.638
       304 -11.8409    237.1417    213.4648   7.0344790115e+01  -5.5137355636e+00    0.5125964     0.272402  -1.06  0.001891385    2.985    0.665
       305  -9.4805    136.6555    215.6966   9.1154633030e+01   9.6600722194e+00    0.1411961    0.1060618  -1.75 0.0007040166    1.685    0.407
       306  -9.1290     84.2854     12.3583   5.1780435364e+01   6.0108061665e+01    0.1318509   0.08211891  27.12 0.0007021259    1.677    0.404
       307  -9.6538     67.2668    215.3772   1.0717537909e+02   2.0440851836e+01    0.1274185   0.09959903 -37.57 0.0006989548    1.679    0.404
       308 -10.1320     21.7236    212.6946   1.1715576842e+02   2.6518895786e+01    0.3190986    0.1206339  51.50  0.001456185    2.378    0.580
       309  -9.8385    208.8488    211.9167   7.5253270347e+01  -1.2697654085e+00     0.205481    0.1525717  -6.66 0.0007362241    1.312    0.238
       310  -9.4263     76.3280    212.3133   1.0471448635e+02   1.9861079170e+01    0.1295246    0.1061561 -21.75 0.0006710184    1.670    0.401
       311 -10.4417     10.9175    208.2985   1.1917765347e+02   2.8570267585e+01    0.2208759    0.1796941 -51.10 0.0004032167    1.553    0.356
       312 -12.1442      4.9352    207.8970   1.2042842295e+02   2.9210738655e+01    0.5455058    0.3130063  82.59     0.003171    1.511    0.338
       313  -9.2009    188.2549    205.3396   7.8157983040e+01   3.0855130230e+00    0.1370564   0.09731707 -10.63  0.000343572    1.576    0.366
       314 -11.4652     20.4870    199.1314   1.1638449298e+02   2.9730503954e+01    0.4353443    0.2855552 -73.58  0.002555641    1.386    0.278
       315 -10.8407    244.9444    202.5204   6.7050421647e+01  -4.8854508716e+00    0.3384119    0.1536279  39.91  0.001678985    2.511    0.602
       316 -10.3034    175.3290    202.8183   8.0405736930e+01   5.6914901904e+00    0.2226515    0.1804509  40.22 0.0005141802    1.264    0.209
       317 -10.9536     16.7422    193.2267   1.1677030847e+02   3.1470034919e+01    0.3405945    0.2359817  21.92  0.002005014    1.778    0.438
       318  -9.5493    212.3132    188.6483   7.0281510859e+01   2.1836962447e+00    0.1259685    0.1085703 -76.63 0.0007045821    1.727    0.421
       319 -10.2125    108.4738    210.4967   9.6889392453e+01   1.5366329201e+01    0.1410303    0.1270839  53.63  0.000135289    1.041    0.040
       320 -11.6250     16.0217    183.1568   1.1610313011e+02   3.3917938285e+01    0.5197027    0.2605565  85.43  0.002490391    2.026    0.506
       321  -9.7008     61.8416    184.8767   1.0481849991e+02   2.8317512909e+01    0.2020812    0.1521539  76.00   0.00106517    1.346    0.257
       322 -10.2717    168.0073    183.5238   7.8372429317e+01   1.0777111339e+01    0.2260232    0.1391569  38.10 0.0008712032    1.600    0.375
       323  -9.8409     58.8204    182.1550   1.0523983885e+02   2.9384142711e+01    0.1877633     0.162985 -41.02   0.00104174    1.342    0.255
       324 -10.0100    244.4621    178.5154   6.2680385089e+01  -1.0173820088e+00    0.2344131    0.1015616 -30.48   0.00102575    2.317    0.568
       325 -10.7863     46.4287    177.8697   1.0791194169e+02   3.1995218778e+01    0.3122341    0.2407656 -85.49  0.001039602    1.209    0.173
       326  -9.5417     69.5545    178.2242   1.0189222588e+02   2.8882379500e+01    0.1894697     0.125941 -52.56 0.0005560809    1.541    0.351
       327 -10.8922     34.1153    174.1542   1.1067732823e+02   3.4306946881e+01    0.2582141    0.1821558 -64.23 0.0004684576    1.323    0.244
       328 -10.8529     18.1634    173.2773   1.1467883106e+02   3.6102942448e+01    0.3458525    0.1970425  56.12  0.001775092    1.759    0.432
       329 -12.3669     36.2409    165.8958   1.0914572504e+02   3.6126755927e+01    0.8190797    0.5594122 -79.21  0.004377091    1.349    0.259
       330 -12.9407     49.4246    161.6872   1.0497121095e+02   3.5670989375e+01    0.7623136    0.4289628  34.34  0.003599309    1.832    0.454
