#   1 NUMBER                 Running object number                                     
#   2 MAG_AUTO               Kron-like elliptical aperture magnitude                    [mag]
#   3 X_IMAGE                Object position along x                                    [pixel]
#   4 Y_IMAGE                Object position along y                                    [pixel]
#   5 X_WORLD                Barycenter position along world x axis                     [deg]
#   6 Y_WORLD                Barycenter position along world y axis                     [deg]
#   7 A_WORLD                Profile RMS along major axis (world units)                 [deg]
#   8 B_WORLD                Profile RMS along minor axis (world units)                 [deg]
#   9 THETA_WORLD            Position angle (CCW/world-x)                               [deg]
#  10 FWHM_WORLD             FWHM assuming a gaussian core                              [deg]
#  11 ELONGATION             A_IMAGE/B_IMAGE                                           
#  12 ELLIPTICITY            1 - B_IMAGE/A_IMAGE                                       
         1 -14.0665    184.2765     23.1926   2.8988107559e+02   6.3820998033e+00   0.08812975   0.04993413 -55.05  0.005310851    1.702    0.413
         2 -13.8871    190.9454     16.3552   2.8976235201e+02   6.4197525030e+00   0.07036411   0.05010235 -76.86  0.004614604    1.580    0.367
         3 -14.1035    197.4246      8.7897   2.8964127500e+02   6.4668134817e+00   0.07894353   0.04789772   5.19  0.001328224    2.228    0.551
         4 -12.4876     32.4170      5.0466   2.9150904137e+02   7.5025073701e+00   0.03952861   0.01716357 -67.97  0.003181185    2.666    0.625
         5 -10.2032    173.0554    239.2058   2.9134487122e+02   3.9840792248e+00   0.01253288  0.009498269 -72.19 0.0007909517    1.398    0.285
         6 -12.4845    152.1092    245.9424   2.9162552339e+02   4.0330300358e+00   0.03285271   0.02800821  84.97  0.003867456    1.301    0.232
         7 -12.4144    129.2753    233.1572   2.9180764807e+02   4.3162527615e+00   0.05309024    0.0236513 -81.24  0.003201609    5.265    0.810
         8 -11.8660    136.1463    241.2308   2.9177883872e+02   4.1827470356e+00   0.02943246    0.0148087  42.20  0.002057061    2.044    0.511
         9 -12.1435    134.7246    235.3934   2.9175915661e+02   4.2579766438e+00   0.02557759   0.01689702  40.86  0.002673866    1.530    0.346
        10 -12.5080    135.1429    229.2010   2.9171626299e+02   4.3262121933e+00   0.02982685   0.02221483  -9.92  0.003203297    1.616    0.381
        11 -12.2507    142.1701    221.1996   2.9158671114e+02   4.3754077569e+00   0.02301249   0.01765774 -85.67  0.002534063    1.501    0.334
        12 -11.1245    143.9788    249.4391   2.9173988775e+02   4.0419299526e+00   0.02537085   0.01773803  78.40  0.002565447    1.870    0.465
        13 -12.2486    146.8844    240.3354   2.9165067958e+02   4.1284717859e+00    0.0318149   0.02133688  -7.13  0.001868167    1.977    0.494
        14 -16.0373     94.0549    244.0737   2.9227720113e+02   4.4028805284e+00    0.9572552    0.2123622  44.60   0.04756172    6.987    0.857
        15 -13.7999     54.7707    228.0869   2.9262800967e+02   4.8210296274e+00   0.05284096   0.03867153 -38.72  0.004335486    1.437    0.304
        16 -17.2492     61.9525    215.4987   2.9246856237e+02   4.9219023428e+00     1.581953     0.673555 -80.57   0.08628162    6.444    0.845
        17 -11.7638    101.4881    212.4891   2.9199802130e+02   4.7192381172e+00   0.02519747    0.0189075  45.06  0.002561993    1.375    0.273
        18 -10.3260    182.5411    213.6482   2.9107904224e+02   4.2189160422e+00   0.01300078  0.007949186  31.00 0.0008430619    1.619    0.382
        19 -10.1101    151.5358    213.0340   2.9142940456e+02   4.4124041901e+00    0.0202029     0.010052 -50.88  0.001131477    1.949    0.487
        20 -13.3995     43.1633    237.2476   2.9281694205e+02   4.7858049877e+00   0.02684155   0.02341261 -25.80 0.0005363821    1.207    0.172
        21 -10.5872    141.2059    212.4731   2.9154397534e+02   4.4808991080e+00   0.01351695   0.01083391  31.23 0.0008686676    1.247    0.198
        22  -9.2550    186.2161    210.3860   2.9101695738e+02   4.2340578333e+00   0.00897261  0.005890059  39.56 9.870446e-05    1.529    0.346
        23  -9.3753     80.6055    210.2605   2.9222306577e+02   4.8699749285e+00   0.00895142  0.005926584 -50.91 0.0004412537    1.480    0.324
        24  -9.3569    134.1642    209.3614   2.9160527407e+02   4.5587637039e+00  0.009622166  0.005694228  39.02 0.0008616031    1.686    0.407
        25 -11.1057     93.2544    204.7354   2.9204444219e+02   4.8572539440e+00   0.03279746   0.02009181  47.50  0.003250647    1.765    0.433
        26 -10.6370     89.0157    204.5163   2.9209156177e+02   4.8851862685e+00   0.02077107   0.01274324  12.48  0.001994704    1.956    0.489
        27 -12.3143     42.4487    202.8557   2.9261393956e+02   5.1832286234e+00   0.03541066   0.03104421 -44.02   0.00266855    1.138    0.122
        28 -10.1980    175.0504    205.2808   2.9111298991e+02   4.3595487017e+00   0.01865529    0.0115134 -32.90  0.001792553    1.936    0.484
        29 -10.1583    171.5831    205.2217   2.9115222969e+02   4.3810839976e+00   0.01499657  0.006407586 -63.65  0.000457506    2.418    0.586
        30 -11.5706    247.3623    205.3952   2.9028829245e+02   3.9227860473e+00   0.02682686   0.01508467   6.96  0.002314146    2.534    0.605
        31  -9.5216    163.2934    205.0253   2.9124571524e+02   4.4331909567e+00  0.009179924  0.008521751 -52.04 0.0004883014    1.065    0.061
        32 -10.2559    126.2329    205.4491   2.9167182214e+02   4.6511144594e+00   0.01209701   0.01106793  58.20 0.0005980306    1.141    0.123
        33  -9.1045    148.4709    205.4969   2.9141797510e+02   4.5169318592e+00   0.00654322  0.006370931 -32.78 7.287876e-05    1.023    0.023
        34  -9.9491    107.2129    205.1768   2.9188756691e+02   4.7684401813e+00  0.008990916  0.007570461  67.58  0.000444307    1.315    0.240
        35 -10.7213    102.9453    203.3299   2.9192498777e+02   4.8151622429e+00   0.01479248   0.01134539 -34.31 0.0005189468    1.395    0.283
        36 -10.3504    166.8432    202.8008   2.9119144549e+02   4.4372483549e+00  0.009951729  0.009611198  77.80  0.000576262    1.068    0.064
        37  -9.7711    169.5607    200.4357   2.9114581552e+02   4.4479142033e+00   0.01122752  0.009286428  25.15  5.55353e-05    1.222    0.182
        38  -9.6059    133.2240    202.6852   2.9157488911e+02   4.6406909285e+00   0.01143449   0.00921778 -58.16 0.0006189837    1.223    0.183
        39 -10.9454    197.2684    200.1147   2.9082738386e+02   4.2848249264e+00   0.01870321   0.01500722  17.32  0.001301724    1.302    0.232
        40 -10.3857    122.7000    200.8916   2.9168413140e+02   4.7244092621e+00   0.01298267  0.009451042  36.96 0.0007485077    1.371    0.270
        41  -9.0583    183.2362    205.9762   2.9102378686e+02   4.3023517714e+00  0.008859378  0.005490662 -62.14 0.0008773251    1.611    0.379
        42 -10.6707    141.3706    198.3789   2.9145524298e+02   4.6409298358e+00   0.01754915   0.01179309 -23.16 0.0009198368    1.868    0.465
        43 -16.0124     18.5100    238.6607   2.9310744640e+02   4.9171163934e+00     0.101047   0.06177029  19.26  0.009550244    1.790    0.441
        44 -16.3796     10.8088    247.9901   2.9325265205e+02   4.8564889885e+00    0.1803721   0.08404502 -71.80   0.01463895    2.700    0.630
        45  -9.6926    192.0075    197.9605   2.9087416336e+02   4.3410965742e+00   0.00993479  0.009647995 -46.78 0.0004896244    1.019    0.019
        46  -8.7988    149.5156    198.4590   2.9136265525e+02   4.5910505151e+00  0.006466831  0.006433663  70.90 0.0001437439    1.020    0.020
        47 -10.5025    205.0058    249.3272   2.9104255793e+02   3.6763412401e+00  0.009291334  0.008455855  25.15 0.0003364671    1.107    0.096
        48  -9.6410     95.5138    196.9642   2.9197077512e+02   4.9325083936e+00   0.01022316  0.006380811 -59.89 0.0005875092    1.575    0.365
        49  -9.6527     81.9605    194.0491   2.9210783279e+02   5.0471320434e+00   0.01965381  0.009109001 -34.97   0.00149459    3.102    0.678
        50 -10.1908     79.4440    182.1358   2.9206328589e+02   5.1983800282e+00   0.01386094   0.01020125  33.12 0.0009485779    1.352    0.260
        51 -11.9895     76.0676    194.4367   2.9217761831e+02   5.0780400320e+00   0.02428571   0.01559681 -37.70  0.001828533    1.714    0.416
        52 -12.0365     80.1720    187.4755   2.9208782978e+02   5.1329877264e+00   0.01814724   0.01344497 -34.17 0.0007005086    1.463    0.316
        53 -10.7902    113.5188    195.9597   2.9175871407e+02   4.8359047227e+00   0.01324199  0.008359338  42.37  0.001339038    1.620    0.383
        54 -11.2632    121.8587    231.8028   2.9188405051e+02   4.3762623795e+00   0.01947303   0.01517189 -21.19  0.002165098    1.460    0.315
        55  -9.0232    217.9567    194.9580   2.9055936281e+02   4.2191068059e+00  0.007515204  0.007428648 -20.32 0.0003060025    1.009    0.009
        56 -11.2731    159.6510    193.8663   2.9121851831e+02   4.5825640629e+00   0.01920647   0.01416324  44.84 0.0009255852    1.399    0.285
        57  -9.1832    135.5938    195.1726   2.9150150722e+02   4.7122831190e+00  0.009075683  0.005848476 -49.17 0.0003103309    1.532    0.347
        58 -14.3228     45.4630    246.9587   2.9285023333e+02   4.6610326425e+00   0.06513422   0.04311787   9.58   0.00564315    1.797    0.443
        59  -9.5637    102.3286    192.1152   2.9186298743e+02   4.9470217667e+00   0.01705907  0.008085862  50.90  0.001208901    2.680    0.627
        60 -10.7957    191.5402    191.1985   2.9083776600e+02   4.4211276421e+00   0.01381792   0.01209564 -59.48 0.0005936689    1.133    0.117
        61  -9.9272    175.0313    190.9614   2.9102487484e+02   4.5232085652e+00  0.009763772  0.009649209  53.89 0.0003947975    1.028    0.027
        62 -10.8418    250.3745    187.6605   2.9014436202e+02   4.1070213775e+00   0.01880333  0.006693208 -54.11  0.001476187    2.587    0.613
        63  -8.8603    111.3322    192.2937   2.9176113274e+02   4.8909256249e+00  0.006873542  0.004957633 -24.22 0.0005274582    1.636    0.389
        64  -9.0060    137.7168    187.9937   2.9143298647e+02   4.7815396364e+00  0.008092218  0.005796457 -60.91 0.0005453159    1.384    0.277
        65 -11.1661    155.5392    232.2435   2.9150201028e+02   4.1689014549e+00   0.01236102   0.01126978  46.54 0.0003779756    1.120    0.107
        66 -10.2839     67.5407    186.1109   2.9222392891e+02   5.2243193009e+00    0.0122356  0.009379909  27.97 0.0005283716    1.311    0.237
        67  -8.8425    161.2544    185.6312   2.9114939851e+02   4.6669841409e+00  0.006727288   0.00502625  73.71 0.0003381253    1.635    0.389
        68 -10.5388     89.1563    184.4141   2.9196621263e+02   5.1140806818e+00   0.02124623   0.01161981  52.62 0.0007202798    2.236    0.553
        69  -9.7403    150.1643    229.4018   2.9154590178e+02   4.2336659660e+00  0.009723545    0.0057154  40.53 0.0009417483    1.715    0.417
        70  -9.9649    144.5323    180.6513   2.9130979951e+02   4.8244456848e+00    0.0123094  0.007490678  48.54 0.0009096061    1.803    0.445
        71 -10.2189    135.1763    180.3646   2.9141498761e+02   4.8839701323e+00   0.01457823   0.00891558  51.11  0.001211255    1.856    0.461
        72 -10.4039    129.0035    179.2420   2.9147864017e+02   4.9338970652e+00   0.01058399    0.0092352 -58.61 0.0002798375    1.134    0.118
        73 -11.5172    180.8677    176.1970   2.9086706705e+02   4.6566950202e+00    0.0322083   0.01712069  42.65  0.003002394    1.942    0.485
        74 -11.8590     87.7491    175.8934   2.9192983362e+02   5.2198988286e+00   0.02310215   0.01527061  -9.42   0.00155353    2.044    0.511
        75  -9.7316     90.2198    160.4198   2.9180622434e+02   5.3818943517e+00   0.01049713  0.007561675  62.07 0.0004295555    1.643    0.391
        76 -10.3768     89.0070    156.8692   2.9179821601e+02   5.4297446838e+00   0.01239434  0.009095934 -54.01  0.000273867    1.333    0.250
        77 -10.6401     99.9744    170.3473   2.9175580760e+02   5.2099009271e+00   0.01865369  0.007342214  43.01  0.001348445    2.704    0.630
        78 -12.5395     93.8987    166.9888   2.9180461725e+02   5.2847494737e+00   0.03634772   0.02560817 -22.32  0.001898464    1.724    0.420
        79  -9.5482     95.8976    175.4036   2.9183359989e+02   5.1765947268e+00   0.01191911  0.008490028 -32.99  0.001256315    1.560    0.359
        80 -11.2522     75.4633    173.8418   2.9205776016e+02   5.3170431654e+00   0.02274529   0.01290471 -45.24  0.001580819    1.809    0.447
        81  -9.1671    144.6511    175.3281   2.9127560444e+02   4.8845407436e+00  0.007101692  0.004919056  62.51  0.000704909    1.759    0.432
        82  -9.4245     67.8691    174.1416   2.9214650165e+02   5.3591518534e+00    0.0117596  0.008425606 -52.95 0.0007357905    1.365    0.267
        83 -13.0100     36.4388    170.1409   2.9248158712e+02   5.5931648303e+00   0.03664223   0.01610907  41.87 0.0002683658    2.342    0.573
        84 -12.8341     31.1628    170.2644   2.9254273736e+02   5.6233307594e+00   0.02866327   0.01626292 -45.10   0.00233076    1.812    0.448
        85 -12.1271    248.3160    171.5907   2.9006851110e+02   4.3028194347e+00    0.0260321   0.01731165  25.10  0.002723809    1.538    0.350
        86 -10.9120    245.1019    226.8052   2.9044626419e+02   3.6920608327e+00   0.01695867  0.009204873  83.60  0.001216658    3.824    0.738
        87  -9.3360    112.6682    169.3136   2.9160423480e+02   5.1454823013e+00   0.01304545  0.005960723  33.85 0.0009743245    2.108    0.526
        88 -10.5077    107.7412    168.1206   2.9165323644e+02   5.1887054612e+00   0.01740254    0.0105425  16.11 0.0003618049    1.892    0.471
        89  -9.0267    122.5269    168.6283   2.9148725247e+02   5.0940804992e+00  0.006434175   0.00626496  16.53 -1.805764e-05    1.033    0.032
        90 -10.0293     58.8334    167.2508   2.9220748163e+02   5.4920657404e+00   0.01072371   0.01031274  88.79 0.0003636414    1.071    0.066
        91 -12.2677    245.1237    162.5564   2.9004907105e+02   4.4251698323e+00   0.02511614   0.01233567 -50.96  0.002279421    1.971    0.493
        92 -11.1165    249.4912    160.4996   2.8998651499e+02   4.4222925475e+00   0.01083233   0.01048753 -70.90 0.0009523408    1.041    0.040
        93 -11.7196    240.6953    150.2874   2.9002372378e+02   4.5918911718e+00   0.01984655   0.01347522  24.20  0.002092638    1.514    0.339
        94 -11.8681    243.3014    154.8588   2.9002225883e+02   4.5240023630e+00   0.01887577   0.01253847  38.23  0.001979262    1.503    0.334
        95 -10.3464    175.4946    166.0061   2.9086553419e+02   4.8054246333e+00   0.01464698  0.008324355  43.83 0.0009091333    1.835    0.455
        96 -10.2725    128.9356    165.7743   2.9139635774e+02   5.0881685370e+00   0.01061089  0.009320427 -62.38  0.000319392    1.135    0.119
        97 -11.3500     96.6711    159.4098   2.9172618143e+02   5.3547101029e+00   0.01861058   0.01092207 -44.82 0.0009387829    1.752    0.429
        98 -10.4397     79.6759    164.1069   2.9194959712e+02   5.4030269593e+00   0.01573658  0.009115917  54.43  0.001447559    2.119    0.528
        99 -10.4141    190.9516    227.9545   2.9107122333e+02   4.0049339466e+00  0.009732178   0.00955726  76.66 0.0003229064    1.041    0.039
       100 -10.8660    164.1561    226.1888   2.9136630160e+02   4.1862626949e+00   0.01218963  0.009427361 -69.43 0.0006078098    1.340    0.254
       101 -15.6962     26.0582    248.2616   2.9308001382e+02   4.7622286925e+00   0.06664467   0.03945266  14.17  0.006319388    2.012    0.503
       102 -13.7290     25.6040    155.2128   2.9251379202e+02   5.8286341425e+00   0.03928256   0.02018585  25.44  0.002699718    2.012    0.503
       103 -13.2549     33.5090    153.7700   2.9241440160e+02   5.7978171834e+00   0.03040485   0.01653845 -49.31 0.0002228073    1.810    0.447
       104  -9.5268     63.7244    163.0065   2.9212537120e+02   5.5112577493e+00  0.009285722  0.008337697 -55.12 0.0004033599    1.099    0.090
       105  -9.4605    202.8293    161.6523   2.9052634589e+02   4.6904900201e+00   0.01349906  0.006488859  16.60 0.0009813036    2.675    0.626
       106  -9.2485    171.3949    159.2202   2.9087047650e+02   4.9076010701e+00  0.008691115  0.006354246 -77.85 0.0002831474    1.533    0.348
       107 -10.5395     82.5203    159.0619   2.9188596131e+02   5.4436144546e+00   0.01155082  0.009502872  23.34 0.0001175901    1.236    0.191
       108  -9.7584    115.8617    157.3765   2.9149408939e+02   5.2626804853e+00   0.01031787  0.008930438 -80.03 0.0004148703    1.224    0.183
       109 -11.6440    142.5789    228.3411   2.9162601861e+02   4.2913645203e+00   0.02526852   0.01288422 -67.30  0.001650504    2.130    0.531
       110 -10.8818    117.5620    224.2623   2.9188674984e+02   4.4882198365e+00   0.01457178   0.01273509  35.62  0.001131259    1.148    0.129
       111  -8.9149    220.2312    223.5684   2.9071000104e+02   3.8787855915e+00  0.006791578  0.004948064  78.55 0.0006872256    1.727    0.421
       112 -11.1130     72.5952    156.5931   2.9198433792e+02   5.5313628171e+00   0.02201082   0.01241249  22.17  0.001861734    1.899    0.473
       113  -9.9061    134.8289    155.4306   2.9126513621e+02   5.1709003658e+00   0.01318518   0.00911596 -50.69 0.0007980786    1.420    0.296
       114  -8.8387    228.4615    155.4700   2.9019542713e+02   4.6065402456e+00  0.006496313  0.006396705  73.34  0.000141198    1.036    0.035
       115  -8.7961    121.2609    155.6289   2.9142154578e+02   5.2502004753e+00  0.006774225  0.005023893  72.75 0.0004224972    1.653    0.395
       116  -9.0784    124.5031    153.9704   2.9137422629e+02   5.2496604575e+00  0.008863338  0.005685782  80.68 0.0004736623    2.259    0.557
       117 -10.0694     62.3830    153.2043   2.9208035238e+02   5.6313197308e+00     0.017781   0.01012645 -79.88  0.001569125    2.360    0.576
       118 -10.4872    113.5481    152.2752   2.9148908796e+02   5.3348624425e+00   0.01515984   0.01460177 -79.28  0.001024415    1.058    0.055
       119 -11.3622    249.7915    150.2274   2.8991954332e+02   4.5376907712e+00   0.01619315   0.01303655  82.62  0.001826195    1.439    0.305
       120 -11.0701    104.5247    150.7530   2.9158293743e+02   5.4064593023e+00   0.01990295    0.0132334 -23.39  0.001568833    1.901    0.474
       121 -10.0699    107.2154    145.9834   2.9152272736e+02   5.4447877992e+00   0.01831788   0.01079642 -26.96  0.001454323    2.308    0.567
       122 -12.8438     56.1543    149.1665   2.9212678447e+02   5.7147966934e+00    0.0248008   0.01906152  -9.38  0.002422783    1.526    0.345
       123 -12.3439     59.2402    145.4210   2.9206838061e+02   5.7391037879e+00   0.03393343   0.01095025  36.99  0.002556068    2.900    0.655
       124 -10.8597    143.1980    148.6929   2.9112783041e+02   5.1975270029e+00   0.02319536   0.01523414  64.63  0.002096808    1.973    0.493
       125 -10.4649     93.2002    150.4742   2.9171080521e+02   5.4776452139e+00   0.01513137   0.01144421  11.07  0.001012575    1.455    0.313
       126  -8.7376    176.7442    150.2936   2.9075419404e+02   4.9773262540e+00  0.006422292  0.005014245  68.66 0.0001582179    1.492    0.330
       127 -12.2760     58.7768    134.2851   2.9200505946e+02   5.8691285129e+00   0.02876326   0.01958286 -74.90  0.001503887    1.644    0.392
       128 -13.2065     67.7486    143.9975   2.9196219874e+02   5.7043583953e+00   0.03821247   0.02712224  58.90  0.003281681    1.640    0.390
       129 -12.9718     71.6313    138.6364   2.9188470046e+02   5.7423317062e+00   0.04494658   0.03236213  49.10  0.003996804    1.481    0.325
       130 -10.4289    149.9920    222.3350   2.9150434434e+02   4.3154306186e+00   0.01193067  0.009315418 -58.74 0.0001471265    1.263    0.208
       131 -10.7004    134.0000    145.0217   2.9121036252e+02   5.2947826207e+00   0.02783108   0.01021875 -67.07  0.002012108    3.256    0.693
       132 -11.3023    133.0393    140.4632   2.9119320587e+02   5.3526275864e+00   0.01974676   0.01710826 -10.44  0.001769136    1.247    0.198
       133 -10.6295    105.2421    222.5396   2.9201694907e+02   4.5818545859e+00   0.01866357   0.01138291  -3.77  0.001567128    2.414    0.586
       134 -10.2005    163.9763    221.3376   2.9133846202e+02   4.2427561900e+00   0.01135225  0.008853247 -46.77 0.0007808167    1.277    0.217
       135  -8.6851    208.2639    146.6686   2.9037164675e+02   4.8287864807e+00  0.006635048  0.005037075  70.53 0.0003584897    1.576    0.365
       136  -9.9713    110.9452    222.5403   2.9195177213e+02   4.5476182429e+00   0.01007769  0.006483165  26.71  0.001023513    1.573    0.364
       137 -10.4313     51.8433    132.5812   2.9207395751e+02   5.9301521463e+00   0.01230881   0.01043736 -71.14 0.0006939033    1.214    0.176
       138 -13.1856     49.3116    137.6929   2.9213444887e+02   5.8869127989e+00   0.03161855   0.01903198  27.27  0.003159482    1.676    0.403
       139 -13.7731     45.0301    130.4108   2.9213861184e+02   5.9957728128e+00    0.0455652   0.02874848 -89.69  0.003748874    2.217    0.549
       140 -12.4310    248.3952    134.3245   2.8983706494e+02   4.7275608348e+00   0.03745842   0.01928223 -61.53  0.003461625    1.931    0.482
       141  -8.6650    125.2503    142.2652   2.9129343509e+02   5.3788807399e+00  0.006344332  0.004872981 -29.10 0.0006788882    1.437    0.304
       142 -11.5588    134.5147    249.3764   2.9184758771e+02   4.0994858545e+00   0.03789131   0.01335489  33.19  0.002981094    2.652    0.623
       143  -9.6026    194.1136    140.2831   2.9049382324e+02   4.9869746898e+00  0.009132439  0.008176346  33.91 0.0004834373    1.121    0.108
       144  -9.0399    156.0260    218.2586   2.9141030126e+02   4.3257274696e+00  0.007966735  0.005698971  25.99 0.0003329325    1.416    0.294
       145 -11.2861    113.5813    136.2066   2.9138954754e+02   5.5182265632e+00   0.01884016   0.01438585  22.45  0.001596148    1.345    0.256
       146 -10.0394    133.8197    135.1936   2.9115173587e+02   5.4081216109e+00  0.008947452  0.007524977 -22.89 0.0003536539    1.285    0.222
       147  -9.3323     97.9885    134.4605   2.9155722325e+02   5.6318492151e+00  0.009314874  0.006474851  26.83 9.660837e-05    1.453    0.312
       148  -9.0971    129.9856    131.9814   2.9117576045e+02   5.4678687677e+00  0.007778059  0.007439976 -56.44            0    1.037    0.036
       149  -9.2466     94.3638    135.4458   2.9160479137e+02   5.6423601401e+00   0.01347557  0.004042915 -48.35 0.0007993207    3.342    0.701
       150  -9.7705    240.3301    131.3177   2.8991051087e+02   4.8105474353e+00  0.007000533  0.004925539 -26.11 0.0006843284    1.685    0.407
       151 -12.4594     66.1937    127.2383   2.9187668099e+02   5.9051727579e+00    0.0288281   0.02152351  63.19  0.003125014    1.564    0.360
       152 -10.5208    118.9138    128.2400   2.9127933957e+02   5.5771734705e+00   0.01096579  0.007385694 -15.62  0.001069339    1.946    0.486
       153 -10.4517    160.0769    126.6515   2.9079863042e+02   5.3476535642e+00   0.01514908  0.009843086 -84.16   0.00146634    1.973    0.493
       154 -10.2760    134.0974    217.8481   2.9165830807e+02   4.4622026377e+00    0.0103257  0.008756329  61.58 0.0005840408    1.279    0.218
       155  -9.9936    232.9845    216.3620   2.9052001954e+02   3.8842441507e+00   0.01045713  0.009026003 -83.76 0.0004356826    1.245    0.197
       156 -11.6812    248.6513    140.9043   2.8987486568e+02   4.6509451119e+00   0.04383514   0.01907114  13.66  0.003071065    3.766    0.734
       157 -10.5035    209.8783    125.6018   2.9022289610e+02   5.0595064787e+00   0.01213616   0.01017079 -55.98 0.0004363838    1.175    0.149
       158 -10.9334     50.6062    122.7871   2.9202775605e+02   6.0494714109e+00   0.01283841  0.009521881  70.63 0.0008430957    1.641    0.391
       159 -11.0893    243.7325    120.5860   2.8980523311e+02   4.9124436398e+00   0.02569051   0.01503032  55.86  0.002373916    2.142    0.533
       160 -11.0049    249.5348    117.4962   2.8971986802e+02   4.9126562851e+00   0.01648859    0.0111811 -51.32  0.001745388    1.444    0.308
       161 -11.9272    248.4332    112.6310   2.8970230997e+02   4.9748043153e+00   0.03076696   0.01810553 -53.03  0.003057061    1.646    0.392
       162  -9.1569    238.6427    121.6989   2.8987023054e+02   4.9304754402e+00  0.007011087  0.004945698 -23.38  0.000703752    1.711    0.416
       163  -9.1114    143.5239    121.5242   2.9095626867e+02   5.5058447231e+00  0.006575746  0.006330349  66.37 0.0008086971    1.071    0.066
       164 -12.1327     21.6000    118.4163   2.9233311546e+02   6.2730960602e+00    0.0202236   0.01310759 -42.15  0.001761707    1.610    0.379
       165 -10.5945    130.9702    119.1194   2.9108503851e+02   5.6088387432e+00    0.0105924  0.009228142 -60.00            0    1.139    0.122
       166  -9.6124     85.5218    117.5495   2.9159557824e+02   5.8998857834e+00   0.01543309  0.008264078  55.80  0.001147932    2.496    0.599
       167 -10.4048    177.5152    218.1485   2.9116418343e+02   4.1977561051e+00   0.01511058   0.01112823  82.90  0.001096969    1.686    0.407
       168  -9.5523     80.7764    117.3915   2.9164894182e+02   5.9301751725e+00  0.008944708  0.006351098  10.26  0.000258425    1.603    0.376
       169 -10.6807     70.3728    116.8687   2.9176485689e+02   5.9985717302e+00   0.01241134    0.0105891 -12.91  0.000587614    1.277    0.217
       170 -10.3080    168.3081    113.2816   2.9062182807e+02   5.4507216405e+00   0.01664258   0.01141453  62.94  0.001687814    1.797    0.443
       171 -12.1175     61.3421    112.3370   2.9184033364e+02   6.1045029725e+00    0.0241822   0.01697061  51.01  0.002102388    1.553    0.356
       172 -10.1763    102.6767    110.6267   2.9135641347e+02   5.8759265250e+00   0.01112504   0.01036316  63.35 0.0003208698    1.122    0.108
       173 -11.4672     70.2785    110.5249   2.9172679250e+02   6.0716044467e+00   0.01702508   0.01462467  56.28 0.0009845706    1.236    0.191
       174  -8.8914    140.7307    110.3233   2.9091898971e+02   5.6505519502e+00  0.006633306  0.005032534  69.14  0.000480158    1.569    0.363
       175 -10.6197    114.7506    107.0165   2.9119588509e+02   5.8445879479e+00   0.01004403  0.008854375  66.79  0.001193955    1.224    0.183
       176  -9.8085    112.2492    103.9836   2.9120577971e+02   5.8942593310e+00   0.01253126  0.008155723 -57.99  0.001293924    1.501    0.334
       177  -9.5237    149.8016    111.3782   2.9082173150e+02   5.5839056782e+00  0.008968511  0.008089159  20.31 0.0009168569    1.125    0.111
       178 -10.7521    134.5102    104.8848   2.9095654781e+02   5.7500814483e+00   0.01765434  0.006365672 -61.09  0.001360194    2.721    0.632
       179 -11.3405    248.4997     99.6125   2.8962090383e+02   5.1228857370e+00    0.0247525   0.01563869 -42.17  0.002500286    1.661    0.398
       180  -9.5648     76.5148     99.0170   2.9158431842e+02   6.1656239975e+00  0.009402056  0.008656153  23.74 -1.402335e-05    1.095    0.087
       181 -10.1685     63.6348     98.0800   2.9172608688e+02   6.2536009033e+00   0.01099996  0.008676802  41.20 0.0004142664    1.284    0.221
       182  -9.4121    123.5549     89.4322   2.9098639358e+02   5.9924136767e+00  0.006479049  0.006342642  64.55 0.0001344512    1.044    0.043
       183  -9.4978    102.0630     87.8427   2.9122265764e+02   6.1397867519e+00  0.009476466  0.008502538  64.57 0.0002903013    1.187    0.158
       184  -9.0987     99.9455     83.5066   2.9122010463e+02   6.2020183807e+00  0.009246011  0.006455787  28.62  0.000314142    1.435    0.303
       185 -12.6783    248.0501    240.8621   2.9049938818e+02   3.5138848618e+00   0.02905015   0.02521402  32.34  0.003488892    1.155    0.134
       186 -10.5749    115.8906    239.7681   2.9200123895e+02   4.3210748890e+00   0.01522282   0.01311231  53.09 0.0004544741    1.217    0.178
       187 -10.1152    119.1736    236.7572   2.9194521010e+02   4.3357724687e+00   0.02015891   0.01155529  87.72  0.001585023    2.927    0.658
