#   1 NUMBER                 Running object number                                     
#   2 MAG_AUTO               Kron-like elliptical aperture magnitude                    [mag]
#   3 X_IMAGE                Object position along x                                    [pixel]
#   4 Y_IMAGE                Object position along y                                    [pixel]
#   5 X_WORLD                Barycenter position along world x axis                     [deg]
#   6 Y_WORLD                Barycenter position along world y axis                     [deg]
#   7 A_WORLD                Profile RMS along major axis (world units)                 [deg]
#   8 B_WORLD                Profile RMS along minor axis (world units)                 [deg]
#   9 THETA_WORLD            Position angle (CCW/world-x)                               [deg]
#  10 FWHM_WORLD             FWHM assuming a gaussian core                              [deg]
#  11 ELONGATION             A_IMAGE/B_IMAGE                                           
#  12 ELLIPTICITY            1 - B_IMAGE/A_IMAGE                                       
         1 -13.1416     46.6148     27.3374   3.9084349945e+01   6.9992140333e+01    0.6022835    0.2944608 -45.96  0.002168308    2.196    0.545
         2 -12.7571     66.9167     16.2338   2.3248613426e+01   6.7170727438e+01    0.2705378    0.2615749 -55.73 0.0004582987    1.120    0.107
         3 -11.6405     90.6257     11.9208   1.4104537807e+01   6.1647821344e+01    0.2319013    0.2084304 -69.68 0.0005028987    1.121    0.108
         4 -11.7175     91.8977      7.5913   1.1733257546e+01   6.1754260209e+01    0.2876824    0.1781815 -41.75  0.001421888    1.679    0.404
         5 -11.3233     85.0800     10.0709   1.4479779432e+01   6.3293503412e+01    0.2235967    0.1514495 -66.20 0.0004830555    1.636    0.389
         6 -10.5942     49.0031      8.0008   2.5566616699e+01   7.2382823349e+01    0.1604551    0.1439552  47.95 0.0003696489    1.006    0.006
         7 -11.0106     44.8894      7.8160   2.7506117696e+01   7.3315226563e+01    0.1985004    0.1646097  32.88 0.0003377998    1.171    0.146
         8 -11.5565    135.5151     11.8589   6.7544539590e+00   4.9735373106e+01    0.2323879    0.1720354  85.46 0.0003136036    1.193    0.162
         9 -12.5563    215.2950      2.5905   3.5842539333e+02   3.1798074015e+01    0.2220053    0.1644609 -56.33  0.000291502    1.032    0.031
        10 -10.8105    128.8554      1.3525   3.6896963992e+00   5.2498240867e+01    0.1973293    0.1061402  68.65 0.0005494945    1.679    0.404
        11 -10.4234    193.0293    242.5365   4.9548872461e+01   7.9193413840e-01    0.1447086    0.0853793  23.48 8.758076e-05    1.414    0.293
        12 -12.4512    246.4028    249.9493   4.2106834736e+01  -5.0273711843e+00    0.1784607    0.1144896  -3.09 0.0004708629    1.096    0.087
        13 -12.3787    139.5860    248.2540   6.0294450426e+01   5.9465233920e+00    0.3064565    0.2044381 -55.80   0.00198937    2.043    0.511
        14 -11.0916     84.7338    250.6627   7.2119337007e+01   1.1962288037e+01    0.2115871   0.09045159  26.63 0.0002393836    1.879    0.468
        15 -13.6885     72.9385    231.8371   7.3289463167e+01   1.6721649410e+01    0.6570839    0.3045844 -61.47  0.001345499    2.559    0.609
        16 -12.1829     61.7596    240.8559   7.6553202248e+01   1.6315981100e+01    0.2700759    0.1584981  13.11    0.0014406    1.948    0.487
        17 -14.2494     62.5961    233.8580   7.5875240870e+01   1.7541368957e+01     1.656279    0.5310018  57.44  0.005623682    4.709    0.788
        18 -12.8300     56.5500    229.0208   7.6972080326e+01   1.9173466659e+01    0.3831072    0.2425144 -66.97   0.00219221    1.891    0.471
        19 -13.4465     57.7921    221.3235   7.6123106897e+01   2.0583020396e+01    0.4916789      0.38742 -85.64  0.002388307    1.448    0.309
        20 -12.3809     55.6329    249.5180   7.8482390322e+01   1.5410195139e+01    0.5779798    0.2516445  20.25  0.002770066    2.312    0.567
        21 -13.6333     68.3084    247.6264   7.5530608803e+01   1.4353138804e+01     0.525036    0.3589877  24.28  0.002518564    1.277    0.217
        22 -15.2030     34.1415    177.1292   7.9221916988e+01   3.3361470917e+01     1.682472     1.008518 -84.88  0.006492649    1.701    0.412
        23 -15.0761     49.7412    218.9210   7.7948829125e+01   2.2001251747e+01     1.317002     1.226056  64.66  0.008968187    1.195    0.163
        24 -15.4877     34.9248    228.5284   8.2131941078e+01   2.1614416507e+01     2.949759    0.5333748 -75.77  0.009772673    5.892    0.830
        25 -16.4754     21.7252    214.8501   8.4744847576e+01   2.5798494756e+01     3.369174      1.23789  67.26   0.01431679    2.788    0.641
        26 -15.0647      2.8997    210.3898   8.9312279477e+01   2.8451037588e+01     1.204748    0.5041249 -83.64  0.005837106    2.460    0.593
        27 -14.5527     10.3784    216.0876   8.7609003630e+01   2.6575173611e+01    0.6880879    0.3047895  32.65  0.002687989    1.725    0.420
        28 -14.6565     23.6085    237.6228   8.5176364540e+01   2.0928879923e+01     0.731166    0.3799862  49.54  0.004223747    1.453    0.312
        29 -15.0285      2.4349    223.0626   8.9701340375e+01   2.5781336042e+01    0.9037842    0.3612918 -89.54  0.004442448    2.581    0.613
        30 -15.6297     14.9501    227.3113   8.6846625010e+01   2.3806527954e+01     1.028414    0.4397418  51.10  0.005350316    1.753    0.429
        31 -15.6063      5.3735    248.6015   8.9544342678e+01   2.0498707639e+01    0.9205632    0.3384115  23.00  0.004547204    2.403    0.584
        32 -16.7087      7.8646    238.1127   8.8774509697e+01   2.2280198115e+01     1.925931    0.5895915  42.08  0.009480344    2.009    0.502
        33 -11.4766    126.3855    241.6413   6.2277936470e+01   8.5152551423e+00    0.1833323    0.1636242  28.79 0.0005334446    1.187    0.158
        34 -11.0413    246.4231    241.0411   4.0915517594e+01  -4.1127779342e+00    0.1429913    0.0966056   5.65 0.0003247904    1.167    0.143
        35 -10.7655    199.0175    241.5245   4.8386441125e+01   2.9674916437e-01    0.1333808   0.07950836  42.60 0.0006083127    2.456    0.593
        36 -11.9654    108.3562    240.1116   6.5988655607e+01   1.0950111755e+01    0.3054699    0.1663869  22.07  0.001128654    1.630    0.387
        37 -10.4064    180.9713    240.2477   5.1387804859e+01   2.3773336983e+00    0.1279137   0.07647612  24.14            0    1.385    0.278
        38 -11.3692    149.5198    238.9864   5.7221162823e+01   6.1516952226e+00    0.1534927    0.1119926 -39.47 0.0008905284    1.580    0.367
        39 -12.5808     64.0699    245.7199   7.6353038313e+01   1.5167983818e+01    0.2322683     0.205595  -4.98 0.0003675953    1.412    0.292
        40 -11.5586    103.2801    236.8404   6.6782361152e+01   1.2128705970e+01    0.2740278    0.1578705 -73.60  0.001464196    2.568    0.611
        41 -10.8293    137.5246    237.2646   5.9454313955e+01   7.8546356685e+00    0.1526843    0.1034693 -28.62 0.0009038555    1.689    0.408
        42 -10.9137     80.0766    237.1818   7.2069180820e+01   1.4876515009e+01    0.2524609    0.1353165   9.25  0.001163927    2.582    0.613
        43 -11.3813    210.2475    235.8021   4.5737716505e+01  -1.5019799119e-01     0.149813    0.1209181  -0.36 0.0008477443    1.189    0.159
        44 -12.5465    195.0234    229.9657   4.7504461858e+01   2.1911757018e+00    0.3109111    0.2059052 -48.87  0.001802038    2.137    0.532
        45 -11.7226    182.5621    232.3393   5.0048565392e+01   3.2610244407e+00     0.202399    0.1884063  12.73 0.0009091005    1.420    0.296
        46 -11.6423    178.1463    228.3645   5.0317270100e+01   4.3172435879e+00    0.1862665    0.1331111 -18.95 0.0005772036    1.336    0.252
        47 -11.3567    149.8260    229.2540   5.5942332625e+01   7.5932143129e+00    0.1825147    0.1172007  58.19 0.0009439616    2.730    0.634
        48 -10.1387    139.2756    229.6690   5.8171386725e+01   8.8414451819e+00    0.1122827   0.08700991  51.52 0.0002073325    1.596    0.374
        49 -12.2831     80.3509    226.7187   7.1101089609e+01   1.6806188679e+01    0.4167127    0.2705796 -23.06  0.002156775    2.339    0.572
        50 -12.3635     80.2068    221.6161   7.0669717227e+01   1.7818014508e+01     0.266424    0.2134247 -48.36   0.00147265    1.531    0.347
        51 -12.6687     77.1733    219.4084   7.1202821919e+01   1.8635669219e+01    0.3496222    0.2218955  52.88  0.001138222    1.506    0.336
        52 -11.8854    230.6035    227.7775   4.1401182708e+01  -1.2115204477e+00    0.1546523    0.1035078  -8.83  0.001173596    1.158    0.136
        53 -10.7926     97.7631    227.9497   6.7138547125e+01   1.4402350130e+01    0.1409362    0.1084329 -60.75 0.0006367876    1.592    0.372
        54 -10.3745    120.7084    227.2879   6.1878744245e+01   1.1594722882e+01    0.1200682   0.08450004  49.33 0.0002190338    1.542    0.352
        55 -12.3857    106.8063    226.5230   6.4912938531e+01   1.3512138075e+01    0.2745702    0.1967532  13.11   0.00162493    1.400    0.286
        56 -11.5782    129.1699    225.7941   5.9848265750e+01   1.0763895346e+01    0.2273286    0.1598655 -31.25 0.0007717086    1.637    0.389
        57 -11.0945    116.4990    225.9199   6.2655698589e+01   1.2374140271e+01    0.1629329    0.1269256 -55.61  0.001024808    1.566    0.362
        58 -10.5302    182.4549    225.5008   4.9126312398e+01   4.2177705325e+00    0.1146701   0.09051114   4.35 0.0002403365    1.007    0.007
        59 -11.5743    173.4868    224.5917   5.0669678761e+01   5.4075821444e+00    0.2004869    0.1456344  12.70 0.0005311401    1.156    0.135
        60 -13.3813    174.2214    220.1308   4.9904106462e+01   5.9728984250e+00    0.2760385    0.2475814 -28.58 0.0007572237    1.336    0.252
        61 -12.2896    160.0423    223.1122   5.3074656518e+01   7.2739299008e+00    0.3069424    0.2454265  25.24  0.002098186    1.156    0.135
        62 -11.5249     91.8500    224.4542   6.8164801911e+01   1.5802842755e+01    0.2156832    0.1841105 -50.64 0.0007954509    1.419    0.295
        63 -11.7508     68.9560    224.4358   7.3638154649e+01   1.8636751311e+01    0.2381676    0.1941991 -86.46  0.001520037    1.431    0.301
        64 -11.3249    212.2334    223.2706   4.3647896983e+01   1.1966133298e+00    0.2506924    0.1315464 -18.37  0.001123068    1.946    0.486
        65 -12.3194    124.4800    221.8423   6.0393045578e+01   1.2052779995e+01    0.3737284    0.1845312  38.64  0.001588011    1.767    0.434
        66 -12.9916    121.2363    215.4405   6.0325122800e+01   1.3626505803e+01    0.4238717    0.2831027 -89.52  0.002123202    2.651    0.623
        67 -10.4970     95.6641    223.2387   6.7143586722e+01   1.5546830785e+01    0.1311435   0.07915103  46.69 0.0001315927    1.544    0.352
        68 -11.8844    246.1805    221.0759   3.8151765580e+01  -1.9191209663e+00    0.1857445      0.10097 -18.15  0.001197027    1.535    0.349
        69 -11.9598    114.3228    221.9854   6.2689863940e+01   1.3358079282e+01    0.1721876    0.1544986  22.14 0.0006967258    1.087    0.080
        70 -15.7709     11.1163    186.5995   8.6415104442e+01   3.3238131998e+01     1.901407      1.18849  30.71  0.007885394    1.433    0.302
        71 -12.7930     62.6712    216.5547   7.4542980949e+01   2.0994125771e+01     0.425687    0.2308914  57.70  0.002122674    1.858    0.462
        72 -12.8933     66.8964    216.1382   7.3452354854e+01   2.0570489604e+01    0.5133557    0.2824951  57.43  0.002564954    1.856    0.461
        73 -13.5881     57.0488    207.2036   7.5217249389e+01   2.3664707354e+01    0.6772614    0.3072415  57.49  0.001906273    2.314    0.568
        74 -12.8587     52.1647    204.1524   7.6252605417e+01   2.4917242688e+01     0.341235    0.1885727  35.93   0.00120376    1.463    0.317
        75 -11.2420    192.8214    217.6273   4.6129585257e+01   4.1086645789e+00    0.2952245   0.08397175 -46.84  0.001153705    4.606    0.783
        76 -13.6120    147.0095    216.2183   5.4793422568e+01   1.0047796683e+01    0.8016385    0.5253423  66.65 0.0006948047    3.176    0.685
        77 -12.6047    141.6144    214.7928   5.5742311648e+01   1.1002996217e+01    0.4662293    0.2812196 -70.17  0.002242438    3.033    0.670
        78 -12.5761    129.5570    216.6532   5.8614878176e+01   1.2292197104e+01    0.2376988    0.1919443  -2.41 0.0008549147    1.280    0.219
        79 -11.3232    225.7153    216.1789   4.0463837842e+01   6.6923635722e-01    0.1639548    0.1243781  19.07 0.0005548836    1.339    0.253
        80 -10.8119    207.3084    216.0092   4.3397625895e+01   2.6732984913e+00    0.1497823     0.115451 -10.87 0.0003475132    1.075    0.069
        81 -10.7758    161.8204    215.8382   5.1707652149e+01   8.1820532630e+00    0.1481334    0.1319785  32.07 0.0002500189    1.286    0.222
        82 -10.7401    154.4291    216.4883   5.3293082041e+01   9.0329798965e+00    0.1610103    0.1423463  47.44    0.0001006    1.415    0.293
        83 -11.7548    155.9934    213.1966   5.2508875103e+01   9.3626184838e+00    0.3733153    0.2560025 -69.13  0.002017038    2.541    0.607
        84 -11.1000    138.4538    216.5133   5.6653327205e+01   1.1130096426e+01     0.125397    0.1059071  20.47 5.576969e-05    1.021    0.021
        85 -12.1317    107.9764    215.0220   6.3337242904e+01   1.5488671917e+01    0.2570602    0.1993168 -77.02 0.0009992416    1.662    0.398
        86 -12.5811     84.2391    214.5226   6.8998176259e+01   1.8722349883e+01     0.644375    0.2232433  36.21  0.002682001    2.210    0.548
        87 -11.3804     97.7082    212.5662   6.5500620514e+01   1.7340921470e+01    0.3783759    0.2074025 -88.14  0.001587169    3.373    0.704
        88 -12.6415    123.8184    210.7607   5.9136341970e+01   1.4132389322e+01    0.3045703    0.1834943 -74.50   0.00131213    2.770    0.639
        89 -10.9788    209.5144    211.5036   4.2354615852e+01   3.0251317902e+00    0.1111371   0.08777089  -4.32  0.000249052    1.028    0.027
        90 -11.3803    187.4621    211.1096   4.6122924551e+01   5.6775699689e+00    0.1635058    0.1046862 -35.55  0.001015828    1.548    0.354
        91 -11.6986    230.0937    204.0775   3.7958659238e+01   1.7232381076e+00    0.1784068    0.1315376 -12.06 0.0003488968    1.043    0.041
        92 -12.2494    229.3560    208.6899   3.8779054992e+01   1.2204418355e+00    0.2576498    0.2170829 -43.06  0.001222395    1.762    0.432
        93 -11.3065    225.6438    204.2980   3.8671062987e+01   2.1771102683e+00    0.1689713    0.1390569  16.34 0.0006614703    1.323    0.244
        94 -12.1831    160.5336    207.0151   5.0683898645e+01   9.7708400177e+00    0.4275248    0.2794959 -73.50  0.001997713    3.441    0.709
        95 -11.6381    157.4769    206.4851   5.1229150060e+01   1.0270105143e+01       0.2099    0.1932655   0.75 0.0005976567    1.134    0.118
        96 -10.7100     90.6039    210.0108   6.6952644098e+01   1.8801856481e+01    0.1723623     0.130872 -64.72 0.0004020186    1.545    0.353
        97 -10.5939    170.0143    209.7605   4.9206376222e+01   8.0806507105e+00    0.1507693   0.08964226  28.98 0.0003744763    1.512    0.339
        98 -12.6621    104.4484    206.8872   6.3199666144e+01   1.7549819100e+01    0.3962559    0.2625569  83.59  0.001840541    2.295    0.564
        99 -11.1131     61.1952    204.3313   7.3891925871e+01   2.3793891624e+01    0.3145327    0.1392204  47.45 0.0009475176    1.969    0.492
       100 -12.9341    145.8219    201.5288   5.2948146354e+01   1.2732854522e+01    0.3470535    0.2532354  48.93  0.001000159    1.582    0.368
       101 -11.7406    110.8616    205.1207   6.1432691741e+01   1.7006628199e+01    0.1754158     0.148416  -4.29 0.0002861032    1.298    0.230
       102 -11.5929    100.4644    195.4567   6.2744192907e+01   2.0452624416e+01    0.2592845    0.1245653  29.92 0.0006898746    1.876    0.467
       103 -11.6109     91.0602    189.2676   6.4374382917e+01   2.3145017914e+01    0.2441374    0.2024334 -89.01 0.0005861021    1.368    0.269
       104 -13.5140     94.4805    193.3130   6.3998255611e+01   2.1768957149e+01     1.720987    0.4644964  25.67  0.004622678    5.200    0.808
       105 -12.5592     87.0426    202.1842   6.6974622539e+01   2.0906836914e+01    0.6919187    0.3038232  50.98  0.002718251    2.471    0.595
       106 -12.3619     91.3917    199.4528   6.5547542811e+01   2.0889207128e+01    0.4153829    0.2870606 -34.61  0.001536284    1.850    0.459
       107 -12.9210     44.3355    200.8589   7.8086661767e+01   2.6560233485e+01    0.3365953    0.2686665  11.59  0.001173694    1.439    0.305
       108 -11.9396     48.9797    200.0002   7.6776489045e+01   2.6224805380e+01    0.2035901    0.1982583  72.41 0.0003785832    1.205    0.170
       109 -11.0002    166.9795    202.4730   4.8702253970e+01   9.6466557169e+00    0.1811248    0.1090134  29.96 0.0004080079    1.518    0.341
       110 -12.0316    212.4393    200.2021   4.0122806292e+01   4.2200519369e+00      0.21749    0.1852542 -40.91 0.0006696654    1.534    0.348
       111 -12.0161    136.8413    200.8485   5.4821005945e+01   1.4131142471e+01    0.2559895    0.1852194  73.33  0.001102757    2.264    0.558
       112 -13.2447    122.2888    196.4053   5.7526383271e+01   1.7083117723e+01    0.3364174    0.3161308   8.94  0.002136129    1.083    0.077
       113 -12.7365    180.6792    207.1595   4.6775918328e+01   7.1119552391e+00    0.4617919     0.254424  43.53  0.002483828    2.193    0.544
       114 -13.4562    173.7458    196.0162   4.6359052102e+01   9.7780245101e+00    0.4602668    0.3296018  58.79  0.002538424    2.265    0.558
       115 -12.1089    201.9847    196.3865   4.1261263814e+01   6.0245850330e+00    0.2266362    0.1589505 -27.89  0.001488099    1.284    0.221
       116 -12.4630    110.6182    196.0232   6.0288277201e+01   1.8864975073e+01    0.2468785    0.2078602  22.72 0.0001620274    1.110    0.099
       117 -12.8840    191.9709    194.1966   4.2661132028e+01   7.6267354798e+00     0.365245    0.2758262  22.74  0.002412062    1.257    0.205
       118 -11.2126    153.4994    195.5318   5.0391209370e+01   1.2700618644e+01    0.1279862    0.1130575  13.24 0.0001919488    1.022    0.022
       119 -11.1926    245.4069    194.2021   3.4190952023e+01   1.3356542254e+00    0.1360447   0.08253538 -36.62 0.0003075975    1.552    0.356
       120 -11.9499    137.8888    197.1789   5.4044644790e+01   1.4657805019e+01    0.2500883    0.1584721   7.32 0.0003948759    1.982    0.496
       121 -12.5011    133.2903    190.5277   5.4081201710e+01   1.6597254127e+01    0.2960564    0.2549613 -10.61  0.001637986    1.211    0.174
       122 -13.5407    126.8447    186.5580   5.4979027387e+01   1.8357095053e+01    0.6109212    0.2260249  39.88  0.002387105    2.462    0.594
       123 -13.2477    132.4503    185.5987   5.3507181769e+01   1.7687933269e+01    0.3284046    0.2725443 -25.79 0.0002879869    1.293    0.226
       124 -13.4868    110.2464    188.0715   5.9266922381e+01   2.0570220121e+01    0.5241891    0.3135135 -82.29  0.001904738    2.782    0.641
       125 -11.3628     65.4744    183.7160   7.0714512377e+01   2.7977191633e+01    0.3692474    0.2973344 -61.23  0.001632634    1.390    0.281
       126 -12.4645     63.3355    177.1518   7.0603715899e+01   2.9843419751e+01    0.5560819    0.1907414  36.24  0.001822972    2.347    0.574
       127 -11.5579     70.3250    186.8357   6.9698748635e+01   2.6595142011e+01    0.4254943    0.1558933  47.41  0.001570914    2.589    0.614
       128 -11.4690     78.0681    190.4820   6.7992456854e+01   2.4703255926e+01     0.230143    0.1900932  70.09  0.001177951    1.248    0.198
       129 -12.9138     76.1172    185.2924   6.7918950771e+01   2.6163611230e+01    0.8585005    0.3197374 -66.34  0.003246361    2.983    0.665
       130 -12.3113     50.9125    189.9833   7.5424819198e+01   2.8323013469e+01     0.385938    0.2242132  42.07   0.00114364    1.430    0.301
       131 -12.1696     54.4042    185.1189   7.3998985743e+01   2.9058220110e+01    0.2993277    0.2242032  17.16 0.0005105518    1.454    0.312
       132 -12.0421    116.5266    204.4723   6.0000082273e+01   1.6336641929e+01    0.2414123    0.1332792 -56.35 0.0007709728    2.092    0.522
       133 -11.4048     97.1510    188.5222   6.2679948352e+01   2.2422691203e+01    0.2128004    0.1924959 -69.11 0.0005171187    1.236    0.191
       134 -11.5008    206.9704    188.3162   3.9097314640e+01   6.5712074652e+00     0.161636    0.1320081   6.20 0.0004776489    1.118    0.106
       135 -11.8801    195.1687    186.9413   4.0893401308e+01   8.3131996015e+00    0.2403288    0.1606723  37.46  0.001024318    1.610    0.379
       136 -12.5002    191.1935    183.8123   4.1073183922e+01   9.3377937302e+00    0.3671982     0.227323 -21.16  0.002052011    1.691    0.409
       137 -13.0373    248.6532    185.3973   3.2337788609e+01   2.0862489349e+00    0.2324675    0.1673453  -3.95 0.0004210221    1.223    0.182
       138 -12.2345    156.0426    186.3818   4.8383404276e+01   1.3958795410e+01    0.3892295    0.2217893   8.83  0.001680032    2.676    0.626
       139 -10.7871     43.4449    186.4964   7.7241195443e+01   3.0029772315e+01    0.1410056    0.1185225  52.58 6.949667e-05    1.006    0.006
       140 -10.7427    228.6910    185.6802   3.5225759872e+01   4.2882880217e+00    0.1149032    0.0716379  -8.47 0.0003195102    1.641    0.391
       141 -10.8402    164.0128    184.9949   4.6494597056e+01   1.3022342293e+01    0.1551505    0.1370681   7.56 0.0003577608    1.019    0.019
       142 -11.9554    142.1266    181.9631   5.0695572324e+01   1.6901726133e+01    0.3078263    0.1735317 -50.00  0.001120846    1.904    0.475
       143 -12.2500     94.2951    181.9964   6.2545653814e+01   2.4294522515e+01    0.4877254    0.2890384 -77.04  0.002174688    2.211    0.548
       144 -12.8287    100.6025    181.2541   6.0765395504e+01   2.3508096744e+01    0.3579746    0.2842433 -76.37  0.001934292    1.451    0.311
       145 -11.2835     49.6841    182.9566   7.5150927361e+01   3.0155870795e+01    0.2625678    0.1732708  35.33 0.0006409646    1.322    0.244
       146 -11.1874     46.2677    181.6299   7.6021612209e+01   3.0885625585e+01    0.2223441     0.123718  34.30 0.0004711516    1.543    0.352
       147 -11.8357    232.6933    181.0178   3.3860077220e+01   4.4458604606e+00    0.2122274    0.1852461 -55.80 0.0008509213    1.775    0.437
       148 -14.0043    117.6290    179.5250   5.6129902552e+01   2.1240617912e+01    0.7120981    0.3598243  50.05  0.001910779    2.242    0.554
       149 -11.3965     88.8889    180.9682   6.3865379414e+01   2.5332228576e+01    0.4291636    0.2507115  65.39  0.001830593    2.243    0.554
       150 -10.8566    198.3791    180.2313   3.9190250562e+01   8.9138863043e+00    0.1553707    0.1051301 -42.90 0.0002927101    1.527    0.345
       151 -13.0905    131.3669    169.3757   5.1065567368e+01   2.1153187498e+01    0.3598015    0.2329487  34.12  0.001429567    1.468    0.319
       152 -13.5778    123.2172    167.7214   5.2780578342e+01   2.2858993977e+01    0.8859825    0.3429185  26.22   0.00278142    3.780    0.735
       153 -13.6275    126.3962    176.6244   5.3500394585e+01   2.0455815181e+01    0.4516188    0.3401453  27.36  0.001379554    1.270    0.213
       154 -12.5004    125.9405    172.0613   5.2848885606e+01   2.1484309346e+01    0.2971909    0.2160986  31.12 0.0004247588    1.305    0.234
       155 -12.5760    137.4918    177.0168   5.0929818153e+01   1.8600472220e+01    0.2955579    0.2037946  49.45  0.000356518    1.574    0.364
       156 -10.6109     52.9937    177.1826   7.3637397925e+01   3.1167345103e+01    0.1926986   0.09956133  29.19 0.0002868947    1.767    0.434
       157 -12.0669    248.0627    175.2225   3.0747467024e+01   3.4409680106e+00    0.2678751    0.1180829 -27.64   0.00071899    1.992    0.498
       158 -12.0244    242.4519    175.3709   3.1532235848e+01   4.0597499559e+00    0.1828315    0.1431051  -2.10 0.0006574383    1.175    0.149
       159 -13.3207    147.4958    174.5560   4.8233330895e+01   1.7484779365e+01    0.6918308    0.3450519  56.80  0.002468396    3.794    0.736
       160 -12.9348    152.8650    170.1805   4.6276499490e+01   1.7461616675e+01    0.2695464    0.2626228 -50.60  0.000979826    1.158    0.136
       161 -13.0430    152.3713    165.3412   4.5503510801e+01   1.8474217296e+01    0.3220555    0.2760684  75.18   0.00109641    1.512    0.339
       162 -10.7291      7.2239    172.5904   8.6995421270e+01   3.7007829403e+01    0.2193561    0.1190573  23.14 0.0004268428    1.795    0.443
       163 -12.0062     12.0574    174.9457   8.5658291601e+01   3.6021929948e+01     0.326447    0.2026655  69.39 0.0009650004    1.427    0.299
       164 -12.3208     11.9092    161.4380   8.5060670276e+01   3.9484115721e+01    0.3815857    0.2308344  58.49  0.001265111    1.430    0.301
       165 -12.5081     11.7744    169.7697   8.5507256804e+01   3.7351901277e+01     0.546472    0.2125138  48.26   0.00231382    2.078    0.519
       166 -12.1314     13.2610    165.9625   8.4866291814e+01   3.8201486747e+01    0.4041562    0.2137016  45.53  0.001441339    1.579    0.367
       167 -12.9254     18.1800    168.3468   8.3474644479e+01   3.7161392207e+01    0.4936247    0.3268471 -28.62  0.002401896    2.144    0.534
       168 -12.5200     22.6934    167.6851   8.2040237894e+01   3.6915066200e+01    0.4190992    0.2531745  77.32   0.00109988    1.580    0.367
       169 -12.5247    173.2026    173.4958   4.2659086876e+01   1.3654923822e+01    0.2245013    0.1992219 -18.89 0.0002701204    1.059    0.056
       170 -10.7252    167.1950    174.3711   4.4014012013e+01   1.4421378682e+01    0.1675323    0.1171237  42.43 0.0001545097    1.512    0.339
       171 -12.3279     79.5814    173.3914   6.5445187048e+01   2.8482241689e+01    0.2763992    0.2531933  50.68   0.00108692    1.027    0.027
       172 -13.7259     88.4310    164.3284   6.1600553746e+01   2.9324040539e+01    0.5927196    0.3926126 -14.23   0.00244858    2.486    0.598
       173 -13.3598     90.5350    171.7520   6.2116208836e+01   2.7225908689e+01    0.4149874    0.2995829 -52.63 0.0006461413    1.514    0.339
       174 -12.8883     94.8820    172.1156   6.0964016530e+01   2.6467613986e+01    0.3667381    0.2348367  47.35  0.001503353    1.483    0.326
       175 -12.6598    100.5250    171.0328   5.9255904116e+01   2.5829506106e+01    0.3421408    0.2276983  31.21 0.0005930998    1.423    0.297
       176 -11.3409    163.5073    170.9535   4.4157513359e+01   1.5614042757e+01    0.1904345    0.1259826 -42.77 0.0004133264    1.510    0.338
       177 -12.4232    154.3672    175.1743   4.6836579783e+01   1.6275955623e+01    0.3249148    0.2432218 -26.72  0.001072485    1.398    0.285
       178 -12.0747     61.5061    170.8654   7.0425597352e+01   3.1640488919e+01    0.3982549    0.1915415  32.65  0.001571923    1.840    0.456
       179 -13.5580     51.9941    167.9980   7.2990748817e+01   3.3598714839e+01    0.6185919    0.3653058  34.52  0.001906862    1.509    0.337
       180 -14.5776     36.1641    249.2201   8.2803471105e+01   1.7495495283e+01     0.850834    0.3350158  35.83  0.002745795    1.718    0.418
       181 -11.2938    197.9312    170.3037   3.7521543648e+01   1.0531025282e+01     0.172752    0.1467493   4.37 0.0007719931    1.114    0.102
       182 -12.1439     40.7339    168.5090   7.6512269553e+01   3.4818435002e+01    0.3057014    0.2247928  38.06   0.00152883    1.222    0.182
       183 -13.1254     30.4645    167.2720   7.9596334882e+01   3.6252865489e+01    0.4458882    0.2810539  45.44  0.001285427    1.363    0.266
       184 -12.3100    160.3392    168.0064   4.4282950127e+01   1.6663957309e+01    0.2116672    0.1746166 -11.49  0.001226594    1.247    0.198
       185 -12.8850    106.5794    175.7972   5.8378950054e+01   2.3793871012e+01    0.3347789    0.2311944  38.79 0.0007206097    1.314    0.239
       186 -13.5102    101.9137    165.2906   5.7961477310e+01   2.6932135100e+01     0.540378    0.3134788  18.31   0.00175996    2.246    0.555
       187 -12.1664     72.0037    166.5378   6.6742748040e+01   3.1261179334e+01     0.271292    0.1930333 -51.51 0.0006829691    1.573    0.364
       188 -13.5748      5.0266    160.5442   8.7195619677e+01   4.0249919942e+01    0.6805215    0.4398356  76.40  0.002791994    1.375    0.273
       189 -12.9327    111.6942    163.9289   5.5095430675e+01   2.5624818463e+01    0.3998389    0.2840913 -25.32  0.001024142    1.842    0.457
       190 -12.9079     64.0241    164.5457   6.8896828004e+01   3.2889413248e+01    0.3680502    0.2244164 -70.95  0.000929271    1.726    0.421
       191 -12.6479     66.4644    160.4572   6.7612980582e+01   3.3588223503e+01    0.2730061    0.2264611  32.42 0.0005479926    1.182    0.154
       192 -13.2001     69.7110    158.6088   6.6353552138e+01   3.3592778886e+01    0.4832876    0.2354909 -47.76   0.00172841    2.439    0.590
       193 -12.6203     58.2627    164.7464   7.0693137098e+01   3.3618869155e+01     0.359192     0.220475  57.76  0.001639656    1.607    0.378
       194 -10.6940    212.0303    164.0090   3.4046539956e+01   9.5219863246e+00    0.1425418    0.1183043 -19.40            0    1.006    0.006
       195 -14.0278     76.2913    154.6267   6.3731811154e+01   3.3622126637e+01    0.5937193    0.3854156  72.38 0.0009197339    1.841    0.457
       196 -13.9755     84.7452    159.2387   6.1888781323e+01   3.1148188313e+01    0.4816349     0.405814  69.97  0.001679016    1.201    0.167
       197 -14.7373     83.2191    150.7006   6.0970796649e+01   3.3524991190e+01    0.8081726    0.5261944  26.51  0.001244508    1.620    0.383
       198 -12.6854    169.4871    159.9412   4.0898267620e+01   1.6664655907e+01    0.3119905    0.2714275  63.15  0.001177025    1.437    0.304
       199 -12.6782     46.8607    160.7853   7.3826480497e+01   3.6095738950e+01    0.4219761     0.205611  46.71  0.001332335    1.836    0.455
       200 -11.3435     24.1394    159.8753   8.1052358619e+01   3.8809804208e+01    0.2993579     0.171073  63.16  0.001391638    1.627    0.385
       201 -13.3700    121.7765    156.5354   5.1137533691e+01   2.5553762125e+01    0.5478137    0.2687982 -48.37  0.001585559    2.113    0.527
       202 -13.2228    118.2017    157.6110   5.2262316877e+01   2.5937680548e+01    0.3920115    0.2629878  29.05  0.001844479    1.530    0.347
       203 -12.5826     95.4404    159.1777   5.8765864112e+01   2.9438539554e+01    0.3055455     0.268983   8.84  0.000387803    1.281    0.219
       204 -12.7731    134.8254    158.4630   4.8250844038e+01   2.2853387417e+01    0.5540695    0.2644812  54.34  0.002010377    2.986    0.665
       205 -12.8229    105.1396    158.5302   5.5932668791e+01   2.7971849208e+01    0.3753492    0.2529345  67.74  0.001456715    1.895    0.472
       206 -13.1438     31.5852    156.6505   7.8373292298e+01   3.8917283328e+01    0.4938377    0.3519161  58.49  0.002540638    1.258    0.205
       207 -10.2939    250.4856    157.5118   2.7416155695e+01   5.4681274158e+00    0.1113946   0.08346171 -22.22 0.0008100798    1.040    0.038
       208 -11.9262    112.5082    156.9863   5.3654721751e+01   2.7067204918e+01    0.2231376    0.1471107 -55.53  0.001034854    1.596    0.373
       209 -11.3617    190.6467    155.2254   3.5999147960e+01   1.4090731465e+01     0.212607    0.1401866 -41.13 0.0005682393    1.418    0.295
       210 -10.7001    141.5112    155.5202   4.6104427053e+01   2.2297096068e+01    0.1393917    0.1357599  22.09 7.976407e-05    1.024    0.023
       211 -12.3912     13.0058    149.0166   8.4016719369e+01   4.2676646037e+01    0.4423943    0.1993276 -56.09   0.00181988    2.444    0.591
       212 -11.3419     14.6856    152.9655   8.3690386814e+01   4.1485024459e+01    0.2837013    0.1191845 -74.78  0.001156951    2.257    0.557
       213 -12.3321     19.6708    154.7086   8.2150085483e+01   4.0590544671e+01    0.4238449    0.2380141  17.23  0.001936542    1.930    0.482
       214 -12.1689     19.6806    149.8909   8.1810942584e+01   4.1877372285e+01    0.4786127    0.2681078 -31.77  0.001995726    2.627    0.619
       215 -11.1543    212.1759    153.4048   3.2066261064e+01   1.1126185898e+01    0.1463118    0.1172071  51.87 0.0005201805    1.620    0.383
       216 -11.8878    172.1050    151.8811   3.8813834800e+01   1.7704201522e+01    0.2839901    0.1694838 -45.85  0.001404969    1.645    0.392
       217 -13.3410     50.9914    142.7294   7.0282795879e+01   4.0381666079e+01    0.5935649     0.252447  32.30  0.001896853    2.139    0.532
       218 -13.1371     53.9465    149.0416   7.0119564702e+01   3.8296212701e+01    0.4195912    0.2371987 -56.27  0.001332372    1.864    0.464
       219 -12.3532     44.2626    144.7707   7.2869313240e+01   4.0678314342e+01    0.4607386    0.2179219 -46.92  0.001213301    2.612    0.617
       220 -12.6129     38.0885    149.4282   7.5510454421e+01   4.0143068567e+01    0.3780996    0.2298225  45.42  0.001753674    1.477    0.323
       221 -12.2422     40.6227    146.7746   7.4356979917e+01   4.0568936072e+01    0.3425373    0.1977314 -88.87  0.001303761    1.818    0.450
       222 -12.3795     62.9785    152.5021   6.7625465094e+01   3.6140553462e+01    0.2363239      0.14075  32.16 0.0006557338    1.587    0.370
       223 -11.9535     43.9119    152.1229   7.3842373145e+01   3.8741459535e+01     0.231461    0.1786136  61.44 0.0004199261    1.191    0.160
       224 -10.3492    249.2940    151.7166   2.6550379515e+01   6.3826185614e+00   0.09951489   0.07667332 -48.44 0.0002038245    1.538    0.350
       225 -12.7490     69.3391    150.4286   6.5279420421e+01   3.5755830435e+01    0.2918465    0.1892188 -73.26  0.000916714    1.628    0.386
       226 -12.6850    109.3089    149.2021   5.3083998173e+01   2.9435839683e+01     0.389671    0.3030238  45.68  0.001457593    1.230    0.187
       227 -12.6847     27.1960    148.6433   7.9151352923e+01   4.1508287516e+01    0.4243838    0.2926114 -51.52  0.002093637    1.650    0.394
       228 -12.2564      5.2210    149.7268   8.6674057302e+01   4.3073473294e+01    0.2830647    0.1635105  51.22 0.0009865724    1.495    0.331
       229 -11.0696    166.8201    149.2089   3.9337512026e+01   1.9105765928e+01    0.2297806    0.1585099 -88.06 0.0009678981    2.956    0.662
       230 -11.3435    147.0248    148.7197   4.3491257526e+01   2.2712211056e+01    0.1960727    0.1812699  27.03 0.0003743813    1.076    0.071
       231 -12.2716    133.0217    148.8438   4.6824720650e+01   2.5228314105e+01     0.228981    0.2032201  73.01  0.001240798    1.256    0.204
       232 -12.6684     96.0216    148.8116   5.6799161334e+01   3.1857445858e+01     0.259664    0.2217296 -66.75 0.0006359293    1.219    0.180
       233 -11.2876     32.2473    148.1505   7.7375834300e+01   4.1125945950e+01    0.2136711    0.1912702 -62.28 0.0006659757    1.234    0.190
       234 -11.9597      8.9392    146.7359   8.5270784188e+01   4.3602300154e+01    0.2025975    0.1688055  64.96  0.001156929    1.028    0.027
       235 -12.1184    157.7034    145.1867   4.0417670393e+01   2.1492481371e+01    0.2362384     0.225599  15.98 0.0002792414    1.051    0.048
       236 -13.1319    119.0455    144.1556   4.9455059618e+01   2.8839348543e+01    0.5352964    0.2975144  56.81  0.001483778    2.250    0.556
       237 -13.6010     95.2593    140.4078   5.5454337802e+01   3.4064424115e+01    0.5387791    0.3963912  15.73  0.001414873    1.697    0.411
       238 -12.2841    101.1574    141.1652   5.3851176551e+01   3.2822490164e+01    0.3222573    0.2983978 -55.69 0.0008407214    1.132    0.116
       239 -12.4737    103.2858    144.9294   5.3965346947e+01   3.1527558086e+01    0.3700481    0.2845728  38.90 0.0009327783    1.249    0.199
       240 -12.3757     40.8747    161.5237   7.5812907811e+01   3.6611899025e+01    0.3921113    0.1534721  38.13  0.001532041    2.115    0.527
       241 -10.9459    228.9826    145.2807   2.8062556569e+01   9.9496036139e+00    0.1547426     0.134675 -17.04 0.0003757031    1.099    0.090
       242 -11.7319    170.2945    145.0710   3.7803303737e+01   1.9274722476e+01     0.195052    0.1721853 -36.33 0.0009638716    1.078    0.072
       243 -12.3013     61.9716    145.4585   6.6942817064e+01   3.8141725538e+01    0.2394455     0.141367  33.42  0.001030391    1.599    0.375
       244 -13.4762     12.3560    142.4779   8.3839634510e+01   4.4490607835e+01    0.6263425    0.2825817  53.10   0.00263831    2.001    0.500
       245 -12.1537     51.2687    152.7470   7.1476924374e+01   3.7660568199e+01      0.29897    0.2488116  61.06 0.0007596899    1.094    0.086
       246 -11.6829    187.1788    143.1210   3.4231606015e+01   1.6727564444e+01    0.1918173      0.19001 -58.92  0.000254415    1.167    0.143
       247 -11.2349    201.2156    142.2401   3.1659446577e+01   1.4576975026e+01    0.1624131    0.1408707 -55.05 0.0003530177    1.308    0.236
       248 -11.3606    166.2348    141.8550   3.7953665810e+01   2.0600456618e+01    0.2856567    0.1658494 -64.03  0.001155774    2.743    0.635
       249 -11.5992     20.1813    142.1080   8.1053043704e+01   4.3940477771e+01     0.201968    0.1895517 -77.62 0.0002970639    1.157    0.135
       250 -12.9694     40.8836    139.6110   7.3429267310e+01   4.2489305586e+01    0.3527433    0.2597372 -82.22  0.001746018    1.330    0.248
       251 -11.5223     60.3033    139.2975   6.6575208467e+01   4.0028199566e+01    0.1489502    0.1187351 -28.95 0.0002305178    1.583    0.368
       252 -10.3984    212.3326    138.2865   2.9130227258e+01   1.3461759471e+01    0.1223368   0.08949818  -4.09 0.0004189591    1.622    0.383
       253 -10.9069    177.6187    138.2330   3.4976647421e+01   1.9243915733e+01    0.1805897    0.1199475 -34.22 0.0003375519    1.455    0.313
       254 -10.2120    109.2982    138.3171   5.0937865046e+01   3.2014532542e+01    0.1512494    0.1219545 -14.36 0.0007018139    1.612    0.380
       255 -13.5141     50.9775    136.1229   6.9365250836e+01   4.2179662109e+01    0.7776211    0.2775183 -74.75  0.002482869    3.210    0.688
       256 -13.1198     45.8309    129.4731   7.0276016081e+01   4.4675512938e+01    0.3950134    0.2778787  45.53  0.001374775    1.333    0.250
       257 -12.7697     66.9567    135.2387   6.3629359198e+01   4.0125914623e+01    0.4643405    0.2558143   4.91  0.001460721    3.790    0.736
       258 -12.8447     57.0077    133.7445   6.6857839824e+01   4.2000394726e+01    0.3149615    0.2114431  41.36 0.0003732787    1.392    0.282
       259 -12.3168     46.4257    136.2578   7.1013724246e+01   4.2732204002e+01    0.2718517    0.1551925  67.80  0.001104559    1.958    0.489
       260 -11.1564     26.9007    136.1214   7.8102186740e+01   4.4958576027e+01    0.2396715    0.1693298  59.16 0.0005356723    1.310    0.237
       261 -13.3735     14.0968    134.8772   8.2700481953e+01   4.6429483540e+01     0.506418    0.3207017  38.82  0.002078804    1.461    0.315
       262 -12.6348     20.5250    130.8547   7.9977152282e+01   4.7006741299e+01    0.4206284     0.297919 -27.05 0.0009789052    1.803    0.445
       263 -11.5316     16.8134    130.3098   8.1333473075e+01   4.7471776730e+01    0.2750007    0.1643591 -87.06  0.001190232    1.580    0.367
       264 -11.2570    197.1118    135.0322   3.0877995189e+01   1.6444409612e+01    0.1974419    0.1564081 -72.83 0.0008717491    1.720    0.419
       265 -12.4046    128.0320    134.0009   4.4979055002e+01   2.9430938167e+01    0.2217891    0.2170605 -81.47   0.00034185    1.019    0.019
       266 -13.0820    103.5929    134.0348   5.1692375285e+01   3.4112380376e+01    0.4600689    0.2334456  36.86  0.001348951    1.956    0.489
       267 -10.9075    222.1990    133.1446   2.6683378866e+01   1.2743369132e+01    0.1579909    0.1280158 -50.15 0.0003764858    1.307    0.235
       268 -12.4325      6.7005    132.4838   8.5271851347e+01   4.7624241478e+01    0.3001246    0.1845182 -53.80  0.001440259    1.771    0.435
       269 -11.9335    230.0773    130.5492   2.5105803132e+01   1.1953519573e+01    0.2174675    0.1430597 -35.53 0.0003513208    1.233    0.189
       270 -10.5901      1.5369    131.5117   8.7127725843e+01   4.8215572604e+01    0.1420307    0.1205393  69.17 7.384774e-05    1.021    0.020
       271 -12.3302    121.9305    128.6330   4.5381659925e+01   3.1842831452e+01    0.3533086    0.2119803 -60.34  0.001473518    1.854    0.461
       272 -13.5805     34.4696    132.1080   7.4865268782e+01   4.5286901887e+01    0.5850541    0.3749371   2.42  0.002211192    2.060    0.515
       273 -12.1271    130.4102    128.5378   4.3162294402e+01   3.0177034715e+01    0.2599822    0.2512801 -56.46   0.00101702    1.039    0.038
       274 -13.0544     82.7239    128.0741   5.6966694387e+01   3.9415263704e+01    0.4574214    0.3384824  -5.29  0.001959318    2.021    0.505
       275 -13.3159     53.8654    126.9089   6.6893614806e+01   4.4310322412e+01    0.3984199    0.3296915 -42.30  0.001113313    1.381    0.276
       276 -13.9315     58.8258    126.0667   6.4924421611e+01   4.3828662029e+01    0.6250597    0.4053706 -19.99    0.0024555    2.480    0.597
       277 -14.6048     76.4209    120.3959   5.7519721901e+01   4.2523278579e+01    0.8575975    0.5821601 -58.33  0.002203301    1.485    0.327
       278 -13.1140     82.8334    114.3433   5.3961541418e+01   4.2951582755e+01    0.6706599    0.2909171 -53.57  0.002387848    2.299    0.565
       279 -11.4650     96.6601    127.6855   5.2430319762e+01   3.6977682176e+01     0.157587    0.1260325 -12.79 0.0003341961    1.701    0.412
       280 -12.2405     26.5935    125.1499   7.7071447267e+01   4.8036185060e+01    0.3209627    0.2483773  75.72  0.000825749    1.214    0.176
       281 -13.3264     10.6504    124.1863   8.3224764951e+01   4.9638413250e+01    0.5748702    0.2064729 -52.80  0.002058524    3.007    0.667
       282 -12.8360     14.1559    118.8601   8.1397614759e+01   5.0864341181e+01      0.30165    0.2228137  24.57   0.00108592    1.407    0.289
       283 -12.7123     18.6746    115.5023   7.9219782019e+01   5.1447147010e+01    0.4927585    0.3053051 -68.41  0.002319983    1.526    0.345
       284 -12.5363    186.5388    123.9262   3.0314052360e+01   2.0201147126e+01    0.3289954    0.2424912 -22.35 0.0009819194    1.477    0.323
       285 -10.7500    169.6753    125.7197   3.3794978823e+01   2.3023135748e+01    0.1367527    0.1089176   1.24 0.0001826872    1.592    0.372
       286 -12.9485     88.4873    135.2533   5.6537803193e+01   3.6557556054e+01    0.5271867    0.2246507  49.21  0.001807512    2.516    0.603
       287 -13.0535     20.6755    122.9760   7.9170537447e+01   4.9186763013e+01    0.3532103    0.2760208  26.15  0.000652923    1.327    0.246
       288 -12.2942      5.1839    123.1974   8.5295260324e+01   5.0273641796e+01    0.3425043    0.1709173  84.14  0.001479379    1.888    0.470
       289 -12.5475    194.9872    122.5182   2.8597505893e+01   1.8924195744e+01      0.23792    0.2312823 -23.96 -1.508907e-05    1.104    0.094
       290 -13.3934    105.8970    121.5935   4.8274640202e+01   3.6688189077e+01     0.497459    0.3219824  49.68 0.0009451439    1.534    0.348
       291 -12.1160    100.4590    119.5287   4.9433975458e+01   3.8266630757e+01    0.2490804    0.2311969  88.71 0.0005639374    1.057    0.054
       292 -10.3636     49.6333    123.3107   6.7892361787e+01   4.5881844351e+01    0.1722339      0.10394  59.66 0.0001760207    1.760    0.432
       293 -11.3771    224.0937    120.4822   2.3904837682e+01   1.4367480317e+01    0.1844091    0.1392915 -36.34 0.0004722899    1.086    0.079
       294 -11.7767    201.7251    120.5285   2.7107789822e+01   1.8072152125e+01     0.219383    0.1270454  44.36  0.000860349    1.987    0.497
       295 -11.9496     64.3396    118.8268   6.1545745031e+01   4.4951860914e+01    0.2232137    0.1369225 -55.75  0.000938592    1.647    0.393
       296 -10.8375     36.2839    119.3982   7.2509408549e+01   4.8627887631e+01    0.2097668    0.1295632  39.04 0.0006647389    1.533    0.348
       297 -11.4155     94.6391    117.6406   5.0814762642e+01   3.9872423595e+01     0.245581    0.1988377 -14.99  0.001121252    1.669    0.401
       298 -12.0914     23.8721    115.9456   7.7114338377e+01   5.0870107284e+01    0.4363056    0.2253039 -67.04 0.0008666817    1.809    0.447
       299 -13.1391      8.7134    117.0757   8.3467471564e+01   5.1744350596e+01    0.3442004    0.2500022 -41.03  0.001767587    1.567    0.362
       300 -10.7164    241.3701    115.7505   2.0824602568e+01   1.2422920992e+01    0.1092607   0.08073875 -61.44 0.0006952496    1.629    0.386
       301 -12.2713    104.9475    113.9975   4.6750250936e+01   3.8712078487e+01    0.3225723    0.2206585  63.52  0.001379146    1.667    0.400
       302 -12.3758    109.1608    112.3684   4.5098444404e+01   3.8232883301e+01    0.3346687    0.2336369 -55.70  0.001499629    1.446    0.308
       303 -12.1560     58.5917    114.0734   6.2779792382e+01   4.7136300230e+01    0.2731277    0.2239785  28.05 0.0003709276    1.286    0.223
       304 -12.4169    116.7890    112.9616   4.3072341590e+01   3.6498156599e+01    0.2687467    0.2238355  47.56 0.0003216628    1.195    0.163
       305 -12.3279     63.2587    113.1328   6.0796807485e+01   4.6662678942e+01     0.318155    0.2059951  52.62  0.001320079    1.562    0.360
       306 -11.7698     61.9546    108.7600   6.0372223343e+01   4.8052058187e+01    0.3355746    0.2307641  66.12  0.001460241    1.621    0.383
       307 -11.4449    171.5236    112.5165   3.0425803036e+01   2.5134306043e+01    0.1405242    0.1304159 -42.37 0.0001086066    1.033    0.032
       308 -10.5314    198.5289    111.4782   2.5635826669e+01   2.0141896995e+01    0.1325546    0.1154526 -40.92 1.303165e-05    1.003    0.003
       309 -11.5781     52.4629    110.8146   6.4556430149e+01   4.8935950080e+01    0.2701262    0.2082816  31.44 0.0005442075    1.320    0.243
       310 -13.0071     12.5753    109.5282   8.1204771932e+01   5.3585940363e+01    0.8397327    0.4079648  30.30  0.003628213    1.973    0.493
       311 -13.0718     10.9820    102.0214   8.1177318938e+01   5.5790225685e+01    0.4986893    0.4005689 -85.11 0.0003216487    1.146    0.128
       312 -12.5269     12.0237     98.3409   8.0312672574e+01   5.6746104505e+01    0.5901703    0.2917165  15.39 0.0004175796    2.182    0.542
       313 -11.4575    210.1526    108.7064   2.3339760531e+01   1.8511380878e+01    0.2176929    0.1503342 -45.49 0.0004898816    1.263    0.208
       314 -10.7021    101.4712    109.4602   4.6682520321e+01   4.0520189584e+01    0.1597157    0.1496865  78.38 0.0001304399    1.019    0.018
       315 -12.7522      2.4465    106.9946   8.5382801468e+01   5.4908978841e+01    0.4281972     0.217262 -70.18  0.001914182    1.796    0.443
       316 -12.3740    159.2657    106.5743   3.1367180829e+01   2.8780400933e+01    0.2770113    0.2458336 -68.42 0.0002571477    1.125    0.111
       317 -12.1381     73.4817    104.4863   5.4982589512e+01   4.7222738318e+01    0.3258154    0.1550425 -58.94 0.0009400016    2.112    0.527
       318 -10.7676    185.1673    102.1346   2.5610982014e+01   2.4274340196e+01    0.1919063    0.1540681 -67.37  0.001069083    1.327    0.246
       319 -10.6562     92.5103    105.5168   4.8543387286e+01   4.3312548777e+01    0.1614379    0.1499379  77.46 0.0008101935    1.029    0.028
       320 -11.9502    153.8798    100.9936   3.1064245447e+01   3.1019310448e+01    0.3822225     0.225902 -46.07  0.001701787    1.604    0.377
       321 -12.8513     78.7629    101.1071   5.2187273310e+01   4.7119010264e+01    0.5519224    0.3566256 -84.38  0.001785172    2.093    0.522
       322 -13.5457     77.8225     92.3029   5.0179660752e+01   4.9529734871e+01    0.5795993    0.3698644  54.89  0.001745562    1.646    0.392
       323 -12.0031     55.4871    101.2034   6.1315957118e+01   5.1109710208e+01     0.274932    0.2536193 -65.00 0.0006823069    1.099    0.090
       324 -11.3516     57.0831     97.5340   5.9806438504e+01   5.1848979375e+01    0.5326636    0.2726564  40.74  0.001410891    1.879    0.468
       325 -11.5324     97.4859    100.4795   4.5596481641e+01   4.3518249592e+01    0.2757896    0.2512164  75.27 0.0002125306    1.063    0.059
       326 -12.4952     94.4719     98.4999   4.6038949275e+01   4.4627700519e+01    0.5674303    0.2941999  40.99  0.001730946    1.944    0.486
       327 -11.5867     84.9417    100.9973   4.9947396267e+01   4.5950413871e+01    0.2363471    0.2247873  79.55 0.0003469162    1.017    0.016
       328 -10.4905    218.9886     99.9991   2.0302080711e+01   1.8320906831e+01     0.149094    0.1228994 -41.95            0    1.002    0.002
       329 -10.8393     26.7647     99.7929   7.3674727234e+01   5.5124298327e+01     0.206903    0.1561836  60.20 0.0004594238    1.318    0.241
       330 -11.5638    168.5325     99.4925   2.7838957035e+01   2.8157443147e+01    0.1435132    0.1313322 -55.05 0.0003018851    1.005    0.005
       331 -12.5140    162.1577     98.9103   2.8887493985e+01   2.9625864773e+01    0.2346108    0.1844264 -66.87  0.001207348    1.335    0.251
       332 -12.0955    104.9930     97.4758   4.2428995252e+01   4.2622246585e+01    0.2812587    0.2266463 -54.88  0.001343256    1.242    0.195
       333 -11.7740    178.6672     96.3734   2.5302127131e+01   2.6596861321e+01    0.2978214    0.2089239 -69.18 0.0008965327    1.676    0.403
       334 -11.1176    188.8114     98.1698   2.4100157080e+01   2.4230144921e+01     0.176709    0.1595027  -4.92 0.0005360827    1.315    0.239
       335 -11.7354     66.6041     94.2490   5.5072299295e+01   5.1120782184e+01    0.2265381    0.1427594 -49.90 0.0006303771    1.638    0.389
       336 -10.9046     41.6942     91.6284   6.5248417283e+01   5.5677993225e+01     0.214867      0.13164  39.94 0.0006228668    1.595    0.373
       337 -12.1413    125.8875     87.3680   3.3737448865e+01   4.0115946402e+01    0.4578568    0.3904164 -41.97  0.001089202    1.231    0.188
       338 -10.7387     28.4878     90.4391   7.1290028370e+01   5.7548878757e+01    0.1458873    0.1394432 -78.53 0.0001527546    1.035    0.034
       339 -10.8064     10.8991     87.0641   7.9542433556e+01   5.9944422913e+01    0.4779344    0.2327612   0.92  0.001432125    2.536    0.606
       340 -12.1439      3.2720     88.2323   8.3518866484e+01   6.0045841629e+01    0.3569007    0.2672832 -67.79   0.00145942    1.239    0.193
       341 -10.6510      6.4506     86.4589   8.1736127468e+01   6.0371989858e+01     0.200147    0.1205268 -69.34 3.402737e-05    1.509    0.337
       342 -10.8034    171.4739     88.4234   2.4533584311e+01   2.9522047973e+01    0.1425051     0.128411 -61.00 8.202911e-05    1.013    0.013
       343 -12.1499    149.1637     87.8997   2.8579294105e+01   3.4607347817e+01    0.2754723    0.1924499 -54.62  0.001177704    1.395    0.283
       344 -12.4994    149.6333     83.3811   2.7239056315e+01   3.5355143705e+01    0.5857604     0.385855 -25.28  0.002566515    1.980    0.495
       345 -12.5978     54.8257     85.8706   5.7853273958e+01   5.5299405213e+01    0.5409005    0.4615458  21.30  0.002735785    1.285    0.222
       346 -12.2699     68.9013     86.6230   5.2056467374e+01   5.2659400540e+01    0.2814191    0.2218581 -69.36 0.0002292872    1.302    0.232
       347 -11.0045    177.9375     85.9956   2.2850350992e+01   2.8550182842e+01    0.1667013    0.1521034 -66.11 0.0004241899    1.047    0.045
       348 -10.9165    100.5340     86.5076   4.0639363517e+01   4.6132690767e+01    0.1591894    0.1504847  84.26 6.400902e-05    1.013    0.013
       349 -12.0511    165.2307     84.4610   2.4589588944e+01   3.1600183876e+01    0.2313349    0.2183517  64.72 0.0007285678    1.162    0.139
       350 -11.0471    134.1054     84.1258   3.0809634736e+01   3.8848259948e+01    0.2182337    0.2093701  39.72 0.0005010263    1.194    0.162
       351 -13.2037     64.7728     82.3251   5.2518902741e+01   5.4501960035e+01    0.5478781    0.3878263   6.21  0.002277418    2.143    0.533
       352 -11.5116    215.9508     80.1850   1.6319561288e+01   2.1842574425e+01    0.2161498    0.1524379 -40.56 0.0003736384    1.176    0.150
       353 -11.4468    205.9936     81.4964   1.7802690489e+01   2.3540018728e+01    0.1729829    0.1294561  67.07 0.0004366473    1.531    0.347
       354 -10.4704     94.7793     80.9449   4.0782269922e+01   4.8682240967e+01    0.2016257    0.1290667 -48.62 0.0004402315    1.586    0.370
       355 -13.3936      6.8702     78.0820   8.0536800118e+01   6.2637424799e+01    0.5322913    0.3493003 -28.86  0.001819339    1.686    0.407
       356 -12.5407    115.0024     75.8248   3.3084305463e+01   4.5079976470e+01    0.5869508    0.3298977 -28.90  0.001866195    2.609    0.617
       357 -11.4969     88.1624     79.1597   4.2468824379e+01   5.0551677522e+01    0.2308427    0.2244558  -2.68 0.0006487335    1.187    0.158
       358 -10.7760     52.0641     79.5162   5.7366541750e+01   5.7391649451e+01    0.2227558    0.1474813  36.99 0.0004136763    1.493    0.330
       359 -12.1147    206.4218     75.3684   1.6325105196e+01   2.4386514755e+01    0.2417024    0.1886499 -12.71 0.0009127827    1.668    0.401
       360 -12.5600    224.7096     80.0185   1.5318089357e+01   2.0267650263e+01    0.2251537     0.188138 -50.27 0.0004477807    1.057    0.054
       361 -11.5938     86.5252     74.6141   4.1564979283e+01   5.1945030484e+01    0.3216302    0.2321408 -15.20  0.001307786    2.259    0.557
       362 -11.3145     54.9342     74.8356   5.4642228870e+01   5.8111264751e+01    0.2135664    0.1740575  69.17 0.0004854352    1.326    0.246
       363 -11.4786    106.5282     73.1408   3.4603199019e+01   4.7660230833e+01    0.3580843    0.2399103  81.13  0.001465352    1.958    0.489
       364 -11.9872      2.4548     72.9880   8.2385570155e+01   6.4224837239e+01    0.4005431    0.1184943 -58.56  0.001451261    2.793    0.642
       365 -10.7385    111.5490     72.5692   3.2985319730e+01   4.6574900198e+01    0.1567571    0.1455678  86.97 6.744524e-05    1.006    0.006
       366 -11.5040     68.5069     72.4516   4.7836107007e+01   5.6211668329e+01    0.2269389    0.1509112 -66.46 0.0009718398    1.692    0.409
       367 -11.2479     71.1831     69.6223   4.5758700345e+01   5.6340744194e+01    0.3318179    0.2349497   5.38 0.0008693841    2.393    0.582
       368 -12.5145    189.0222     70.4639   1.7317598682e+01   2.8713728554e+01    0.2588196    0.2176615 -70.08 0.0003874691    1.119    0.106
       369 -12.0316     61.1619     71.2051   5.0623353691e+01   5.7907454378e+01    0.2292191    0.2132362 -16.83 0.0006659725    1.216    0.178
       370 -10.9297    132.9610     70.3419   2.6945069322e+01   4.1784622761e+01    0.2056206    0.1828392  74.80 0.0003011588    1.094    0.086
       371 -11.8907    154.7999     68.2195   2.1964571085e+01   3.6861982830e+01    0.3459151      0.22534  71.66 0.0008470803    1.620    0.383
       372 -12.9356     54.8477     68.2760   5.2584949734e+01   5.9746784427e+01    0.3384567    0.2685859  54.21 0.0004394265    1.287    0.223
       373 -10.4701      2.2906     68.3410   8.1925346143e+01   6.5474169366e+01    0.1483738   0.08716648 -46.56 0.0003021388    1.648    0.393
       374 -11.2286    165.5909     67.0238   1.9811452056e+01   3.4513500958e+01    0.3283967    0.1480277 -51.29  0.001295494    2.201    0.546
       375 -10.2023     42.2976     68.2423   5.8894141545e+01   6.1758516896e+01    0.1412109    0.1134866 -18.15 0.0001971828    1.480    0.324
       376 -11.7696     10.7948     67.3804   7.6692021959e+01   6.5285866520e+01    0.2565312    0.1456961 -43.35  0.001183538    1.769    0.435
       377 -12.4152     10.3136     62.9646   7.6190554701e+01   6.6482457421e+01    0.3693132    0.2574588   3.92 0.0004573456    1.556    0.357
       378 -11.2460     11.9957     59.5011   7.4434961701e+01   6.7277069059e+01    0.3465028    0.2139932  40.13  0.001269923    1.696    0.411
       379 -10.7352    179.5573     65.9882   1.7451983616e+01   3.1486893208e+01     0.203833    0.1243163 -39.04 0.0003055168    1.494    0.331
       380 -10.5456    188.6444     64.2691   1.5799984457e+01   2.9749159392e+01    0.1420785   0.09123553 -67.78 0.0006994088    1.636    0.389
       381 -10.6889     92.3722     64.1199   3.5911079332e+01   5.2882129686e+01    0.2211751    0.1409421 -57.62 0.0005705784    1.706    0.414
       382 -11.7672     46.3428     62.9302   5.5049010319e+01   6.2460775768e+01    0.2072355    0.1933735 -57.39 0.0004432169    1.073    0.068
       383 -12.3081    109.5386     59.7733   2.9195076153e+01   4.9573547116e+01    0.3624841    0.2277324 -40.89  0.001583948    1.646    0.393
       384 -12.1260     41.7702     59.4855   5.6331197342e+01   6.4003231111e+01    0.3287176    0.3058677  10.29  0.001492932    1.123    0.110
       385 -12.0752     36.3069     55.8909   5.8203183680e+01   6.5663891982e+01    0.6875604    0.2225883 -46.78  0.002261923    3.258    0.693
       386 -11.7477     19.1409     48.8512   6.6887723104e+01   6.9397139484e+01    0.3400961    0.1776863 -55.94 0.0008677079    1.762    0.432
       387 -12.4636     23.7159     55.6608   6.5893647132e+01   6.7253329512e+01     0.449906    0.3459901 -78.29  0.002385455    1.373    0.272
       388 -12.1075     19.9160     53.0302   6.7610491635e+01   6.8288132348e+01    0.2771981    0.2278249  73.83 0.0003228885    1.365    0.267
       389 -11.6366    197.8827     57.8662   1.3095934853e+01   2.8714277477e+01    0.1852346    0.1831362 -46.37 0.0007790352    1.279    0.218
       390 -11.5809    182.6917     58.2272   1.4992053168e+01   3.1976685805e+01    0.2200953    0.1896528  82.50 0.0009152596    1.202    0.168
       391 -12.4137    100.5243     57.6330   3.0980008008e+01   5.2208899843e+01    0.3240234    0.2615008 -60.94 0.0006530106    1.258    0.205
       392 -12.3560    193.4228     55.8675   1.3095488589e+01   2.9957172212e+01    0.3063619    0.2275407 -25.95  0.001699141    1.523    0.343
       393 -10.7284     54.7302     57.0477   4.8618946575e+01   6.2410434491e+01    0.1962145    0.1822476 -66.06 0.0003783382    1.098    0.089
       394 -11.6383     29.5643     56.7914   6.2567018439e+01   6.6316957900e+01    0.2522186     0.178793   3.70 0.0005765167    1.651    0.394
       395 -10.8314    205.2146     54.7576   1.1559675998e+01   2.7621248238e+01    0.1589485    0.1427719 -30.46 0.0003676658    1.296    0.229
       396 -12.4811    115.2186     53.2749   2.5420167113e+01   4.9319187745e+01    0.4226315    0.2393738 -72.87  0.001156329    2.713    0.631
       397 -12.7600    161.7310     51.2927   1.5925802496e+01   3.7925251702e+01    0.4005982    0.2330311 -19.23  0.001665033    2.539    0.606
       398 -11.3526     40.6630     53.2894   5.4716768482e+01   6.5646631967e+01    0.1481917    0.1099019  64.96 0.0002862116    1.637    0.389
       399 -13.2496     30.1391     49.5462   5.9742659231e+01   6.8007622392e+01    0.3957762    0.2981301  88.61   0.00171406    1.652    0.395
       400 -11.2784    107.3029     51.6442   2.6849896952e+01   5.1615075946e+01    0.1632109     0.112818 -73.93 0.0007039194    1.712    0.416
       401 -11.8247    173.3129     49.2643   1.3763994204e+01   3.5458949054e+01    0.3224728    0.2197392 -75.68  0.001660422    1.470    0.320
       402 -11.6048    130.9969     50.5091   2.0951738485e+01   4.5748271774e+01    0.2305408    0.1406565  63.25  0.001027185    1.581    0.368
       403 -12.1242     99.9621     49.9530   2.8244773139e+01   5.3763348273e+01    0.3294764    0.2274909  78.00  0.001345769    1.610    0.379
       404 -11.4806     41.6742     47.5725   5.1864314035e+01   6.6797571069e+01    0.3450516    0.2566233 -81.71  0.001681213    1.742    0.426
       405 -11.8224    120.7162     52.0901   2.3699320770e+01   4.8119573981e+01    0.2563798    0.2276289 -82.17 0.0006963888    1.039    0.038
       406 -11.6631     96.1068     44.3224   2.7135851166e+01   5.5711736903e+01    0.2461762    0.1795656  44.40  0.001167355    1.467    0.318
       407 -11.4166    116.2642     42.5652   2.1268882618e+01   5.0825395722e+01    0.2659833    0.2215095  36.45 0.0007529805    1.465    0.317
       408 -12.2490    119.3988     39.4638   1.9438173240e+01   5.0484933974e+01     0.334663     0.245979 -57.26 0.0009293617    1.342    0.255
       409 -11.4603    142.9802     41.7463   1.5873390685e+01   4.4029008867e+01    0.1933808    0.1182209  69.59 0.0008893101    1.575    0.365
       410 -13.1364     32.9425     40.3605   5.4218467949e+01   6.9736519014e+01    0.6187426    0.1769782  33.58  0.002064422    3.348    0.701
       411 -13.4509     31.2196     32.2246   5.1557878115e+01   7.1731618406e+01    0.4792885    0.3664624 -11.17  0.001979343    1.525    0.344
       412 -12.0408    161.0519     38.4149   1.2212235550e+01   3.9954050910e+01    0.2446458    0.1911499 -43.71 0.0003157216    1.232    0.188
       413 -11.5390     87.7944     38.7750   2.7336934705e+01   5.8720697565e+01    0.2781248      0.19055 -15.71   0.00122014    2.098    0.523
       414 -11.3194     80.1375     35.7235   2.8507166769e+01   6.1105604843e+01    0.2919403    0.1582764 -51.41 0.0009114516    2.104    0.525
       415 -11.8507    106.7807     32.5620   1.9543511630e+01   5.4806188476e+01    0.2831102    0.2231089 -63.90 0.0006806527    1.272    0.214
       416 -11.6854    114.7218    247.5150   6.5358519915e+01   8.9755771239e+00    0.3146997    0.1359797 -48.29  0.001628467    2.807    0.644
       417 -10.8018    160.0063     31.3087   1.0202274318e+01   4.1162269802e+01    0.1936346    0.1603421 -81.06 0.0003623496    1.070    0.065
       418 -10.6246    141.9846     31.0282   1.2492483816e+01   4.5776723051e+01    0.1738025     0.149257 -78.18            0    1.005    0.005
       419 -11.7234      2.0197     30.9642   7.5059947536e+01   7.4937910518e+01    0.1921102    0.1715284 -40.83            0    1.014    0.014
       420 -10.6209     53.2856     34.6506   3.9401310828e+01   6.7336248930e+01    0.1421267    0.1128194 -87.05 0.0004557036    1.656    0.396
       421 -12.2531     84.8462     24.3801   2.1638862264e+01   6.1633704105e+01    0.2943524    0.2031434 -63.31 0.0008060084    1.661    0.398
       422 -11.3758     70.4726     21.0788   2.4638305409e+01   6.5665556164e+01    0.2035428    0.1417862 -33.50  0.001021556    1.561    0.359
       423 -11.3919     60.5206     20.4611   2.8214752721e+01   6.8109321624e+01    0.1402561    0.1284865  50.71 7.562143e-05    1.018    0.018
       424 -11.5494     92.5023     18.0547   1.6589716215e+01   6.0462055539e+01    0.2879706    0.2011922 -57.93  0.001049982    1.521    0.343
       425 -11.9032     80.5200     18.4421   1.9971195032e+01   6.3510166397e+01    0.3348061    0.2160891  65.93 0.0009746851    1.418    0.295
       426 -12.1671     79.1592     14.8392   1.8505569913e+01   6.4292989096e+01     0.252764    0.1821835 -52.89 0.0003836932    1.505    0.336
       427 -12.7370     53.3928    243.0068   7.8603431990e+01   1.6840251348e+01    0.5123139    0.2953964 -27.09  0.002102557    3.307    0.698
       428 -13.2773     49.3775    238.3240   7.9251522939e+01   1.8157335777e+01    0.5059198    0.2691028  55.56  0.002263601    1.708    0.414
       429 -10.9674    162.7666    246.2454   5.5523835198e+01   3.5878855109e+00    0.1973584    0.1084797  27.75 0.0006718818    1.470    0.320
       430 -10.4497    111.3258     11.7209   1.0043150831e+01   5.6170956686e+01    0.1485463   0.09474891 -69.17 0.0002203461    1.592    0.372
       431 -10.4927    181.7738    244.3774   5.1775717898e+01   1.7503343777e+00   0.08757441   0.08327405  28.90 0.0003404289    1.606    0.377
       432 -11.2855    132.7748    244.4066   6.1252677168e+01   7.3212441285e+00    0.1771109   0.09303948  19.77 0.0009613872    1.724    0.420
       433 -11.4042    119.4457    244.4875   6.4048049550e+01   8.8961598028e+00    0.1200349    0.0943366  21.54 9.459711e-05    1.043    0.041
       434 -11.6555     78.0589    243.1768   7.3012552623e+01   1.4031531499e+01    0.1782375    0.1636658  28.35 0.0008013755    1.193    0.162
       435 -11.1170    124.8175    249.9140   6.3487126294e+01   7.4155670521e+00    0.1726253    0.1326346   2.92  0.000725585    1.295    0.228
