#   1 NUMBER                 Running object number                                     
#   2 MAG_AUTO               Kron-like elliptical aperture magnitude                    [mag]
#   3 X_IMAGE                Object position along x                                    [pixel]
#   4 Y_IMAGE                Object position along y                                    [pixel]
#   5 X_WORLD                Barycenter position along world x axis                     [deg]
#   6 Y_WORLD                Barycenter position along world y axis                     [deg]
#   7 A_WORLD                Profile RMS along major axis (world units)                 [deg]
#   8 B_WORLD                Profile RMS along minor axis (world units)                 [deg]
#   9 THETA_WORLD            Position angle (CCW/world-x)                               [deg]
#  10 FWHM_WORLD             FWHM assuming a gaussian core                              [deg]
#  11 ELONGATION             A_IMAGE/B_IMAGE                                           
#  12 ELLIPTICITY            1 - B_IMAGE/A_IMAGE                                       
         1  -8.3971     55.9195      9.9368   4.9804007927e+01   7.0157501296e+01    0.2074951    0.1698511 -70.85 0.0006457822    1.652    0.395
         2  -7.8926     47.6155      9.7810   5.4025385991e+01   7.1902944950e+01    0.1887718    0.1231415 -43.72 0.0006133672    1.686    0.407
         3  -8.1835     13.2261      8.9498   7.9767591688e+01   7.7279202757e+01    0.1679123   0.09785502 -55.40 0.0005316949    1.632    0.387
         4  -7.6469    101.2530      7.9690   3.3744852750e+01   5.9225950167e+01     0.175689    0.1248399 -23.48 0.0005967088    1.494    0.331
         5  -8.6413     33.0667      4.2849   5.9318096783e+01   7.5458960354e+01    0.2988926    0.1755784 -53.95  0.001373411    2.439    0.590
         6  -8.5668     79.0778      3.6086   3.7009543734e+01   6.5439452840e+01    0.2744335    0.1791926 -40.99  0.001025604    1.668    0.400
         7  -8.3966     90.9616      8.9318   3.6683306959e+01   6.1835994526e+01    0.2319627    0.1659639 -64.31 0.0008351582    1.675    0.403
         8  -8.0808    192.8359      1.7945   2.0386807476e+01   3.5789076714e+01    0.1777923    0.1705635  58.12 0.0005512352    1.226    0.184
         9  -8.0470     62.5222      1.4187   4.1214654263e+01   6.9721135370e+01    0.1355302    0.1271095  43.06 0.0001692981    1.056    0.053
        10  -7.3189     39.6720      1.3169   5.2492822857e+01   7.4688219460e+01    0.1255845     0.107273 -74.34 0.0007045746    1.678    0.404
        11  -8.8118    242.8283    246.9651   6.5971600363e+01  -2.3246785554e+00    0.1577578    0.1039652 -14.34  0.001311831    1.391    0.281
        12  -8.5932    248.8654    249.1727   6.5380529975e+01  -3.0947269933e+00     0.246877    0.1078907 -15.32  0.001623163    2.217    0.549
        13  -9.5362    248.7470    242.0148   6.4437592989e+01  -2.4651644007e+00     0.277431    0.1465376 -29.80  0.001366239    2.053    0.513
        14 -10.2149    189.8478    249.6303   7.4779075230e+01   2.9802080187e+00    0.2058553    0.1366219  19.96 0.0004428872    1.078    0.072
        15  -7.6656     86.4261    250.4730   9.4349382214e+01   1.4851143615e+01    0.1112391   0.07950484  37.32 0.0001843621    1.041    0.039
        16  -7.6397     25.6954    250.6529   1.0640794949e+02   2.0994611760e+01   0.08818989   0.07623264  -9.15 0.0007041383    1.695    0.410
        17  -9.9709    223.9245    243.9496   6.8453073812e+01  -1.4004976496e-01    0.3379397    0.1829208 -37.91  0.002303379    2.540    0.606
        18  -9.0967    210.9365    246.3293   7.0841225242e+01   1.0056058182e+00    0.1707233    0.1387659 -34.52 0.0008743246    1.959    0.489
        19  -9.5010    147.5284    245.9725   8.1986631841e+01   8.3222906746e+00    0.2922461    0.1686363  51.31  0.001707814    2.499    0.600
        20  -8.6179     63.9679    248.0000   9.8691943042e+01   1.7664460164e+01    0.1869391   0.04664863  29.44 0.0008041192    2.954    0.661
        21  -8.8398     13.0190    247.2217   1.0877996898e+02   2.2648526269e+01    0.1401161   0.06365081  29.86 0.0008773086    1.684    0.406
        22  -8.6769     67.5306    244.9331   9.7786730739e+01   1.7762136362e+01    0.1329544    0.1073326 -83.83  0.001023953    1.571    0.363
        23  -8.5596    139.4389    244.2001   8.3338657517e+01   9.5212245573e+00    0.1200093    0.1093745  86.95 0.0009424969    1.699    0.411
        24  -9.1192     77.9415    243.1454   9.5543009097e+01   1.6901926687e+01    0.2518526   0.09814659  53.61  0.001228792    2.852    0.649
        25  -9.4017    120.0772    244.9723   8.7193644382e+01   1.1741519391e+01    0.3073428    0.1866809  59.36  0.001542292    2.408    0.585
        26  -8.3520    201.9673    243.0171   7.1895059214e+01   2.3256724122e+00    0.1352471     0.115202  28.91 0.0005030407    1.654    0.395
        27  -9.1673    169.0987    242.5789   7.7592151483e+01   6.1665611041e+00    0.2093875    0.1438881 -19.90 0.0007272154    1.608    0.378
        28  -9.2177    194.3385    240.1131   7.2814533213e+01   3.4982733347e+00     0.264912    0.1762481 -44.94   0.00127412    2.353    0.575
        29  -9.2671    183.0324    239.9510   7.4765677226e+01   4.8278138092e+00    0.3022915    0.2121065  48.46  0.001879973    2.227    0.551
        30  -8.1795    153.5895    241.7960   8.0376490886e+01   8.1220314126e+00    0.1177017    0.1100977 -64.52 0.0009406983    1.685    0.407
        31  -8.3345     87.9615    242.1028   9.3414527104e+01   1.5930831033e+01    0.1708051    0.1155742  46.65  0.000653943    1.281    0.220
        32  -7.6197     49.4691    242.4716   1.0133516253e+02   2.0037253854e+01    0.1137248   0.07728481  44.26  7.97133e-05    1.082    0.076
        33  -8.9688    241.0303    238.8778   6.5146724216e+01  -1.4217421527e+00    0.3057932    0.1190794 -15.50  0.001620699    3.221    0.690
        34  -8.2339    214.4404    240.4997   6.9508703492e+01   1.2103826452e+00    0.1056692   0.07209021   9.66 8.735491e-05    1.028    0.027
        35  -8.8073    146.4580    239.5586   8.1480835939e+01   9.2774220786e+00    0.1888428    0.1375582  58.73 0.0007921818    2.112    0.527
        36  -9.4145    135.7952    238.7696   8.3465645073e+01   1.0690625643e+01    0.2930838    0.1489209  42.44  0.001255036    1.826    0.452
        37  -8.0215     41.2189    239.2279   1.0287308135e+02   2.1388611382e+01    0.1505587   0.07294468  78.26 0.0006727571    2.445    0.591
        38  -7.8017      1.6556    239.3187   1.1084583463e+02   2.4874759558e+01    0.1174475   0.04487649  49.79 0.0007049236    1.723    0.420
        39  -8.7942    230.7147    236.6846   6.6413705230e+01  -1.5507630500e-01     0.180369    0.1677296 -13.23  0.001256636    2.022    0.505
        40  -7.7365    209.0241    238.2654   7.0097396170e+01   2.0352784535e+00      0.12007    0.1086813  -1.74 0.0007257342    1.646    0.392
        41  -7.9622    128.7709    238.0289   8.4775110091e+01   1.1656231196e+01    0.1196553   0.09651908 -48.07 0.0008078375    1.645    0.392
        42  -8.6993     26.0298    237.0314   1.0590312243e+02   2.3189951459e+01    0.2925877   0.07545875  51.08  0.001415671    2.717    0.632
        43  -8.8151    217.0161    235.5129   6.8419807964e+01   1.4339887437e+00    0.1721989     0.122179  27.23 0.0008176124    1.435    0.303
        44  -9.4912    213.6673    231.6480   6.8434065577e+01   2.2067163569e+00    0.2511219    0.2048678  44.49  0.001269097    2.157    0.536
        45  -8.9069    203.1361    234.1387   7.0527181905e+01   3.1390605564e+00    0.2672893     0.160526 -39.19  0.001150357    2.198    0.545
        46  -9.7866    175.7726    233.3151   7.5226333888e+01   6.4765728810e+00    0.3502282    0.2017803 -50.97  0.002105433    2.832    0.647
        47  -9.3413     78.7150    234.5462   9.4760779914e+01   1.8174969303e+01     0.220799    0.1647497 -87.34  0.001393436    1.708    0.415
        48  -7.9918     58.1650    236.7968   9.9230335559e+01   2.0066165177e+01    0.2641394   0.03685995  34.25  0.001026582    3.427    0.708
        49  -8.7973    248.0014    234.3404   6.3487077862e+01  -1.7070789133e+00    0.2130437    0.1144641 -20.47 0.0008337185    1.641    0.391
        50  -9.3544    246.5430    228.6970   6.2902081876e+01  -1.0401355228e+00    0.3282812    0.1421021 -26.37  0.001819266    2.131    0.531
        51  -8.5080    170.3725    235.3115   7.6469162004e+01   6.8911019195e+00     0.119944    0.1047892 -33.48 0.0005025581    1.572    0.364
        52  -9.4815    109.0534    234.3883   8.8407395158e+01   1.4605535997e+01    0.4348032    0.1736173  45.52  0.001963588    2.378    0.579
        53  -8.5168    122.9199    233.7729   8.5506371808e+01   1.2986945962e+01     0.197744    0.1345548  63.92  0.001078042    2.181    0.541
        54  -8.4629     99.6174    233.9288   9.0322785158e+01   1.5819975785e+01    0.1946488    0.1379433  72.99  0.001272237    1.909    0.476
        55 -10.0601     68.5264    231.7342   9.6719727612e+01   1.9783098142e+01    0.5167103    0.2080553  60.87  0.002344522    3.398    0.706
        56  -8.3949    144.9670    233.0154   8.1021780129e+01   1.0335381505e+01    0.2274864     0.139029  55.11  0.001277457    2.549    0.608
        57  -8.6506    140.1116    230.0075   8.1631354508e+01   1.1363339045e+01    0.2260666    0.1371848  51.77  0.001029418    2.155    0.536
        58  -8.5532    132.9227    232.9158   8.3396662145e+01   1.1860577246e+01    0.1767734     0.117725  49.99 0.0009612209    1.733    0.423
        59  -9.5311    186.4337    230.3972   7.2922294388e+01   5.5310807142e+00    0.2473287    0.2182931 -77.78  0.001429353    2.418    0.586
        60  -8.3699     92.3659    231.6438   9.1644633787e+01   1.7047945377e+01    0.2407357    0.1229183  59.60 0.0008153989    2.597    0.615
        61  -8.8799    236.0408    230.3819   6.4715878968e+01  -1.0852647606e-01    0.2008325    0.1197428 -20.97 0.0008729974    1.546    0.353
        62  -8.9304    156.0318    248.2017   8.0641866819e+01   7.0367640077e+00     0.165105    0.1489228   8.10 0.0005674285    1.341    0.254
        63  -9.0128      1.5825    230.6662   1.1072233493e+02   2.6352359851e+01    0.1807133   0.09996878  66.90   0.00124055    1.533    0.348
        64  -9.0703    151.4981    228.9999   7.9266740954e+01   1.0055705906e+01    0.2187865    0.1659707  52.76  0.001246292    1.783    0.439
        65  -9.5948    148.6656    224.4793   7.9267216860e+01   1.1040677812e+01    0.3310998    0.2286005  58.82  0.001973167    2.309    0.567
        66  -8.4840    229.8459    228.6967   6.5432105710e+01   7.1953904588e-01    0.1644558    0.1084606 -31.38  0.001039385    1.836    0.455
        67  -9.0843    162.4011    227.7188   7.7004132885e+01   8.8429284551e+00    0.2571749    0.1632648  46.68  0.001254381    1.950    0.487
        68  -8.8808    127.8766    227.0379   8.3767360641e+01   1.3350797217e+01    0.2512335    0.1559838  52.67  0.001294451    1.966    0.491
        69  -8.1401    120.1836    227.1913   8.5372855375e+01   1.4307950586e+01    0.1586919    0.1166822  46.64 0.0005173038    1.369    0.269
        70  -8.2811     49.5951    226.7458   1.0047923844e+02   2.2668823274e+01    0.2405258   0.09742125  64.46  0.001152329    2.944    0.660
        71  -8.5269     13.0625    237.5448   1.0854679937e+02   2.4240449194e+01    0.1688511   0.03197466  43.38 0.0008086325    2.571    0.611
        72  -7.7609    223.2982    226.6832   6.6178069612e+01   1.6437821622e+00   0.08800443    0.0760009  18.42 0.0002633431    1.612    0.380
        73  -8.7367    206.0569    225.8674   6.8893801362e+01   3.7069794246e+00    0.1749784      0.13287 -11.45 0.0006323917    1.279    0.218
        74  -8.1158    200.0304    226.0065   6.9940896607e+01   4.4052527358e+00    0.1419872    0.1243191  30.68 0.0006540159    1.622    0.383
        75  -8.9641     94.1744    224.0098   9.0577698864e+01   1.8066592117e+01    0.3359972    0.1593406  55.42  0.001647735    2.607    0.616
        76  -8.7604     77.4353    223.7793   9.4204666163e+01   2.0110488655e+01    0.2364945    0.1193039  59.05  0.001243262    2.281    0.562
        77  -8.5107    180.3685    224.0232   7.3158017883e+01   7.0482830649e+00    0.1802385     0.133021  37.90 0.0005984469    1.519    0.342
        78  -9.0226    104.7195    223.3772   8.8243668416e+01   1.6860073087e+01    0.2865777    0.1711709  61.22  0.001564994    2.242    0.554
        79  -8.6661    194.2704    232.3648   7.1807071765e+01   4.3677184284e+00    0.1630601    0.1304583  -1.50 0.0006517264    1.223    0.182
        80  -7.8359     38.2802    224.6276   1.0282158972e+02   2.4182989588e+01    0.1222563   0.06011905  54.49 0.0007011641    1.698    0.411
        81  -8.7459    173.0000    222.6273   7.4332650879e+01   8.1562142236e+00    0.1724811    0.1625726 -43.72 0.0007651922    1.620    0.383
        82  -9.2475    158.8977    220.1585   7.6700408732e+01   1.0307111059e+01    0.2133901    0.1527284  46.42  0.000860695    1.676    0.403
        83  -7.8668    113.5490    223.5585   8.6378752311e+01   1.5712924587e+01    0.1199867   0.09231332  32.91 0.0001120409    1.033    0.032
        84  -8.9695    238.9648    221.1542   6.2939200857e+01   4.8233655021e-01    0.2287215    0.1247951 -25.30   0.00121952    1.712    0.416
        85  -9.3080    225.5618    221.6019   6.5084158301e+01   1.9172128235e+00    0.1976255    0.1619182  16.26  0.001069399    1.427    0.299
        86  -9.1850    192.3416    221.0907   7.0593490459e+01   5.9136652622e+00    0.2145661    0.1987675  54.68  0.001011373    1.892    0.471
        87  -8.0599    140.2679    222.4334   8.0700093991e+01   1.2424406130e+01    0.1622183   0.08813601  38.38 0.0003756588    1.557    0.358
        88  -8.8113      8.7629    222.3997   1.0907341976e+02   2.7238809339e+01    0.1418486   0.09141555  19.72 0.0009473056    1.639    0.390
        89  -9.1727    120.7056    219.2440   8.4387961709e+01   1.5467140287e+01    0.4422717     0.216731  55.36  0.001986661    3.240    0.691
        90  -8.8431     83.0232    220.4345   9.2698217671e+01   2.0021652411e+01    0.2864704    0.1591585  60.03  0.001575392    2.083    0.520
        91  -8.7673    216.4810    223.1632   6.6774890200e+01   2.7880917042e+00    0.1901802    0.1636821 -37.37  0.000987819    1.948    0.487
        92  -8.0569     27.5274    220.9574   1.0499911465e+02   2.5866756752e+01    0.1475782    0.1024947 -89.33  0.001022013    1.571    0.364
        93  -7.8404    202.5365    219.9906   6.8656368422e+01   4.7927899739e+00    0.1439254   0.09661031 -23.68 0.0004816033    1.509    0.337
        94  -8.2831    210.0482    219.0177   6.7239493998e+01   3.9991202422e+00    0.1386998    0.1248793  20.06 0.0004619532    1.597    0.374
        95  -8.5838    149.5019    218.9720   7.8404586713e+01   1.1709450283e+01    0.2283921    0.1364993  18.96 0.0007981422    1.539    0.350
        96  -8.4762    249.0867    218.0784   6.0978018112e+01  -2.9665107925e-01    0.1859285    0.1302785  43.27  0.001296177    2.576    0.612
        97  -9.3422    133.1283    215.9300   8.1376152743e+01   1.4339152480e+01    0.4290667    0.2572494  64.22  0.002021532    3.406    0.706
        98  -8.5491     62.5428    217.4988   9.7035730204e+01   2.2915743175e+01    0.3311396    0.1115898  50.64   0.00146064    2.787    0.641
        99  -8.9785     51.5142    217.1208   9.9490275177e+01   2.4185795842e+01    0.2341189    0.1566762  85.96 0.0008514053    1.679    0.405
       100  -8.5428    179.1870    217.2163   7.2432997395e+01   8.0579348301e+00    0.1434639    0.1234087  30.13 0.0005647358    1.387    0.279
       101  -8.7667    169.4312    216.1026   7.4115419345e+01   9.4753454930e+00    0.2113625    0.1887928  74.95  0.001123392    1.927    0.481
       102  -8.6516    142.8340    216.1924   7.9398995135e+01   1.3001047158e+01    0.2067072    0.1732157 -83.84 0.0008539056    1.912    0.477
       103  -8.2169     18.5203    216.0539   1.0679197755e+02   2.7576107254e+01    0.1570955   0.09835725  83.42  0.001036663    1.616    0.381
       104  -8.7314    232.3863    214.3951   6.2941327510e+01   1.8980170786e+00    0.1800193    0.1599271   2.58  0.000857877    1.603    0.376
       105  -9.3102    214.1428    212.0899   6.5526128904e+01   4.2892793830e+00    0.3083281    0.2287286  44.29  0.001606127    2.049    0.512
       106  -9.2897     92.9877    213.5919   8.9847744107e+01   1.9977411393e+01    0.3276778    0.1520461  50.20  0.001611666    2.199    0.545
       107  -9.3874     73.2886    211.8268   9.4157867901e+01   2.2705637274e+01    0.5919888    0.1876608  52.60  0.002208476    3.916    0.745
       108  -8.2969    185.6702    214.1453   7.0800377253e+01   7.6130482043e+00     0.150426    0.1391647 -11.61 0.0007995508    1.447    0.309
       109  -8.9114    161.5454    211.9791   7.5073434510e+01   1.1092901337e+01    0.2076858    0.1616794  44.42 0.0009364543    1.516    0.341
       110  -7.7364    106.5018    212.5015   8.6719552391e+01   1.8426222595e+01     0.124824   0.09748986  37.99 0.0008094788    1.078    0.073
       111  -9.2800      5.6160    207.3071   1.0940446158e+02   3.0298424317e+01    0.3520461    0.1062642  71.96  0.001585456    3.235    0.691
       112  -8.8597    204.1885    210.6846   6.6999078171e+01   5.6801786550e+00    0.1787868    0.1702443 -24.49 0.0007491088    1.700    0.412
       113  -9.3040    175.5410    209.8483   7.2062523256e+01   9.5053325344e+00    0.2665088    0.2152395  59.44  0.001133887    2.066    0.516
       114  -8.6870    148.0252    210.2307   7.7551991755e+01   1.3185549882e+01     0.239385    0.1857009  71.45  0.001115296    2.189    0.543
       115  -9.0298    116.2255    210.1645   8.4308793663e+01   1.7528359280e+01    0.2943095    0.1995031  58.77  0.001046317    1.832    0.454
       116  -8.3288    192.2453    210.0657   6.9008573569e+01   7.2776625689e+00    0.1442592    0.1344863 -63.76 0.0005185041    1.913    0.477
       117  -8.3942     46.8141    209.6776   1.0010387857e+02   2.6065225186e+01    0.2429273    0.1120214  61.38  0.001239262    2.208    0.547
       118  -8.4664     32.8048    210.2296   1.0335464131e+02   2.7364774926e+01    0.2153316   0.06432286  52.52 0.0009472694    2.761    0.638
       119  -9.1537    236.5427    208.0496   6.1329570611e+01   2.0899831809e+00     0.222334    0.1600255 -18.67   0.00109608    1.343    0.255
       120  -8.5442    154.3351    214.9865   7.6914531647e+01   1.1635666931e+01    0.1570115    0.1349893  18.36 0.0005734321    1.137    0.121
       121  -8.4519     85.5495    209.0669   9.1097237256e+01   2.1712854663e+01    0.2184174    0.1414335  73.75  0.001133437    1.998    0.499
       122  -9.4816    245.4441    192.9104   5.7578944207e+01   2.6657181624e+00    0.1964004    0.1601254 -29.89  0.000637002    1.694    0.410
       123  -9.4535    250.0016    201.4140   5.8283034190e+01   1.2572179556e+00    0.4084002    0.1613928 -33.64  0.002337739    2.498    0.600
       124  -8.1844    156.5529    207.7815   7.5480870617e+01   1.2376109969e+01    0.1385219    0.1195383 -61.17 0.0009333975    1.709    0.415
       125  -8.4576    139.0644    207.6064   7.9064169829e+01   1.4820335029e+01    0.1970481    0.1714216 -89.69 0.0008868393    1.704    0.413
       126  -8.1657    126.4218    208.2578   8.1851975743e+01   1.6458304639e+01    0.1394869    0.1217251 -81.83 0.0004833019    1.575    0.365
       127  -9.1781     99.5548    206.0250   8.7576210559e+01   2.0459162456e+01    0.3345725    0.1884294  59.93  0.001262473    2.317    0.568
       128  -8.4351     11.5942    206.7709   1.0804711493e+02   2.9920606265e+01     0.154319   0.08537681  70.79 0.0009435757    1.622    0.383
       129  -9.5135    194.9631    203.3342   6.7496605999e+01   7.7733346198e+00    0.3364684    0.2551949 -35.42  0.001317647    1.603    0.376
       130  -9.1953    192.2628    197.0620   6.6998760900e+01   8.9492852248e+00    0.2611337    0.2030386 -38.58 0.0009549189    1.623    0.384
       131  -8.5981    131.3788    203.9644   8.0225537428e+01   1.6470687609e+01    0.2519628    0.1791719  61.94  0.001186118    1.975    0.494
       132  -8.2172    109.0462    204.7863   8.5278491368e+01   1.9410193439e+01    0.1946958    0.1564629  81.03 0.0006935112    1.632    0.387
       133  -8.5064     56.2176    204.9127   9.7589215161e+01   2.5961832812e+01    0.2481554    0.1346868  58.15   0.00102094    1.776    0.437
       134  -8.8874    183.7164    203.7327   6.9613636008e+01   9.2251303161e+00    0.2323294    0.1800181  44.28  0.001030406    1.658    0.397
       135  -9.6872    163.9001    202.8728   7.3302324958e+01   1.2071845735e+01    0.3937256    0.2270236  47.76  0.001155696    2.162    0.537
       136  -7.6699     92.3348    204.6861   8.9094074598e+01   2.1641996535e+01    0.1309367   0.07907468  53.35 0.0007046253    1.687    0.407
       137  -9.0772    243.2317    200.5349   5.9138089506e+01   2.1138736305e+00    0.2337367    0.1392267 -32.76 0.0009554838    1.828    0.453
       138  -8.3944    210.9144    201.8677   6.4487910933e+01   5.8830205862e+00    0.1460104    0.1362685  29.97 0.0006112703    1.671    0.401
       139  -8.9971    140.6427    201.0338   7.7834961393e+01   1.5637028743e+01    0.3146436    0.2157552  61.87  0.001336222    2.264    0.558
       140  -8.6780     79.8549    200.9019   9.1641342601e+01   2.3934062399e+01    0.3398125    0.1535165  56.99  0.001153406    2.717    0.632
       141  -8.0561     48.7375    202.1577   9.9171846444e+01   2.7310644790e+01    0.2204725   0.08037921  55.77 0.0009489097    2.779    0.640
       142  -8.1357    222.1716    201.1955   6.2517077316e+01   4.5499422987e+00    0.1365727    0.1181851  -8.47 0.0005879456    1.404    0.288
       143  -9.4156    149.6168    198.1508   7.5525335097e+01   1.4809547106e+01    0.3982641    0.2929675 -61.82  0.001778959    2.015    0.504
       144  -8.6743    124.0606    199.0711   8.1190247322e+01   1.8316175852e+01    0.2759325    0.2001375  71.68  0.001185121    2.076    0.518
       145  -9.3742    112.8703    198.3698   8.3631444586e+01   2.0010877334e+01    0.4075781    0.2178277  55.49  0.001913853    2.459    0.593
       146  -9.2857    237.0982    198.2855   5.9702700123e+01   3.0693440715e+00    0.2139704    0.1305377 -29.18 0.0008527155    1.625    0.384
       147  -8.6154    176.8526    198.5675   7.0117883398e+01   1.0874578878e+01     0.191541    0.1605717 -55.40 0.0006543927    1.823    0.451
       148  -8.9997     88.9389    198.3754   8.9224669583e+01   2.3248914266e+01    0.3277809    0.1832419  57.61  0.001628627    2.046    0.511
       149  -8.2202    202.4616    197.9141   6.5313963240e+01   7.4673252969e+00    0.1570611    0.1035457 -28.75  0.001009089    1.538    0.350
       150  -9.2063     61.6302    196.9167   9.5671619115e+01   2.6907579196e+01    0.4623901     0.194952  55.38  0.001490551    2.491    0.599
       151  -9.4420     13.0036    197.4598   1.0743461035e+02   3.1635494782e+01    0.3269489   0.09996334  57.78  0.001479055    2.702    0.630
       152  -8.8007    215.9005    195.3117   6.2599280315e+01   6.0302491414e+00    0.2108775    0.1495464 -40.97  0.001024707    1.925    0.481
       153  -8.1429    133.0112    195.9496   7.8779837321e+01   1.7563379354e+01     0.186514    0.1407861  56.01 0.0006426054    1.612    0.380
       154  -8.2613     53.6849    196.3514   9.7565998867e+01   2.7921458207e+01    0.2089784    0.1073967  53.14  0.001072645    1.750    0.429
       155  -7.9225     36.3267    196.6382   1.0181434511e+02   2.9685947795e+01    0.1365605   0.06590035  54.78 0.0007041066    1.792    0.442
       156  -8.8072    224.6433    193.5559   6.0883192516e+01   5.1234238156e+00    0.2900055    0.1267909 -37.87  0.001559046    2.526    0.604
       157  -7.4659    209.3031    195.6264   6.3762162939e+01   6.8499110355e+00    0.0950302   0.09480713  34.06 0.0007030288    1.758    0.431
       158  -8.9770    185.2758    194.5753   6.7891216690e+01   1.0249610781e+01    0.2015366    0.1945186  -5.13 0.0006446939    1.447    0.309
       159  -9.2202    160.8014    194.0299   7.2593157192e+01   1.3827780332e+01    0.2935638    0.2092964  59.48  0.001114456    2.235    0.553
       160  -8.2060    231.1221    194.1699   5.9957617762e+01   4.2464425884e+00    0.1379369    0.1177094  -2.85 0.0005373867    1.345    0.257
       161  -8.7439     77.1237    193.7763   9.1599206409e+01   2.5650758318e+01    0.2570218    0.1724453  53.26 0.0006376713    1.395    0.283
       162  -8.8348     44.0082    193.2757   9.9725477436e+01   2.9586522857e+01    0.4144607    0.1516655  55.43  0.001796828    2.681    0.627
       163  -8.1951    198.9356    191.8621   6.4955060424e+01   8.7193255605e+00    0.1531153    0.1451296  44.37 0.0006466666    1.640    0.390
       164  -8.1669    179.2536    191.4279   6.8526635621e+01   1.1543001865e+01     0.171701    0.1511757 -58.29 0.0006933527    1.748    0.428
       165  -8.2924    172.7932    191.7216   6.9828867496e+01   1.2431667078e+01    0.1909595    0.1664656 -88.62  0.001200229    2.018    0.504
       166  -7.8455    204.8448    191.5668   6.3865914815e+01   7.9528750493e+00    0.1487402   0.09955952  38.06 0.0006308123    1.611    0.379
       167  -9.0311    139.4627    190.2691   7.6540725160e+01   1.7570888094e+01    0.3027748     0.221007  65.01  0.001307016    2.053    0.513
       168 -10.4280     92.5594    188.8058   8.7276822698e+01   2.4595807844e+01    0.9779628    0.1967375  41.81  0.003137017    4.015    0.751
       169  -7.9499     29.2994    196.9661   1.0353019826e+02   3.0297574730e+01    0.1923006   0.06175774  70.59 0.0007032469    4.153    0.759
       170  -8.9704    216.6703    187.8958   6.1243432955e+01   6.8297740728e+00    0.2263176    0.1792335 -36.95 0.0008794185    1.662    0.398
       171  -8.8070    191.6057    187.4851   6.5556224383e+01   1.0328822616e+01    0.2400269    0.2029665 -70.49  0.001110321    2.243    0.554
       172  -8.4121    148.5079    189.1211   7.4405767861e+01   1.6413380064e+01    0.1944639    0.1612597  45.03  0.001224048    1.333    0.250
       173  -8.9032    129.2730    188.4518   7.8547341894e+01   1.9396133370e+01    0.2465005    0.1979351  61.56 0.0007343842    1.548    0.354
       174  -9.0768     13.0018    188.3108   1.0712325926e+02   3.3503935865e+01    0.2933213    0.1356278  81.25  0.001414672    2.114    0.527
       175  -9.4320    246.4393    206.9657   5.9674893348e+01   1.0881512971e+00    0.2331453    0.1433843 -22.79  0.001027879    1.463    0.316
       176  -8.1752    237.0818    188.3432   5.8074221190e+01   4.1697666428e+00    0.1507941    0.1142966   4.98 0.0004958613    1.077    0.071
       177  -9.3020    155.9519    187.2568   7.2536653240e+01   1.5598938692e+01    0.2662871    0.2209039 -60.49 0.0009290138    1.691    0.409
       178  -9.5957    120.7056    186.0086   8.0167463784e+01   2.1103910485e+01    0.4106226    0.2656354 -82.71  0.001949725    2.796    0.642
       179  -9.0469     54.8161    186.8061   9.6532110256e+01   2.9742566529e+01    0.3845998    0.1881525  64.79  0.001554355    2.339    0.572
       180  -8.5940     34.1559    187.8031   1.0183696071e+02   3.1715720718e+01    0.2893527    0.1316878  59.56   0.00134513    2.063    0.515
       181  -8.0103    230.5734    186.8498   5.8827221925e+01   5.1528697108e+00    0.1448939   0.09411824 -34.72 0.0009396677    1.726    0.421
       182  -8.6318    164.9896    186.6822   7.0577422122e+01   1.4335265747e+01     0.224006    0.1913255  80.89 0.0009216674    1.957    0.489
       183  -9.2127    109.6399    185.9565   8.2777085202e+01   2.2736568556e+01    0.3497863    0.2103997  60.22  0.001164427    2.220    0.549
       184  -9.2179    249.3914    185.5181   5.5779583769e+01   2.9937248060e+00    0.1989312    0.1574573 -23.51 0.0009362407    1.464    0.317
       185  -8.6522    202.8164    184.5409   6.3042360980e+01   9.1426363440e+00    0.1941911    0.1526623 -45.36 0.0008310738    1.805    0.446
       186  -8.9746    183.0033    184.5818   6.6679832822e+01   1.1978490831e+01    0.2421918     0.200218 -50.36 0.0009631583    1.713    0.416
       187  -9.0611     66.8738    184.3609   9.3234604856e+01   2.8828038816e+01    0.3994441    0.1825221  53.19  0.001267925    2.212    0.548
       188  -8.5108    210.0840    184.0328   6.1696318378e+01   8.2014380705e+00    0.1780155    0.1401061  -0.54 0.0004428831    1.040    0.039
       189  -8.3026    197.1823    183.5516   6.3876531883e+01   1.0070600342e+01    0.1869211    0.1388721 -54.99 0.0006826681    2.274    0.560
       190  -8.9186    174.2586    183.3479   6.8169005239e+01   1.3455190127e+01    0.2386442    0.2081939 -52.39 0.0008040825    1.596    0.374
       191  -8.4157    224.0603    183.3236   5.9260203148e+01   6.4107696867e+00    0.1565944    0.1233264   6.58 0.0005712987    1.084    0.078
       192  -8.9279     44.4160    182.2214   9.8843867579e+01   3.1851577097e+01    0.3445006    0.1650176  57.39 0.0009802164    2.002    0.501
       193  -8.1019      1.9458    183.5142   1.0969537983e+02   3.5356477534e+01    0.1729005   0.09566794  31.06  0.001019493    1.571    0.364
       194  -8.2400    242.3325    182.6503   5.6325484460e+01   4.1611955343e+00   0.09471549   0.08520214 -33.59 0.0007047926    1.774    0.436
       195  -9.3090    147.7153    180.5911   7.3229273016e+01   1.7947660569e+01    0.2988278    0.2516443  72.88  0.001095345    1.717    0.418
       196  -9.4591     25.3424    178.3429   1.0355998206e+02   3.4564176306e+01    0.6434014    0.1915311  69.21  0.002159612    4.682    0.786
       197  -8.7009    137.6192    179.0019   7.5218021098e+01   1.9788788254e+01    0.2631763    0.2019463  64.36  0.001165257    1.782    0.439
       198  -9.4113    191.6111    178.1923   6.3966718513e+01   1.1621078319e+01    0.2469392    0.2289896  49.07 0.0005723762    1.548    0.354
       199  -8.1587    169.3300    178.4771   6.8328798025e+01   1.4946519433e+01    0.1883175    0.1599982 -65.27 0.0007990151    1.784    0.439
       200  -9.0242     35.7523    176.1524   1.0068702063e+02   3.4055152293e+01    0.5863753    0.1930463  72.10  0.001853141    5.199    0.808
       201  -8.4333    250.5321    172.5023   5.3386767808e+01   4.2797868587e+00    0.1741226    0.1103541 -28.30 9.164021e-05    1.456    0.313
       202  -9.3561    248.9908    177.1611   5.4415399041e+01   3.9533337374e+00    0.2715291    0.1892449 -25.42  0.001091805    1.369    0.270
       203  -8.7286    247.4659    173.5164   5.4000387955e+01   4.5478034021e+00    0.1651412    0.1290767  16.54 0.0006066026    1.266    0.210
       204  -9.0225    205.0374    177.3657   6.1409779333e+01   9.7799371362e+00    0.2390051    0.1552182 -38.43 0.0007721432    1.728    0.421
       205  -8.7889    129.3161    177.0170   7.6812449271e+01   2.1437024437e+01    0.2933629     0.217838  82.22 0.0009733942    2.162    0.538
       206  -8.6481    231.1157    176.5447   5.6970760714e+01   6.2955377352e+00    0.2351122    0.1296606 -32.95  0.001113896    1.757    0.431
       207  -8.4638    217.5777    176.9161   5.9202428300e+01   8.0752416629e+00     0.194506    0.1299218 -38.05 0.0007331451    1.732    0.423
       208  -8.0557     97.4820    177.4228   8.4622155524e+01   2.6157595165e+01    0.1334175    0.1161303  30.60 0.0001572617    1.064    0.060
       209  -9.1782     89.2231    176.6979   8.6631797962e+01   2.7478557035e+01    0.2837949    0.1823531  58.44 0.0008290596    1.697    0.411
       210  -9.9364     57.5612    173.2918   9.4607602464e+01   3.2311724017e+01    0.8170536    0.3294159  69.29  0.002691994    4.602    0.783
       211  -7.7331    211.7552    176.0180   6.0016968558e+01   9.0026617498e+00    0.1452993   0.08989809 -28.39 0.0004021712    1.528    0.346
       212  -8.9254    182.9139    175.7376   6.5174154831e+01   1.3281141292e+01    0.2148655    0.1738429 -34.48 0.0006223638    1.386    0.279
       213  -9.1699    158.6093    174.7230   6.9904338208e+01   1.7220521858e+01    0.2968029    0.2323899  75.83  0.001003696    2.211    0.548
       214  -9.2340    104.3475    174.5798   8.2500545122e+01   2.5720984527e+01    0.5168285    0.2390807  54.98    0.0018199    3.051    0.672
       215  -8.5932     12.9536    176.2236   1.0668350372e+02   3.6079469991e+01    0.2761048    0.1273676  51.64  0.001314418    1.741    0.426
       216 -10.7142     75.8678    169.8064   8.9291878541e+01   3.0764548061e+01     1.132849    0.4767056 -80.89   0.00392452    4.269    0.766
       217  -8.5601    224.4720    174.0735   5.7580134631e+01   7.4856365253e+00     0.165615   0.09941814 -28.34 0.0004589207    1.532    0.347
       218  -9.5992    175.9418    172.0359   6.5877540594e+01   1.4917299776e+01    0.3007718    0.2139997 -36.05  0.001056538    1.490    0.329
       219  -8.4640    143.1402    172.6211   7.2925692734e+01   2.0043187671e+01    0.2018237    0.1860532 -63.34 0.0006394464    1.365    0.267
       220  -9.0730     45.1289    170.7055   9.7750355474e+01   3.4289599662e+01    0.4017795    0.1820111  73.28  0.001413356    2.804    0.643
       221  -8.4663    205.9587    170.4062   6.0004190570e+01   1.0582742880e+01    0.2094986    0.1599124 -40.72   0.00072804    1.618    0.382
       222  -8.6455    134.6720    171.1795   7.4621656210e+01   2.1659524165e+01    0.1894231    0.1714765 -88.08 0.0006739502    1.425    0.298
       223  -9.5311    121.3260    170.1046   7.7621318520e+01   2.3988738145e+01    0.3239637    0.2540378 -86.58 0.0008964975    1.773    0.436
       224  -8.3284    237.5234    169.3131   5.4712068093e+01   6.3099990035e+00    0.1973582   0.09429756 -33.51 0.0009180018    1.952    0.488
       225  -8.8952    230.4293    168.8168   5.5701776190e+01   7.3209574996e+00    0.3360583    0.1597699 -39.82  0.001769371    2.377    0.579
       226  -8.3785    198.8090    170.1340   6.1216711285e+01   1.1682440421e+01    0.1727185      0.16274  -4.40 0.0008604017    1.330    0.248
       227  -8.6381    149.9367    169.4525   7.0866206567e+01   1.9501716126e+01    0.2229444    0.1919275 -73.23 0.0008430381    1.624    0.384
       228  -8.3494    244.4778    169.1518   5.3660303056e+01   5.4223797009e+00    0.1628146    0.1415823  -5.20 0.0005182836    1.326    0.246
       229  -9.2118    166.9777    168.2093   6.7003424887e+01   1.6948344959e+01    0.2724838    0.2431146  77.04  0.001004059    1.656    0.396
       230  -8.2553     88.7240    168.5664   8.5697293565e+01   2.9248005429e+01    0.2290643    0.1595977  79.47  0.001168869    1.823    0.451
       231  -8.4194    218.8201    168.1050   5.7417924944e+01   9.0262093082e+00     0.168286    0.1440309 -13.67 0.0005067732    1.225    0.184
       232  -7.8566    211.3784    168.1594   5.8665135316e+01   1.0091250665e+01     0.157752    0.1035994 -37.97   0.00046964    1.672    0.402
       233  -8.6070    111.5854    167.2363   7.9580738579e+01   2.6085938063e+01    0.2909113    0.1873963  61.81  0.001124352    2.033    0.508
       234  -8.8842    191.9770    166.6639   6.1825040490e+01   1.3221281913e+01      0.22324    0.1932084 -38.69  0.000704303    1.426    0.299
       235  -8.6616    185.0657    166.4596   6.3087194548e+01   1.4332516275e+01    0.2154751    0.1709975 -46.17 0.0006301567    1.589    0.371
       236  -9.2699    159.3557    165.0453   6.8030933274e+01   1.8715568653e+01    0.3463693    0.2275486 -40.36  0.001487756    1.628    0.386
       237  -8.9164     20.6873    166.1322   1.0414971050e+02   3.7683212509e+01    0.4083097     0.126087  52.52  0.001215248    2.779    0.640
       238  -7.9115     13.3624    167.6817   1.0622235946e+02   3.7934217835e+01    0.1411483   0.06614379  53.29 0.0007041743    1.769    0.435
       239  -9.7939    136.9611    164.2502   7.2904459867e+01   2.2564239669e+01    0.6262766    0.2833093  51.11  0.002361278    2.969    0.663
       240 -10.0199     95.0213    162.5997   8.3175945637e+01   2.9592931672e+01    0.8344073    0.3940166  63.52  0.002604337    4.725    0.788
       241  -8.2808    233.9559    164.7671   5.4426357861e+01   7.3343539868e+00    0.1926727     0.126819 -34.74 0.0007084711    1.593    0.372
       242  -9.3827     33.3527    163.1152   1.0042741248e+02   3.7217656282e+01    0.5771253    0.1673011  51.16  0.002137441    3.196    0.687
       243  -8.1898    240.1536    163.9179   5.3347747866e+01   6.6001872405e+00     0.164425    0.1353308 -21.05 0.0005990037    1.301    0.231
       244  -8.5554    212.9969    163.4448   5.7520805784e+01   1.0483022053e+01    0.2068765     0.154082 -38.02 0.0005516681    1.547    0.353
       245  -8.4426     56.7715    163.7115   9.3866340266e+01   3.4542192915e+01    0.3564445    0.1754968   5.70  0.001221425    4.275    0.766
       246  -9.3347    241.8730    154.0730   5.1277783518e+01   7.5438010629e+00     0.291377    0.2285135  67.00  0.001811425    2.556    0.609
       247  -8.9795    243.2721    149.9574   5.0301956651e+01   7.8461226686e+00    0.2675481     0.127953 -32.13 0.0009960217    1.816    0.449
       248  -8.8710    246.1654    162.7423   5.2265674883e+01   5.9437851995e+00     0.247283    0.1306843 -25.10 0.0003903058    1.593    0.372
       249 -10.0293    249.5815    157.0875   5.0752649028e+01   6.1507022814e+00    0.3115208    0.2673186 -40.90  0.001411648    1.692    0.409
       250  -7.9762    245.4264    158.4932   5.1593505454e+01   6.5371985045e+00    0.1545696     0.125681 -32.20 0.0005586479    1.481    0.325
       251  -8.5867    204.9715    162.5153   5.8716737354e+01   1.1814254556e+01    0.2149272    0.1592963 -40.76  0.000617147    1.593    0.372
       252  -9.3407      3.5440    162.1369   1.0868177451e+02   3.9907404891e+01    0.4425232    0.1197223  48.18   0.00179353    2.690    0.628
       253  -9.0099    177.3889    160.4697   6.3458567669e+01   1.6493103429e+01    0.2327591    0.2191796 -63.08 0.0008947959    1.461    0.316
       254  -8.7168    151.6490    160.8030   6.8931590747e+01   2.0733774306e+01    0.2362757    0.2041969  87.29 0.0008439725    1.665    0.400
       255  -8.5177    227.5767    158.9952   5.4335162462e+01   8.9415737737e+00    0.2237376    0.1576097 -41.52 0.0009571349    1.752    0.429
       256  -8.4589     60.7910    159.9210   9.2315783433e+01   3.4916962302e+01    0.3145828    0.1692556  55.94   0.00117162    1.899    0.473
       257  -7.4928    242.2660    159.6712   5.2262480755e+01   6.8212016721e+00    0.1015638   0.08222321 -36.36 0.0002670049    1.574    0.365
       258  -8.5275    237.0229    158.4689   5.2805629196e+01   7.6800073577e+00    0.1909049    0.1260247 -22.65 0.0007144125    1.283    0.220
       259  -8.3494    128.2382    159.0535   7.4073168170e+01   2.5004697507e+01    0.2629348    0.1655148  57.17  0.001108607    2.041    0.510
       260  -9.5215    105.7989    157.8275   7.9567905802e+01   2.8933903066e+01    0.4353114    0.2736861  66.14  0.001100468    2.268    0.559
       261  -8.4510    196.2184    157.4715   5.9310016587e+01   1.3898081034e+01    0.1902222    0.1650687 -37.82 0.0007038062    1.385    0.278
       262  -8.4833    188.1530    157.6826   6.0841973859e+01   1.5165337385e+01    0.2092943    0.1662343 -38.44 0.0005927905    1.402    0.287
       263  -9.3531    167.5023    157.1609   6.4833308830e+01   1.8679302467e+01    0.2935523    0.2529097 -79.75  0.001057895    1.762    0.432
       264  -9.4853     81.5593    154.5879   8.5707359157e+01   3.3340335883e+01     0.489825    0.2939486  67.62  0.001733718    2.172    0.540
       265  -8.5932    218.0269    156.2034   5.5321678139e+01   1.0701016049e+01    0.2553332    0.1474028 -45.88  0.001031469    2.312    0.567
       266  -8.8824    157.7254    156.1096   6.6710922923e+01   2.0524690830e+01    0.2246167    0.1804329  46.51 0.0008546605    1.347    0.258
       267  -9.3265    119.4300    154.7514   7.5506092577e+01   2.7337710074e+01    0.3787942    0.2757892 -85.28  0.001309404    2.039    0.510
       268  -9.1309     49.8408    155.2023   9.4977298825e+01   3.7317364561e+01    0.4393372    0.1856631  53.76  0.001798893    2.442    0.590
       269  -7.9882    204.7600    155.1896   5.7353068507e+01   1.2874869244e+01    0.1800694    0.1426435 -37.76 0.0005491925    1.432    0.302
       270  -8.6818    144.6546    154.5421   6.9340937426e+01   2.3060986067e+01    0.2059799    0.1744386 -80.67 0.0006976906    1.637    0.389
       271  -9.1947     68.0052    153.3934   8.9442150361e+01   3.5494710700e+01    0.4411137    0.2420245  65.51   0.00148284    2.282    0.562
       272  -8.0198    232.9496    153.7826   5.2530520259e+01   8.8303427854e+00     0.153674    0.1422153 -89.28 0.0007216901    1.908    0.476
       273  -9.6545    132.7727    152.5944   7.1788448416e+01   2.5490033986e+01    0.4231782    0.3145354  69.35   0.00128967    1.899    0.473
       274  -9.1835    133.6046    148.1759   7.0741947259e+01   2.6207921533e+01     0.373866    0.1881116 -42.66  0.001612889    2.137    0.532
       275  -8.3075    151.6772    151.6154   6.7176803617e+01   2.2372063609e+01    0.2396612    0.1267322 -44.31  0.001086947    2.014    0.503
       276 -10.2827    148.9548    144.7801   6.6429947694e+01   2.4109030977e+01    0.5229301    0.3777283 -89.01  0.001647643    2.656    0.624
       277  -9.8223     29.5457    150.6036   1.0059730658e+02   4.0512332058e+01    0.5782576    0.2259091  61.92  0.002014332    2.799    0.643
       278  -9.0767     20.0490    152.1022   1.0352812544e+02   4.0988727848e+01    0.2227681    0.1175811  58.46 0.0008335934    1.706    0.414
       279  -8.9734      8.5309    152.7418   1.0692962139e+02   4.1722628269e+01    0.3010779    0.1127805  11.22  0.001207057    3.484    0.713
       280  -9.0486      2.8298    150.7405   1.0850169281e+02   4.2577920011e+01    0.3655138    0.1521594 -86.20  0.001721848    2.222    0.550
       281  -8.9440    189.3889    149.7991   5.9058240082e+01   1.6164962512e+01    0.2850371    0.2005385 -48.80 0.0009572401    1.787    0.441
       282  -7.9501    182.3783    151.1317   6.0660096240e+01   1.7138353744e+01    0.1768109    0.1187535 -45.91 0.0006268242    1.731    0.422
       283  -8.8303     98.2897    150.6397   8.0405657633e+01   3.1675405875e+01    0.2978832    0.2111684  66.73 0.0007952493    1.709    0.415
       284  -9.6329    248.8930    149.0975   4.9358503913e+01   7.1762634741e+00    0.2628448    0.1439357 -26.89 0.0007793984    1.512    0.339
       285  -9.3365    247.0512    143.7819   4.8597738346e+01   8.0620681633e+00    0.2222507    0.1304568 -25.39 0.0005287419    1.404    0.288
       286  -9.5462    233.5784    147.5777   5.1245363527e+01   9.5195633362e+00    0.2595847    0.1733934 -21.11 0.0009099882    1.265    0.209
       287  -8.2835    213.0679    149.6873   5.4867817534e+01   1.2341760929e+01    0.2021986    0.1516876 -33.03 0.0005445876    1.352    0.260
       288  -8.7667    162.4945    150.1552   6.4516522508e+01   2.0732373218e+01    0.2084034    0.1879014  54.25 0.0006908918    1.329    0.247
       289  -8.5960    198.8599    148.6371   5.7096743298e+01   1.4768461115e+01    0.2240159    0.1591287 -48.19  0.000652298    1.793    0.442
       290 -10.1738    106.8483    144.4802   7.6973792152e+01   3.1616502238e+01    0.7743772    0.4166595  64.84  0.002269154    3.566    0.720
       291  -8.1732    105.7852    138.3868   7.6126199805e+01   3.3131552558e+01    0.2123597     0.134063  25.28 0.0009470586    1.737    0.424
       292 -10.1277     89.3813    146.2450   8.2185547740e+01   3.4057168956e+01    0.6520948    0.3712368  80.69  0.002393786    3.329    0.700
       293  -9.7612     40.1032    147.9113   9.7167751641e+01   4.0117850763e+01    0.5218965    0.2155873  54.60  0.002128657    2.476    0.596
       294  -9.9508    139.1112    144.7534   6.8732652946e+01   2.5891586718e+01    0.5038704    0.3485746 -85.59  0.001812909    2.833    0.647
       295  -9.2070    139.4505    137.6620   6.7192613433e+01   2.7207667344e+01    0.4120685    0.2574175  -3.25  0.001593096    2.919    0.657
       296 -10.6557     55.1590    143.2102   9.2009801575e+01   3.9549354229e+01     1.067088    0.6127569 -84.36  0.003708467    1.956    0.489
       297  -8.3175    223.1571    146.6123   5.2639559682e+01   1.1199138724e+01    0.1948454    0.1465205 -28.77 0.0005957468    1.267    0.211
       298  -8.7614     77.8302    146.5511   8.5598655874e+01   3.5720120991e+01    0.2656595    0.1583083  66.36 0.0007812175    2.139    0.533
       299  -9.2925     13.5028    145.9027   1.0512760016e+02   4.2982323683e+01    0.4100447    0.1722258  55.95  0.001618047    2.139    0.532
       300  -7.8267    206.8186    146.1761   5.5216530980e+01   1.3827871509e+01    0.1707412    0.1292113   0.10 0.0008141861    1.245    0.197
       301  -8.3151    175.6715    146.0674   6.0958755039e+01   1.9110626302e+01    0.1976618    0.1610102 -51.07  0.000638595    1.509    0.337
       302  -9.7121    242.4324    136.5206   4.7814160136e+01   9.6064096452e+00    0.2671297    0.1971707 -21.79  0.001791119    1.125    0.111
       303 -10.0368    241.0957    144.3569   4.9534982977e+01   8.8344734454e+00    0.4242235    0.2250488   0.45  0.001776582    2.702    0.630
       304  -8.6725    165.8071    143.9514   6.2552036788e+01   2.1217486775e+01    0.2506666    0.2112275  65.00 0.0009119814    1.570    0.363
       305  -9.7426    124.9805    142.4037   7.1768466926e+01   2.8898926380e+01    0.4573693    0.3345193 -88.06  0.001412712    2.120    0.528
       306  -9.3589      2.5600    141.5881   1.0824878571e+02   4.4762813281e+01    0.3789369    0.1415211  65.64  0.001214096    2.465    0.594
       307  -7.7684    235.3009    142.3356   4.9968997594e+01   9.9288098598e+00    0.1240962   0.07902949   0.21 0.0002200361    1.659    0.397
       308  -8.5662    182.0696    141.5111   5.8754085917e+01   1.8727016153e+01    0.2350264     0.181235 -48.54 0.0006031719    1.547    0.354
       309 -10.6869     69.6584    140.7069   8.7183427715e+01   3.8258671479e+01    0.7927602    0.4115879  81.04  0.002848996    3.341    0.701
       310  -9.9275     69.3423    134.1613   8.6277260869e+01   3.9880810038e+01    0.4504477    0.2983735  -7.06  0.001946099    2.404    0.584
       311  -8.3459    250.2021    140.7972   4.7598425889e+01   7.9786637101e+00    0.1655958    0.1338041 -23.08 0.0006260058    1.210    0.174
       312 -10.0274     23.6252    137.9261   1.0145373575e+02   4.4119346789e+01    0.5414242    0.2023538  56.08  0.002042238    2.687    0.628
       313  -7.9873    218.6288    138.7245   5.1766902896e+01   1.2967967236e+01    0.1726798    0.1025378 -38.18 0.0005779534    1.674    0.403
       314  -8.5649    172.2269    137.9339   5.9953929956e+01   2.1084371399e+01    0.2656957    0.1769585 -49.09 0.0008787191    1.755    0.430
       315  -8.4236    207.6171    137.7993   5.3367452700e+01   1.4897140183e+01    0.2226504     0.179869 -52.34 0.0007820351    1.651    0.394
       316  -8.6404    197.4088    137.1403   5.4989636915e+01   1.6727933133e+01    0.2183497    0.1804388 -49.31 0.0005750424    1.502    0.334
       317 -10.4161     83.3716    132.9577   8.1693806261e+01   3.8077516291e+01    0.5449902    0.3762237 -75.26  0.001343237    1.657    0.396
       318  -8.6111    246.9532    129.9810   4.5905632421e+01   9.7464245505e+00    0.2094103     0.137387 -26.92 0.0008569306    1.259    0.206
       319  -9.1395    248.5793    134.7805   4.6642305083e+01   8.9282454121e+00    0.2588863    0.1603591 -34.85  0.000832592    1.505    0.335
       320  -8.9391    250.7593    129.3139   4.5278021426e+01   9.2724343595e+00    0.4314899   0.09038267 -29.79  0.001509696    4.232    0.764
       321  -8.5681    162.7579    136.0115   6.1522020296e+01   2.3163782020e+01    0.2386481    0.1943393 -59.02 0.0008879656    1.544    0.353
       322  -9.1714    150.7962    135.7471   6.4115626240e+01   2.5451678422e+01    0.3970311    0.2121921  29.06  0.001655982    2.155    0.536
       323  -9.5190     39.1114    134.9901   9.6165246561e+01   4.3388815803e+01    0.5095956    0.2451571 -78.17  0.002099979    2.107    0.525
       324  -9.2941    112.3929    133.2920   7.3280526390e+01   3.3085737371e+01     0.404173    0.3358657  36.06  0.001571964    1.141    0.124
       325  -8.0779    231.2104    133.8437   4.8863861566e+01   1.1636792020e+01    0.1676568    0.1223776   0.18 0.0004133282    1.310    0.236
       326  -8.7641    179.4662    133.6936   5.7592979139e+01   2.0467955531e+01     0.246555    0.2174077 -48.73 0.0006826859    1.334    0.250
       327  -8.1874    237.4375    133.2762   4.7859603428e+01   1.0755686639e+01    0.1652878   0.09588865 -37.02 0.0008668035    1.647    0.393
       328 -10.2441    132.4470    130.9435   6.7482021772e+01   2.9861501197e+01    0.7251667    0.4672925 -58.55  0.002065102    1.888    0.470
       329 -10.1421     97.9571    129.8460   7.6706498319e+01   3.6401178077e+01    0.6642566    0.2750041 -55.73  0.002028649    2.552    0.608
       330  -9.2430    143.1258    131.3598   6.4951624678e+01   2.7741617958e+01    0.3119886     0.242281 -71.81 0.0007665526    1.768    0.434
       331 -10.1033     12.8458    128.5774   1.0431323828e+02   4.7278219156e+01    0.6177421    0.2460171  72.52  0.002380104    2.652    0.623
       332  -8.0074    204.4843    130.1986   5.2286710271e+01   1.6536696587e+01    0.1745852    0.1134704 -41.93 0.0006371044    1.620    0.383
       333  -8.2013    192.5583    129.9704   5.4318175239e+01   1.8682308463e+01    0.1972017    0.1217687 -34.19  0.000507945    1.535    0.349
       334  -9.1967    168.3386    129.3349   5.8874175101e+01   2.3284589642e+01     0.261678    0.2253872 -86.98 0.0005788541    1.630    0.387
       335  -9.2505    152.9106    129.0407   6.2158243699e+01   2.6299999790e+01    0.3686596    0.2622783 -60.31 0.0009814883    1.837    0.456
       336 -10.0460     73.4031    128.8558   8.4103707624e+01   4.0584125262e+01    0.4844044    0.3118953  88.00  0.001537493    2.008    0.502
       337  -7.9335      1.7765    130.0229   1.0803454873e+02   4.7618910517e+01    0.1934432    0.1076648  47.38 0.0008404018    1.594    0.373
       338  -7.6733    220.5219    129.5678   4.9575106408e+01   1.3914197638e+01    0.1246942    0.1064867 -12.77 0.0001159376    1.044    0.042
       339  -7.9890    211.5195    128.9843   5.0866454845e+01   1.5502406527e+01    0.1899838    0.1129428 -33.00 0.0007134266    1.531    0.347
       340  -7.9108    186.4746    129.4632   5.5325096740e+01   1.9868814217e+01    0.1349025    0.1217616  -4.26 0.0001515423    1.016    0.016
       341 -10.3852     60.1401    124.9259   8.7815669123e+01   4.3422924794e+01     0.757423    0.3926726  68.02  0.002662781    2.788    0.641
       342 -10.8214     44.9613    123.2393   9.2768576710e+01   4.5718051334e+01     1.229997    0.5170012  68.30  0.003889898    4.081    0.755
       343  -9.6650    117.7412    124.8559   7.0009582995e+01   3.3928615539e+01    0.4601191    0.3189178  81.18  0.001361774    2.345    0.573
       344  -7.8119    228.4112    125.1732   4.7477381661e+01   1.3219357703e+01    0.1743383   0.09957163 -38.30 0.0009377705    1.676    0.403
       345  -8.9627    179.3051    124.5295   5.5586321592e+01   2.2012366188e+01    0.2560833    0.2256914 -64.23 0.0005645429    1.445    0.308
       346 -10.2570     28.3460    121.7128   9.8413211583e+01   4.7788600233e+01    0.9159113    0.3406191  65.58  0.003049322    3.757    0.734
       347  -8.4744     26.6648    113.6760   9.8163605045e+01   5.0006643340e+01     0.188368    0.1410369 -12.27 0.0009937075    1.683    0.406
       348  -7.7298    243.7757    124.0268   4.5120961746e+01   1.0954623195e+01     0.158455   0.08161632 -29.18   0.00058137    1.607    0.378
       349  -7.9672    188.5159    123.9468   5.3716749502e+01   2.0370644912e+01    0.2008162     0.125348 -34.92 0.0004974848    1.524    0.344
       350  -8.8610     84.8617    122.6649   7.9288317343e+01   4.0291182053e+01    0.4779323    0.2881685   2.61  0.001686654    3.335    0.700
       351  -7.7263    203.0355    121.9965   5.0736418416e+01   1.8006889999e+01    0.1593138    0.1353004 -17.34 0.0003914429    1.048    0.046
       352  -7.7806    195.0182    121.9422   5.2098024696e+01   1.9477409511e+01    0.1631275    0.1387965 -19.87 0.0004461643    1.072    0.067
       353  -8.8556    171.8988    121.1729   5.6281377177e+01   2.4008216389e+01    0.2647325    0.2403032 -62.76  0.001112266    1.330    0.248
       354  -9.1617    168.5104    121.4462   5.7037246043e+01   2.4625353689e+01    0.2706964      0.24494  12.46  0.001129376    1.062    0.059
       355  -9.3909    158.6974    121.3083   5.9092076966e+01   2.6590961468e+01     0.323281    0.2503021 -78.25  0.001197683    1.951    0.488
       356  -8.4860     99.1274    120.2462   7.4356542170e+01   3.8403178760e+01    0.3345406    0.2203053  -6.15  0.001285791    2.740    0.635
       357  -9.8087     71.3725    119.0644   8.3007267436e+01   4.3292899980e+01    0.5286007    0.2818721 -67.50  0.001484628    2.022    0.506
       358  -9.9936    141.6756    117.9280   6.2212819439e+01   3.0652561385e+01    0.5722291    0.3308004 -55.01  0.001467799    2.109    0.526
       359  -9.8072    130.6332    118.1864   6.5038533924e+01   3.2823927451e+01    0.3901346    0.2993611 -78.98  0.001216389    1.804    0.446
       360  -9.6418      2.9364    117.0319   1.0704012848e+02   5.0795169930e+01    0.5600709    0.1868484  60.30  0.002164979    2.958    0.662
       361  -7.9327    231.5649    117.4714   4.5400391570e+01   1.3721828176e+01    0.1236158    0.1028587 -22.62    0.0008052    1.077    0.072
       362  -8.9820     58.7119    115.5116   8.6740122107e+01   4.5988339991e+01    0.4155117    0.2203444 -32.14  0.001521219    3.074    0.675
       363  -7.9112    185.8174    115.7702   5.2333164833e+01   2.2192821820e+01    0.1785775    0.1581624 -54.11 0.0004032997    1.319    0.242
       364  -9.9089    109.4625    114.1000   6.9884215036e+01   3.7873167225e+01     0.549825    0.3571345 -76.74  0.001953518    2.386    0.581
       365  -8.9510    109.3010    107.4067   6.8301284265e+01   3.9398457542e+01    0.3690616    0.2361953   3.56  0.001251886    3.124    0.680
       366  -8.1976    193.1667    115.1579   5.0871791830e+01   2.0876803892e+01    0.1803959    0.1529552 -49.29 0.0004355403    1.339    0.253
       367  -7.4114    153.3185    115.3117   5.8855961298e+01   2.8782853473e+01     0.149567    0.1126259   5.35 0.0003374022    1.644    0.392
       368  -9.9815     78.8374    112.1996   7.9111360685e+01   4.3814933960e+01    0.5567697    0.3677056  83.68  0.001960039    2.129    0.530
       369  -9.1685    250.1023    114.5298   4.2369204341e+01   1.1158583290e+01    0.2806113     0.187425 -60.08  0.001559479    2.543    0.607
       370 -10.3679    248.8739    107.9480   4.1150426908e+01   1.2150814343e+01    0.3947978    0.2392747 -20.80  0.002064085    1.424    0.298
       371 -10.1169    249.0603    102.9934   4.0084982323e+01   1.2726398037e+01    0.3425327    0.2194243  -9.40  0.001928268    1.610    0.379
       372 -10.0724     92.7416    112.4133   7.4592924207e+01   4.1377795685e+01    0.5090913    0.3432388 -78.10  0.001232463    1.963    0.490
       373  -8.7954     92.8483    104.7505   7.2748733231e+01   4.3164777486e+01    0.7976616    0.3948613  17.93  0.002095518    5.403    0.815
       374  -9.9954    122.0905    112.1654   6.5849792987e+01   3.5801677463e+01     0.398068    0.2622512 -57.60 0.0006447443    1.729    0.422
       375  -8.5208    174.7919    111.6863   5.3451531627e+01   2.5050644050e+01    0.2729088    0.1806639 -45.41 0.0005644877    1.579    0.367
       376  -9.0467    159.2812    111.7407   5.6661765962e+01   2.8214215173e+01    0.2645593    0.2139014 -62.31 0.0008105224    1.506    0.336
       377 -10.3409    133.6558    109.1417   6.2040920148e+01   3.4055641408e+01    0.6298848    0.3113664 -49.73  0.002120428    2.192    0.544
       378  -9.9923     14.3745    111.0211   1.0248247365e+02   5.1640566370e+01    0.4736549    0.2280377  64.34  0.002099696    2.127    0.530
       379 -10.0539     66.4900    110.3670   8.3018575115e+01   4.6193012773e+01    0.3970462    0.2765213  80.62  0.001306152    1.744    0.427
       380  -8.9005     43.1982    109.0278   9.1346791097e+01   4.9573591100e+01    0.3601733    0.1850597   1.23  0.001283741    3.454    0.711
       381  -8.1709    189.3185    107.5029   4.9738784378e+01   2.2825333161e+01    0.2307638    0.1183891 -34.77 0.0005029754    1.821    0.451
       382  -9.3613    140.0135    104.4595   5.9248396862e+01   3.3648253487e+01     0.365292    0.2712443 -81.60 0.0007558709    2.012    0.503
       383  -9.6367    118.9947    105.9756   6.5149147097e+01   3.7755408698e+01    0.4491047     0.222981 -51.65  0.001728983    2.172    0.540
       384 -10.7092    108.7642     98.4698   6.6142090116e+01   4.1492796552e+01    0.9382746    0.4952236  63.36  0.001290436    3.316    0.698
       385  -9.2904    107.4214     92.6688   6.4952252906e+01   4.3050964942e+01    0.7127874    0.3770695  25.09  0.002365562    3.164    0.684
       386 -10.5890     45.7015    102.0202   8.9222516232e+01   5.1106938260e+01    0.9160077     0.451709  67.36   0.00329532    3.040    0.671
       387  -9.1256     46.0050     92.2204   8.7259411183e+01   5.3620888374e+01    0.4576344     0.255286   2.71  0.001758895    2.854    0.650
       388 -10.6745     22.8651    102.3439   9.8335539520e+01   5.3276654349e+01    0.8954789    0.3774077  67.47  0.002632351    3.044    0.671
       389  -9.2484     22.5969     89.9284   9.6862345513e+01   5.6563387322e+01    0.3833407    0.2441333 -45.92  0.001536732    1.637    0.389
       390  -9.5494    150.6596    102.9664   5.6347705741e+01   3.1650906060e+01    0.4310152     0.270452 -60.60  0.001444002    2.208    0.547
       391  -8.5707     78.2952    104.9104   7.7691238619e+01   4.5692164951e+01    0.2840676     0.200427  -2.53 0.0007891471    2.131    0.531
       392  -8.4196    166.7755    104.0873   5.3166890892e+01   2.8011192531e+01    0.2166271    0.1889854 -54.39 0.0005306117    1.259    0.205
       393  -9.8668    128.3875    101.7779   6.1496264627e+01   3.6670773745e+01    0.3176256     0.263103 -68.66 0.0007062646    1.406    0.289
       394  -9.0368      6.7888    102.8475   1.0474022046e+02   5.4217413017e+01    0.2644875    0.1525724  70.68 0.0007883874    1.657    0.396
       395  -8.0299    175.5274    101.9570   5.0900062439e+01   2.6536193505e+01    0.2142614    0.1337056 -36.52 0.0005843764    1.531    0.347
       396  -8.1148    159.6244    100.7146   5.3787191698e+01   3.0132152582e+01    0.1977316    0.1332003 -46.24 0.0003765749    1.531    0.347
       397  -9.3737     82.2300     99.9449   7.5144056732e+01   4.6228949939e+01      0.41503    0.2833829 -86.74  0.001120826    2.028    0.507
       398  -9.3726    243.6765     96.5266   3.9329545999e+01   1.4397089858e+01    0.4208238   0.02746473 -36.72  0.001089176    6.868    0.854
       399 -10.1873     63.8502     95.3296   8.0782185126e+01   5.0384737742e+01    0.6667205     0.394999  86.70  0.001653881    2.687    0.628
       400  -8.9747     95.0284     96.8062   7.0010934098e+01   4.4609708914e+01    0.2924283    0.2395084 -79.20  0.000545716    1.406    0.289
       401  -7.9655    167.2915    114.0177   5.5524652126e+01   2.6167711189e+01    0.2008755    0.1791271 -28.18 0.0005813459    1.092    0.084
       402  -8.9364    151.2617     94.9119   5.4063684698e+01   3.3014751003e+01    0.2955894     0.190328  23.16  0.001212665    2.152    0.535
       403  -8.2026    164.8675     94.0706   5.0944158066e+01   3.0161808254e+01    0.2193192    0.1934415 -62.38 0.0004678865    1.263    0.208
       404  -8.2789    176.6449     93.1276   4.8419882004e+01   2.7760451460e+01    0.2278756    0.1645446 -50.31 0.0007090374    1.487    0.328
       405  -9.2876    139.0248     91.7711   5.6048396130e+01   3.6336984132e+01    0.4483964     0.264079 -52.32  0.001444681    1.918    0.479
       406 -10.6102    124.1299     90.4123   5.9491917129e+01   3.9930054960e+01    0.7783636     0.596294 -15.03   0.00201054    1.638    0.390
       407  -9.5959      5.1987     91.7495   1.0454174369e+02   5.7182050490e+01    0.3936345    0.1958663  53.38  0.001144502    2.017    0.504
       408  -9.8017     34.8035     89.4833   9.1490636859e+01   5.5584788317e+01    0.5618164    0.2801565  88.46  0.001792302    2.635    0.620
       409  -7.8427    157.8580     91.5931   5.1722368508e+01   3.2146776085e+01    0.1955338    0.1432151  65.07 0.0006020511    1.587    0.370
       410  -7.9135    151.1497     89.1199   5.2486902330e+01   3.4098650460e+01    0.2107117    0.1744221 -62.42 0.0005833452    1.363    0.266
       411 -10.0920     86.5797     85.9354   6.9886255627e+01   4.8770576449e+01    0.6546422    0.4338049 -63.77  0.001700577    1.709    0.415
       412  -9.0570     66.3683     87.0472   7.7776296638e+01   5.2070810949e+01    0.5385892     0.224657  21.11  0.001535392    4.451    0.775
       413  -9.8085     48.6507     83.5266   8.4259075300e+01   5.5538407271e+01    0.6939433     0.427906 -88.45  0.002441451    2.088    0.521
       414  -8.4063    158.0637     83.7364   4.9488366463e+01   3.3478313986e+01    0.2551311    0.1912054 -47.39 0.0005166694    1.356    0.262
       415  -9.7662    104.7668     82.8135   6.2886497011e+01   4.5766281339e+01     0.454823    0.3080293 -67.44 0.0008941505    1.924    0.480
       416  -8.9800    105.0028     77.4657   6.1147297289e+01   4.6861615461e+01    0.3399487     0.221413  15.04  0.001269916    2.598    0.615
       417  -9.1551    140.7974     82.4957   5.2942029419e+01   3.7690200957e+01    0.3246435    0.2323853 -48.38 0.0008905376    1.438    0.305
       418  -9.8095     24.6820     80.2460   9.4440447810e+01   5.8946583361e+01    0.5059435    0.2747421  76.19  0.001537606    2.260    0.557
       419  -9.5995      9.7729     80.7235   1.0146735031e+02   5.9834635526e+01    0.3973365    0.1828425  56.25  0.001361573    2.386    0.581
       420  -8.5811    119.4438     80.0635   5.7692105294e+01   4.3088147928e+01    0.3531248    0.2328443 -63.25 0.0009827327    1.960    0.490
       421  -8.7770     74.8120     80.2162   7.2582743314e+01   5.2307792238e+01    0.3326188    0.2167332 -71.72  0.001107046    1.922    0.480
       422  -8.9534    249.7737     80.0134   3.5049743053e+01   1.5383679116e+01    0.1698866   0.08140162 -29.34  0.000881212    1.673    0.402
       423  -8.2498    166.9105     79.4895   4.6534876504e+01   3.2166186121e+01    0.2240337    0.1823857 -35.15 0.0003559622    1.181    0.153
       424  -8.4776    150.0770     79.8813   5.0065877099e+01   3.6002483748e+01    0.2805127    0.1843772 -51.40 0.0009775745    1.647    0.393
       425  -8.7078    184.1632     77.6934   4.2999123847e+01   2.8557236083e+01    0.2769862   0.09332392 -34.52 0.0009118028    2.681    0.627
       426  -7.8993    157.3826     76.2194   4.7456447883e+01   3.4923601554e+01    0.2093913    0.1319181 -45.04 0.0005116545    1.588    0.370
       427  -9.4258    128.0236     74.7096   5.3707285229e+01   4.2147953234e+01    0.4872099    0.2790746 -47.91 0.0008449654    1.826    0.452
       428  -8.5386    140.5251     75.1683   5.0791801105e+01   3.9098587017e+01    0.2405804    0.2070466 -78.25 0.0006223611    1.318    0.241
       429  -9.9618     63.1487     73.1786   7.5236835938e+01   5.6007733862e+01    0.5411261    0.2982977 -66.32  0.001265957    2.137    0.532
       430  -8.4133    163.5070     73.0111   4.5317599944e+01   3.4015956100e+01    0.3165128    0.1267492 -40.28 0.0009952671    2.366    0.577
       431  -9.7151     82.5238     72.5011   6.7251957904e+01   5.2658476032e+01    0.4270779    0.3015073 -79.56  0.001066993    2.000    0.500
       432  -8.5596    115.7109     72.9534   5.6483479033e+01   4.5371252823e+01    0.2207633    0.1956245 -46.17  0.000456566    1.138    0.121
       433  -8.3981     42.8912     72.7402   8.4251733606e+01   5.9032109217e+01     0.268888    0.1779914  78.10 0.0007357901    1.975    0.494
       434  -7.7522    175.5033     72.4729   4.3004843155e+01   3.1311213629e+01    0.1426782    0.1360171 -30.90 0.0003360955    1.016    0.016
       435  -9.3146    106.0016     71.3612   5.8845816148e+01   4.7914970216e+01    0.4052429    0.2453472 -50.05  0.001362701    1.731    0.422
       436  -9.3592     95.1739     70.9065   6.2206385117e+01   5.0399540983e+01    0.4313354    0.2584347 -59.51  0.001067597    2.035    0.509
       437  -9.3884     51.4641     69.3077   7.9295750095e+01   5.8755576921e+01    0.4822229    0.2614125 -77.94  0.001394063    2.737    0.635
       438  -9.4176     30.0593     69.7599   8.9805785972e+01   6.1207467546e+01    0.5563273    0.2605065 -19.20  0.001823152    4.137    0.758
       439  -9.1069     16.4640     69.6040   9.6681317436e+01   6.2351286832e+01    0.2896575    0.2007671  70.69 0.0008823982    1.549    0.355
       440  -8.7290    147.1703     67.9266   4.7059990394e+01   3.8770152316e+01    0.3041979    0.1899372 -48.49 0.0006726106    1.670    0.401
       441  -8.6477    138.7559     65.9507   4.8285634134e+01   4.1161250564e+01    0.2846957    0.1972847 -54.31 0.0006435725    1.581    0.367
       442  -8.7651    121.6875     65.8487   5.2465235903e+01   4.5330131235e+01    0.2942735     0.220963 -66.87 0.0007394614    1.610    0.379
       443  -7.5215    163.6638     65.3051   4.3004402597e+01   3.5208776524e+01    0.1532542    0.1109781 -67.96 0.0007039779    1.670    0.401
       444  -8.9487     37.3813     63.9929   8.4673746954e+01   6.1912168853e+01    0.3567282      0.22331  80.67  0.001100325    2.250    0.555
       445  -9.0834    110.1394     63.4890   5.4891161304e+01   4.8531902936e+01    0.3350078    0.2298453 -56.53 0.0008829451    1.653    0.395
       446  -8.6716     65.0432     62.9905   7.1141708177e+01   5.8110917848e+01    0.5519981     0.323053  -3.45  0.001601443    4.910    0.796
       447  -8.1363    158.0511     61.5468   4.2892467989e+01   3.7157316932e+01    0.2105009    0.1463725  62.20 0.0005280356    1.488    0.328
       448  -9.1690     97.5200     60.3265   5.7698933026e+01   5.2077959167e+01    0.3107668     0.251186  70.25 0.0007552551    1.400    0.286
       449  -9.6269     73.3905     59.1188   6.6204794178e+01   5.7444230366e+01    0.4690904    0.2701577 -59.88  0.001113054    2.085    0.520
       450  -8.5603     75.7298     51.0243   6.2112700126e+01   5.8707557127e+01    0.4864092    0.2959844   2.96  0.001506624    4.231    0.764
       451  -8.2409     89.0241     59.2374   6.0222458453e+01   5.4190174573e+01    0.2265254    0.1625866 -62.36 0.0006459407    1.652    0.395
       452  -8.1584    215.1688     58.6222   3.3729871078e+01   2.4523073964e+01    0.1608505    0.1196741  49.39 0.0001695441    1.532    0.347
       453  -8.4087    130.9144     57.4974   4.7277896147e+01   4.4555715325e+01    0.2337843    0.2048305 -42.37 0.0006793884    1.141    0.123
       454  -9.9395     23.4475     56.2757   9.0200841994e+01   6.5270615568e+01    0.4937839    0.2733095  72.55  0.002027532    2.620    0.618
       455  -9.7914      7.4287     56.7935   9.9500785271e+01   6.6186627109e+01    0.3892161    0.2235762  74.15  0.001307413    1.955    0.488
       456  -8.0500    139.9949     55.9877   4.4712946344e+01   4.2529526457e+01    0.2415158    0.1752443 -66.36 0.0004896535    1.636    0.389
       457  -8.9110    119.0542     55.1088   4.9393824845e+01   4.7921896256e+01    0.4278317    0.2211159 -47.25  0.001301862    2.069    0.517
       458  -8.8908     44.0510     55.3331   7.8597504184e+01   6.3217435494e+01     0.301067    0.2026233 -70.86  0.001061184    1.664    0.399
       459  -9.0641     62.9724     54.5067   6.9002477745e+01   6.0414790264e+01    0.3283653    0.2353507 -68.52 0.0006693554    1.695    0.410
       460  -8.9929     54.0288     53.4993   7.2870941424e+01   6.2165420485e+01     0.364226    0.2167865 -70.69  0.001404756    2.329    0.571
       461  -8.3036    105.8054     53.0525   5.2353376556e+01   5.1532577341e+01    0.2363824    0.2039234 -67.05 0.0005502423    1.271    0.213
       462  -9.3990     92.4642     50.4648   5.5617706830e+01   5.5162162987e+01    0.3990002    0.2554394 -56.24  0.001030518    1.852    0.460
       463  -8.0298    144.6774     48.8031   4.1311723437e+01   4.2467857242e+01    0.2158476    0.1274874 -40.92 0.0005471144    1.654    0.395
       464  -8.4633    129.9466     48.9326   4.4474804263e+01   4.6214213939e+01    0.2453081    0.1783133 -67.12 0.0007178087    1.638    0.390
       465  -8.4654    120.8612     47.1760   4.5992035200e+01   4.8813431387e+01    0.2310334    0.2039702 -71.33  0.000541159    1.202    0.168
       466  -8.4134    112.1074     46.8513   4.8150882667e+01   5.1075831356e+01    0.2636804    0.2163522 -38.06 0.0006261846    1.237    0.192
       467  -9.0163     82.2635     46.3951   5.7622353210e+01   5.8241473801e+01    0.2980234    0.2432943 -72.79 0.0006249643    1.495    0.331
       468  -8.7041     44.9830     44.4863   7.4121240247e+01   6.5631541532e+01    0.2588137    0.1994505 -73.60 0.0006191261    1.546    0.353
       469  -8.8125     16.9092     44.5096   9.1137767203e+01   6.8749393806e+01    0.2526623    0.1782039  86.33 0.0007415903    1.628    0.386
       470  -8.5421    132.9093     43.1504   4.1719740358e+01   4.6347718586e+01     0.233676    0.1982425 -63.47  0.000439104    1.228    0.185
       471  -9.3873     69.5694     41.2282   6.0532423455e+01   6.1950462270e+01    0.4090516    0.2581391 -61.02  0.001329708    2.113    0.527
       472  -8.9519     58.1418     42.1910   6.6264663208e+01   6.3963118468e+01    0.3576742    0.2311969 -61.69  0.001139481    1.906    0.475
       473  -9.7851      5.2615     41.7953   9.8188835258e+01   7.0096893384e+01    0.3809128    0.1948193  82.40  0.001338559    2.342    0.573
       474  -7.8753    140.2335     41.0049   3.9458783268e+01   4.4760590213e+01    0.1915922    0.1241855 -30.88 0.0003777265    1.557    0.358
       475  -8.5517    105.8603     41.0818   4.7580232227e+01   5.3600193070e+01    0.2359698      0.20289 -71.03 0.0005724638    1.287    0.223
       476  -8.7751     36.9475     40.5571   7.7181065849e+01   6.7654323594e+01    0.2522743    0.1934097 -75.26 0.0006203604    1.542    0.352
       477  -8.5123     95.8159     38.0443   4.9302653619e+01   5.6586828570e+01     0.232714    0.2009804 -69.55 0.0005913406    1.299    0.230
       478  -8.4515     80.9541     36.5675   5.3770788266e+01   6.0353597382e+01    0.2364968    0.1944893 -37.78  0.000522565    1.237    0.191
       479  -8.3553     92.8416     42.7315   5.2291535905e+01   5.6497268885e+01    0.2569728    0.1625759  14.89 0.0009464255    2.745    0.636
       480  -9.4202     26.1088     35.1484   8.1960711232e+01   7.0194997471e+01    0.3407192     0.240312 -69.30  0.000869378    1.518    0.341
       481  -8.2714    125.9866     35.3247   4.0256997654e+01   4.9296861292e+01     0.209728    0.1918177  70.39 0.0004661586    1.063    0.059
       482  -8.4883    111.9810     34.4679   4.3189875630e+01   5.3074847521e+01    0.2880592    0.1967526 -49.27 0.0006296093    1.565    0.361
       483  -7.7659     88.7309     34.3491   4.9964168715e+01   5.8913593058e+01    0.1508897    0.1157195 -67.27 0.0003316042    1.622    0.383
       484  -8.1510    119.2229     33.1514   4.0902120622e+01   5.1379871340e+01    0.2099845    0.1696821 -63.66 0.0003880566    1.337    0.252
       485  -8.5942     60.8385     32.3501   6.0322091473e+01   6.5421048348e+01    0.2351417    0.1965237 -54.49 0.0006400597    1.318    0.241
       486  -8.8833     48.5818     32.9151   6.6976144498e+01   6.7566791740e+01    0.2403203    0.2237788  68.02 0.0006099546    1.255    0.203
       487  -9.1987     72.1374     30.4748   5.4319955209e+01   6.3393745622e+01    0.4151639    0.2237733 -44.14  0.001683239    1.948    0.487
       488  -9.1350     12.9380     30.0594   8.9577191139e+01   7.2555358851e+01     0.344377    0.1848459 -81.63  0.001473818    2.283    0.562
       489  -7.7609     42.2331     29.9449   6.9197506874e+01   6.9216585816e+01    0.1836811    0.1127297 -48.77 0.0007056624    1.601    0.375
       490  -8.2336    101.4306     29.2049   4.3711998869e+01   5.6560190632e+01    0.2105339    0.1350521 -44.15 0.0006194922    1.638    0.390
       491  -8.7857     81.6065     27.1759   4.9010072434e+01   6.1766378152e+01    0.3178739    0.2324165 -62.40  0.000898102    1.733    0.423
       492  -9.2644      3.9273     27.5106   9.5857456939e+01   7.3670964221e+01    0.2366856    0.1686766  84.00 0.0007948409    1.585    0.369
       493  -8.7665     91.8916     26.0997   4.5061389291e+01   5.9421751861e+01    0.2951426    0.1950682 -52.49 0.0007246186    1.756    0.430
       494  -8.3372    104.5188     22.5257   3.9868172996e+01   5.6680641209e+01    0.1475763    0.1409635  62.45 6.336007e-05    1.001    0.001
       495  -8.8510     63.7529     21.1057   5.2957087716e+01   6.6785571541e+01    0.3129825    0.2058432 -54.15 0.0008437119    1.919    0.479
       496  -9.0614     48.4727     21.3651   6.0865765774e+01   6.9813966184e+01    0.2864276    0.2417497 -58.85 0.0007723656    1.414    0.293
       497  -7.9718    121.0105     20.9798   3.5512427614e+01   5.2497560641e+01    0.1760224    0.1710674 -52.84 0.0005291536    1.063    0.059
       498  -8.4072     19.4753     21.2401   8.0835689742e+01   7.4034913617e+01    0.1745253    0.1254689 -71.71 0.0007035612    1.623    0.384
       499  -8.8908     74.0583     19.2109   4.7623162124e+01   6.4747608481e+01    0.3253671    0.2092245 -47.82 0.0007703598    1.777    0.437
       500  -8.3268     38.5585     18.0250   6.4942839451e+01   7.2155560374e+01    0.2038626    0.1285844 -43.50 0.0004615613    1.563    0.360
       501  -8.1835     87.9677     17.3506   4.1909571817e+01   6.1608403401e+01    0.2047079    0.1817033  64.10 0.0004908177    1.107    0.096
       502  -7.8657    112.9806     16.7153   3.5312765274e+01   5.5148824923e+01    0.1822263     0.124899  65.72 0.0004291846    1.377    0.274
       503  -8.2592     30.0558     15.9966   6.9675214013e+01   7.3846426410e+01    0.1991484    0.1684599  81.22 0.0009299617    1.715    0.417
       504  -8.1195     97.2209     14.9211   3.8113804718e+01   5.9530703417e+01    0.1893286    0.1193008 -27.67 0.0006703907    1.653    0.395
       505  -8.0347      7.6789     15.3211   8.8385578632e+01   7.6331312253e+01    0.1234581   0.09514356  60.13 0.0007044779    1.672    0.402
       506  -8.2871     17.3735     14.1577   7.8937308570e+01   7.5777812313e+01    0.1726633     0.120068 -65.95  0.000511588    1.642    0.391
       507  -9.7001    159.9282    239.8630   7.8961565276e+01   7.5975223923e+00    0.2758087    0.2370182 -68.53  0.001452077    2.019    0.505
       508  -8.3046    157.7664    244.4097   7.9892813621e+01   7.2944310524e+00    0.2069169    0.1225402  12.97 0.0004670624    1.601    0.375
       509  -8.8885    132.3981    247.7828   8.5065037885e+01   9.8929296838e+00    0.2580319    0.1534162  50.96  0.001083392    2.081    0.519
       510  -8.2935    113.1231    248.2280   8.8867352581e+01   1.2111794850e+01    0.1807279    0.1224843  63.92  0.001025602    2.063    0.515
       511  -9.2435    103.9845    246.8023   9.0555850352e+01   1.3381801993e+01    0.3273134    0.1958939 -88.61  0.001904301    3.119    0.679
       512  -8.3127     93.8199    249.0921   9.2771242014e+01   1.4220508596e+01     0.172251    0.1110332  46.92 0.0008273298    1.377    0.274
       513  -9.2600    232.8039    246.2248   6.7379470983e+01  -1.2648920832e+00    0.3207456    0.1551764 -15.24  0.001841966    2.025    0.506
       514  -8.5382    218.5503    247.0020   6.9703091773e+01   1.3019636871e-01     0.250105   0.08752792 -32.90  0.001439474    3.078    0.675
       515  -9.2136    175.7122    247.3650   7.6973313041e+01   4.8358254999e+00    0.2341978    0.1658914  48.04  0.001005919    2.103    0.524
