#   1 NUMBER                 Running object number                                     
#   2 MAG_AUTO               Kron-like elliptical aperture magnitude                    [mag]
#   3 X_IMAGE                Object position along x                                    [pixel]
#   4 Y_IMAGE                Object position along y                                    [pixel]
#   5 X_WORLD                Barycenter position along world x axis                     [deg]
#   6 Y_WORLD                Barycenter position along world y axis                     [deg]
#   7 A_WORLD                Profile RMS along major axis (world units)                 [deg]
#   8 B_WORLD                Profile RMS along minor axis (world units)                 [deg]
#   9 THETA_WORLD            Position angle (CCW/world-x)                               [deg]
#  10 FWHM_WORLD             FWHM assuming a gaussian core                              [deg]
#  11 ELONGATION             A_IMAGE/B_IMAGE                                           
#  12 ELLIPTICITY            1 - B_IMAGE/A_IMAGE                                       
         1 -10.9311      2.1242     77.6226   9.0291939811e+01   5.8470080002e+01     1.011567   0.09138242 -66.29  0.002631414    7.200    0.861
         2 -12.2710    224.7144     42.5690   2.3608738388e+01   2.3358848367e+01     2.370787     1.150481  36.93   0.00874225    3.113    0.679
         3 -11.9959    232.2000     36.7611   2.1167042272e+01   2.2307120337e+01      2.05801     0.832976  42.79   0.00166068    3.604    0.723
         4 -11.0451      2.1049     25.1142   7.6618008715e+01   6.9125524038e+01    0.9183295    0.1413147 -54.20  0.003097161    4.912    0.796
         5 -10.5164      2.2835      4.3181   6.7633206987e+01   7.2585526295e+01    0.4477507    0.2212474 -49.33  0.002622056    2.119    0.528
         6 -10.5163    249.3378     20.3200   1.5290720588e+01   2.0300958459e+01    0.4734922     0.391715  37.12   0.00184301    1.503    0.335
         7 -10.3145      2.3476     10.0126   7.0312743792e+01   7.1691345071e+01    0.3408224    0.1711817 -40.35   0.00215768    1.405    0.288
         8  -9.9678      7.2098      3.8492   6.4928044410e+01   7.2267031422e+01    0.2582461    0.1494124 -44.63  0.001657827    1.719    0.418
         9 -10.7858     82.3239    223.3717   9.1306745925e+01   1.8757404754e+01    0.5477614    0.3084739 -78.97  0.003271427    1.868    0.465
        10 -13.3444     11.3953    242.0316   1.0370536758e+02   2.3916075119e+01     2.112422      1.39249  29.62   0.01561665    2.610    0.617
        11 -11.7781     55.6372    235.0451   9.6690127798e+01   2.0199267362e+01    0.7009254    0.6313503 -78.90  0.005478165    1.511    0.338
        12 -12.4074      8.8970    207.3792   1.0224529851e+02   3.0284426488e+01    0.9002346    0.6985496 -67.04  0.004253164    1.617    0.382
        13 -11.1527     13.9013    197.8414   1.0083006907e+02   3.1630451357e+01    0.2941573    0.2735229 -77.06 0.0008341025    1.576    0.365
        14 -13.7952     25.5367    189.0738   9.8174926048e+01   3.2219681423e+01     4.879307     1.767116 -89.41   0.02112568    3.382    0.704
        15  -7.8022     71.2769    213.6461   9.2266880005e+01   2.2025917281e+01    0.1203192   0.07125379  75.37 0.0006035595    1.648    0.393
        16 -10.4815     87.9445    225.3898   9.0546701172e+01   1.7616653114e+01    0.3117862    0.1886087  54.22  0.001434575    1.386    0.278
        17 -10.3818     47.0553    173.0557   9.2597970403e+01   3.3216744662e+01    0.3506595    0.2618923 -40.98  0.001443252    1.955    0.488
        18 -10.0930     53.8158    167.8295   9.0624284782e+01   3.3544420182e+01    0.2798021    0.2414237 -41.08 0.0005124761    1.597    0.374
        19  -9.8707     95.5266    223.0131   8.8995801386e+01   1.6945593451e+01    0.2438118    0.1322068  58.01  0.001395678    1.662    0.398
        20  -7.8542    110.7059    167.5474   7.8530898206e+01   2.5355778017e+01    0.2268298    0.1559739 -82.07  0.001083212    1.697    0.411
        21  -9.8469      2.0904    160.6315   1.0026489401e+02   4.0219743817e+01    0.3344276    0.1099027 -82.81  0.001561538    2.651    0.623
        22 -11.2439     74.1158    153.1165   8.4211880418e+01   3.4174115674e+01    0.5832723    0.5149459 -86.71   0.00216998    1.058    0.055
        23 -11.8980     68.5254    144.0931   8.4051037250e+01   3.6981627843e+01     1.041277    0.6127765  74.65  0.004902968    2.258    0.557
        24  -9.5854     65.9361    158.9205   8.6886866487e+01   3.3978955688e+01    0.2547121    0.2009237 -59.02 0.0004576603    1.281    0.220
        25 -10.2846     12.4326    217.1814   1.0225740055e+02   2.8135880476e+01    0.2756948    0.1376326 -88.02  0.001452461    1.577    0.366
        26 -10.4983     78.5398    138.3646   8.0697553364e+01   3.6905617634e+01    0.3230532    0.2530846 -50.74 0.0005524631    1.272    0.214
        27  -9.1557     92.4068    139.5542   7.7602829034e+01   3.4537115596e+01    0.5054831    0.3568668 -11.76  0.002291231    2.599    0.615
        28  -8.7427    105.4227    130.2852   7.2550495232e+01   3.4485954658e+01    0.2697206     0.258782 -67.24 0.0009246317    1.066    0.062
        29 -11.5556     51.4959    154.7000   8.9458313977e+01   3.6715935318e+01    0.4444944    0.3035061 -39.00  0.001446965    2.060    0.514
        30  -9.2219     91.1192    125.8594   7.5138160158e+01   3.7878034429e+01    0.2691224    0.2598397  38.19 0.0005797144    1.197    0.165
        31  -9.0458     54.3024    120.6591   8.3497455556e+01   4.4183859465e+01    0.2123279    0.1430935  81.60  0.001118507    1.789    0.441
        32  -7.5929    103.5105    118.5049   7.0343874649e+01   3.7490091432e+01    0.1472442    0.1332804 -52.24 -3.244954e-05    1.031    0.030
        33  -9.5727      2.2048    112.5147   9.5501249941e+01   5.0724533654e+01    0.3959825   0.07115293 -63.76  0.001589635    3.081    0.675
        34  -8.6431     50.8915    112.6718   8.2898080531e+01   4.6431502111e+01    0.3092361    0.1447812  42.29  0.001185131    2.501    0.600
        35  -7.8548    204.7926    110.5622   4.5530494230e+01   1.7380315527e+01     0.298133    0.1451023  46.19  0.001142001    2.154    0.536
        36  -9.0250     53.1160     91.8466   7.7816232343e+01   5.0956564349e+01    0.2049854    0.1682612 -74.37 0.0008465874    1.262    0.208
        37  -8.7055    164.9918     86.0291   4.6518213780e+01   3.1332495129e+01    0.2541979    0.1948006 -69.60 0.0005829643    1.689    0.408
        38  -9.2046     41.5363    215.3332   9.7475638692e+01   2.5394701345e+01    0.2181612    0.1430505  76.59 0.0006413179    1.196    0.164
        39  -9.5712     13.0624     60.0084   8.2895191941e+01   6.1584148000e+01    0.2632321    0.1492125 -56.54  0.000749055    1.291    0.225
        40 -10.2872     73.5290    219.3890   9.2428205526e+01   2.0669733556e+01    0.2884042    0.2001865  88.64  0.001961166    1.297    0.229
        41  -8.2351    116.0000    244.5294   8.7806681025e+01   1.0393763261e+01    0.2046349   0.06255336 -57.14 0.0009054449    3.860    0.741
        42 -10.1135      1.9795     36.9887   8.0669377034e+01   6.6912924453e+01    0.4447745    0.1156159 -51.40  0.002080871    2.331    0.571
        43  -7.8927     12.6534     41.3089   7.7732633317e+01   6.5396959241e+01    0.1037234   0.08661679 -82.82 0.0007044391    1.704    0.413
        44  -8.3954     21.6551     30.3319   7.0171811543e+01   6.6732170916e+01    0.1048372   0.08984739 -69.49 0.0007050209    1.759    0.431
        45  -8.6086     79.9981    209.4889   9.0299506097e+01   2.1617619021e+01    0.1959381    0.1345598  88.47 -2.383725e-05    1.369    0.269
        46  -9.6962    100.4505    227.9304   8.8669296052e+01   1.5376867614e+01    0.4568634    0.1784078  63.82  0.001659318    4.696    0.787
        47 -10.5096    249.5110     24.0237   1.6178216135e+01   1.9829691118e+01    0.4842335    0.3071816 -27.00  0.001763832    1.537    0.349
        48  -9.8306     72.4788    228.5196   9.3441305562e+01   1.9183716659e+01    0.2635913    0.1695807  34.31  0.001669189    2.009    0.502
        49  -7.9434    119.0459     27.5396   3.6696194184e+01   5.1464180421e+01    0.1753042     0.127138 -83.54 0.0008030505    2.252    0.556
        50  -8.6908     13.4923     22.9958   7.0743400223e+01   6.8697679189e+01    0.1472595   0.09290498 -63.81 0.0008101825    2.513    0.602
        51  -7.2055    121.6916     22.2879   3.4020873910e+01   5.1484385886e+01     0.133048    0.1089503 -59.27 0.0002974194    1.574    0.365
        52  -9.0855    109.6073    228.2207   8.7125899449e+01   1.3963630719e+01    0.1470076    0.1060073 -53.52 0.0009584919    1.672    0.402
        53  -9.4910     11.9713     13.2996   6.7222107544e+01   7.0426303604e+01    0.1617791    0.1165228 -22.47  0.001031482    1.083    0.077
