#   1 NUMBER                 Running object number                                     
#   2 MAG_AUTO               Kron-like elliptical aperture magnitude                    [mag]
#   3 X_IMAGE                Object position along x                                    [pixel]
#   4 Y_IMAGE                Object position along y                                    [pixel]
#   5 X_WORLD                Barycenter position along world x axis                     [deg]
#   6 Y_WORLD                Barycenter position along world y axis                     [deg]
#   7 A_WORLD                Profile RMS along major axis (world units)                 [deg]
#   8 B_WORLD                Profile RMS along minor axis (world units)                 [deg]
#   9 THETA_WORLD            Position angle (CCW/world-x)                               [deg]
#  10 FWHM_WORLD             FWHM assuming a gaussian core                              [deg]
#  11 ELONGATION             A_IMAGE/B_IMAGE                                           
#  12 ELLIPTICITY            1 - B_IMAGE/A_IMAGE                                       
         1 -14.4751    150.8603     60.0013   8.5311061268e+01   3.9925584881e+01     1.560055     1.189648  13.07  0.004511045    1.666    0.400
         2 -14.7418    162.6718     44.6021   7.7960358291e+01   3.9254200841e+01     1.291204     1.036345 -24.80  0.003576698    1.341    0.254
         3 -14.9524    178.1712     11.7672   6.5336206302e+01   3.9169462273e+01     1.964987     1.186237  68.56  0.006789684    1.484    0.326
         4 -12.0016    125.2636    239.1481   1.2922421580e+02   9.8516700185e+00    0.2787193     0.147998 -56.45  0.001545723    2.313    0.568
         5 -20.0946     76.6491    173.2337   1.3129488614e+02   3.0274512265e+01     16.92556     7.279319 -67.08   0.07395783    2.327    0.570
         6 -12.0712     30.7820    182.4838   1.4247876961e+02   3.3964644638e+01    0.2074258    0.1819067  69.17 0.0004162387    1.225    0.184
         7 -11.6583     27.5728    179.9455   1.4295041529e+02   3.4841585001e+01    0.2884796    0.2363999 -27.53  0.001924072    1.989    0.497
         8 -11.9221    150.8568    180.6672   1.1558266067e+02   1.5851456594e+01    0.2561241     0.206178 -63.41 0.0006494018    1.411    0.291
         9 -12.7433    177.8459    179.0996   1.0955525928e+02   1.0881199615e+01    0.3021072    0.2572476  89.10  0.001653369    1.527    0.345
        10 -10.6794     28.2759    237.8907   1.4659390506e+02   2.3343351527e+01    0.1356428   0.09543243  80.79 0.0004482916    1.165    0.141
        11 -10.2487    135.7528    237.0158   1.2700188036e+02   8.5113370874e+00    0.1502245    0.1308575  66.99 0.0003274787    1.186    0.157
        12 -11.8627    188.0154    175.1745   1.0670848713e+02   9.5764988598e+00    0.3858709    0.2016067 -56.10  0.001517455    2.886    0.654
        13 -11.6991    166.6764    174.4978   1.1102288300e+02   1.3936590634e+01    0.2622835    0.1792483 -79.29  0.001127375    2.472    0.595
        14 -13.1107    177.4145    170.8956   1.0804473577e+02   1.2460632033e+01    0.5771767    0.2935119 -57.71  0.002178952    2.999    0.667
        15 -11.3789     26.0686    172.7662   1.4268630376e+02   3.6548168792e+01    0.2840199    0.1910424  76.38  0.001255815    1.240    0.194
        16 -11.9468     21.6937    236.0039   1.4759883335e+02   2.4392351210e+01    0.1524961    0.1007558  78.32  0.001119056    1.157    0.136
        17 -10.5411     13.4526    236.3753   1.4897770002e+02   2.5181642824e+01    0.1024799   0.07173137  68.28 0.0002948573    1.051    0.048
        18 -11.8726    230.2461    166.9617   9.6982804755e+01   2.7886759802e+00    0.3906761    0.1681679 -46.21  0.001531409    2.955    0.662
        19 -10.7144    131.0550    234.0319   1.2753429725e+02   9.7553126226e+00    0.1680564    0.1566382  82.88 0.0006582989    1.230    0.187
        20 -10.5072    117.3760    232.1768   1.2992955180e+02   1.2260433653e+01    0.1566153    0.1256805  74.28 0.0008623437    1.247    0.198
        21 -11.6074    141.4328    229.0262   1.2491921669e+02   8.8664372964e+00    0.3026604    0.2445576 -85.58  0.001230993    1.522    0.343
        22 -11.3189    218.2330    219.9103   1.0907090473e+02  -2.7305420089e+00    0.2264114    0.1637654 -44.17  0.001268592    1.813    0.448
        23 -10.7944     17.6762    158.7212   1.4337393628e+02   4.0432499131e+01    0.2122891    0.1787585  23.33 0.0008348024    1.610    0.379
        24 -11.3683     17.7656    154.6176   1.4299937565e+02   4.1340561168e+01    0.3344004    0.1954496 -86.41  0.001340834    1.415    0.293
        25 -10.3946     18.0650    221.9153   1.4750067726e+02   2.7353667248e+01    0.1306797    0.1042623 -82.80 0.0003954807    1.383    0.277
        26 -10.3760    159.7052    248.0380   1.2391304927e+02   2.9863699211e+00    0.1911039    0.1394207  39.72 0.0004127019    1.071    0.066
        27 -10.7140     22.9719    156.1015   1.4192051764e+02   4.0540614193e+01    0.1796543    0.1438192  89.40 0.0004606627    1.032    0.031
        28  -9.9461    176.8279    154.8515   1.0484580193e+02   1.5603225359e+01    0.1978482    0.1755681  85.05 0.0004575207    1.332    0.249
        29 -12.3457    161.4252    153.2523   1.0787085932e+02   1.9168290917e+01    0.2958113    0.2722859  45.10 0.0008233983    1.037    0.036
        30 -13.1673     11.6132    206.1264   1.4781668428e+02   3.1026944105e+01    0.4221251    0.2340952  34.85  0.002731887    2.008    0.502
        31 -10.2654      7.2942    149.9102   1.4503667814e+02   4.3247191885e+01    0.2535118     0.130517 -39.80  0.001280132    3.107    0.678
        32 -11.8127    174.2865    148.5167   1.0400863360e+02   1.7371275474e+01    0.3652711    0.3183739 -63.87  0.001196866    1.291    0.225
        33 -12.1160     27.4350    145.5886   1.3979976081e+02   4.2515451605e+01    0.3156404     0.262073 -78.03  0.001026146    1.113    0.101
        34 -11.3334    138.7173    200.3444   1.2143537656e+02   1.4353984440e+01    0.2976118    0.2028251  67.31  0.001011154    1.714    0.417
        35 -10.8008    170.8518    137.2799   1.0220461047e+02   2.0342332278e+01    0.2415247    0.1887558  66.74 0.0005709131    1.467    0.318
        36 -11.2439    141.4804    198.5189   1.2057377562e+02   1.4197904201e+01    0.2675857    0.2198229  79.46 0.0006582281    1.368    0.269
        37 -11.0632    121.8861    198.7888   1.2476273294e+02   1.7611670970e+01    0.1972187    0.1790089 -82.28 0.0004304751    1.177    0.150
        38 -12.7347    160.4428    128.0368   1.0234831898e+02   2.4543507920e+01    0.4727901    0.3774612 -60.68  0.001489285    1.378    0.274
        39 -11.1973    163.5027    249.3769   1.2339128387e+02   2.1927123670e+00    0.2056738    0.1724417 -52.97 0.0008920372    1.565    0.361
        40 -12.3786     28.5492    126.9914   1.3732291502e+02   4.6725294522e+01    0.5110458    0.3495896  -2.40  0.002879696    2.283    0.562
        41 -11.0159    167.5869    112.6452   9.6853337389e+01   2.6024042346e+01    0.3820429    0.2640554  84.75  0.001275326    2.231    0.552
        42 -10.6536    127.1086    250.1156   1.3008828545e+02   7.8379655367e+00    0.1336138    0.1246182  73.60 0.0004212173    1.259    0.206
        43 -10.7372    205.3566    110.2705   8.8555749547e+01   1.7580397828e+01    0.3163411    0.2076127  47.05 0.0009053401    1.559    0.358
        44 -11.9334     37.0024    102.1708   1.3103194295e+02   5.1754064712e+01    0.2963342    0.1971558  15.83  0.001651717    1.943    0.485
        45 -12.5370    153.5150    186.2631   1.1599654677e+02   1.4271012410e+01     0.341702    0.2783881  82.79 0.0008182469    1.489    0.328
        46 -11.6953     12.9717    240.5181   1.4923733185e+02   2.4499535389e+01    0.1635227    0.1180282 -74.15  0.001292651    1.627    0.385
        47 -11.1457    161.3744    239.2354   1.2247401566e+02   3.9792731397e+00     0.349406    0.1842046  37.86  0.001528619    1.560    0.359
        48  -9.6751    242.3067    184.6711   9.8428221838e+01  -1.9423601901e+00    0.1136721    0.1042345 -67.54 0.0003298078    1.657    0.396
        49 -10.5922    144.0926     81.2833   9.3539124787e+01   3.7808615182e+01    0.2208217     0.201077  58.26 0.0005620715    1.102    0.093
        50 -10.1630    150.9175    240.0081   1.2452365281e+02   5.5774325401e+00    0.1692196    0.1267323  66.07 0.0005042581    1.511    0.338
        51 -11.6002    134.6981    242.9152   1.2789557424e+02   7.7527828419e+00     0.318363    0.1577655 -46.42  0.001093349    2.686    0.628
        52 -11.2139    138.9283    242.9824   1.2711868340e+02   7.0658302400e+00    0.2040262    0.1665383  87.44 0.0009548935    1.482    0.325
        53 -13.1598    166.7260     36.3823   7.4623451411e+01   3.9318587266e+01    0.4330482    0.4104232   2.93 0.0007916938    1.164    0.141
        54 -11.1228     13.5804     59.9240   1.3070374144e+02   6.3072944748e+01    0.1795718    0.1709589  35.69 0.0004447458    1.325    0.245
        55 -10.2995    143.0933     33.5099   7.8126774328e+01   4.5794223869e+01    0.2169106    0.1385619  62.73 0.0007407497    1.508    0.337
