#   1 NUMBER                 Running object number                                     
#   2 MAG_AUTO               Kron-like elliptical aperture magnitude                    [mag]
#   3 X_IMAGE                Object position along x                                    [pixel]
#   4 Y_IMAGE                Object position along y                                    [pixel]
#   5 X_WORLD                Barycenter position along world x axis                     [deg]
#   6 Y_WORLD                Barycenter position along world y axis                     [deg]
#   7 A_WORLD                Profile RMS along major axis (world units)                 [deg]
#   8 B_WORLD                Profile RMS along minor axis (world units)                 [deg]
#   9 THETA_WORLD            Position angle (CCW/world-x)                               [deg]
#  10 FWHM_WORLD             FWHM assuming a gaussian core                              [deg]
#  11 ELONGATION             A_IMAGE/B_IMAGE                                           
#  12 ELLIPTICITY            1 - B_IMAGE/A_IMAGE                                       
         1 -15.1816     33.3363     94.9617   1.1454649083e+02   5.3301943451e+01     2.656574     1.556608 -37.14    0.0131255    2.235    0.553
         2 -12.1044    130.6790     13.0028   5.5919201251e+01   5.0852027981e+01    0.4090733    0.2466022  48.02  0.001839104    1.627    0.385
         3 -12.2966      2.8880      3.2660   1.0552902088e+02   7.6796911244e+01    0.3350725     0.140887 -43.05  0.001713558    1.930    0.482
         4 -12.8810    145.4791    245.2123   1.0686559686e+02   9.9893274761e+00    0.2617617    0.1502331  31.62  0.001565915    1.384    0.278
         5 -15.0112     54.4761    169.8494   1.1746828618e+02   3.4175444264e+01     1.598212    0.8690822  68.39  0.008674517    1.887    0.470
         6 -14.8306     75.8599    183.1818   1.1394143960e+02   2.8912924955e+01     1.701312      0.83266  70.45  0.007868916    2.859    0.650
         7 -13.8828     64.6938    188.4515   1.1685678435e+02   2.9345957160e+01    0.7525227    0.5658249 -63.21  0.004122076    1.551    0.355
         8 -14.3443    118.5686    206.1172   1.0757091248e+02   1.9038431173e+01     1.463543    0.6455192  41.78  0.007756492    1.790    0.441
         9 -14.2833    102.9016    193.0238   1.0923464832e+02   2.3425975395e+01     1.047521    0.7082974  52.81  0.006564983    1.302    0.232
        10 -13.4816    131.4763    216.9649   1.0633423132e+02   1.5578498634e+01    0.6974123    0.5578417  75.87  0.004570912    1.596    0.374
        11 -14.9963    108.9014    221.7106   1.1106986408e+02   1.8019264871e+01     2.047862     1.024874  52.86   0.01056227    1.882    0.469
        12 -14.2330     90.9203    243.9870   1.1622517958e+02   1.7133134034e+01     1.466111     0.408303  40.53  0.007536482    2.395    0.582
        13 -12.9350    104.1126    238.0918   1.1342702413e+02   1.6304036647e+01    0.7022967    0.3450619  59.34  0.003756681    2.363    0.577
        14 -14.8122     84.4738    216.3466   1.1523422403e+02   2.2047448933e+01     2.527158      1.16865  67.52   0.01228929    3.185    0.686
        15 -12.4939     79.1591    223.4456   1.1681723776e+02   2.1591200151e+01     1.020163    0.4241992  67.56   0.00448361    4.133    0.758
        16 -11.0709     76.5926    249.9027   1.1911145849e+02   1.8015981734e+01    0.2165789    0.1136363  39.80  0.001515068    1.379    0.275
        17 -14.4532     39.9493    190.5197   1.2227108877e+02   3.1787621758e+01     2.760139     1.015643  68.79   0.01228931    3.354    0.702
        18 -15.5294     19.2265    180.6369   1.2610705655e+02   3.5712093922e+01     2.190629     1.232535 -89.37   0.01417344    1.617    0.381
        19 -14.4183     24.3864    166.0235   1.2414493393e+02   3.8138280275e+01     1.748331    0.5709054  61.74  0.007596787    3.140    0.681
        20 -15.9032     32.0247    216.5332   1.2526963168e+02   2.7996526103e+01     4.042072    0.7906259  53.50   0.01739566    3.776    0.735
        21 -14.5667     33.9923    244.2179   1.2610256651e+02   2.3428799947e+01    0.9212897    0.3754391  54.10  0.005398608    1.735    0.424
        22 -13.5867     41.8352    242.4435   1.2468825886e+02   2.2898252403e+01     0.908128    0.2795159  60.98  0.004685668    3.201    0.688
        23 -15.9489     16.2756    226.0347   1.2851791604e+02   2.7942451092e+01     2.016137    0.5162328  49.99   0.01126981    2.364    0.577
        24 -15.2846      6.9815    245.0813   1.3062992596e+02   2.5824841268e+01    0.9479501    0.4641095  56.11  0.007155878    1.353    0.261
        25 -14.7635     21.1077    244.9902   1.2829651331e+02   2.4558701024e+01    0.9594911    0.3019378  60.45  0.005705084    2.476    0.596
        26 -11.4553     69.6222    245.1626   1.2002258876e+02   1.9480671379e+01     0.350135   0.08483498  40.90  0.001780754    2.552    0.608
        27 -13.0886    150.5847    229.0728   1.0423903556e+02   1.1263477441e+01    0.6076342    0.4529205  -3.68  0.004320239    1.745    0.427
        28 -14.4090    160.1312    222.6865   1.0178929763e+02   1.0717904536e+01     1.074511     0.677388 -23.58  0.006822529    2.207    0.547
        29 -12.7157    142.4680    201.0746   1.0229622933e+02   1.6263294680e+01    0.3791302    0.3331822  43.37  0.002338758    1.121    0.108
        30 -12.6299    133.6266    200.9564   1.0399763209e+02   1.7616815783e+01    0.3773048    0.2933403  10.11  0.002470552    1.553    0.356
        31 -12.7120    131.2208    195.5596   1.0377593191e+02   1.8813698571e+01    0.6226247      0.32366  39.85  0.002786087    1.576    0.365
        32 -12.8112     41.5985    206.7746   1.2292377035e+02   2.8679134836e+01     0.942313    0.3482357  70.57  0.004406752    3.384    0.704
        33 -11.7102     50.3484    183.7212   1.1956605588e+02   3.1932046414e+01    0.3843012    0.1763577  69.72  0.001925671    2.453    0.592
        34 -10.7518     70.7337    231.4513   1.1895180731e+02   2.1370590401e+01     1.619624    0.2642193  43.88  0.006894895    3.471    0.712
        35 -14.3545     98.7856    172.1664   1.0757172036e+02   2.7775339037e+01     1.341752    0.6541365  58.48  0.006068102    2.485    0.598
        36 -12.6961    170.6727    172.1243   9.2416705162e+01   1.6018731654e+01    0.3776531     0.270034  30.96  0.002241491    1.238    0.192
        37 -13.6692     82.0215    169.6233   1.1106951136e+02   3.0679647954e+01    0.4334354    0.3471699   1.82  0.002593077    1.828    0.453
        38 -14.8611     72.3549    158.4987   1.1202086146e+02   3.4238955040e+01     1.479459    0.6014805  48.57  0.006685915    2.260    0.558
        39 -12.9853     95.8017    158.2712   1.0635452761e+02   3.0916051685e+01    0.2944909    0.2764868  71.00  0.001332609    1.083    0.076
        40 -13.4272    103.0398    158.7443   1.0471656028e+02   2.9700906110e+01    0.5985953    0.3548036  60.37  0.002967552    1.908    0.476
        41 -14.5512    103.8310    146.1284   1.0253651959e+02   3.2089858536e+01     1.684556    0.7144057  52.54  0.006656219    2.687    0.628
        42 -14.5256     84.6993    146.6644   1.0737741884e+02   3.4966145666e+01     1.285434    0.4163623  42.47  0.005031201    2.725    0.633
        43 -13.8402     12.5133     98.0345   1.2200427779e+02   5.4302070476e+01     1.000821    0.5647941 -20.75  0.004982852    2.863    0.651
        44 -15.4807    229.6181    229.5472   9.1231874678e+01   4.5323163197e-01     1.869663     0.976752  -9.75   0.01188303    2.218    0.549
        45 -14.2756      8.9166    129.7281   1.2570101019e+02   4.7232297160e+01      1.36308    0.4852701 -80.13  0.006423108    2.401    0.583
        46 -12.2226     43.0696    142.6102   1.1763196008e+02   4.1227758447e+01    0.5161033    0.2699905  85.40  0.002572457    2.070    0.517
        47 -11.1964     26.9312    144.2342   1.2198410265e+02   4.2507663640e+01    0.3367247    0.1199268  61.93   0.00139434    3.128    0.680
        48 -14.3720     77.8563    132.9177   1.0704918434e+02   3.8939392564e+01     0.768591    0.6634676  45.71  0.003576247    1.152    0.132
        49 -14.8003     96.0555    125.0019   1.0075139810e+02   3.7819451898e+01    0.9468015    0.5773636  53.62  0.004535497    1.695    0.410
        50 -13.8582    106.8734    126.1103   9.8113613511e+01   3.5722553068e+01    0.6370425    0.4959985  82.12  0.003364787    1.511    0.338
        51 -14.0460    105.2091    115.9117   9.6431383002e+01   3.8189440392e+01    0.9465829    0.6111619  77.83  0.004016899    2.416    0.586
        52 -14.5911     85.3503    112.6973   1.0129676336e+02   4.2304832677e+01     1.391749    0.7244493  45.99  0.006214503    1.910    0.476
        53 -15.2506     68.3711    112.9674   1.0634801014e+02   4.4821068017e+01     2.054412    0.6668086  47.46  0.007223103    3.369    0.703
        54 -11.5730     29.2674    129.3926   1.2004617396e+02   4.5600423599e+01    0.2538642    0.2282444  65.73  0.001222539    1.138    0.121
        55 -13.0309     49.0086    117.6987   1.1292319423e+02   4.6221009181e+01    0.6763188    0.3615561  68.90  0.003087379    2.281    0.562
        56 -13.9574    102.5343    100.8662   9.3702823693e+01   4.1933281628e+01    0.6856074     0.527894 -64.97  0.003511418    1.372    0.271
        57 -11.5677    199.9940    102.0000   7.2017269944e+01   2.1045440632e+01    0.2299061   0.07915837  52.56 0.0007201104    3.003    0.667
        58 -12.8256     91.9956     89.8312   9.4010757054e+01   4.6299073145e+01    0.4269862    0.2396796  61.18  0.001692248    2.481    0.597
        59 -14.0795     19.5169    117.3733   1.2170698250e+02   4.9225116361e+01     0.997877    0.5895322 -61.49  0.005703285    1.631    0.387
        60 -13.7633    216.9812     72.3329   6.1729294115e+01   2.1505457965e+01     1.075638    0.5243248 -59.76  0.003582931    4.175    0.760
        61 -11.8276     44.6259     68.0124   1.0493836244e+02   5.8551789213e+01    0.3599164    0.2929684 -34.87  0.002094282    1.328    0.247
        62 -12.8351      2.7341    146.4678   1.2823301816e+02   4.4028107694e+01    0.6189595    0.2216868 -77.47  0.003119737    2.387    0.581
        63 -13.1284     49.6879     68.9917   1.0318281173e+02   5.7696759228e+01    0.4043868    0.2899294 -66.11  0.001928276    1.306    0.234
        64 -13.3537     55.1065     66.5661   1.0039934040e+02   5.7542491460e+01    0.6892673    0.4395814  43.74  0.003227005    1.711    0.416
        65 -13.0459      2.1820    135.4186   1.2782902381e+02   4.6452654663e+01    0.6344838    0.2237902 -87.07  0.003015192    2.470    0.595
        66 -15.0152    247.7383    208.7127   8.5433496054e+01  -6.5348898022e-03     2.247765    0.6185533 -26.98   0.01052229    3.838    0.739
