#   1 NUMBER                 Running object number                                     
#   2 MAG_AUTO               Kron-like elliptical aperture magnitude                    [mag]
#   3 X_IMAGE                Object position along x                                    [pixel]
#   4 Y_IMAGE                Object position along y                                    [pixel]
#   5 X_WORLD                Barycenter position along world x axis                     [deg]
#   6 Y_WORLD                Barycenter position along world y axis                     [deg]
#   7 A_WORLD                Profile RMS along major axis (world units)                 [deg]
#   8 B_WORLD                Profile RMS along minor axis (world units)                 [deg]
#   9 THETA_WORLD            Position angle (CCW/world-x)                               [deg]
#  10 FWHM_WORLD             FWHM assuming a gaussian core                              [deg]
#  11 ELONGATION             A_IMAGE/B_IMAGE                                           
#  12 ELLIPTICITY            1 - B_IMAGE/A_IMAGE                                       
         1 -13.7949    219.6163      2.3516   4.7881507860e+01   3.1258800474e+01     1.982127    0.6466671  60.10  0.006171013    2.642    0.622
         2 -13.9914    190.0894     35.9127   5.8946673613e+01   3.4047753607e+01     0.989161    0.9222461 -77.50  0.003235104    1.118    0.105
         3 -14.9235    197.9344     26.3225   5.5566405887e+01   3.3435251170e+01      1.92554     1.336624  38.95  0.001305236    1.860    0.462
         4 -12.1156     39.3378     15.9935   9.0173277284e+01   6.5240371500e+01    0.3022738    0.1466601  -1.93  0.001411102    3.322    0.699
         5 -10.8830     66.4863      2.4983   7.5705004187e+01   6.3001528527e+01    0.1120929   0.08744919  18.69 9.960005e-05    1.016    0.015
         6 -10.7633     32.4323    228.0677   1.3261981989e+02   2.2996333462e+01    0.1907096    0.1254912  64.24 0.0005891699    1.282    0.220
         7 -16.3622     71.9221    148.9768   1.1452684286e+02   3.5926251287e+01     7.170933     3.875646  84.96   0.01577275    3.760    0.734
         8 -12.0022    129.8446    211.3561   1.1136811982e+02   1.2059324001e+01    0.3203002    0.2149712  83.71 0.0007936949    1.939    0.484
         9 -11.1925     39.3160    211.7080   1.2993719678e+02   2.5635972573e+01    0.2581703    0.1628077 -79.32  0.001567444    1.329    0.248
        10 -13.1705    106.9370    203.2743   1.1506952706e+02   1.7812614509e+01    0.9952352    0.3162904  50.16  0.001188652    3.389    0.705
        11 -12.7685    107.0189    210.3381   1.1607894784e+02   1.6243031760e+01    0.5971119    0.3777384  58.13  0.002326998    1.539    0.350
        12 -10.1680    198.5250    222.8652   9.9000587917e+01  -2.7423754981e+00    0.2012165    0.1673735  35.17  0.000540767    1.109    0.098
        13 -19.3988      9.5922    133.5860   1.2774623268e+02   4.5885854568e+01     17.89918     2.056234 -69.29   0.04074122    9.551    0.895
        14 -11.3482     70.6660    210.1658   1.2361799310e+02   2.1911729993e+01    0.2271543    0.1793237  76.14 0.0002590804    1.090    0.082
        15 -10.7600     33.1368    206.0998   1.3058520715e+02   2.7557415727e+01    0.2195911    0.1444827 -54.31  0.001328154    1.778    0.438
        16  -9.4451    163.4368    203.5583   1.0284853041e+02   7.4437914674e+00    0.1419948    0.1339075  52.72 6.340276e-05    1.002    0.002
        17 -10.9239    155.9107    200.0872   1.0385483714e+02   9.6047474517e+00    0.4063874     0.288332 -84.53  0.001460712    1.930    0.482
        18  -9.6679     64.2779    223.7434   1.2637983686e+02   1.9871741832e+01    0.1238488   0.07822189  71.33 0.0003099795    1.466    0.318
        19  -9.0870     43.6640    220.6679   1.2995769838e+02   2.3201706793e+01    0.1102937   0.08847865 -49.65 0.0007052147    1.736    0.424
        20 -10.9596     95.1489    200.2307   1.1718107158e+02   2.0433328913e+01    0.3233484    0.2321868  75.68 0.0007094116    1.420    0.296
        21  -9.8172     48.7013    217.6101   1.2872578918e+02   2.3227152697e+01    0.3337008    0.1968896  32.16  0.001840679    2.185    0.542
        22 -10.6631    209.9574    199.4827   9.2412595142e+01  -5.7624919045e-01    0.2462254    0.1932439 -57.91  0.000562589    1.504    0.335
        23 -11.9707    193.3033    193.3180   9.4614312224e+01   3.7508840509e+00    0.9486541    0.4692672 -57.40  0.003605208    2.761    0.638
        24 -11.3737    141.2397    198.0402   1.0670656953e+02   1.2828460085e+01    0.3164578    0.2428327 -77.86 0.0008074425    1.466    0.318
        25  -9.3734     46.0936    199.5417   1.2739249286e+02   2.7494052719e+01    0.1628924    0.1144239  47.59 0.0005640032    1.473    0.321
        26 -12.5853     33.2295    198.5855   1.2985025623e+02   2.9189586762e+01     0.242505     0.193141  50.00 0.0009033022    1.387    0.279
        27 -13.0693    112.4747    196.3770   1.1280031366e+02   1.8411584712e+01    0.6163223    0.4157831  15.04  0.002691534    2.565    0.610
        28  99.0000     60.1621    216.3521   1.2639760398e+02   2.2009934872e+01    0.9996728     0.378866 -52.65  0.003642193    3.185    0.686
        29 -13.2136     66.8230    191.3621   1.2210471645e+02   2.6676258649e+01    0.7742997    0.6165622 -62.46  0.003511128    1.266    0.210
        30 -10.7930     39.4787    192.9780   1.2803052159e+02   2.9735290923e+01    0.3154933    0.2028768  58.01  0.001873922    1.512    0.339
        31 -10.8765    152.4885    194.0377   1.0351731024e+02   1.1551039347e+01    0.3398434    0.1989736  59.08  0.001115936    2.008    0.502
        32  -9.4632     44.3460    211.2177   1.2893149617e+02   2.5140857696e+01     0.367139    0.2715186 -57.26  0.002331651    1.565    0.361
        33 -10.1652     81.8094    195.4644   1.1940746965e+02   2.3586461840e+01    0.2803254    0.2497705 -20.46  0.001665066    1.598    0.374
        34 -10.6947    150.9515    182.5364   1.0172231373e+02   1.4364189891e+01    0.2663518    0.2052884 -75.82 0.0004616623    1.490    0.329
        35 -11.4901     99.4838    180.8197   1.1324407046e+02   2.4190321691e+01    0.2602597    0.2400987  80.01 0.0006092773    1.053    0.050
        36 -11.1073    144.2589    179.1317   1.0259313860e+02   1.6437266452e+01    0.2624727    0.2081744  31.50 0.0008815179    1.388    0.280
        37 -11.0920     44.7691    195.5139   1.2722649165e+02   2.8552029556e+01    0.2453812    0.1766599  66.95 0.0003903602    1.288    0.224
        38  -9.3468    168.3090    176.6810   9.6691438853e+01   1.2174096904e+01    0.1529601     0.118618  84.74 0.0003608435    1.640    0.390
        39 -10.0739     66.0191    175.7088   1.2016316382e+02   3.0414905199e+01    0.1820883    0.1630262  74.26 0.0005455235    1.119    0.106
        40  -9.9744    165.4976    172.3311   9.6437658434e+01   1.3695153135e+01    0.2546359    0.2050195 -76.64 0.0006718213    1.435    0.303
        41 -10.0595     50.8789    172.8537   1.2320392647e+02   3.3003392111e+01    0.3196763    0.1703462  42.22  0.001612826    1.983    0.496
        42 -10.9215     45.6326    172.2835   1.2430617951e+02   3.3749408681e+01    0.3247254    0.2041658 -84.11  0.001142932    1.501    0.334
        43 -11.0385     42.2458    171.9954   1.2502409199e+02   3.4198253854e+01    0.3071221    0.1929019 -73.84 0.0008642217    1.348    0.258
        44 -11.4454    137.6293    170.8668   1.0253166890e+02   1.9610516512e+01    0.2845326    0.2660556  14.91 0.0009177101    1.232    0.188
        45  -9.6458    139.4178    167.4611   1.0144076039e+02   2.0042510297e+01    0.2307328    0.2081577  31.59  0.000484025    1.208    0.172
        46 -11.4304    194.7315    167.8089   8.9158194221e+01   8.6467285570e+00    0.3582123    0.3287691 -59.34 0.0008801424    1.120    0.107
        47 -10.6381    145.9954    168.5016   1.0011197600e+02   1.8500801372e+01    0.2293273    0.1481196  43.38 0.0004482103    1.543    0.352
        48 -10.1552    111.4139    168.3007   1.0826242602e+02   2.5092395019e+01     0.252864    0.1696432  63.33 0.0007542535    1.688    0.407
        49 -10.7911     55.6719    211.0429   1.2671293816e+02   2.3755365967e+01    0.2499381    0.2042199  67.17 0.0005271796    1.141    0.124
        50 -10.4339    190.0163    160.7964   8.8661105288e+01   1.1091709726e+01    0.2693061    0.2182065 -49.11 0.0006998319    1.227    0.185
        51 -10.9664    140.1956    156.9339   9.9106416133e+01   2.2311452834e+01    0.3342404    0.2546231  89.13 0.0007053298    1.621    0.383
        52 -12.9958     95.1658    154.8248   1.0974144349e+02   3.1046895441e+01    0.7852864    0.5198354 -42.60  0.003756387    1.647    0.393
        53 -11.1343    188.8287    154.9001   8.7636942305e+01   1.2590007375e+01    0.4765942    0.3615771 -70.37  0.002232268    1.584    0.369
        54 -11.6567    133.8858    145.0549   9.8094502004e+01   2.6313624101e+01      1.13462    0.3079146 -54.99  0.002906307    4.728    0.788
        55  -9.6653    113.3854    151.1375   1.0446683608e+02   2.8791648983e+01     0.220891    0.1365685 -66.79 0.0009443476    1.794    0.443
        56 -12.5140     51.1364    208.2663   1.2731240446e+02   2.4943852664e+01    0.4488771    0.2727631  60.05  0.001614162    1.540    0.350
        57 -10.2803    174.9109    149.1010   8.9381131124e+01   1.6815597699e+01    0.2412314    0.2107445  88.91 0.0005385854    1.261    0.207
        58 -11.4644    144.1830    146.9859   9.6016514983e+01   2.3786730234e+01    0.4036656    0.2816194 -82.39  0.001696345    1.998    0.500
        59  -9.5087    160.2707    147.6028   9.2362002599e+01   2.0280655333e+01    0.1619356    0.1206176 -81.97  0.000698326    1.736    0.424
        60 -13.5679     56.2703    204.9374   1.2593131196e+02   2.5020894149e+01    0.5623664    0.4581037  76.21  0.001653893    1.071    0.067
        61 -11.8130    106.7835    140.3261   1.0390735490e+02   3.2510620568e+01    0.5331647    0.3354166 -31.11  0.002259249    2.142    0.533
        62 -12.5663     94.7972    140.5013   1.0704700488e+02   3.4497329284e+01    0.3058446    0.2569923 -45.90 0.0003957781    1.186    0.157
        63  -9.8166    112.6332    141.3105   1.0261501035e+02   3.1236299191e+01    0.1570627    0.1148293  78.86 0.0007037687    1.760    0.432
        64  -9.6270    128.2342    139.4008   9.8250499458e+01   2.8734505900e+01    0.2150017    0.1422386  53.14 0.0009485501    1.609    0.379
        65 -11.1521    114.4188    130.5983   9.9804424654e+01   3.3392578253e+01    0.3416403    0.3006081 -15.99 0.0006696175    1.316    0.240
        66 -12.2306    119.1705    127.1906   9.7790660074e+01   3.3280307187e+01    0.7851015    0.3813016 -47.24  0.003106224    1.994    0.498
        67 -11.0773    101.9785    126.7743   1.0222384951e+02   3.6487308784e+01    0.2932591    0.2331127 -28.93 0.0006006303    1.418    0.295
        68  -8.9343    144.7207    129.3036   9.1858328911e+01   2.7670503880e+01    0.1530861    0.1211437 -87.70 0.0002109609    1.549    0.354
        69 -10.0475    160.9919    127.8106   8.7642519814e+01   2.4497036424e+01    0.2389369     0.174331 -68.87  0.001058066    1.628    0.386
        70 -10.9894    106.0557    130.9138   1.0206408711e+02   3.4827444926e+01    0.3577548    0.3050409 -72.07  0.001180833    1.206    0.171
        71 -10.7346    135.6254    123.7824   9.2790195898e+01   3.0789594318e+01    0.2956212    0.1454548 -57.99  0.001057604    2.456    0.593
        72 -10.2839    109.9587    119.3140   9.8371373616e+01   3.6766803268e+01    0.2405374    0.2009364 -45.68 0.0004360312    1.153    0.133
        73 -12.1651     61.2949    203.9433   1.2480031504e+02   2.4580068582e+01    0.3937515    0.2486253 -84.39 0.0007526573    1.480    0.324
        74 -10.0239    168.0797    112.8812   8.2417816673e+01   2.6087484825e+01    0.3324289    0.2247997 -83.08  0.001320672    2.289    0.563
        75 -11.0865    120.4293    111.2139   9.3620714968e+01   3.6581581970e+01    0.2943732    0.2484602  65.35  0.001138211    1.324    0.245
        76  -9.3991    102.5594    110.4065   9.8236252944e+01   4.0049951360e+01    0.1408013    0.1359626 -55.69 0.0001571531    1.043    0.041
        77 -10.0144    205.7900    110.0538   7.4005229494e+01   1.8072835692e+01    0.2506656    0.2143753  61.82 0.0005900048    1.188    0.158
        78 -16.4978     80.2315    245.9617   1.2567860530e+02   1.3063217837e+01     8.381572     2.938944  32.50   0.02788653    5.408    0.815
        79 -10.5104     37.5938    222.7475   1.3125458600e+02   2.3494943699e+01    0.3247751    0.2584609   6.57   0.00203729    2.380    0.580
        80 -11.7445     41.9529     91.1426   1.1145681546e+02   5.2417275753e+01     0.372246    0.2176255 -55.66   0.00123117    1.494    0.331
        81 -11.4350     53.0710     90.3715   1.0785109646e+02   5.1408487373e+01    0.2593637    0.1765372 -56.36  0.001391015    1.394    0.283
        82 -11.6468    163.4090     64.2340   7.0898586599e+01   3.6189725044e+01    0.3452661    0.2659612 -87.50 0.0007441218    1.556    0.357
        83 -11.2071    163.3679     55.7687   6.8650781934e+01   3.7515359567e+01    0.2343817    0.1885348 -21.63 0.0008047588    1.462    0.316
        84 -10.1987    172.3023    238.6728   1.0686752270e+02  -8.8458995824e-01    0.2293979    0.1644586 -64.89  0.001245748    1.784    0.439
        85 -13.7254    179.0260     45.4417   6.3078695363e+01   3.5354342027e+01    0.9280955    0.7330253 -27.91 0.0008666443    1.487    0.327
        86  -9.6521     61.5799    235.1997   1.2802687240e+02   1.7861671856e+01    0.2649904    0.2006342  -8.92  0.001386668    3.215    0.689
        87  -9.9526     53.7210    230.4729   1.2901663607e+02   1.9879646746e+01    0.3554292    0.1559351 -77.91  0.001726019    2.278    0.561
        88  -9.5762    154.1494     25.4094   6.2201093095e+01   4.3638771841e+01    0.1904489    0.1145688  73.19 0.0009432494    1.779    0.438
        89  -9.8244     71.9715    230.0997   1.2558000760e+02   1.7461009476e+01    0.1804173    0.1273732  70.02 0.0003904751    1.221    0.181
        90 -10.8845    189.9454     14.9867   5.4007337558e+01   3.6587658194e+01     0.199822    0.1671919  79.41 0.0007219787    1.004    0.004
