#   1 NUMBER                 Running object number                                     
#   2 MAG_AUTO               Kron-like elliptical aperture magnitude                    [mag]
#   3 X_IMAGE                Object position along x                                    [pixel]
#   4 Y_IMAGE                Object position along y                                    [pixel]
#   5 X_WORLD                Barycenter position along world x axis                     [deg]
#   6 Y_WORLD                Barycenter position along world y axis                     [deg]
#   7 A_WORLD                Profile RMS along major axis (world units)                 [deg]
#   8 B_WORLD                Profile RMS along minor axis (world units)                 [deg]
#   9 THETA_WORLD            Position angle (CCW/world-x)                               [deg]
#  10 FWHM_WORLD             FWHM assuming a gaussian core                              [deg]
#  11 ELONGATION             A_IMAGE/B_IMAGE                                           
#  12 ELLIPTICITY            1 - B_IMAGE/A_IMAGE                                       
         1 -11.9158     58.0526     69.6116   1.1876965904e+02   5.4766608344e+01     1.579342    0.7126012 -66.85  0.006467295    2.639    0.621
         2 -12.0035     51.6556     34.6026   1.1057798405e+02   6.3005258596e+01     1.222276    0.9594506  -5.61  0.005964454    1.356    0.263
         3 -12.5777     40.9518     65.0718   1.2365524086e+02   5.7561774842e+01     1.629476     1.128397  48.70  0.009565616    1.766    0.434
         4 -12.0270     37.8227     47.0770   1.2031525629e+02   6.1830567084e+01     1.262245    0.8959426  74.24  0.006977069    2.137    0.532
         5 -11.5433    110.9201     64.7569   1.0024557087e+02   4.7497482404e+01     1.349011    0.7043294 -24.30  0.002279259    2.657    0.624
         6 -11.2747     97.7956     43.1427   9.6695463340e+01   5.4125984902e+01     1.402018    0.6132883 -25.50  0.002549764    3.162    0.684
         7 -10.8771    108.0699     32.4377   8.9205739086e+01   5.3860274467e+01     1.081169    0.7309164 -40.34  0.003500197    1.547    0.354
         8 -12.2549    163.6454     10.9874   6.7780262451e+01   4.2793949645e+01     1.513013     1.114844  16.98  0.007362958    1.398    0.285
         9 -11.2210    121.6420     38.1300   8.7584110395e+01   4.9964680151e+01     1.576515    0.8672208  -2.99  0.005484282    3.020    0.669
        10 -12.2809    135.7048      5.3113   7.0656023561e+01   5.0714682790e+01     1.294033    0.7831442  67.78  0.005766914    1.789    0.441
        11 -10.7859    124.1908      2.9485   7.2080338027e+01   5.3861301297e+01     0.455225    0.2835348  39.75 0.0003694581    1.472    0.321
        12 -10.9501    147.5867     25.8711   7.6456077705e+01   4.5376922052e+01     1.040338    0.5569345  22.00  0.003831729    2.479    0.597
        13 -11.5183    148.7337     16.3718   7.2533667550e+01   4.6193539418e+01    0.9984874    0.5951201  -5.25  0.003405392    1.845    0.458
        14 -11.9522    130.6053     20.4819   7.8138011784e+01   5.0332143911e+01     1.235071    0.6796722  56.96  0.005145201    1.839    0.456
        15 -12.3905     71.6989     31.1282   1.0112344554e+02   6.0890077210e+01      2.01673    0.9785966  38.27  0.009098507    2.263    0.558
        16 -11.9860     68.3084     20.7787   9.7926168387e+01   6.3258431756e+01     1.324016    0.5932201  24.93  0.002282182    3.401    0.706
        17 -12.1119     88.2177     32.4566   9.5635992110e+01   5.7821548298e+01     1.889824    0.4809202 -39.92  0.005886342    3.650    0.726
        18 -12.4347     92.4411     16.8800   8.7279051545e+01   5.9468338764e+01    0.5919451    0.3378839 -11.93  0.002599368    1.958    0.489
        19 -11.3867    127.4058     15.3413   7.6742210837e+01   5.1742661797e+01      1.44068    0.3098543  44.06  0.003805433    4.625    0.784
        20 -10.7211    123.5603     10.3023   7.5479274422e+01   5.3261198347e+01    0.4014026    0.3524974  60.22  0.001024716    1.264    0.209
        21 -12.3668    112.1568     21.9603   8.3564589661e+01   5.4514015190e+01    0.7015014    0.6447852  64.96  0.001926472    1.337    0.252
        22 -11.6462    117.0803     15.6853   7.9471097634e+01   5.4195015254e+01    0.3186309    0.2860141   4.44 0.0004117792    1.042    0.041
        23 -13.2772     99.8517      6.6855   8.0075005914e+01   5.9217301403e+01    0.8333327    0.4734702 -30.92 0.0007991603    1.744    0.427
        24 -12.0262     93.2610      8.4205   8.2935704027e+01   6.0431699170e+01    0.5866528    0.4314729  25.66 0.0006817207    1.276    0.216
        25 -12.4191     20.5600     42.9862   1.2629838756e+02   6.4064959801e+01    0.7085822    0.4382524  79.39 0.0008307172    2.464    0.594
        26 -11.5090     77.8734      7.4846   8.7703215396e+01   6.3628526909e+01    0.6481441    0.4040087  -6.86    0.0013574    1.659    0.397
        27 -12.2751     18.9812     13.7307   1.1796797353e+02   7.0328149890e+01     1.458208     0.925463  51.34  0.008109134    2.716    0.632
        28 -11.8244     29.0831     25.9743   1.1748402303e+02   6.7065218980e+01     1.778445    0.5216263 -44.01  0.007345753    2.677    0.627
        29 -11.5594     69.5289      4.4211   8.9251552274e+01   6.5571051188e+01    0.7722417     0.432678  25.23  0.003704519    1.954    0.488
        30 -11.8387     57.9339      4.2731   9.3995487939e+01   6.7529908398e+01      1.13284    0.4789043  47.39  0.004837248    3.082    0.676
        31 -11.8595      8.1397     26.5603   1.2762256312e+02   6.8318789728e+01    0.8361134      0.37927   0.57  0.004350068    3.023    0.669
        32 -12.5246     50.2907     10.9524   1.0095956518e+02   6.7588421850e+01    0.4257715     0.387926  37.71  0.000304882    1.496    0.332
        33 -11.3812      8.4619     19.3539   1.2540349086e+02   6.9823560815e+01    0.4303609    0.2633681   9.78  0.001585755    2.015    0.504
        34 -11.4134     40.9388     20.6570   1.0982670950e+02   6.6977907868e+01    0.3561969    0.2010295 -46.40  0.001194252    1.487    0.328
        35 -11.3307     42.2488     14.6838   1.0656343589e+02   6.7947914853e+01    0.8055142    0.5585768  46.87  0.004577385    2.129    0.530
        36 -11.5019      2.8585     18.6041   1.2803614702e+02   7.0237566865e+01    0.4627101    0.1716329 -61.56  0.001951693    1.914    0.477
        37 -13.0148      6.6754     11.9375   1.2393593343e+02   7.1442434080e+01     1.196156    0.4829465 -51.93  0.006474716    1.691    0.409
        38 -10.0123    185.5336     14.1069   6.5536549474e+01   3.6608973720e+01    0.5762805    0.4146934  -6.24  0.002230405    1.439    0.305
        39 -11.7557    184.5159     26.7579   6.9956464467e+01   3.5549349234e+01    0.7118834    0.4067871  20.15  0.001022435    2.195    0.544
        40 -10.2527    166.4382     25.1911   7.2487168797e+01   4.0529440888e+01    0.6374163    0.3927136  24.31  0.002589312    1.836    0.455
        41 -10.6484    243.8852     19.7275   6.0428328774e+01   2.1214875809e+01    0.6084634    0.3649486  78.51  0.002953668    1.933    0.483
        42  -9.2585    231.0402     16.5485   6.0822314216e+01   2.4604217599e+01    0.4727071    0.1893933 -44.83  0.001797348    2.660    0.624
        43  -9.3544    221.7166     11.2662   6.0262657257e+01   2.7418332659e+01    0.4377108    0.2107452 -40.90  0.001343162    2.058    0.514
        44 -10.1094    212.6670     15.4201   6.2487059238e+01   2.9333742496e+01    0.6454357    0.4478102 -10.09   0.00266279    1.474    0.321
        45  -9.8288    217.3502     14.4072   6.1654124769e+01   2.8231422772e+01    0.4552944    0.3072153   2.00   0.00159533    1.633    0.388
        46 -10.4988    202.1058     19.1058   6.4922658310e+01   3.1715797948e+01    0.5729756    0.3665019  31.11   0.00186718    1.697    0.411
        47  -9.3496    197.9260     16.8356   6.4745839795e+01   3.3042468512e+01    0.3216344    0.2429415  48.79 0.0009048198    1.285    0.222
        48 -10.3981     54.6305     18.1125   1.0244740520e+02   6.5757527147e+01     0.515944    0.3040778 -13.23  0.001680881    2.100    0.524
        49 -10.9645    233.5602     11.7739   5.9233300466e+01   2.4435818437e+01    0.7058172    0.4002705 -66.73  0.000638718    2.253    0.556
        50 -12.1391    223.7814      2.3386   5.7479032882e+01   2.7686578284e+01    0.5770414    0.3783305 -47.15  0.002914894    1.548    0.354
        51  -9.5496    230.0040      3.2800   5.7185850029e+01   2.6060579512e+01    0.3921964    0.2177641  26.46  0.001721639    2.279    0.561
        52  -9.8879    243.3148     12.5235   5.8538297873e+01   2.2028712914e+01    0.4133521    0.2545561 -22.03   0.00155822    1.511    0.338
        53 -10.3024    189.9477      8.3165   6.3004427111e+01   3.5971950723e+01    0.3100125     0.235075  49.36 0.0003538378    1.261    0.207
        54 -10.7838    196.0723      4.7646   6.1091886521e+01   3.4652937809e+01    0.6751695    0.5844688 -31.95  0.003728814    1.176    0.150
        55 -11.4296    204.1061      6.6545   6.0768483014e+01   3.2367254415e+01      0.56086    0.4146948  28.39 0.0003497689    1.426    0.299
        56 -11.8624    209.5766      3.6270   5.9244886798e+01   3.1202451764e+01    0.5724041    0.3865946 -89.87 0.0005395981    1.659    0.397
        57  -9.0136    180.5810      7.2770   6.3897652894e+01   3.8580603148e+01    0.4523759     0.199192  -9.69  0.001656648    2.602    0.616
        58  -9.6702    171.2292      1.3146   6.3096648487e+01   4.1620344281e+01    0.2999582    0.1325783  68.30  0.001149852    2.195    0.544
        59  -9.8392    173.3749      8.9008   6.5496523539e+01   4.0374528414e+01    0.2812965    0.2478784   1.89 0.0005476913    1.129    0.114
        60  -9.9520    175.5467      4.1969   6.3520048091e+01   4.0209988566e+01    0.5415963     0.244588  60.19  0.002162367    1.989    0.497
        61 -10.5095    246.9072      6.2302   5.6555568416e+01   2.1752878506e+01    0.6140528    0.2844749 -56.21  0.002580718    2.572    0.611
        62 -10.6811     26.1656      4.9575   1.1020149718e+02   7.1408007998e+01    0.6646926    0.1860679 -38.76  0.002627124    3.058    0.673
        63  -9.1909    157.7060      7.0711   6.7298834853e+01   4.4757904739e+01    0.2999306    0.2353224 -53.39 0.0009515077    1.499    0.333
        64 -10.9420    113.3373      9.0749   7.7475339704e+01   5.5859868584e+01     1.131859     0.736575  39.22  0.005483157    1.432    0.302
        65  -9.0893     32.8257      4.1272   1.0616402001e+02   7.0885676388e+01    0.4342043    0.1826983  14.77  0.001688637    4.243    0.764
        66  -9.4543    249.3620      3.7103   5.5701120539e+01   2.1403246200e+01    0.2587953     0.204584 -63.88  0.001212431    1.308    0.236
        67  -8.3368    189.4888      1.4342   6.0783626562e+01   3.6690230502e+01    0.1461143    0.1334653  40.60 0.0001070768    1.053    0.051
        68 -12.3460     86.3238     54.7027   1.0467925330e+02   5.3965762113e+01     1.372799    0.6071634 -46.56  0.002876524    2.115    0.527
        69  -8.7994    235.4859    249.5251   1.1147430212e+02  -2.5021965215e+00    0.1061705    0.0695167  26.18 0.0002494977    1.011    0.011
        70  -8.7467    173.5034    250.4999   1.2130129750e+02   5.9966720192e+00    0.1059614   0.07351042  36.27 3.423542e-05    1.002    0.002
        71  -8.5736    125.3069    250.3290   1.2898968621e+02   1.2553761312e+01   0.09230075    0.0681664  22.13 0.0007038199    1.657    0.397
        72 -11.1031      3.3115     89.2857   1.3955972665e+02   5.4728349532e+01    0.5559918     0.252483 -68.12  0.003174378    1.659    0.397
        73 -12.0018     12.0326     87.5592   1.3684114363e+02   5.4635509528e+01    0.5455242    0.3088454  62.51  0.003219928    1.966    0.491
        74 -11.5882      4.4605     80.5711   1.3832979048e+02   5.6586989381e+01    0.5803772     0.330063 -65.01  0.002686333    1.369    0.269
        75  -8.6853     25.7063    248.6134   1.4409375649e+02   2.3975075702e+01    0.1221773   0.05302614  48.07  0.000937857    1.543    0.352
        76  -8.4892      3.3257    246.3267   1.4717417453e+02   2.6240100047e+01   0.06651296   0.06142433 -88.12  0.000704967    1.696    0.410
        77 -10.0737    142.0247    243.5342   1.2566976006e+02   1.1125816636e+01    0.2250655     0.144994  35.48 0.0004739657    1.254    0.202
        78 -12.1125      4.8836    116.3071   1.4139516438e+02   4.8837763117e+01    0.7806287    0.2368073 -65.15  0.003906072    2.545    0.607
        79 -12.0783     17.1832    102.3261   1.3699796172e+02   5.1060196284e+01     1.115947      0.55066  87.07  0.006002357    2.032    0.508
        80 -11.2113     21.5657     96.5008   1.3512474916e+02   5.2042313608e+01     0.392774    0.3090494 -27.45  0.001164944    1.628    0.386
        81 -10.7241    104.8240    116.3661   1.1542314156e+02   3.7919089599e+01    0.5712167    0.1789417  39.06  0.002026104    3.198    0.687
        82 -10.1112     97.7602    114.8113   1.1695246263e+02   3.9372901526e+01    0.3497667    0.2766285  42.89  0.001113105    1.280    0.219
        83 -10.0031     40.0922    116.5884   1.3252060318e+02   4.6118642601e+01      0.41271    0.1990493  69.91  0.001915307    2.785    0.641
        84  -9.8132     12.6664    117.3063   1.3956404162e+02   4.8134392781e+01    0.2640131    0.1710344  47.28  0.001682097    1.588    0.370
        85  -8.9187     27.8415    115.9016   1.3561020371e+02   4.7323054307e+01     0.163809    0.1255453 -66.42 0.0002688524    1.204    0.170
        86  -9.9732    132.6913    111.3184   1.0721793984e+02   3.3982069910e+01    0.4482652    0.3234729 -31.58  0.001906833    1.494    0.331
        87  -9.9945    133.5760    104.2085   1.0527318746e+02   3.5205887512e+01    0.5340806    0.2249958 -41.11   0.00201842    2.424    0.588
        88 -11.4297     38.4534     90.4279   1.2931251969e+02   5.2068270566e+01     1.410132    0.6578922 -48.17  0.007036875    2.091    0.522
        89  -8.8475    194.3308    112.3181   9.3625325381e+01   2.0891799048e+01    0.1577449    0.1060219  14.81 0.0003615032    1.688    0.407
        90  -9.0035     93.1952    111.4188   1.1748429772e+02   4.0798321666e+01     0.283824    0.2052891  17.42  0.001247212    1.771    0.435
        91  -9.3244     34.6182    109.3722   1.3308126621e+02   4.8183320524e+01     0.294593     0.238085 -76.60  0.002039648    1.044    0.042
        92  -8.7576     38.6156    107.2410   1.3172229584e+02   4.8301716279e+01    0.1753391    0.0890119 -59.63 0.0009320605    1.698    0.411
        93  -9.6858    105.4800    109.4967   1.1380194641e+02   3.9250318392e+01    0.3107656    0.2809496  75.70  0.001272926    1.188    0.158
        94  -9.5325    120.2973    109.0255   1.0981770801e+02   3.6763220291e+01    0.2487992    0.2050239  40.31 0.0007570822    1.209    0.173
        95  -8.8937     97.4434    103.7137   1.1470502391e+02   4.1787293704e+01    0.2821816     0.196024  64.07  0.001395441    1.818    0.450
        96 -10.7017     68.3416     76.1236   1.1695318383e+02   5.2055519820e+01     1.012268    0.3585382 -50.78  0.004029525    2.417    0.586
        97  -9.0199    150.8633     99.8657   9.9912249399e+01   3.2481246445e+01    0.3517603    0.1683439 -48.33  0.001322133    2.443    0.591
        98  -9.1151    140.8035    101.0512   1.0266767665e+02   3.4363702323e+01    0.2189954    0.2056569 -66.11   0.00111123    1.211    0.174
        99 -10.3024    114.6666     96.3015   1.0823291110e+02   4.0400490227e+01    0.4020241    0.2525609 -49.20  0.001595435    1.584    0.369
       100  -9.4484    114.5104    100.4786   1.0931044504e+02   3.9565940810e+01    0.3382563     0.276589  67.36  0.001793608    1.451    0.311
       101 -10.4690    117.5237     98.4622   1.0800546355e+02   3.9430851611e+01    0.5759042    0.3616467  43.89  0.002127875    1.621    0.383
       102  -9.0101     63.6969     98.0654   1.2313563836e+02   4.7737770858e+01    0.2766571    0.1648341 -41.84  0.001410971    1.829    0.453
       103  -9.8160    159.4767     96.7812   9.7062250746e+01   3.1174621730e+01    0.3890733     0.312063  14.72  0.001409228    1.313    0.238
       104  -9.7269    187.9628     93.1706   8.9889686078e+01   2.5330447095e+01    0.4406163     0.307723 -37.63  0.001536894    1.495    0.331
       105 -11.7058     97.0347     61.9189   1.0357134385e+02   5.0663691876e+01     1.005869    0.7165819 -21.73  0.003043037    1.538    0.350
       106 -11.2130    106.0695     53.7650   9.7987040803e+01   5.0557141609e+01     1.410354     0.670462  33.63   0.00510124    2.513    0.602
       107 -10.0740     89.7743     78.1052   1.1066623698e+02   4.8518480625e+01    0.5749701    0.2848719  32.84  0.002447869    2.302    0.566
       108 -12.5470    102.8661     82.1080   1.0782433435e+02   4.5472638751e+01     1.473912     1.064119 -68.43  0.004634836    1.763    0.433
       109 -12.1686    123.0539     66.9455   9.7474229558e+01   4.4613320214e+01     1.225171     1.100718   2.12  0.006608517    1.092    0.084
       110 -10.5402    102.1608     70.6071   1.0471085713e+02   4.7979933814e+01    0.6148285     0.410526 -61.13   0.00244265    1.872    0.466
       111  -9.2144    210.9257    240.6926   1.1414685358e+02   1.6587513726e+00    0.1708914    0.1239778   6.59  0.001313402    1.389    0.280
       112 -10.2329    128.1548     47.9838   8.9536185788e+01   4.6882816497e+01    0.7591907    0.4538063  14.38  0.002873269    2.501    0.600
       113 -10.3975    130.6250     40.3285   8.6028837328e+01   4.7543050980e+01    0.5569825    0.3709683 -12.73  0.001510424    1.615    0.381
       114 -10.7156    135.1815     34.2241   8.2533910154e+01   4.7364405994e+01    0.4064112    0.3017925  38.35 0.0004922416    1.302    0.232
       115 -11.2660    141.4050     40.5125   8.3405930028e+01   4.4925012479e+01     0.799455    0.7027051  51.97  0.003153367    1.209    0.173
       116 -10.6211    147.7727     35.0769   7.9903860796e+01   4.4119832215e+01     1.167613     0.236718  53.57  0.003159377    4.116    0.757
       117  -8.8723    206.4979     91.5336   8.5858201949e+01   2.1311017666e+01    0.3164834    0.1407905 -29.27  0.001034548    2.175    0.540
       118  -9.1176    194.2544     90.3773   8.7867480014e+01   2.4310645975e+01     0.290911    0.2072457 -21.33  0.001382095    1.379    0.275
       119  -9.2855     74.2930     88.9913   1.1811217693e+02   4.8415741603e+01    0.2522153    0.2093025  33.32  0.001156125    1.328    0.247
       120  -9.1073     76.8500     85.0559   1.1642415950e+02   4.8936209480e+01     0.347502    0.1732925 -58.71  0.001331861    1.942    0.485
       121  -9.8771    153.0060     87.4288   9.5981490089e+01   3.4291164162e+01    0.3267026    0.2659671  40.32  0.000860231    1.209    0.173
       122  -9.1488    238.3432     86.1850   7.9070629185e+01   1.4894752662e+01    0.2095565    0.1715456  17.40  0.001150988    1.138    0.121
       123  -9.7275    160.9954     82.3061   9.2622867215e+01   3.3383886660e+01    0.5508435    0.4737094 -79.36  0.002736336    1.558    0.358
       124 -10.5626    134.4765     80.8681   9.8697649089e+01   3.9553911681e+01    0.6905733    0.3465619 -37.65   0.00276032    1.973    0.493
       125  -9.8942    216.8134     81.8119   8.1376940532e+01   2.0310297929e+01    0.4669491    0.1739629 -19.05  0.001464056    3.389    0.705
       126  -9.7133     17.2720     82.2926   1.3460375584e+02   5.5491005402e+01    0.2398092    0.1778463   2.42  0.001471007    1.813    0.448
       127 -10.7504    143.9633     76.7479   9.5039128185e+01   3.8250230140e+01    0.4939252    0.3307139 -30.05  0.001675386    1.495    0.331
       128 -10.4998    150.2327     75.2090   9.3026971088e+01   3.7105697773e+01    0.8113401     0.427022 -21.48  0.002993784    2.401    0.584
       129 -10.3050    138.6346     74.0667   9.5564667169e+01   3.9925325115e+01    0.4419498    0.2334543 -41.25  0.001774314    1.898    0.473
       130  -9.1386    155.2277     71.2501   9.0608056299e+01   3.6633419943e+01    0.3761321    0.2063528 -29.57  0.001514229    1.840    0.456
       131 -10.4794    151.8961     67.0418   9.0061911635e+01   3.8136005817e+01    0.8170747     0.303116  45.82  0.002754619    2.638    0.621
       132  -9.7432    132.2182     68.2227   9.5395737995e+01   4.2411294734e+01    0.4751996    0.3388582  63.17  0.001909248    1.793    0.442
       133  -9.8486    143.7494     71.0137   9.3314984734e+01   3.9331734831e+01    0.3356069    0.2952566 -39.60 0.0008510653    1.191    0.160
       134 -10.2686    139.3580     68.0118   9.3468514738e+01   4.0863006527e+01    0.6049697    0.4524522   4.31  0.002146443    1.559    0.358
       135 -11.3691    118.7789     86.2715   1.0445537760e+02   4.1679073966e+01    0.8739369    0.5760362  56.69  0.001097386    1.842    0.457
       136  -9.4198    123.2740     81.0927   1.0175305383e+02   4.1828851930e+01    0.3337366     0.206303  27.02  0.001170627    1.962    0.490
       137 -11.2051    122.2028     55.7765   9.3958385232e+01   4.6854674581e+01    0.7710384    0.5873248  27.70   0.00223997    1.359    0.264
       138  -9.4357     36.9578     75.5426   1.2719337807e+02   5.5557743805e+01     0.232538    0.1745863 -44.43  0.000715001    1.298    0.229
       139  -9.4066     17.6333     73.7921   1.3328732294e+02   5.7373273282e+01     0.300321    0.1787931 -85.86   0.00133637    1.610    0.379
       140  -9.2870     21.0213     72.0210   1.3188925544e+02   5.7556089965e+01    0.2327439    0.1926395  60.92  0.001622382    1.384    0.278
       141  -8.3903    192.6367     73.8083   8.3453468835e+01   2.7203314777e+01    0.2288879    0.1330485 -36.69 0.0009560204    1.739    0.425
       142  -9.6199    214.9072     71.7360   7.8887096627e+01   2.2130817491e+01    0.4016418     0.227791 -16.17  0.001264645    1.819    0.450
       143  -9.9497      4.8409     70.4811   1.3702755485e+02   5.8804300804e+01    0.3972887    0.2860499  51.63  0.001861176    1.621    0.383
       144  -9.1535      8.3409     50.6421   1.3280309136e+02   6.3053361072e+01    0.4809947    0.2537573  53.30  0.002617719    2.599    0.615
       145 -10.6489     12.9000     56.5607   1.3213567913e+02   6.1506229912e+01    0.2550563    0.2213249  29.32  0.001877458    1.462    0.316
       146 -10.3351    250.2676     67.1407   7.2389924141e+01   1.4622361555e+01    0.6809764     0.197446 -19.86  0.002087267    3.854    0.741
       147  -8.5570    202.4868     68.5091   8.0084717370e+01   2.5568784579e+01    0.1535118    0.1412901   2.78 0.0004363398    1.022    0.022
       148  -9.6271    149.4397     59.6605   8.8229673170e+01   3.9958404314e+01    0.6632649    0.2727005 -48.07  0.002033947    3.524    0.716
       149 -10.1733    173.3590     48.7082   7.9333896543e+01   3.5684006414e+01     1.178455    0.4196904  51.59  0.003970903    2.599    0.615
       150 -10.0519    157.9823     50.9319   8.3302452491e+01   3.9253339359e+01    0.4522699    0.4089935  70.40  0.001437651    1.285    0.222
       151 -11.8503    141.8551     51.4610   8.7258124668e+01   4.3113321049e+01     1.160591    0.4200872  45.41  0.003807501    2.715    0.632
       152 -10.5694    150.6600     51.1087   8.5024741119e+01   4.1038392608e+01     0.528782    0.3517494  -8.66  0.001165559    1.711    0.416
       153 -11.7435    164.4334     62.7008   8.5795144824e+01   3.5828497602e+01    0.8023206    0.6730735   4.00   0.00224573    1.189    0.159
       154 -10.5646    164.4853     57.0478   8.3938582626e+01   3.6698519623e+01    0.5821369    0.4098852   8.18  0.001910564    1.648    0.393
       155  -9.6122    178.1925     60.2327   8.2122611026e+01   3.2790595548e+01    0.3498736    0.2736409   0.36 0.0008480199    1.320    0.242
       156 -11.2296    174.3474     56.4757   8.1690098516e+01   3.4312838395e+01    0.6404276    0.5313751  12.62  0.001117329    1.200    0.167
       157  -8.7192    189.1293     64.8891   8.1445017807e+01   2.9376621278e+01    0.2336797    0.2079275 -47.83 0.0006819969    1.282    0.220
       158  -8.7532    135.5407     63.8935   9.3111389684e+01   4.2458879281e+01    0.2342039    0.1467132 -34.07 0.0007211747    1.556    0.357
       159 -10.1398     78.2595     61.8188   1.0970047476e+02   5.3773598318e+01    0.4402287    0.2956023 -41.65  0.002273498    1.343    0.255
       160  -8.7448     61.9084     62.9495   1.1568838951e+02   5.5772662928e+01    0.1915689    0.1638926 -50.03 0.0003350751    1.039    0.037
       161 -10.3321    221.8855     48.2638   7.1064999588e+01   2.3439001231e+01    0.6100097    0.3831556 -39.48  0.002817906    1.622    0.384
       162  -8.7745    219.1832     60.8290   7.5090992246e+01   2.2540206927e+01    0.2929446    0.2460427  17.03 0.0006810207    1.153    0.133
       163 -10.0261    222.1496     57.3804   7.3653560407e+01   2.2260727994e+01     0.446072    0.3054489 -33.55  0.001496267    1.423    0.297
       164  -9.3966    184.4078     60.6314   8.1030190583e+01   3.1173722650e+01    0.3830173    0.2545056 -89.90  0.001199672    2.641    0.621
       165  -9.0577    113.4064    239.7739   1.3001341071e+02   1.5418357495e+01    0.1118218   0.09665941 -46.42 0.0009500658    1.645    0.392
       166  -9.6704     12.9905    238.7265   1.4560004895e+02   2.6485355245e+01    0.1242318   0.08167255  56.77  0.000842431    1.095    0.086
       167  -8.7463     24.6808    235.3201   1.4376593120e+02   2.5933620633e+01   0.09773868   0.04301094  60.48 0.0003194159    1.665    0.399
       168  -9.4835     12.3416    232.5609   1.4550418501e+02   2.7426884741e+01    0.1922125   0.08337809  65.63  0.001438662    1.728    0.421
       169  -8.2691    227.3327    231.3086   1.1025554319e+02   1.5692392806e-01    0.1153369   0.06215997  19.99 0.0005437997    1.670    0.401
       170  -9.0831    136.7762    224.7397   1.2463123758e+02   1.4205541707e+01    0.1377605   0.08821646 -71.15 0.0008090449    2.399    0.583
       171  -8.0523      1.9914    214.6759   1.4651997074e+02   3.0970457489e+01    0.1127817    0.0733705   0.26 0.0007050702    4.322    0.769
       172  -7.9818    244.6848    204.6579   1.0337074695e+02   3.0052972132e-02    0.1241621   0.06741537  15.79 0.0007047978    1.708    0.415
       173 -10.3697     26.8380    191.8158   1.4148886851e+02   3.2596946186e+01    0.2964125    0.1838668 -83.21  0.002253856    1.471    0.320
       174 -11.2886     17.8224    186.4647   1.4282348775e+02   3.4312057013e+01    0.3124236    0.2856942   2.61  0.001344543    1.735    0.424
       175 -10.7561      6.0463    185.7651   1.4486890819e+02   3.5388063843e+01     0.388364   0.09895521  51.67  0.002145498    2.758    0.637
       176  -9.7752     38.8926    176.7287   1.3834217650e+02   3.4136847022e+01    0.2964175      0.13474 -81.09  0.001749084    2.112    0.527
       177  -9.0081      1.6236    177.7449   1.4533592293e+02   3.7124121516e+01    0.1755026   0.09149484  81.22  0.001162028    1.518    0.341
       178  -9.4896     62.8490    167.9030   1.3280707879e+02   3.3245334765e+01    0.2484187    0.1596645  87.69  0.001011299    1.559    0.358
       179  -9.0799      8.8116    167.7008   1.4357977551e+02   3.8399176789e+01    0.1565351    0.1140542  38.06  0.001254268    1.513    0.339
       180  -9.4454     13.4276    164.8813   1.4255140634e+02   3.8565731436e+01    0.1963631    0.1421732  59.50  0.001049046    1.183    0.155
       181 -10.1908      2.5184    161.0232   1.4447153268e+02   4.0098203182e+01    0.3414949    0.1701125  76.64  0.002289421    1.642    0.391
       182  -9.4660      2.3944    157.1900   1.4431974830e+02   4.0826442782e+01    0.2669412    0.1350254  80.94  0.001784348    1.608    0.378
       183 -10.0940     22.1157    138.0847   1.3900227615e+02   4.3117595613e+01    0.3019648    0.1675942 -51.29  0.001302948    2.116    0.527
       184  -9.9217      3.0603     57.4359   1.3586975619e+02   6.1780503999e+01     0.354165     0.228825  87.76  0.002262175    1.521    0.342
       185 -10.4067    201.0532     57.4710   7.7040341011e+01   2.7438898558e+01    0.6073478    0.3729212  10.79  0.002470852    2.064    0.515
       186  -9.3113    158.4377     58.5685   8.5776628165e+01   3.7955386381e+01    0.4888795    0.2975855  10.57  0.001842076    2.369    0.578
       187  -8.5922     71.6425     47.1011   1.0723442718e+02   5.7806786641e+01     0.279417    0.1199755 -53.66  0.001085846    2.561    0.609
       188  -8.7108     75.8243     46.2238   1.0540010348e+02   5.7351755798e+01    0.1922165    0.1698049 -14.74 0.0005287994    1.080    0.074
       189  -9.9434     71.5291     54.5822   1.0977763461e+02   5.6281819637e+01    0.4787148    0.3899757 -83.23  0.001666255    1.680    0.405
       190 -10.3487     76.1774     52.1303   1.0731973032e+02   5.6104223175e+01    0.4985353    0.3918599 -80.91  0.001764841    1.871    0.466
       191  -9.7764     60.7573     54.4627   1.1364798065e+02   5.7753268579e+01    0.3713121    0.2418562 -53.06  0.001557607    1.370    0.270
       192  -9.3974    236.8306     54.0523   7.0654363893e+01   1.9185107088e+01    0.3737261    0.1813559   3.50   0.00125951    3.401    0.706
       193 -10.1940    186.6018     53.1835   7.8267863624e+01   3.1674388217e+01    0.5244145    0.2774918  23.48  0.001839607    2.695    0.629
       194  -9.8800    188.8708     49.0340   7.6535574488e+01   3.1657963155e+01    0.3547397    0.2721828 -44.21 0.0006430367    1.431    0.301
       195  -9.0698     47.7977     55.0692   1.1865432617e+02   5.9111055105e+01    0.2042275    0.1413964 -41.14  0.001168783    1.290    0.225
       196  -8.7050    192.8028     53.8637   7.7363567861e+01   3.0004707186e+01    0.2004156    0.1797616 -59.67 0.0003776762    1.313    0.239
       197 -11.2665     26.8598     52.1585   1.2594116886e+02   6.1607362189e+01    0.5305088    0.2366152 -41.15  0.002606454    2.160    0.537
       198  -9.1369     25.4065     38.1787   1.2298931828e+02   6.4778005457e+01    0.1773737    0.1346143 -34.31 0.0005448735    1.240    0.193
       199  -8.9690     11.9890     41.6347   1.2955465819e+02   6.4861493149e+01     0.439234    0.2701102 -31.62  0.002714195    1.699    0.411
       200 -10.3875     16.5924    158.8002   1.4158500193e+02   3.9464310056e+01    0.3422773     0.226541 -48.75  0.002396636    2.044    0.511
       201 -10.7449     16.5042     36.0147   1.2628398573e+02   6.5836380035e+01    0.3362567    0.1818971 -60.39  0.001154975    1.418    0.295
       202 -10.1467     15.4733     31.4630   1.2553619671e+02   6.6878516926e+01    0.2248327    0.1799911 -52.15 0.0006288329    1.055    0.052
       203  -9.6411    153.1369     55.4796   8.5951175269e+01   3.9743477377e+01    0.5593153    0.3536528  12.03  0.001549305    2.124    0.529
       204  -8.5878     65.5248     50.0647   1.1049672221e+02   5.8061563626e+01    0.1908321    0.1788817   7.22 0.0008201849    1.175    0.149
       205  -8.6249    236.6121     48.7613   6.9221223227e+01   1.9850840801e+01    0.2063929    0.1195413 -31.77 0.0006356407    1.593    0.372
       206 -10.1505    207.7134     44.5505   7.2037735256e+01   2.7417703637e+01    0.6648104    0.4949504 -82.10  0.003115086    1.811    0.448
       207 -10.9341    203.3309     37.5299   7.0537722513e+01   2.9379274133e+01    0.6440295    0.3756157  39.70  0.002769941    1.771    0.435
       208 -10.4134    199.9447     31.3501   6.9098521902e+01   3.0970216353e+01     0.414625     0.301023 -64.86 0.0003979723    1.732    0.423
       209  -8.4472    152.5273     45.4880   8.2623026237e+01   4.1432525343e+01    0.2715687    0.1319248 -39.08 0.0009398428    2.136    0.532
       210  -9.8497    105.1781     44.5814   9.4902070093e+01   5.2415804062e+01     0.432297    0.3677901  -9.77  0.002334825    1.109    0.098
       211  -8.4282    248.5341     45.1870   6.6790744078e+01   1.7504699836e+01    0.1976391    0.1250998  -6.97 0.0004618365    1.618    0.382
       212  -9.2763    232.4705     43.4906   6.8279570381e+01   2.1433279379e+01    0.4899974    0.2134219  30.06  0.001623043    3.559    0.719
       213  -9.0932    233.7716     39.8108   6.7081678632e+01   2.1534431048e+01     0.294366    0.1810737  41.69  0.001299873    1.698    0.411
       214  -9.9504    194.5686     30.8925   6.9754932904e+01   3.2427330643e+01    0.3639333    0.3072897  16.08 0.0009107196    1.179    0.152
       215  -8.5421     49.1532     45.6864   1.1537714023e+02   6.0993566454e+01    0.1568367    0.1162694   5.65  0.000401648    1.597    0.374
       216  -8.7493    167.3044     44.1077   7.8986178358e+01   3.7881404416e+01    0.2271349    0.1937161 -11.95  0.001066631    1.139    0.122
       217 -11.9488     15.7532     62.0901   1.3206002488e+02   6.0110824147e+01    0.7060648    0.4236343  -4.01  0.003469088    2.313    0.568
       218  -8.8954    215.0154     42.0520   7.0211935104e+01   2.5877449115e+01    0.2543225    0.1632989  24.29   0.00112399    1.770    0.435
       219  -9.2037    196.7182     41.5930   7.2840202840e+01   3.0593833614e+01    0.2795101    0.2145047 -35.59 0.0007844435    1.325    0.245
       220 -10.4257    191.5975     39.4883   7.3002620870e+01   3.2181101031e+01    0.5713285     0.374272  15.18 0.0007552417    1.777    0.437
       221 -10.7339    162.1219     38.7566   7.8173067387e+01   3.9950494174e+01    0.5420361    0.2984076 -22.48  0.001639413    1.827    0.453
       222  -9.3923     77.0184     41.5101   1.0323614919e+02   5.8089243099e+01    0.2414559    0.2200781 -48.15 0.0008045359    1.234    0.190
       223  -8.6468      4.6890     41.2132   1.3250034864e+02   6.5297005832e+01    0.0968705   0.07932241  72.22 0.0006753774    1.471    0.320
       224  -9.8002    180.7854     39.0797   7.4722055669e+01   3.5052624144e+01    0.4230101    0.3357713 -56.22  0.001639716    1.505    0.336
       225  -8.7528    173.1245     38.8172   7.6036102642e+01   3.7086761910e+01    0.2239067    0.2046385 -62.88 0.0005729654    1.277    0.217
       226  -8.7352    113.8166     37.0381   8.9369097403e+01   5.1882195789e+01     0.271399    0.1923396 -23.93  0.001307769    1.348    0.258
       227  -9.6589    168.6099     36.1380   7.5967017721e+01   3.8612724561e+01    0.3214827    0.2719347 -23.16 0.0009274484    1.176    0.150
       228  -9.9914    210.9509     32.4714   6.7890481773e+01   2.8004206130e+01    0.5968067     0.354222  -4.12  0.002552615    1.911    0.477
       229 -11.1839    237.7705     32.5452   6.4580758594e+01   2.1366006023e+01     0.648017    0.3951779  61.87  0.002684765    1.722    0.419
       230  -8.1214    188.6335     34.7285   7.1940414673e+01   3.3535244494e+01     0.165196    0.1056076  32.02  0.000699975    1.665    0.399
       231 -11.9005     19.8119    147.9857   1.4023008505e+02   4.1311210296e+01    0.8061464    0.4554511 -67.04  0.005335887    1.644    0.392
       232  -8.9738     10.3955    156.9745   1.4272432168e+02   4.0290416205e+01    0.2928288   0.07617124 -68.16  0.001435382    3.139    0.681
       233 -12.0682     36.7557     27.5246   1.1448128541e+02   6.6053515384e+01    0.3239791    0.2477989   9.10  0.002053881    1.481    0.325
       234  -8.7190     52.9500    151.5405   1.3331488399e+02   3.7521485364e+01    0.1616072    0.1035719  39.34  0.001016919    1.554    0.356
       235 -11.2427     34.8241    150.0341   1.3715312082e+02   3.9619258810e+01    0.5136012    0.2257994  54.29  0.002087041    2.153    0.535
       236 -10.7778     39.0016    145.9272   1.3587736349e+02   4.0054237725e+01    0.4115627    0.2681865 -85.88  0.001542609    1.355    0.262
       237  -9.5851     67.0274    148.2851   1.2979535078e+02   3.6586577695e+01    0.1685174    0.1412763  60.39 0.0008587122    1.102    0.093
       238 -10.4079     19.1186     25.9571   1.2221086582e+02   6.7818693433e+01    0.2770705    0.2022434 -24.76 0.0003710591    1.370    0.270
       239  -8.7143     60.5084    147.9587   1.3123971350e+02   3.7409419792e+01    0.1686877     0.104613 -71.50 0.0006596657    1.522    0.343
       240 -10.3825      4.8769    147.3785   1.4333034623e+02   4.2537091643e+01    0.2833325    0.1780956  43.14  0.002092626    1.575    0.365
       241  -9.9507      7.0554    142.9041   1.4262477301e+02   4.3265560607e+01    0.5640507    0.2333552  35.73  0.003424201    2.353    0.575
       242  -9.2387     28.2294    121.0188   1.3603953733e+02   4.6192402094e+01     0.349656     0.151597 -75.90  0.001694769    1.985    0.496
       243  -9.4735     19.5144    119.2803   1.3804096967e+02   4.7236532277e+01    0.4594076    0.2733828 -53.68  0.002283295    1.748    0.428
       244 -10.5024     26.8990    127.4643   1.3698732999e+02   4.4933729973e+01    0.5146714    0.2871188  42.11  0.003198679    1.805    0.446
       245 -10.1180    246.1799     33.3064   6.3862491299e+01   1.9314980860e+01    0.4369594    0.2575662  42.03 0.0006176168    1.828    0.453
       246 -10.3830      3.6075    135.3265   1.4292775845e+02   4.5006789649e+01    0.4158857    0.2394726  78.75  0.002834177    1.432    0.302
       247 -10.7577    177.2991     29.1611   7.1967059129e+01   3.7186529200e+01    0.5984402    0.4192912 -14.53  0.001751542    1.438    0.305
       248 -10.5947     20.2637    128.3952   1.3864974081e+02   4.5260346662e+01    0.3494326    0.3212342  77.11  0.001310513    1.208    0.172
       249  -9.5077    183.4104     22.5573   6.8711763458e+01   3.6306948740e+01    0.4264244     0.209158  39.42  0.001638625    2.152    0.535
       250  -8.8837     38.0663     33.1679   1.1590181261e+02   6.4769315094e+01    0.2312549    0.1337925 -20.42 0.0008183357    2.120    0.528
       251 -10.4349    226.4768     28.6386   6.4780456088e+01   2.4515348285e+01    0.6477652    0.2931808 -39.55  0.002624346    2.176    0.540
       252  -8.7478    120.4351     28.9927   8.4250281554e+01   5.1624050817e+01    0.3505937    0.1495935 -40.34  0.001272842    2.547    0.607
       253  -9.0238    170.6842     27.5672   7.2569309375e+01   3.9126574790e+01    0.2649446    0.1881053  56.01  0.001041408    1.376    0.273
       254  -9.8917      8.9936    134.7268   1.4170159784e+02   4.4769873745e+01    0.1915749    0.1802985  -0.30 0.0006532453    1.507    0.336
       255  -9.2588    170.9931     24.0000   7.1252049948e+01   3.9456871317e+01    0.3498852    0.2026802  63.43  0.001299205    1.753    0.430
       256  -9.2561    192.6083     25.3923   6.8261812179e+01   3.3557575638e+01    0.4945482     0.227271  22.60  0.001551531    3.573    0.720
       257 -10.0910    154.4467     25.0818   7.4736952174e+01   4.3697252799e+01    0.4117341    0.2838211 -32.77  0.001636128    1.483    0.326
       258  -9.3882    159.6056     24.6977   7.3582511585e+01   4.2391349996e+01    0.3126062    0.2826895  69.28  0.001144983    1.215    0.177
       259  -9.4239    241.0580     23.7020   6.1789479351e+01   2.1491824223e+01    0.4073711    0.2049181 -44.57  0.001226928    2.041    0.510
       260 -11.2863     13.8383    130.7118   1.4032811775e+02   4.5252247194e+01    0.5105252    0.2892654  66.96  0.002892893    1.625    0.384
       261 -10.0935     97.9249     22.3183   8.7997098427e+01   5.7551307614e+01    0.2902327    0.2434733  30.34 0.0005426928    1.182    0.154
       262  -9.4043    229.7528     20.6650   6.2124774636e+01   2.4520391908e+01    0.4114498     0.296498 -58.85  0.002103509    1.558    0.358
       263 -10.3590     11.9764    125.3046   1.4036018281e+02   4.6501316957e+01     0.257939    0.2034892  45.38 0.0009774871    1.386    0.279
       264  -8.8124     97.6209    140.8131   1.2163187754e+02   3.4015356157e+01    0.1802517    0.1174656 -73.09 0.0007368092    1.749    0.428
       265  -9.5422    214.8919     21.2011   6.3970298752e+01   2.8193471082e+01     0.408193    0.2690181 -87.78  0.001467947    1.905    0.475
       266  -9.1023     46.9215    137.3558   1.3321364539e+02   4.1038152928e+01    0.2335532    0.1527102  73.17 0.0008649193    1.500    0.333
       267 -11.3006     55.2177    132.4630   1.3066309280e+02   4.1195258730e+01    0.9116604    0.2029618 -61.03  0.003493491    3.589    0.721
       268  -9.0784     64.4519    138.4920   1.2919319929e+02   3.8892674946e+01    0.2206614   0.08952136  45.33  0.001039854    2.370    0.578
       269 -10.2025     44.6580    133.3751   1.3331986147e+02   4.2094649813e+01    0.3156264    0.1984847 -31.10  0.001725252    2.597    0.615
       270  -9.9979    177.9974     20.0401   6.8698526847e+01   3.8022234648e+01    0.3332281    0.2955998 -27.66  0.001084631    1.158    0.137
       271 -10.8476     65.3916    130.2561   1.2787463102e+02   4.0508085980e+01    0.4275011    0.2286226  38.70  0.001813896    1.877    0.467
       272  -8.6924     61.6069     15.9275   9.8397412926e+01   6.5122878666e+01    0.1775481    0.1359044 -29.19 0.0003554977    1.141    0.124
       273 -10.6074     72.3650    128.9277   1.2594769162e+02   3.9938235974e+01     0.427709    0.3061142 -63.37  0.001589674    1.324    0.245
       274  -9.9210     74.6469    125.1221   1.2479183776e+02   4.0457271240e+01    0.5864549    0.2522342  55.50  0.002380783    3.132    0.681
       275  -8.8947     95.5262    130.9238   1.2050551187e+02   3.6339846341e+01    0.1986002    0.1235355 -57.86  0.001036157    1.604    0.377
       276 -10.3833     37.7424    127.7665   1.3438895100e+02   4.3933741694e+01    0.3739629    0.1944514 -45.25  0.001983935    2.446    0.591
       277 -10.2195     48.0260    125.5094   1.3158626046e+02   4.3426019004e+01    0.3816407    0.1450926 -66.77  0.001802657    2.293    0.564
       278  -9.2414     63.9537    114.2215   1.2586473650e+02   4.4133118258e+01    0.2203922    0.1660969  45.44  0.001030924    1.382    0.276
       279 -10.7983     67.4587    122.7766   1.2627174352e+02   4.1857208308e+01    0.6945088    0.3177975 -41.77   0.00295516    3.073    0.675
       280  -9.4640     68.1506    115.7454   1.2498786144e+02   4.3295695197e+01    0.2926889    0.1580918  52.18  0.001051939    2.050    0.512
       281  -9.8497     92.0825    120.4710   1.1951978513e+02   3.9037013806e+01    0.3586858    0.2487517 -25.24  0.001809305    2.060    0.514
       282 -11.4068     70.6149    108.0470   1.2300292383e+02   4.4675730184e+01     2.000655    0.6046769  32.73  0.007485994    3.628    0.724
       283  99.0000     56.8627     48.4100   1.1322995301e+02   5.9522754311e+01     1.431701    0.8128672  -3.42  0.005969279    3.196    0.687
       284 -11.7903     86.9211     93.7842   1.1544624171e+02   4.5563670810e+01     1.622589    0.9849868 -56.16  0.005888177    1.570    0.363
       285 -10.9694     81.5737     69.3777   1.1083271623e+02   5.1665765287e+01     1.037614    0.3920464  30.85  0.003741364    3.415    0.707
       286 -11.1567     48.1046     25.5133   1.0857336978e+02   6.5223444832e+01    0.4029655    0.2373451  29.24  0.002163674    1.937    0.484
       287 -10.5164     27.9945    101.8557   1.3396585955e+02   5.0381850814e+01    0.5301376    0.3671488 -70.63  0.003016245    1.190    0.160
       288 -12.1714     27.8039     84.4092   1.3163833451e+02   5.4291632662e+01     1.205566    0.6191483 -56.10  0.006318184    1.629    0.386
       289 -11.0146     78.9261     75.7949   1.1345339811e+02   5.0672696153e+01     0.826813    0.4522115  39.75  0.002150196    1.998    0.499
       290 -11.3690      5.1107     99.5798   1.4000314229e+02   5.2393729686e+01     1.039433    0.5187414  69.24  0.005935414    2.084    0.520
       291 -12.2373     53.4707     87.2676   1.2414660648e+02   5.1316771996e+01      1.99048     0.695932 -47.42  0.008035675    2.804    0.643
