#   1 NUMBER                 Running object number                                     
#   2 MAG_AUTO               Kron-like elliptical aperture magnitude                    [mag]
#   3 X_IMAGE                Object position along x                                    [pixel]
#   4 Y_IMAGE                Object position along y                                    [pixel]
#   5 X_WORLD                Barycenter position along world x axis                     [deg]
#   6 Y_WORLD                Barycenter position along world y axis                     [deg]
#   7 A_WORLD                Profile RMS along major axis (world units)                 [deg]
#   8 B_WORLD                Profile RMS along minor axis (world units)                 [deg]
#   9 THETA_WORLD            Position angle (CCW/world-x)                               [deg]
#  10 FWHM_WORLD             FWHM assuming a gaussian core                              [deg]
#  11 ELONGATION             A_IMAGE/B_IMAGE                                           
#  12 ELLIPTICITY            1 - B_IMAGE/A_IMAGE                                       
         1 -12.2687     17.8902     24.3023   1.0394526864e+02   6.7919911360e+01    0.4251446    0.2765452 -45.88  0.002419419    1.937    0.484
         2 -11.7220      7.1950     18.1236   1.0648290119e+02   6.9739752967e+01    0.2184581    0.1583984  -5.49 0.0004017624    1.070    0.065
         3 -10.9715    131.5996     23.1877   6.8365140794e+01   4.8369312719e+01    0.3412533    0.1852626 -27.80  0.001764873    2.160    0.537
         4 -11.8016    190.5003     20.2188   5.8977938574e+01   3.5322250949e+01    0.3361434    0.2515803  31.26 0.0004108068    2.027    0.507
         5 -11.1182     33.8242     18.5249   9.4719157598e+01   6.6855470767e+01    0.3082912    0.2046492 -46.59 0.0009497016    2.359    0.576
         6 -12.0353     80.1839     15.3947   7.7559597809e+01   5.9799505047e+01    0.2971144    0.2809552  29.33  0.001067539    1.221    0.181
         7 -10.6189     43.2257     16.0868   8.9979011376e+01   6.5865192967e+01     0.276903    0.2020755  61.70  0.001630231    2.718    0.632
         8 -12.2968     25.9316     13.3403   9.5896991510e+01   6.8427536595e+01    0.3759786    0.2316068  23.10  0.001730989    1.399    0.285
         9 -10.0197     66.6435     11.7336   8.0153890184e+01   6.2585299783e+01    0.1453756    0.1024808 -27.70 0.0006448685    1.616    0.381
        10 -10.8820    128.1060      8.7898   6.4833828035e+01   5.0498090185e+01    0.2745658    0.1630589 -18.91  0.001550473    2.130    0.530
        11 -11.7591     45.2837      8.4173   8.6029277530e+01   6.6350348577e+01     0.263546    0.2122574  38.74  0.001935891    1.405    0.288
        12  -9.9370      7.8795     10.8620   1.0315676007e+02   7.0616975863e+01    0.1309392    0.1013117  12.94 0.0004179169    1.344    0.256
        13 -10.1725     13.7590     10.1820   1.0005085369e+02   7.0132933478e+01    0.1722537   0.06635479 -26.99 0.0008958362    2.572    0.611
        14  -9.4158      4.7604      8.0011   1.0346178250e+02   7.1247710459e+01    0.1827996   0.07132759 -40.30 0.0006783957    2.525    0.604
        15 -12.3876    209.6155      5.5398   5.3980121610e+01   3.2720403335e+01    0.4180538    0.2251802 -71.68 0.0006056523    1.776    0.437
        16 -10.7544     74.3870      8.5924   7.6678378032e+01   6.1482006529e+01    0.2021044    0.1611211  30.94 0.0001736912    1.015    0.015
        17 -10.3574     87.4279      7.2265   7.2740221492e+01   5.9128389644e+01    0.1901294    0.1131503 -12.10  0.001110991    1.982    0.495
        18 -11.7235     24.8284      6.9706   9.3624308619e+01   6.9261914199e+01    0.1994427    0.1440734 -15.83 0.0004239269    1.277    0.217
        19 -10.0859     62.5323      7.0471   7.9605142318e+01   6.3711871613e+01    0.2253773    0.1445019  66.05  0.001267144    2.443    0.591
        20  -9.6047     19.6084      7.1959   9.6042878768e+01   6.9847236418e+01    0.1375844   0.08089918 -16.01 0.0004104464    1.507    0.336
        21 -11.6291     38.3934      3.9325   8.6717414089e+01   6.7775812035e+01    0.2923898     0.279921 -23.19  0.002313942    1.681    0.405
        22 -11.9853    193.6455      4.0967   5.5157717592e+01   3.6315206161e+01     0.405498    0.1469389  57.79  0.001354392    2.565    0.610
        23 -10.5297     14.1252      4.8766   9.7542951425e+01   7.0700626884e+01     0.144194    0.1154063   0.90 0.0002809328    1.248    0.199
        24  -9.9984     30.7208      3.9511   8.9789806045e+01   6.8824298011e+01    0.1504066    0.1124251  -0.71 0.0004377691    1.128    0.113
        25 -10.8437    217.9120      2.6789   5.2728184619e+01   3.1266850315e+01    0.1731814    0.1553094 -59.16  0.001313108    1.370    0.270
        26 -11.5647    181.2414      2.2516   5.6009050359e+01   3.9220160467e+01    0.3554275    0.1570837  64.93  0.001864828    1.840    0.457
        27 -10.9692     73.7975      2.2878   7.4480019694e+01   6.2100490481e+01    0.2083011    0.1636565  21.71 0.0008386493    1.150    0.130
        28 -10.8650     50.3336      2.0511   8.1569096400e+01   6.6144538170e+01    0.1991326    0.1296615  35.64 0.0003115891    1.238    0.192
        29 -10.4894    111.8798      5.0892   6.6683045765e+01   5.4306422358e+01    0.1650197    0.1171956  39.86 0.0004285751    1.304    0.233
        30  -9.5152     90.5196      1.4076   6.9976509701e+01   5.8970562989e+01     0.116411   0.09301843  46.86 8.830104e-05    1.036    0.035
        31 -11.6310    161.3096      2.9851   5.8445122232e+01   4.3595503200e+01    0.3397546    0.2199132  87.09  0.001739774    1.430    0.301
        32  -9.7867      2.4733      1.4649   1.0170831098e+02   7.2219763837e+01    0.1040923   0.07237213  -4.71 1.237834e-05    1.005    0.005
        33 -10.8156    196.9656    233.7300   1.0436202101e+02  -4.7448259361e+00    0.2939557    0.1824875 -36.29  0.000928016    1.634    0.388
        34 -12.3905    209.7579    247.1862   1.0412343723e+02  -8.9140286122e+00    0.3392313    0.2797709  13.97 0.0004466254    1.061    0.058
        35 -10.6012    185.0005    241.0352   1.0803240796e+02  -4.1242355997e+00    0.3012857    0.2436828 -76.65 0.0009345034    1.879    0.468
        36 -10.1352    187.0000    249.9668   1.0908580058e+02  -5.9571425699e+00     0.227656    0.1897278 -68.44  0.001367995    1.721    0.419
        37 -11.0580    187.5923    245.7740   1.0828628609e+02  -5.3456351057e+00    0.2731198    0.2267043   0.27 0.0003913077    1.166    0.142
        38 -11.0977    141.0160    247.4044   1.1819916903e+02   1.8800441334e+00    0.3401915     0.219478  67.64  0.001623783    2.209    0.547
        39 -11.1612    129.9413    241.9515   1.1976617403e+02   4.7622061099e+00    0.2626806    0.1912541 -58.41  0.001444816    1.525    0.344
        40 -11.4590    136.5880    246.7218   1.1903475208e+02   2.7369870664e+00    0.2572698    0.2169333  76.45 0.0005007005    1.351    0.260
        41 -10.8218    127.9845    250.5841   1.2138054985e+02   3.4024758110e+00    0.1979747    0.1728215  44.44            0    1.018    0.017
        42 -10.9942    130.0201    247.4825   1.2052777968e+02   3.6672506005e+00    0.2809382    0.1841387   5.97  0.001256258    2.656    0.623
        43 -11.2927    111.3471    247.1292   1.2441362429e+02   6.7612134907e+00    0.3644189     0.231808 -56.02  0.001939735    1.737    0.424
        44 -11.6243    111.7715    243.2250   1.2381707869e+02   7.4800922588e+00    0.4562834    0.2163666  31.77 0.0003517379    2.287    0.563
        45 -11.0435    115.0087    249.7945   1.2398913218e+02   5.6470686831e+00    0.3356124    0.2356986  19.95  0.001542367    1.806    0.446
        46 -11.3688    121.2434    247.8699   1.2242958472e+02   5.0206333990e+00    0.2740814     0.223672  58.08 0.0004776737    1.157    0.136
        47 -11.0350    117.7411    246.3328   1.2296306186e+02   5.8910452127e+00    0.3085763    0.1990257 -76.84 0.0002185789    1.986    0.497
        48  -9.3637     84.3303    250.2845   1.3038085863e+02   1.0309515098e+01    0.1149407    0.1024203  -2.91 0.0003004953    1.612    0.380
        49  -9.7889     50.4984    250.0378   1.3706353075e+02   1.5118005490e+01    0.1634313    0.1085482 -75.21 0.0004709341    1.456    0.313
        50 -11.6364     46.3750    247.5318   1.3764128156e+02   1.6175454317e+01    0.3397685    0.1914265 -65.54 0.0008738574    1.790    0.441
        51 -12.0036     38.7659    211.8429   1.3587887526e+02   2.5040534638e+01    0.3456355    0.2327124  52.94 0.0003683778    1.401    0.286
        52 -11.7715     44.7787    236.7559   1.3700752861e+02   1.8675918860e+01    0.4568819    0.2261065  55.38  0.001918143    1.828    0.453
        53 -12.0741     30.6694    231.4889   1.3934787612e+02   2.1552204761e+01    0.7417672    0.3152068  49.69  0.003688117    2.078    0.519
        54 -12.7206     38.5946    219.6836   1.3668526733e+02   2.3251504096e+01    0.7509527    0.2841523 -65.19  0.002563809    2.352    0.575
        55 -13.3251     28.5158    217.9531   1.3861970640e+02   2.4828500155e+01    0.9797362    0.5027245 -47.64  0.002923514    2.724    0.633
        56 -12.2508     20.0658    216.9857   1.4026347528e+02   2.5978215372e+01    0.3146858    0.2004519 -79.74 0.0004812833    1.320    0.242
        57 -12.3188     39.5649    229.5273   1.3740149172e+02   2.0916278912e+01    0.3269772    0.2363998 -71.22  0.000151967    1.339    0.253
        58 -11.6649     45.8492    229.6753   1.3613540543e+02   2.0095482394e+01    0.6223177    0.2970059 -87.17  0.002838811    2.347    0.574
        59 -13.3936      2.7831    232.1860   1.4469538083e+02   2.4403882616e+01     1.413762    0.3055128 -72.52  0.005601314    3.592    0.722
        60 -13.5456     11.0412    231.8289   1.4314481877e+02   2.3645830376e+01    0.6534352    0.4497747  65.65  0.001041291    1.202    0.168
        61 -13.8185     14.1070    247.3249   1.4361875383e+02   2.0052258034e+01    0.7077039    0.5530583 -87.01  0.005110586    1.209    0.173
        62 -13.2391      4.1152    245.6072   1.4527735109e+02   2.1459914339e+01    0.7246405    0.4340889 -68.71   0.00308444    1.659    0.397
        63 -14.1743     35.5027    243.6914   1.3940645717e+02   1.8345413550e+01    0.8833627    0.5893142  89.41  0.002847622    1.301    0.231
        64 -12.6276     13.8223    224.1552   1.4206479708e+02   2.5031736622e+01    0.3586869    0.2500342  76.26 0.0003830139    1.156    0.135
        65 -13.4868      9.5922    214.7884   1.4219100412e+02   2.7549202474e+01    0.9895124    0.4169132  62.79  0.002118742    2.413    0.586
        66 -13.2341     23.6941    246.1375   1.4180187470e+02   1.9227707262e+01    0.6251538    0.3881175 -82.97  0.001451479    1.400    0.286
        67 -12.8946     21.5878    238.0691   1.4161018370e+02   2.1168039692e+01    0.5077077     0.327525  45.29  0.002217158    1.501    0.334
        68 -11.0220    231.3270    233.7024   9.7694070246e+01  -9.8487767223e+00     0.223707    0.1783361  -7.05 0.0005255687    1.081    0.075
        69 -10.6468    233.2304    229.0217   9.6510321644e+01  -9.3689447691e+00    0.3379721     0.275642   0.43  0.002186662    1.078    0.072
        70  -9.4740    183.3145    233.2642   1.0707153683e+02  -2.4718261945e+00    0.1333366   0.09800592   3.40 0.0001872544    1.543    0.352
        71 -10.0300    173.0068    233.4897   1.0926091479e+02  -8.1409992819e-01    0.2028956    0.1246124  34.47 0.0004714234    1.518    0.341
        72 -11.5604    143.8408    232.2990   1.1531825051e+02   4.3499178618e+00    0.3790731    0.2210403  39.69 0.0008765241    1.570    0.363
        73 -11.1730     58.5176    230.4585   1.3358963137e+02   1.8249189245e+01    0.3751272    0.2127682  83.57   0.00152446    1.956    0.489
        74 -10.3144     55.7148    228.6560   1.3398985977e+02   1.9030444533e+01     0.189732    0.1667816  85.18 0.0005172377    1.113    0.102
        75  -9.5529    156.4603    232.5607   1.1262910896e+02   2.1480651440e+00    0.1373049    0.1246956  21.21            0    1.061    0.058
        76 -10.1754    152.4972    231.2802   1.1327693554e+02   3.0744795799e+00    0.3164138    0.1389469 -61.09  0.001053318    3.473    0.712
        77 -10.7431     80.9337    231.4978   1.2894531110e+02   1.4801540565e+01    0.2638875    0.1739665  74.97 0.0007799354    1.619    0.382
        78 -10.7441     74.5141    231.5235   1.3032412437e+02   1.5749056198e+01    0.2283219     0.202546 -67.21 0.0005583935    1.254    0.203
        79 -11.5413     73.5264    226.8198   1.2999014988e+02   1.6940841382e+01    0.4338924    0.2061553  57.93  0.001562241    2.280    0.561
        80 -11.6329    242.8955    229.2522   9.4791629813e+01  -1.0728994069e+01    0.3053232    0.2472938 -60.29  0.001208957    1.941    0.485
        81 -10.1934     87.0501    231.0615   1.2757121115e+02   1.3966994010e+01    0.2117324     0.139802  67.62 0.0004346736    1.572    0.364
        82 -11.9972    107.2593    228.0987   1.2274627197e+02   1.1397384377e+01    0.3040943    0.2530037 -87.69 0.0003595789    1.243    0.195
        83 -10.8141    111.4716    227.5359   1.2173234145e+02   1.0824216662e+01    0.2302233    0.2111699  63.22 0.0004998423    1.016    0.015
        84 -10.3523     96.2339    229.9055   1.2542139036e+02   1.2784348915e+01    0.2764958    0.1682726  55.66  0.001221902    1.605    0.377
        85 -10.4971    173.6365    228.0651   1.0820844299e+02   1.0021896497e-01    0.2543346    0.2145225  29.04 0.0007466442    1.105    0.095
        86  -9.5665     64.1592    229.3246   1.3228102223e+02   1.7721932566e+01    0.1661478    0.1045672  49.74 0.0001511892    1.439    0.305
        87  -9.6177    125.8726    228.1888   1.1863226405e+02   8.2626632329e+00    0.1825296    0.1603539   8.23 0.0004120565    1.339    0.253
        88 -10.0919    249.1362    227.1509   9.3307651519e+01  -1.1228819702e+01    0.1497706    0.1391607 -14.07 0.0005701875    1.315    0.240
        89 -10.2198     90.4722    224.9805   1.2604567493e+02   1.4783262105e+01    0.1970256    0.1311335 -67.05 0.0004415324    1.530    0.346
        90 -10.9556     78.8691    223.3223   1.2840030352e+02   1.6937961764e+01    0.3255487    0.1840482 -69.12  0.001269174    1.787    0.440
        91 -11.3975    176.8405    222.6737   1.0659209827e+02   5.8733719689e-01    0.3327871    0.2582976  70.64  0.001714098    1.830    0.454
        92 -11.6120    121.5432    221.9841   1.1865560715e+02   1.0332511620e+01    0.3427131    0.2775598  12.46 0.0003711907    1.530    0.346
        93 -11.5124    135.3123    219.5481   1.1516734162e+02   8.4723950811e+00    0.4964842    0.3041373 -58.34  0.002315308    1.783    0.439
        94  -9.9774     54.1977    222.2928   1.3364575588e+02   2.0670539259e+01    0.2564825    0.1865608 -34.38  0.001368316    2.127    0.530
        95 -10.2501    188.0838    221.8190   1.0408026617e+02  -1.1503884941e+00    0.2571897    0.1627128 -20.47 0.0009974891    1.988    0.497
        96 -10.5950    159.0860    222.0060   1.1030031739e+02   3.7885249453e+00    0.3117383    0.2031253  54.89 0.0009430851    1.779    0.438
        97 -10.3292    249.2839    219.9716   9.1989497574e+01  -1.0123065462e+01    0.2539064    0.2001894  65.99  0.000727047    2.389    0.581
        98  -9.6644     62.9345    219.9900   1.3150310246e+02   2.0007621394e+01    0.2053815    0.1334685  69.64 0.0004530557    1.530    0.346
        99 -11.3282     47.6730    218.6451   1.3465944285e+02   2.2358287296e+01    0.2972618     0.182505 -50.06  0.001540006    1.976    0.494
       100 -10.6495     45.5584    215.4676   1.3478449104e+02   2.3360912981e+01    0.2938135    0.2187256 -86.86 3.793972e-05    1.173    0.148
       101 -11.1320    173.0928    216.4459   1.0628519943e+02   2.4530956644e+00    0.4007155    0.2827939 -75.01  0.001760027    2.215    0.548
       102 -11.2947     88.7310    217.9853   1.2550458803e+02   1.6641062869e+01    0.3023042     0.222701 -88.01 0.0002286829    1.413    0.292
       103 -12.1862     85.0522    213.6984   1.2576035734e+02   1.8205981402e+01    0.5214472    0.4092251 -26.24  0.002276438    1.829    0.453
       104  -9.8867    116.3342    217.3398   1.1912293067e+02   1.2247487168e+01    0.2197932    0.1192482 -35.82 0.0008488851    2.790    0.642
       105 -11.1285    118.3913    212.8362   1.1794505843e+02   1.2904041125e+01    0.4606257    0.2790909  26.43  0.002023855    1.991    0.498
       106 -10.5032    101.3087    217.1510   1.2252732401e+02   1.4810811790e+01    0.2144635     0.174589 -44.76 0.0005273052    1.415    0.293
       107 -11.3679     72.7634    216.5412   1.2891520176e+02   1.9399275023e+01    0.2616612    0.2175199 -51.77 0.0003041108    1.391    0.281
       108 -10.0350     74.4770    212.5188   1.2801834623e+02   2.0085532366e+01    0.2759111    0.1304205  36.82  0.001196489    2.117    0.528
       109  -9.7328    157.2998    216.6960   1.0977499550e+02   5.1870615760e+00    0.1396992    0.1115828  73.28            0    1.589    0.371
       110 -10.8339    145.6839    214.3958   1.1196838432e+02   7.7397182074e+00     0.558283    0.3182189  69.65   0.00190659    3.715    0.731
       111 -10.6953    144.1598    208.0975   1.1121801820e+02   9.3759366421e+00    0.2285939    0.2082552 -51.88 0.0004441507    1.137    0.121
       112 -10.0513    124.6139    216.2493   1.1706077733e+02   1.1060822334e+01    0.2641519    0.1563045  47.44 0.0008660242    1.629    0.386
       113 -11.4262    111.8467    213.9478   1.1962953694e+02   1.3776231775e+01    0.3502549    0.2426069 -62.51  0.001000961    1.496    0.331
       114  -9.9110    107.4926    216.5183   1.2102027482e+02   1.3928669409e+01    0.1409937    0.1319206  65.31  4.27343e-06    1.035    0.034
       115 -10.2076    197.3476    215.2959   1.0098539604e+02  -1.4757405119e+00     0.142674    0.1016648  -1.37 0.0004544348    1.676    0.403
       116 -10.2298    180.8197    213.9241   1.0417564022e+02   1.6041060676e+00    0.2001892    0.1744268  -2.83 0.0002937677    1.159    0.137
       117 -10.2851    218.3101    212.3794   9.6281929068e+01  -4.3389042925e+00    0.2384255    0.1464596 -28.69  0.001199956    1.621    0.383
       118  -9.3474    164.2240    213.0217   1.0759855053e+02   4.7127299259e+00    0.1768539    0.1173627 -46.92            0    1.557    0.358
       119 -10.6708    217.7377    217.3154   9.7309265796e+01  -5.1217739160e+00    0.2152154    0.1605623  33.12 0.0009371625    1.368    0.269
       120 -11.9316    129.1243    209.2536   1.1487612549e+02   1.1824637600e+01    0.4710657    0.3914745 -63.64  0.002521245    1.255    0.203
       121 -10.2573     25.0523    211.5236   1.3876473018e+02   2.6688431902e+01    0.1856733    0.1412155 -86.16 0.0004052152    1.090    0.082
       122 -11.7904     95.8447    209.5011   1.2267085064e+02   1.7469669586e+01     0.344661    0.2652981 -64.11    0.0013101    1.298    0.229
       123 -10.0347     13.9553    211.0401   1.4101788899e+02   2.7964406919e+01    0.1807654    0.1393837 -88.43 0.0004891937    1.056    0.053
       124 -10.1977    214.4506    210.4590   9.6669397981e+01  -3.3820208624e+00    0.1346766    0.1198483 -11.30 8.630592e-05    1.008    0.008
       125  -9.1407    183.6923    210.2505   1.0288853188e+02   1.8270841973e+00    0.1309415     0.110746  67.88            0    1.509    0.337
       126  -9.8554     80.6238    210.2634   1.2631134787e+02   1.9692243873e+01    0.1835126    0.1240805 -58.44 0.0009266069    1.489    0.329
       127 -12.3347     67.1186    207.6701   1.2907956502e+02   2.2300787650e+01    0.3395636    0.2381919  65.91  0.001798741    1.398    0.285
       128 -11.4401     13.7457    197.5632   1.3991584051e+02   3.1104469582e+01     0.345957    0.2194701  68.09  0.001019321    1.473    0.321
       129 -10.3206     17.0560    207.7873   1.4010726544e+02   2.8396427170e+01    0.2014097    0.1364551  56.86 0.0004252047    1.385    0.278
       130 -11.0823     14.2979    205.0453   1.4044902820e+02   2.9307683761e+01    0.2562906    0.1821474 -83.76 0.0003343684    1.138    0.121
       131 -12.8751     19.3077    201.2588   1.3905317250e+02   2.9684959879e+01    0.3537743    0.2580811 -62.78  0.000467758    1.375    0.273
       132 -10.2054    152.5049    207.0130   1.0912832580e+02   8.0937349965e+00    0.2141909    0.1446034 -51.52 0.0004301546    1.538    0.350
       133 -10.0709    237.8408    208.1720   9.1848536522e+01  -6.5732435184e+00    0.1826396    0.1360881 -10.69  0.000465806    1.319    0.242
       134 -11.3845     52.7408    206.8525   1.3225364933e+02   2.4462039218e+01    0.2900964     0.227841  35.22  0.001040735    1.444    0.307
       135 -11.6824     52.3641    201.6914   1.3173174010e+02   2.5745765371e+01    0.4091349    0.3546953 -34.64  0.002291547    1.519    0.342
       136 -10.6902      3.1848    206.0466   1.4281303786e+02   3.0135348466e+01    0.3563972    0.1558586  61.64  0.001758509    2.287    0.563
       137 -10.0529     58.6182    211.1929   1.3143869140e+02   2.2650096965e+01    0.1799165    0.1130938 -59.97  0.000586647    1.573    0.364
       138 -10.4590     38.1894    205.9417   1.3539927778e+02   2.6495114558e+01    0.2746375     0.152494  43.27 0.0008121055    1.771    0.435
       139 -10.9752     39.2165    201.9873   1.3475103180e+02   2.7312183178e+01     0.227802    0.2021232 -85.44 0.0007675155    1.126    0.112
       140 -11.6688    183.5262    203.7968   1.0170925918e+02   3.1443685613e+00    0.2837673    0.2483492 -35.08 0.0003165151    1.128    0.114
       141 -12.0657    111.0243    201.0402   1.1776232792e+02   1.6904210301e+01    0.7212347    0.3590932 -70.55  0.002655293    2.751    0.636
       142 -11.7161    108.9118    194.0361   1.1709709998e+02   1.8937034482e+01    0.2845302    0.2438867 -68.88 0.0002999032    1.154    0.134
       143 -10.1367    228.0303    216.7678   9.5251795883e+01  -6.5902538036e+00    0.1755418    0.1526296  -4.20 0.0002989958    1.043    0.042
       144 -11.0883    195.5815    203.7852   9.9183158645e+01   1.0246046779e+00    0.2428158    0.2238849  54.27 0.0004893292    1.261    0.207
       145 -12.4089    122.7251    203.3741   1.1537688485e+02   1.4301479708e+01    0.3082668    0.2862144  85.06 0.0002574757    1.072    0.068
       146 -10.9437    121.5088    199.1138   1.1493463650e+02   1.5506711953e+01    0.2487225    0.2096342  32.19 0.0003159358    1.241    0.194
       147 -10.2030    159.4498    202.7022   1.0677279838e+02   7.7489491340e+00    0.2967192    0.1769691  35.10 0.0007569363    1.687    0.407
       148 -10.8210     24.6211    194.3214   1.3722152485e+02   3.0777262162e+01    0.6071115    0.2242885 -82.22  0.002214584    3.072    0.674
       149 -10.5588     31.3139    202.7128   1.3658172161e+02   2.8054022164e+01    0.2128999    0.1502787  58.55 0.0002266902    1.342    0.255
       150 -10.4297     27.9901    201.0000   1.3714123949e+02   2.8828024841e+01    0.3245197    0.1527856  32.74  0.001189716    2.345    0.574
       151 -12.3651    240.4739    201.1247   9.0048604232e+01  -5.7494599772e+00    0.3849047    0.3263224  24.20 0.0006956814    1.269    0.212
       152  -9.8163    165.8808    201.8739   1.0518127813e+02   6.7424242523e+00    0.2031554    0.1738324  62.52  0.001070289    1.323    0.244
       153 -10.8465    190.8777    200.9524   9.9614352055e+01   2.4077458812e+00    0.2104338    0.1955326 -14.40 0.0002975688    1.017    0.017
       154 -11.3481     95.9629    200.2671   1.2124380664e+02   1.9637115631e+01    0.2771186    0.2025972 -62.87 0.0004139292    1.349    0.258
       155  -9.8903     69.9320    201.4878   1.2761715904e+02   2.3378614651e+01    0.1994883    0.1703652  64.24  0.001060515    1.105    0.095
       156  -9.4605     71.6523    198.6699   1.2682550401e+02   2.3810689800e+01    0.1455593    0.1304628  87.92 0.0006175291    1.023    0.022
       157 -12.2821      4.9601    199.8379   1.4196662290e+02   3.1396644499e+01    0.2756785    0.2354507  84.51 0.0005932713    1.145    0.127
       158 -11.3223    208.8404    198.9701   9.5575318593e+01  -3.2112812141e-01     0.325966    0.1903987 -41.67  0.001035196    1.624    0.384
       159 -11.1586     89.8185    199.8808   1.2265776797e+02   2.0728581663e+01    0.3629031     0.216537  42.07 0.0008927634    1.637    0.389
       160 -10.1215     45.3063    199.9398   1.3314409177e+02   2.7063570307e+01    0.1844055    0.1550329 -84.20 0.0006721453    1.054    0.051
       161 -10.2212    169.5667    198.2980   1.0368486932e+02   6.8210730740e+00    0.3640001    0.1380561 -44.92   0.00129312    2.650    0.623
       162 -10.3932    227.1819    189.5942   9.0230814554e+01  -1.6110705720e+00    0.2281953    0.1686698 -46.64 0.0004255096    1.345    0.256
       163 -10.8237    223.9226    197.8814   9.2453424841e+01  -2.6102411183e+00    0.2361674    0.1922392  10.32 0.0004300449    1.265    0.209
       164 -12.7926    229.5466    194.8064   9.0812170323e+01  -2.9486557059e+00    0.3410664    0.2664516  -6.10  0.001463537    1.335    0.251
       165  -9.6923    161.9883    198.0267   1.0532217394e+02   8.2866142645e+00    0.1733304    0.1679657  22.59 0.0003396034    1.013    0.013
       166 -11.5820     62.7406    196.2929   1.2862344726e+02   2.5659905497e+01     0.265489    0.2117542  86.03 0.0002404909    1.164    0.141
       167 -11.1470    189.1189    196.2207   9.9063419272e+01   3.6732371812e+00    0.2498879    0.2225763  37.53 0.0004705513    1.160    0.138
       168 -11.2034     57.1474    195.3459   1.2982712115e+02   2.6652916244e+01    0.2828145    0.2018694  77.74 0.0002974465    1.397    0.284
       169 -11.6160     52.7403    192.7469   1.3054011408e+02   2.7868476682e+01    0.4247728    0.2199537  49.55 0.0009510573    1.949    0.487
       170 -12.0416    217.5714    194.6718   9.3035392595e+01  -9.7411277692e-01    0.4043182    0.3147283  25.17  0.001304682    1.344    0.256
       171  -9.9540    102.6517    196.3724   1.1900830787e+02   1.9453141338e+01    0.1926746    0.1403417  30.69  0.000929227    1.510    0.338
       172 -10.0498     82.4766    195.8582   1.2382083075e+02   2.2862685052e+01      0.21037    0.1345965 -63.59 0.0005742165    1.502    0.334
       173 -10.6834    139.8758    194.8185   1.0980804236e+02   1.3135545620e+01    0.2160168    0.1997957 -15.72 0.0005688138    1.188    0.158
       174 -10.2468     95.3522    195.0071   1.2056069997e+02   2.1005645466e+01    0.2214352    0.2008458  26.18  0.000473552    1.258    0.205
       175 -10.8008     44.3644    194.4024   1.3271568382e+02   2.8518543705e+01    0.2710361    0.1900929  42.59  0.001216855    1.483    0.326
       176 -10.9947    147.2432    193.2831   1.0779476984e+02   1.2102352362e+01    0.2816881    0.2534012 -10.68 0.0008062847    1.237    0.192
       177 -11.3658    248.9742    191.2530   8.6690931224e+01  -5.2946917748e+00    0.3074813    0.1964542 -40.19  0.001334671    1.367    0.268
       178 -10.6087    163.8872    192.3976   1.0380983983e+02   9.1530490278e+00    0.5001212    0.3117011  -6.13  0.001696172    3.311    0.698
       179 -10.3196    123.3568    193.1904   1.1344745314e+02   1.6562896782e+01    0.2122014    0.1906163 -70.70 0.0003337593    1.119    0.106
       180 -10.7128    120.0927    190.7149   1.1379299945e+02   1.7742425787e+01    0.2943332    0.2411187 -56.72 0.0007316025    1.222    0.182
       181 -11.6545     66.5159    191.1239   1.2700777448e+02   2.6398186606e+01    0.2905034    0.2633288  21.72 0.0006253936    1.349    0.259
       182 -10.6479     57.5564    190.1305   1.2904391502e+02   2.7877494415e+01    0.3215057    0.1189833 -62.88  0.001250014    2.402    0.584
       183  -9.3420     16.6772    191.2295   1.3869054529e+02   3.2316179217e+01    0.1236185   0.07913524  65.94 0.0001423484    1.508    0.337
       184 -11.2267    189.7745    189.3157   9.7559192319e+01   4.9642701225e+00    0.3253396    0.2433584  28.04 0.0007923651    1.414    0.293
       185 -12.2032     91.6999    188.9552   1.2047938798e+02   2.3083530000e+01    0.3109619    0.2528848 -78.79 0.0006256591    1.209    0.173
       186 -10.8141     80.2885    189.3901   1.2337393083e+02   2.4788151632e+01    0.4372616    0.2180587  26.18  0.001155945    2.674    0.626
       187 -11.5234    104.4477    184.4750   1.1653990421e+02   2.2033722532e+01    0.5626769    0.3654563 -57.65    0.0025853    1.507    0.337
       188 -10.8374      3.6536    187.9963   1.4126194069e+02   3.4267640701e+01    0.1794295    0.1618525 -87.76 0.0003366898    1.211    0.174
       189  -9.9393    205.3276    187.0303   9.3916225454e+01   2.6106346079e+00    0.2000563    0.1642181 -36.35 0.0001488326    1.140    0.123
       190 -11.1327     34.7097    191.4672   1.3462066608e+02   3.0366343411e+01    0.2948483    0.1944564  54.55 0.0009797094    1.506    0.336
       191  -9.0952     60.6393    187.2967   1.2790659031e+02   2.8161498487e+01    0.1498387   0.09665397  68.71 0.0007033165    1.709    0.415
       192 -10.9837      9.5212    186.3873   1.3982744997e+02   3.4134192938e+01    0.3145776    0.2008728 -31.65  0.001685004    2.444    0.591
       193 -11.3200     15.5498    183.0768   1.3814665054e+02   3.4372007404e+01    0.3934377    0.2123481 -46.79  0.001880676    2.197    0.545
       194  -9.9913    221.0056    186.2850   9.0728203077e+01   3.5494515630e-02    0.1838914    0.1725733   3.98 0.0004009517    1.104    0.094
       195 -10.1545     71.1012    194.3102   1.2634682572e+02   2.4955114494e+01    0.1965772     0.175565  68.02  0.000664593    1.080    0.074
       196 -10.8591    177.9731    184.4788   9.9109424394e+01   8.1902665479e+00    0.2614825     0.246017   3.99 0.0007439065    1.074    0.068
       197 -10.9635    174.0383    182.7944   9.9629633311e+01   9.3065064365e+00     0.441123    0.2436202  42.09  0.001389431    1.841    0.457
       198 -10.8192    225.7701    183.6472   8.9315923201e+01  -2.6638781360e-01    0.2320202    0.1938087  -4.38 0.0009194879    1.247    0.198
       199 -11.7559     29.2650    180.6438   1.3467090938e+02   3.3598141468e+01    0.4840517    0.2368478 -71.67  0.001771286    1.751    0.429
       200 -12.0016     32.8733    176.8969   1.3335279538e+02   3.4133405074e+01    0.4190691    0.2897103 -71.66  0.001339778    1.230    0.187
       201  -9.8659    122.7809    182.8303   1.1167950119e+02   1.9136222214e+01    0.2147565    0.1755715  71.16 0.0006282028    1.340    0.254
       202 -11.9292     58.9627    181.2226   1.2746320880e+02   2.9898843987e+01    0.4347568    0.3692915 -40.53  0.001839926    1.382    0.276
       203 -11.0752     47.7060    181.8141   1.3033866480e+02   3.1201389800e+01    0.3354082    0.2400629   1.20  0.001147724    2.193    0.544
       204 -12.7409     47.8676    177.0798   1.2966111896e+02   3.2359058560e+01    0.3264867    0.2858595  38.08 0.0005188545    1.302    0.232
       205 -11.4111    229.7797    180.6330   8.7984039896e+01  -3.6848481546e-01    0.3035886     0.245811 -64.53  0.001692225    1.542    0.352
       206  -9.7617     88.0080    182.2568   1.2029716847e+02   2.5339650041e+01    0.2041482     0.187279  75.29 0.0004162882    1.050    0.048
       207  -9.2387      8.6096    182.7690   1.3969475747e+02   3.5074220176e+01    0.1137566   0.08654456 -42.66 0.0006899383    1.639    0.390
       208  -9.6446    147.2867    180.3139   1.0525118376e+02   1.5060052470e+01    0.1522505    0.1213914 -13.33 0.0003277939    1.583    0.368
       209  -9.7059    132.5044    180.4903   1.0884282398e+02   1.7867638964e+01    0.1538083    0.1469648  82.98 0.0005494845    1.043    0.041
       210 -11.7592     80.0864    175.2744   1.2115239841e+02   2.8338146254e+01    0.6718131    0.3898202  89.45  0.002387312    2.584    0.613
       211  -9.8379     70.7112    178.6787   1.2411318699e+02   2.8891459078e+01     0.214835    0.1527065  27.97 0.0004729929    1.642    0.391
       212 -11.0934     74.0580    177.0803   1.2300313507e+02   2.8799727515e+01    0.2569736    0.2446827  48.42 0.0004949888    1.155    0.134
       213 -11.5085    105.4634    176.4376   1.1482745085e+02   2.3834537414e+01    0.4820544    0.3096015 -28.48  0.001171271    2.308    0.567
       214  -9.9354    109.2604    176.6658   1.1390331517e+02   2.3103350702e+01    0.2223948    0.1937718  47.89 0.0002554508    1.155    0.135
       215  -9.7878      6.3691    176.3369   1.3959377969e+02   3.6798202009e+01    0.2448474   0.08871331 -68.03 0.0009975118    2.120    0.528
       216 -10.9137    136.1866    176.1183   1.0707686315e+02   1.8198076860e+01    0.2358891    0.2116466 -20.48 0.0005678707    1.249    0.200
       217 -10.3715      3.7203    182.0851   1.4072820200e+02   3.5653900657e+01    0.2427753    0.1515173 -84.82 0.0008539709    1.306    0.234
       218 -10.4888     22.3172    175.6269   1.3576445683e+02   3.5528779032e+01    0.2319432    0.1675134 -72.61  0.001367816    1.153    0.132
       219 -10.2759    191.7834    174.4006   9.4089965276e+01   7.6891876512e+00    0.1975349    0.1408591  28.99  0.000337313    1.568    0.362
       220 -10.5757    156.2436    173.9344   1.0183979752e+02   1.4765943839e+01     0.225299    0.2195121  15.48  0.001211427    1.055    0.052
       221 -10.6255    159.5449    173.5424   1.0099212712e+02   1.4199454775e+01    0.3008817    0.1862196  43.65 0.0005708664    1.640    0.390
       222  -9.7167     18.3218    174.2857   1.3657422795e+02   3.6236607240e+01    0.1247897   0.08727684 -46.94  0.000211965    1.597    0.374
       223  -9.5422      2.2254    173.8758   1.4031334908e+02   3.7720579710e+01    0.1516169    0.1235319 -58.38 0.0004816607    1.298    0.229
       224 -10.7761     98.7122    171.7595   1.1569557865e+02   2.6172890276e+01     0.393786    0.2952667 -34.58  0.001562532    1.579    0.367
       225 -10.9115    199.8542    171.5534   9.1843012259e+01   6.7460882158e+00    0.2539991    0.2151404 -33.92 0.0003056815    1.120    0.107
       226 -11.2063     48.1963    167.5253   1.2822201403e+02   3.4709408805e+01    0.4726296    0.2176428 -58.75  0.001921163    1.881    0.468
       227  -9.8664     31.8681    169.6399   1.3269475080e+02   3.6032929257e+01     0.331145   0.09929644 -56.77  0.001252397    2.743    0.635
       228 -10.7228     62.3109    170.1905   1.2494581147e+02   3.2213643280e+01    0.3326141    0.1682237  51.06  0.001245535    2.213    0.548
       229 -10.0693    132.9978    168.4942   1.0630573372e+02   2.0636073085e+01    0.2323108    0.2086275 -57.82 0.0003790012    1.096    0.088
       230 -10.4767    114.5055    168.7802   1.1103881803e+02   2.4089756841e+01    0.2726591    0.2163442  43.56 0.0005400525    1.279    0.218
       231 -10.3846      2.1418    169.0246   1.3986928002e+02   3.8881296885e+01    0.1776434    0.1585896 -83.23            0    1.163    0.140
       232 -10.8747     73.0851    166.0094   1.2141187199e+02   3.1734159335e+01    0.4501992    0.2928034  83.33  0.001978294    1.992    0.498
       233 -10.5584     75.8960    162.0233   1.1995729792e+02   3.2320515478e+01    0.2505105    0.1982733 -53.69 0.0003402516    1.211    0.174
       234  -9.9610     57.8659    170.0000   1.2607573197e+02   3.2859665488e+01     0.213536   0.08136494  31.93 0.0007945685    2.888    0.654
       235 -10.9544     82.0651    165.9967   1.1901825163e+02   3.0365683130e+01    0.3402483    0.2247674  26.29  0.001104731    1.803    0.445
       236  -9.7879     59.5754    165.7650   1.2496193973e+02   3.3699711344e+01    0.1975177    0.1276278 -76.50 0.0005741736    1.550    0.355
       237 -11.9862     23.8749    164.0409   1.3400641506e+02   3.8217291731e+01    0.2987548    0.2298653  28.65 0.0004766235    1.566    0.361
       238 -11.9143    141.2018    161.1115   1.0271608416e+02   2.0766126164e+01    0.2884814    0.2817205  54.16 0.0002543828    1.043    0.041
       239 -10.2707     27.5119    157.6778   1.3224316552e+02   3.9434065944e+01    0.2531758    0.1754558 -46.84 0.0002526811    1.486    0.327
       240  -9.8398     32.8571    162.3896   1.3148582149e+02   3.7726716851e+01      0.16539    0.1358799  30.60 0.0001149545    1.439    0.305
       241 -11.8957     35.0521    158.3253   1.3034362797e+02   3.8505889328e+01    0.5217781    0.2888917  54.29 0.0005994566    2.099    0.524
       242 -10.0933     18.6957    160.6509   1.3490328665e+02   3.9528404740e+01    0.1646643    0.1509375 -43.74  0.001084686    1.280    0.219
       243 -11.2229     51.7295    157.3980   1.2572102403e+02   3.6820075852e+01    0.4753866    0.1998428 -51.72  0.001927123    2.185    0.542
       244  -9.2257    172.3183    159.2516   9.5028172437e+01   1.4830493226e+01    0.1484614     0.121356   2.60 0.0002304968    1.530    0.346
       245  -9.9391    149.0603    159.2639   1.0040620971e+02   1.9604578215e+01    0.2076313    0.1971647  63.53 0.0002312599    1.075    0.070
       246 -10.9196    108.0371    158.2322   1.1058814428e+02   2.7884503838e+01     0.454048    0.2253515  41.69  0.001599652    2.052    0.513
       247 -11.0662     46.1707    158.8769   1.2745660788e+02   3.7122448450e+01    0.2318535    0.2278067  49.89 0.0003716434    1.182    0.154
       248 -10.7118    248.4000    157.7580   8.0248767195e+01   7.9575349387e-01     0.197638    0.1103038 -34.60 0.0007288636    1.672    0.402
       249  -9.8554    114.6799    158.5467   1.0890326300e+02   2.6574921349e+01    0.2005576    0.1480475  52.03 0.0004980444    1.418    0.295
       250  -9.5484     11.5818    158.1601   1.3641023152e+02   4.0744438617e+01    0.1731081    0.0931847 -60.25 0.0001461292    1.537    0.349
       251 -10.5298    163.1884    156.4319   9.6464552775e+01   1.7344671607e+01    0.3814274    0.2602001  15.66  0.001518381    2.199    0.545
       252 -10.0874    113.1638    153.8640   1.0831018422e+02   2.8010565421e+01    0.2437547    0.2075491 -89.72  0.001199723    1.292    0.226
       253 -10.7839     96.6751    153.9230   1.1275307216e+02   3.0981800671e+01    0.3332992    0.2302896  15.03  0.001324728    2.005    0.501
       254  -9.6255     65.4917    152.4070   1.2107426597e+02   3.6261267717e+01    0.1433681    0.1319074 -68.85 0.0001036125    1.020    0.019
       255 -10.7722    249.0573    150.9806   7.8796840451e+01   1.9282686099e+00    0.2043791     0.171037 -46.41 0.0003170878    1.059    0.056
       256  -9.3872    137.5229    151.5095   1.0151285084e+02   2.3785970033e+01    0.1568284    0.1526261 -63.59 3.975073e-05    1.007    0.007
       257  -9.6741     71.1846    154.5607   1.1988784297e+02   3.4904810467e+01    0.1779306    0.1455866  10.33 0.0002702187    1.519    0.342
       258 -10.1874     79.8604    150.1416   1.1663222817e+02   3.4704160287e+01    0.2194511     0.191974  87.48 0.0002540308    1.192    0.161
       259 -10.3395     51.8681    149.3740   1.2434702248e+02   3.8816753847e+01    0.2374168    0.1748342 -74.96 0.0005209859    1.300    0.231
       260 -10.6528    225.8723    148.8151   8.2168890999e+01   6.4251299779e+00    0.2615242    0.1606483  24.82  0.001122709    2.536    0.606
       261 -10.8547     36.3712    145.6553   1.2807803611e+02   4.1512953498e+01    0.3511753    0.2050716 -72.32 0.0008042743    1.596    0.373
       262 -10.1635    164.2541    145.6169   9.3780840589e+01   1.9558032376e+01    0.2705103      0.19289 -25.73  0.001024858    1.727    0.421
       263 -10.0464      4.5101    143.9082   1.3654556270e+02   4.4714673737e+01    0.2875005   0.08095051 -63.79 0.0009570219    2.485    0.598
       264  -9.1755     84.7023    143.7321   1.1396785658e+02   3.5532555257e+01    0.1449806    0.1151424 -22.82 0.0006926616    1.518    0.341
       265 -11.1777    132.2632    140.5079   1.0032438196e+02   2.7461307947e+01    0.2781966     0.257532 -60.29 0.0003402667    1.059    0.055
       266 -10.0757     72.6785    140.0227   1.1664500402e+02   3.8323135144e+01      0.21418    0.1736425 -55.83 0.0004036481    1.133    0.118
       267 -10.5744     65.9918    139.0333   1.1838742005e+02   3.9534091893e+01    0.2116501    0.1930289 -59.72            0    1.004    0.004
       268 -10.2297     50.7273    135.0117   1.2208975502e+02   4.2522404531e+01    0.2027433    0.1674669 -59.25  0.000470291    1.069    0.064
       269 -10.5838     34.3544    137.6409   1.2735097220e+02   4.3694390189e+01    0.2587509     0.227268  68.76  0.001432677    1.256    0.204
       270 -10.6397     95.7508    135.4906   1.0903405202e+02   3.5687695783e+01    0.3438072    0.2551846  49.71  0.001162543    1.444    0.308
       271 -10.2387     40.4199    133.2525   1.2481730222e+02   4.4133638345e+01    0.2781788    0.1584428 -78.06  0.001168795    2.027    0.507
       272 -11.0872     28.5521    132.4091   1.2817256320e+02   4.5533012565e+01    0.2337306    0.1852865 -55.54 5.758409e-05    1.091    0.083
       273 -10.8983     26.0744    129.9772   1.2849920744e+02   4.6347328090e+01    0.1907233    0.1820752 -61.03 0.0004498772    1.135    0.119
       274  -9.9699     61.8326    131.1460   1.1801705243e+02   4.2046775351e+01    0.1931916     0.152859 -37.80            0    1.275    0.216
       275 -10.0563      9.8534    131.1644   1.3339795483e+02   4.7374204448e+01    0.1700514    0.1229622 -46.69 0.0003391121    1.303    0.233
       276  -9.8370    121.9072    130.1266   1.0055561361e+02   3.2003826986e+01    0.2063396    0.1816089 -20.35 0.0003675605    1.264    0.209
       277  -9.4828     48.6613    130.7159   1.2188559594e+02   4.3820594455e+01    0.1417657   0.09844521 -31.10 0.0003211537    1.629    0.386
       278 -10.3736     34.1753    129.8155   1.2606323825e+02   4.5617629992e+01    0.2878853    0.1677476 -42.24   0.00123888    1.696    0.410
       279  -9.6566    126.7960    128.4091   9.8846738393e+01   3.1403900116e+01    0.2049361    0.1512318  30.81  0.000320175    1.515    0.340
       280 -10.6478     91.4979    127.1350   1.0832624466e+02   3.8439194514e+01    0.3126363    0.2271801  21.31 0.0007067489    1.630    0.386
       281 -10.1907     30.1795    125.8357   1.2656152439e+02   4.6963558402e+01    0.1850116    0.1642132 -74.61 0.0003648378    1.120    0.107
       282 -11.3385     57.0962    124.5261   1.1807180003e+02   4.4275870400e+01    0.3045808     0.195017  24.03  0.001266709    1.803    0.446
       283 -10.1731      3.7465    124.9142   1.3426633488e+02   4.9262187111e+01    0.1896778    0.1276011 -54.64 0.0002641052    1.225    0.184
       284 -10.8069     70.1462    122.0234   1.1351960958e+02   4.3073876117e+01    0.3384915    0.2131031   6.27  0.001427855    2.414    0.586
       285  -9.5781     39.3100    122.3276   1.2311493041e+02   4.6889941351e+01    0.1430836   0.09041047 -35.89 0.0007040293    1.661    0.398
       286  -9.8245     83.9994    121.5095   1.0920613977e+02   4.1037160194e+01    0.2056452    0.1227778  59.61 0.0008090283    2.431    0.589
       287 -11.2625     19.5221    118.4689   1.2852966392e+02   4.9639523932e+01    0.4661786    0.2990506  62.29  0.002443984    2.124    0.529
       288 -10.8094     18.9085    114.8457   1.2808587934e+02   5.0533540894e+01    0.2514313    0.1471594 -55.07  0.000272813    1.372    0.271
       289  -9.5427    116.3674    120.2025   9.9595990487e+01   3.5400638178e+01    0.1489522    0.1171871  15.15 0.0002402635    1.562    0.360
       290  -9.8546     93.2800    119.3740   1.0593616052e+02   3.9952524113e+01     0.229278    0.1543328  33.86 0.0004929518    1.580    0.367
       291  -9.6412    147.4858    118.4198   9.1170393082e+01   2.9214087688e+01    0.1527349    0.1504567 -84.84 0.0001052167    1.020    0.020
       292 -10.2477     55.0035    117.7474   1.1726285309e+02   4.6156410761e+01     0.192337     0.181354  88.84 0.0004767268    1.181    0.153
       293  -9.8284    138.6069    115.7446   9.2658541491e+01   3.1733896061e+01    0.2025579    0.1455851 -55.35 0.0002300259    1.440    0.305
       294 -10.1441    105.0720    114.2506   1.0123059133e+02   3.8955107159e+01    0.2010106    0.1934537  33.29  0.000301464    1.066    0.062
       295  -9.4110     60.6534    114.3145   1.1470718924e+02   4.6222238017e+01    0.1406751     0.109506  75.18 0.0003818728    1.718    0.418
       296 -11.4654      4.2818    112.8991   1.3230918895e+02   5.2009246265e+01    0.3825087    0.2939925 -57.93  0.001822605    1.029    0.028
       297 -10.9769      3.0889    107.6396   1.3183468333e+02   5.3276655619e+01     0.242275    0.1378768 -57.51 0.0003883613    1.346    0.257
       298 -11.6818    149.8564    111.2789   8.8804354497e+01   3.0207809504e+01    0.2589805    0.2437842 -54.00 0.0002392584    1.048    0.046
       299  -9.7305    120.5442    112.4652   9.6483466853e+01   3.6276811495e+01    0.1512684    0.1486791 -35.04 2.372728e-06    1.014    0.014
       300 -10.1506     74.2039    111.8538   1.0985879963e+02   4.4837434500e+01    0.2085807    0.1978405  77.28 0.0009736372    1.193    0.162
       301 -11.5855     37.9944    110.3253   1.2110129206e+02   4.9843859053e+01     0.470238    0.2308546 -61.52  0.002153482    1.882    0.469
       302 -10.5483     86.4071    110.0115   1.0563762382e+02   4.3280642504e+01    0.3171447    0.2238328  65.49  0.001436239    1.986    0.497
       303 -10.5466     20.8040    109.6354   1.2653067524e+02   5.1584462171e+01    0.2850012    0.1504385 -41.23  0.001180415    1.756    0.431
       304  -9.6970     65.6538    109.2428   1.1191596889e+02   4.6697252752e+01    0.2052722    0.1662977 -52.75 0.0002638843    1.166    0.142
       305 -10.1597     63.3290    105.6488   1.1178064999e+02   4.7836721439e+01    0.2634515    0.2007379 -75.86 0.0008750506    1.647    0.393
       306 -10.2598    112.8943    105.0394   9.6611237948e+01   3.9438225385e+01      0.21811    0.2100906 -15.41 0.0002866661    1.043    0.042
       307  -9.7998    123.7941    103.6151   9.3281144652e+01   3.7491860414e+01     0.200833    0.1839452 -29.37 0.0002772543    1.121    0.108
       308 -10.7312     75.7554    102.8158   1.0708068542e+02   4.6621752100e+01    0.2768439    0.1705293  17.37  0.001216135    2.098    0.523
       309 -12.1588     52.6709    100.7794   1.1407897320e+02   5.0330332153e+01    0.6446267    0.4347546  -9.48   0.00253199    1.865    0.464
       310 -10.8048     58.6659    100.3845   1.1199079306e+02   4.9642849123e+01    0.2346352    0.2127225  12.37 0.0006587588    1.162    0.140
       311 -11.2445     43.0902    102.1065   1.1759769234e+02   5.1164514897e+01    0.3378964    0.2621167 -63.54 0.0009022705    1.315    0.239
       312  -9.7438     29.2058    103.2036   1.2248766694e+02   5.2323032582e+01    0.1593937    0.1426918 -80.17 0.0003082246    1.270    0.213
       313  -9.7581     18.4673    103.4452   1.2610623801e+02   5.3175063621e+01    0.1257782     0.106248 -54.42 6.711917e-05    1.056    0.053
       314 -10.9951      9.2301    101.7012   1.2882459347e+02   5.4226126404e+01    0.4076553    0.1637676 -58.05 0.0006275965    1.872    0.466
       315 -10.4216    135.1841    101.0718   8.9683569067e+01   3.5563812593e+01    0.2943911    0.2037712 -30.73  0.001225663    1.637    0.389
       316 -10.8148     70.6794    101.5752   1.0837713276e+02   4.7674820452e+01    0.2806466    0.2053086 -30.33 0.0002461923    1.389    0.280
       317 -10.5099     28.6575    112.7904   1.2461356246e+02   5.0181830537e+01    0.2476668     0.186567  82.99  0.001390322    1.684    0.406
       318 -11.0505     86.0776     97.6625   1.0247074988e+02   4.6030510272e+01    0.3933274    0.2964658 -29.07  0.001392963    1.369    0.269
       319 -10.3133     80.6556     95.8118   1.0365700578e+02   4.7336403727e+01    0.2011081     0.178645   5.12 0.0007108158    1.143    0.125
       320 -10.8993     36.8495     98.6854   1.1891193394e+02   5.2590235162e+01    0.3945419    0.1745723 -64.73  0.001532731    2.594    0.614
       321 -12.9208    106.4451     97.6061   9.6402224878e+01   4.2279366710e+01    0.3299463    0.2919533  26.59  0.001020193    1.152    0.132
       322  -9.7006     16.4530     99.4525   1.2599119315e+02   5.4220141167e+01    0.1259833    0.1032107 -49.92 0.0002576729    1.016    0.016
       323  -9.3785    177.6871    100.7407   8.0174875629e+01   2.6025089201e+01    0.1402122    0.1186011  19.38 0.0002148945    1.532    0.347
       324 -10.8170     62.8696     96.0988   1.0949520367e+02   4.9998342546e+01    0.2093062    0.1930407  10.75 0.0003534393    1.127    0.112
       325  -9.9232     23.9874     96.4745   1.2281353848e+02   5.4278666904e+01    0.1717549    0.1241234  20.19  0.001019022    1.580    0.367
       326  -9.8500      1.4942     92.9241   1.2979471626e+02   5.6623043154e+01    0.1810482   0.09831907 -63.76  0.000617482    1.530    0.346
       327 -10.2915    106.0504     91.5844   9.4832745659e+01   4.3577245026e+01    0.2374654    0.2009535 -55.00 0.0004217206    1.267    0.211
       328  -9.9853    102.1988     92.0608   9.6074169032e+01   4.4234511388e+01    0.1942988    0.1802447 -32.49 0.0002884059    1.065    0.061
       329 -10.4476     54.0679     92.5186   1.1151367377e+02   5.1945106258e+01    0.1869716    0.1318977  27.47 0.0007826454    1.515    0.340
       330 -10.5806    113.2312     90.4479   9.2503265311e+01   4.2356157112e+01    0.3433576    0.2353819  51.82  0.001612908    1.522    0.343
       331 -11.7693      9.2910     85.8947   1.2568519476e+02   5.7656829757e+01     0.233201    0.1823799 -43.61 0.0002778188    1.022    0.021
       332 -10.4579     88.0424     89.3006   9.9527215743e+01   4.7409928145e+01    0.2742075    0.1950071 -18.57  0.001326253    1.660    0.397
       333 -10.1810     24.6625     90.3493   1.2121592315e+02   5.5550279526e+01    0.1211363   0.09646088  75.59 0.0007046359    1.787    0.440
       334 -10.6786     77.9886     87.9702   1.0231488056e+02   4.9390388229e+01     0.235356    0.1902619 -28.01  0.000398156    1.197    0.165
       335 -10.4237     67.4655     88.5123   1.0591068139e+02   5.0925358781e+01    0.2237337    0.1342229  32.80 0.0005117519    1.736    0.424
       336 -10.7988     63.4572     86.9495   1.0681751376e+02   5.1829964482e+01    0.2470106    0.2086236   2.58 0.0004695215    1.191    0.160
       337 -10.9001     27.6051     84.7815   1.1884776651e+02   5.6468471533e+01    0.3418811    0.1620681  33.44  0.001254421    2.409    0.585
       338 -11.3000     48.6667     85.0713   1.1140098518e+02   5.4174673107e+01    0.5007327    0.2439087 -26.79  0.001619452    2.831    0.647
       339  -9.7892     53.5110     82.4904   1.0899003323e+02   5.4089752496e+01     0.186287    0.1249488  12.93 0.0005442015    1.664    0.399
       340  -9.8950    128.8348     85.6213   8.7047326953e+01   3.9967042343e+01    0.2205644     0.136797  59.42 0.0009579085    1.790    0.441
       341 -10.5411     98.2749     84.0129   9.4909817339e+01   4.6563402714e+01    0.2274208    0.1965726  31.50  0.000447851    1.140    0.123
       342 -10.6396    132.8543     82.6096   8.5214402100e+01   3.9635804475e+01    0.2686631    0.2246502  74.17  0.001049376    1.322    0.243
       343 -10.7399     89.5112     81.6313   9.6846220784e+01   4.8645267902e+01      0.23739    0.2141885   1.16 0.0002080934    1.077    0.072
       344 -10.5841     42.2886     80.4363   1.1241219476e+02   5.5865247538e+01    0.3122063     0.252697 -35.18  0.001932255    1.070    0.065
       345 -10.3025     20.3981     81.9117   1.2077066510e+02   5.7681378293e+01    0.2017053     0.144094 -27.86 0.0004219756    1.280    0.219
       346  -9.6687     76.9816     80.9496   1.0060324099e+02   5.0938531408e+01     0.223259    0.1588615  -9.27    0.0011134    1.681    0.405
       347 -10.2579     68.0357     78.9094   1.0295895092e+02   5.2746793046e+01    0.2048093    0.1763999 -12.61 0.0004315236    1.084    0.078
       348 -11.1974      6.5726     89.8789   1.2746291737e+02   5.6981356265e+01    0.4420463    0.2629133  52.04  0.002365481    2.559    0.609
       349  -9.6187     61.2858     77.6580   1.0489302865e+02   5.3982500137e+01    0.1237438    0.1080965 -87.41 0.0004723522    1.640    0.390
       350 -11.7670     52.6659     75.1962   1.0719680505e+02   5.5632335728e+01    0.3958456    0.2351597 -33.19  0.002032029    1.614    0.381
       351 -10.0537     28.2724     75.5531   1.1624828499e+02   5.8287890796e+01    0.2363411     0.113112 -38.40  0.001006297    1.851    0.460
       352 -10.3369     17.6760     75.4260   1.2019581374e+02   5.9218221088e+01    0.2308602    0.1356769 -67.22  0.001020731    2.030    0.507
       353  -9.3865    131.4029     75.4627   8.3552827215e+01   4.1224601889e+01    0.1405507    0.1368628  69.32 7.210482e-05    1.033    0.032
       354  -9.9610    141.7507     73.2727   8.0540550623e+01   3.9269426584e+01    0.3380201    0.2100777  -7.54 0.0008973608    3.213    0.689
       355  -9.8570     80.8811     74.2756   9.7339502980e+01   5.1534372633e+01     0.186471    0.1653182  22.91 0.0006180257    1.100    0.091
       356  -9.8804     69.4582     74.0174   1.0101151109e+02   5.3451381874e+01    0.1958756    0.1263093 -44.23  0.000895052    1.535    0.348
       357 -10.8837     59.5480     74.0794   1.0443280798e+02   5.4910614105e+01    0.3142259    0.1852814  38.32  0.001431172    1.815    0.449
       358  -9.9917     36.9397     72.0000   1.1202326255e+02   5.8115049606e+01    0.1934713   0.06954323  27.30 0.0008067686    2.973    0.664
       359 -11.4674     52.9112     69.4032   1.0537428205e+02   5.6689598686e+01    0.2616981    0.2352372 -47.45  0.001133052    1.296    0.228
       360 -10.7426      2.4948     70.4888   1.2477624345e+02   6.1225762898e+01    0.4634004    0.1492586 -34.75   0.00199091    3.072    0.674
       361 -10.3195      1.3242     66.1617   1.2420754250e+02   6.2141065840e+01    0.1964031    0.1035937 -69.90 0.0004975704    2.349    0.574
       362 -10.2198     87.7532     69.2188   9.3619021109e+01   5.1217789447e+01    0.1889245     0.151037   5.65 0.0003969317    1.323    0.244
       363  -9.9522     79.9836     69.5561   9.6168939685e+01   5.2532873096e+01    0.1920174    0.1274738  36.61 0.0003112144    1.479    0.324
       364  -9.6402     52.2947     65.6085   1.0442576801e+02   5.7460930781e+01    0.1192456    0.1040077 -85.25 0.0007009295    1.784    0.439
       365 -11.1029     45.2098     68.8443   1.0801925209e+02   5.7769111558e+01    0.2503327    0.1662312 -24.89            0    1.449    0.310
       366 -11.6345     22.3349     67.6696   1.1638014639e+02   6.0358239439e+01    0.3377351    0.2325879 -59.96 0.0006145663    1.617    0.382
       367 -10.5837     17.5047     67.0168   1.1808446992e+02   6.0882669806e+01    0.2758398    0.1753358  45.04  0.001559232    2.329    0.571
       368  -9.5876     75.4584     66.5060   9.6678659126e+01   5.3829248318e+01    0.1344004    0.1199321  -1.10 3.154617e-05    1.010    0.010
       369  -9.8266    137.0166     63.6685   7.8903431245e+01   4.1905187810e+01    0.1925828    0.1679341  54.88  0.000700174    1.075    0.070
       370 -11.0684     54.7390     61.8804   1.0235706000e+02   5.7786693057e+01    0.3359335    0.2368385  75.23  0.001451943    3.793    0.736
       371 -10.3067     47.8306     62.9394   1.0522956107e+02   5.8516569150e+01    0.1906536    0.1434095 -18.87 0.0003690521    1.212    0.175
       372 -11.4069      9.7686     62.8176   1.2001978783e+02   6.2255015880e+01    0.2631975    0.1702467  -8.47 0.0009026854    1.566    0.361
       373 -11.6505      5.0824     59.5928   1.2105226012e+02   6.3169890845e+01    0.4517481    0.2371202 -12.65  0.002535935    2.090    0.522
       374 -11.3109     29.3038     53.7791   1.0948859353e+02   6.2232356013e+01    0.4417951    0.2785748   5.29   0.00261355    1.640    0.390
       375 -10.9503     25.0000     61.0143   1.1343506289e+02   6.1365814076e+01    0.2947982    0.1303481 -57.01  0.001070408    2.621    0.619
       376 -10.6636     26.2498     57.2015   1.1178799851e+02   6.1935336115e+01     0.309123      0.15521  13.31  0.001591393    2.263    0.558
       377 -10.6776     21.4276     57.0046   1.1367283048e+02   6.2413156474e+01    0.2766326    0.1741191  31.22  0.001224483    1.842    0.457
       378 -10.4626     16.7201     61.8795   1.1698450945e+02   6.1916320107e+01    0.2070873    0.1611418 -63.54   0.00135113    1.587    0.370
       379 -11.2368     68.8686     60.9042   9.7078899657e+01   5.5852175336e+01    0.3948727     0.196008  38.55  0.001642988    1.989    0.497
       380 -10.4599     39.5789     60.6523   1.0762632515e+02   5.9920289123e+01    0.2258025    0.2010998   2.67    0.0011557    1.170    0.146
       381  -9.8141     31.1915     59.0893   1.1040322693e+02   6.1110310392e+01    0.1474976    0.1345674 -38.95 0.0004054666    1.305    0.234
       382 -10.3025     47.7402     58.5885   1.0387270199e+02   5.9285687747e+01    0.2224096    0.1147007  26.37 0.0006592989    1.993    0.498
       383 -11.1775    225.8613     55.7804   6.2489217948e+01   2.2917607011e+01    0.2113985    0.1671506 -67.20 0.0002844828    1.071    0.067
       384 -10.1570    132.8138     55.8563   7.7599494300e+01   4.4035449929e+01     0.194888    0.1764479  33.64 0.0003500046    1.132    0.117
       385 -10.2745     79.2239     55.7516   9.1972199865e+01   5.4951018080e+01    0.2264575     0.155641 -35.96  0.001243444    1.490    0.329
       386 -10.8841     91.9891     54.3894   8.7613690036e+01   5.2821907711e+01    0.2783976    0.1960189  78.58  0.001293317    2.605    0.616
       387 -11.5743     41.3147     52.5733   1.0434334676e+02   6.1098565593e+01    0.3008415    0.2078374  -8.31  0.001344685    1.415    0.293
       388 -10.1540     61.0524     51.4234   9.6624966833e+01   5.8591211270e+01    0.2153316    0.1555853 -18.18  0.000856709    1.337    0.252
       389  -9.7289     53.8122     52.1650   9.9486144486e+01   5.9530901740e+01    0.1697222    0.1256579  -6.40 0.0002452543    1.292    0.226
       390 -10.7665     65.7793     50.0645   9.4511468662e+01   5.8066719643e+01    0.2401424    0.2038768 -43.28  0.001007715    1.421    0.296
       391 -10.7348     13.9464     50.7231   1.1485644070e+02   6.4146521071e+01    0.1827507    0.1240911 -22.82 0.0003766836    1.231    0.188
       392 -10.8442     17.2538     46.4250   1.1210758893e+02   6.4608361973e+01    0.2545922    0.1619208 -19.22  0.001032117    1.393    0.282
       393 -11.8064     12.3883     46.3797   1.1416963363e+02   6.5014823202e+01    0.3417796    0.2026863 -47.45 0.0006580726    1.546    0.353
       394 -10.2660    174.0416     50.1428   6.8269978487e+01   3.5335369206e+01     0.198336     0.174839  85.56 0.0004889001    1.009    0.009
       395 -10.2583    128.8486     49.9722   7.6763715735e+01   4.5760047810e+01    0.2032516    0.1715913  26.68 0.0003519806    1.274    0.215
       396 -11.2202     97.7721     49.6839   8.4429591247e+01   5.2381590743e+01    0.3908931    0.2908238  89.69  0.001962129    2.286    0.563
       397  -9.9615     93.9561     50.0019   8.5611274200e+01   5.3084903659e+01    0.1813638    0.1737061  48.43 0.0003745973    1.183    0.155
       398 -10.2348    118.6958     54.6581   8.0530485838e+01   4.7325689976e+01    0.1405995    0.1020574  19.25 0.0003978608    1.681    0.405
       399 -10.8739     73.7526     49.9864   9.1807325360e+01   5.6769327955e+01    0.1629708    0.1048687 -32.72 0.0008667884    1.572    0.364
       400  -9.5346    153.3139     48.2916   7.1340703051e+01   4.0409397440e+01    0.1341808   0.09982691  34.49 0.0002703177    1.592    0.372
       401  -9.4924     31.6499     48.2453   1.0672696156e+02   6.2914713317e+01     0.102557   0.09102909  39.56 0.0006932281    1.581    0.368
       402  -9.8467    205.2281     46.9696   6.3109323686e+01   2.8664056628e+01    0.1743209    0.1490776 -72.23 0.0002962213    1.075    0.070
       403 -10.5696    122.9532     46.2275   7.6977341838e+01   4.7573165421e+01    0.2336423    0.1962393 -42.36 0.0006320197    1.318    0.241
       404 -10.0419    114.3409     47.0318   7.9257660771e+01   4.9330997330e+01    0.1753157     0.164063  -8.93 0.0003368566    1.143    0.125
       405 -11.3525     61.5943     45.0979   9.4241181974e+01   5.9459446769e+01    0.3076869    0.2010297 -18.40 0.0004155368    1.571    0.364
       406 -10.1389     21.5138     44.9799   1.0982888030e+02   6.4466442032e+01    0.1681942   0.09993298 -43.74  0.001014382    1.556    0.357
       407  -9.9130     34.1983     44.4223   1.0438736974e+02   6.3244940665e+01    0.1598557    0.1028697  37.08  0.000948199    1.831    0.454
       408 -10.8170    141.5106     42.3887   7.1948617077e+01   4.3908485999e+01    0.2247582    0.1963735  63.45 0.0001753602    1.026    0.025
       409 -10.2515     80.8543     43.1712   8.7213390160e+01   5.6492262552e+01    0.1745996     0.161038  22.40 0.0002864798    1.125    0.111
       410 -10.7958     70.0915     41.6333   9.0118100005e+01   5.8577989127e+01    0.2240444    0.1663601 -17.74 0.0003349461    1.334    0.250
       411 -12.5346     56.5760     40.8534   9.4518058359e+01   6.0829918420e+01    0.2574908    0.2055193  11.81 0.0003479055    1.081    0.075
       412 -10.7341     41.0755     38.5083   9.9525399355e+01   6.3309022083e+01    0.4109685    0.2154596   1.34  0.001132221    2.939    0.660
       413 -10.3177     18.7021     40.9714   1.0967695334e+02   6.5372321944e+01    0.2609801    0.1195293  33.80  0.001398158    2.527    0.604
       414 -11.2512    103.7028     39.0598   7.9393531458e+01   5.2596065016e+01    0.2234745    0.1980741  66.83 0.0004427195    1.261    0.207
       415 -10.5971     13.3199     38.7797   1.1127609250e+02   6.6189079221e+01    0.3149977    0.1491449 -47.50  0.001591384    1.989    0.497
       416 -11.3633     10.0091     39.0000   1.1281364131e+02   6.6420041796e+01    0.2899533    0.1744836  -6.49  0.001251332    1.590    0.371
       417 -10.3387    128.2068     37.5020   7.3223726273e+01   4.7521486681e+01    0.3171829    0.1656393 -11.38  0.001267893    3.460    0.711
       418 -10.5459      4.0818     36.6752   1.1469830779e+02   6.7231050527e+01      0.32636    0.1592378 -60.31  0.001643174    3.163    0.684
       419  -9.6220     86.2771     37.3319   8.3578691537e+01   5.6251887939e+01      0.12923   0.08885493  15.19 0.0003063075    1.601    0.375
       420 -11.1340    193.9819     35.3289   6.1936110948e+01   3.2736253472e+01    0.2093162    0.1745651 -58.55 0.0002552079    1.201    0.167
       421  -9.4122    131.7136     36.3015   7.2149729182e+01   4.6882580851e+01    0.1261883   0.09815004 -79.14 0.0002820571    1.558    0.358
       422 -10.1870     72.1978     35.8758   8.7381965729e+01   5.8979649408e+01    0.1760784    0.1277138  15.33 0.0005240196    1.331    0.249
       423 -11.5712    118.9230     33.8883   7.4133245210e+01   4.9994082372e+01    0.3198791    0.2528796 -81.50  0.001853613    1.622    0.384
       424 -10.7343     29.3769     34.2030   1.0270821602e+02   6.5325465716e+01    0.1865021    0.1558436  10.31 0.0004281106    1.234    0.190
       425 -11.3373    140.5294     33.0609   6.9518156689e+01   4.5273492838e+01     0.413361    0.2842765  60.39  0.001440296    1.269    0.212
       426 -10.2028    147.3793     29.7094   6.7375041852e+01   4.4095666676e+01    0.1696966    0.1231458 -54.80 0.0005118521    1.540    0.351
       427 -10.2658     87.1679     33.6544   8.2055237475e+01   5.6533151139e+01    0.1661065    0.1565057   5.12  0.000684416    1.156    0.135
       428 -11.5724     77.4009     33.4274   8.4869464718e+01   5.8368386953e+01    0.2841657    0.2258315  64.94  0.001180218    1.708    0.415
       429 -10.0944     60.7132     33.9914   9.0545926511e+01   6.1119015270e+01    0.1735458    0.1403735 -10.12  0.001148434    1.160    0.138
       430 -10.5567     55.7937     34.1106   9.2333801397e+01   6.1864103504e+01    0.2269766    0.1612285  46.44  0.001217536    1.679    0.404
       431 -11.8891    107.2768     29.9072   7.5553399754e+01   5.2933138619e+01    0.3697493    0.2808224  -4.55 0.0007010092    1.530    0.346
       432  -9.8596     91.5745     33.5503   8.0784828643e+01   5.5696117762e+01    0.1271022    0.1080327  28.43  1.77768e-05    1.031    0.031
       433 -10.8925    206.6368     31.3878   5.9581355643e+01   3.0413517096e+01    0.2200457    0.1602617  83.06 0.0009503042    1.183    0.154
       434 -10.5946    246.9529     31.0137   5.5590433967e+01   2.2033779704e+01    0.1550704    0.1401824  55.75 0.0006698313    1.640    0.390
       435 -10.0431    159.1529     29.8650   6.5491078674e+01   4.1374948739e+01    0.1700429    0.1399075  46.11 0.0002526903    1.305    0.233
       436  -9.9996     23.8346     30.6427   1.0374543932e+02   6.6432906144e+01    0.1453741   0.09390032  29.07 0.0009402519    1.628    0.386
       437 -11.1791     33.7782     30.3640   9.9428585391e+01   6.5355263576e+01    0.2905153    0.1854964  24.03  0.001862327    1.442    0.306
       438  -9.7977     51.1066     28.9092   9.2084523068e+01   6.3227770391e+01    0.1573669    0.1413092  18.14 0.0003215998    1.279    0.218
       439 -11.9622     83.4665    237.8352   1.2915380922e+02   1.3042957315e+01    0.3924223    0.2475162  56.14 0.0007807606    1.461    0.315
       440 -10.5527     73.8087     27.7089   8.3920654185e+01   5.9682908993e+01    0.4411996   0.09280082  47.44  0.001513855    4.121    0.757
       441 -11.2733    242.9584     25.3655   5.4898080115e+01   2.3543639044e+01    0.2022428    0.1467318 -62.83  0.000394921    1.146    0.128
       442 -10.1070     46.0302     25.2120   9.2559484799e+01   6.4415460627e+01    0.1917807    0.1456975 -36.00  0.001284417    1.591    0.371
       443 -11.8956      1.9078     25.3227   1.1176818639e+02   6.9138127595e+01    0.2606208      0.13241 -45.83  0.001627004    1.855    0.461
       444 -10.1499      5.6561     23.2398   1.0920852795e+02   6.9156855832e+01    0.2103096    0.1358378 -25.79  0.001362746    1.205    0.170
       445 -11.8811     77.6047    248.0629   1.3150739323e+02   1.1759578142e+01    0.3640351    0.2387966  77.01  0.002008298    1.582    0.368
       446 -12.6410     75.2008    240.2200   1.3115499283e+02   1.3759607048e+01    0.4945449    0.2900366  67.28    0.0024955    1.796    0.443
       447 -10.1741     61.1795     23.9317   8.6608743353e+01   6.2257843265e+01    0.2426853    0.1274129  23.31  0.001245297    2.081    0.520
       448 -12.4451    200.3794    245.0550   1.0560663504e+02  -7.1845877751e+00    0.2745878    0.2258523 -31.76 0.0003960472    1.267    0.210
       449 -10.0511    153.2357     23.3562   6.4722163828e+01   4.3454670302e+01    0.1783529     0.106226  73.74 0.0006328852    1.570    0.363
       450 -12.0379    117.5736     22.6596   7.0973196976e+01   5.1508139668e+01    0.3312175     0.194564  51.48 0.0005812431    1.432    0.302
       451  -9.5577     26.3681     22.8305   9.9615559242e+01   6.7218631554e+01    0.1529101   0.08546933 -23.63 0.0009292276    1.630    0.386
       452 -10.9294      9.9933     22.9248   1.0704149568e+02   6.8841349776e+01    0.1767992    0.1235752 -25.49 0.0007399103    1.179    0.152
       453 -10.3776    221.7648     22.5714   5.6237517013e+01   2.8234342179e+01    0.1600447   0.09551217  88.82  0.000259071    1.499    0.333
       454  -9.8276    102.7443     22.5578   7.4241657737e+01   5.4655726243e+01    0.1815236     0.111444  66.33 0.0009597102    1.792    0.442
       455  -9.6316     78.8130     22.1958   8.0413403375e+01   5.9380187205e+01    0.1639239    0.1169601  24.23 -0.000430966    1.291    0.225
       456  -9.1596     69.6935     21.3597   8.2859590837e+01   6.1103014486e+01    0.1063056     0.095887 -74.64 0.0007040119    1.731    0.422
       457 -10.9955     38.5781     21.0639   9.3820926062e+01   6.5936643201e+01    0.2744149    0.1698364  28.57  0.001408727    1.432    0.301
       458 -11.1403    201.4828    240.4920   1.0461874923e+02  -6.5969363421e+00    0.3426954    0.2086707  37.50  0.001385472    1.585    0.369
       459 -10.9920    182.2962     18.9072   5.9643876014e+01   3.7310519423e+01    0.2228243    0.2110184  35.15 0.0009341338    1.393    0.282
       460  -9.6448     52.8195     20.6307   8.8245590565e+01   6.3948256110e+01    0.1469717    0.0989211  43.65 0.0001639129    1.559    0.359
       461 -10.4559    198.5508     18.7540   5.7770898304e+01   3.3696777514e+01    0.1635154   0.09951336 -53.65 0.0007080192    1.588    0.370
       462 -10.7039     92.7430     18.6977   7.5395322414e+01   5.7062057757e+01    0.2245897    0.1573521 -33.95  0.001367635    1.671    0.401
       463  -9.7411    157.9963     17.5130   6.2500223628e+01   4.2976266293e+01    0.1827716    0.1058187  67.65 0.0003341556    1.458    0.314
       464 -10.5475    198.4492    240.4874   1.0522216195e+02  -6.1324670554e+00    0.2289734     0.177009  -2.91 0.0005603069    1.296    0.229
       465 -10.0273     74.9778     12.9818   7.8145141742e+01   6.0985656803e+01    0.1642481    0.1426517  79.42 0.0008702345    1.644    0.392
       466  -9.6810     61.2026     17.6400   8.4179811539e+01   6.2932558546e+01    0.1709078   0.08734937  35.99 0.0009394329    1.681    0.405
       467 -10.2456    105.9839    235.3245   1.2401311397e+02   1.0054531892e+01    0.1898302    0.1545965  49.14 0.0002006702    1.109    0.098
       468  -9.8231     90.0434     24.9600   7.8255040103e+01   5.6958846863e+01    0.1505462    0.1293981  30.17 0.0009982783    1.028    0.027
       469 -10.8022    115.4869     16.0249   6.9357460142e+01   5.2600911828e+01    0.4482241    0.1547589  44.40   0.00187238    2.731    0.634
       470 -10.3348    112.4634     15.5297   6.9824745978e+01   5.3293249448e+01    0.2209005    0.1782545  50.98 0.0005103037    1.035    0.034
       471 -11.6866    101.2733    246.1250   1.2640065169e+02   8.5613114261e+00    0.6549479    0.2900411  37.74  0.002917254    2.076    0.518
       472 -10.3795    219.6891     14.6789   5.4884783753e+01   2.9593383032e+01     0.106674   0.08564083  52.93 0.0003057091    1.649    0.393
       473 -11.2205    208.7558     13.9964   5.5753098330e+01   3.1999756353e+01    0.2222305    0.1283112  62.61  0.001293488    1.658    0.397
       474 -10.6497    179.9494     13.5369   5.8693101567e+01   3.8406418920e+01    0.1874971      0.10187  71.22 0.0004353158    1.545    0.353
       475 -10.7172    148.4786     12.9598   6.2716332911e+01   4.5579325762e+01    0.2497143    0.1361865  53.62  0.001019428    1.612    0.380
       476 -11.2591    101.9924    240.4287   1.2553658735e+02   9.6215831111e+00    0.2558955    0.2138961 -82.16 0.0002158993    1.236    0.191
       477 -10.6458     99.2699     26.9558   7.6541978757e+01   5.4907965814e+01      0.29262    0.1536812  47.87  0.001513124    1.615    0.381
       478  -9.8574    102.5172    234.9012   1.2470846701e+02   1.0702728657e+01    0.3978356    0.1792286 -57.45  0.001734091    2.333    0.571
       479 -10.3388     85.8345    245.2222   1.2950893270e+02   1.1125666592e+01     0.277953    0.1833446  58.65 0.0008009904    1.389    0.280
       480 -12.0575     92.1349    242.7835   1.2791208666e+02   1.0672989097e+01    0.6076095    0.3571717  60.95  0.002363104    1.752    0.429
       481  -9.8265    246.5422     10.5292   5.1980835539e+01   2.4618458729e+01    0.1150483   0.08258958 -75.65 -2.076784e-05    1.023    0.022
       482 -11.6465     96.0518    239.2601   1.2665510743e+02   1.0803634686e+01    0.6889076    0.2887543  57.67  0.002567262    3.125    0.680
       483 -11.2150     92.7187    233.0070   1.2658680915e+02   1.2662954466e+01    0.7358181    0.2620209  54.07  0.002498438    3.576    0.720
       484 -10.7851    151.9313    244.5308   1.1547290059e+02   6.2302587152e-01    0.2042802    0.1823757 -71.25 0.0004924407    1.320    0.242
       485 -11.8188    146.1898    243.3045   1.1650205430e+02   1.8037625971e+00    0.4823974    0.2400783 -60.34  0.001875317    2.633    0.620
       486 -11.6417    141.7957    238.3474   1.1669320671e+02   3.4954259871e+00    0.5929216    0.2265222  40.59  0.002361054    2.339    0.572
       487 -10.1736    162.6265    245.8105   1.1342641868e+02  -1.3659598068e+00    0.1713425    0.1279168 -62.13 0.0009419616    1.689    0.408
       488 -12.3780     63.1106    244.2641   1.3404604731e+02   1.4622566664e+01    0.2981831    0.2330987  54.85 0.0006149574    1.141    0.123
       489 -10.2825    181.4068    242.8357   1.0906481108e+02  -3.8665938761e+00    0.1823862    0.1178953 -30.37 0.0009479132    1.713    0.416
       490 -10.4238    191.4387    240.4746   1.0662949265e+02  -5.0429150322e+00    0.2671532    0.1971327   3.84  0.001502729    1.445    0.308
       491 -10.9550    120.4264    241.0000   1.2166995821e+02   6.5224202220e+00      0.36926    0.1304443  44.91  0.001413876    2.568    0.611
       492 -10.2371    124.4977    239.4883   1.2058410182e+02   6.1567698765e+00    0.2096376    0.1140186  47.79 0.0006722194    1.717    0.418
       493 -11.7151    167.9414    238.7289   1.1118964424e+02  -9.4477387567e-01    0.3025205    0.2479491 -68.85 0.0003768227    1.572    0.364
       494 -10.6854    225.0289    238.4805   9.9710135527e+01  -9.7223045319e+00    0.2059969    0.1737252 -48.06 0.0007720375    1.534    0.348
       495 -11.0687    109.8778    238.5339   1.2360065633e+02   8.7506742620e+00    0.2626286    0.2094624 -69.70 -3.902977e-05    1.340    0.254
       496 -10.4255    157.1067    238.1810   1.1339210277e+02   9.5877762634e-01    0.1888528    0.1523651  55.29 0.0006326496    1.336    0.252
       497 -10.0614     63.5993    238.4412   1.3336100436e+02   1.5798630947e+01    0.2721813    0.1253225  56.91  0.001235855    2.158    0.537
       498 -10.7152    221.4189    235.4866   9.9871682740e+01  -8.7310907729e+00    0.2239453    0.1666477 -32.19 9.883351e-05    1.298    0.230
       499 -10.7280    219.2946    232.0426   9.9671237024e+01  -7.8608311341e+00     0.268014     0.200955 -35.42 0.0008590706    1.322    0.243
       500 -10.5624    187.3224    236.0599   1.0672207926e+02  -3.6209750007e+00    0.1823904    0.1672005  -9.74  0.000584817    1.087    0.080
