#   1 NUMBER                 Running object number                                     
#   2 MAG_AUTO               Kron-like elliptical aperture magnitude                    [mag]
#   3 X_IMAGE                Object position along x                                    [pixel]
#   4 Y_IMAGE                Object position along y                                    [pixel]
#   5 X_WORLD                Barycenter position along world x axis                     [deg]
#   6 Y_WORLD                Barycenter position along world y axis                     [deg]
#   7 A_WORLD                Profile RMS along major axis (world units)                 [deg]
#   8 B_WORLD                Profile RMS along minor axis (world units)                 [deg]
#   9 THETA_WORLD            Position angle (CCW/world-x)                               [deg]
#  10 FWHM_WORLD             FWHM assuming a gaussian core                              [deg]
#  11 ELONGATION             A_IMAGE/B_IMAGE                                           
#  12 ELLIPTICITY            1 - B_IMAGE/A_IMAGE                                       
         1 -11.5530    245.4927     83.6511   6.2896298976e+01   1.2890971879e+01     1.191715    0.5474139 -13.85  0.004309095    3.117    0.679
         2  -8.7880      2.7232      5.0144   1.0564627812e+02   7.3859128838e+01    0.2292209    0.1048361 -20.52  0.001194824    2.677    0.626
         3  -8.1540    118.4773      4.4657   5.9003103404e+01   5.4957725361e+01    0.1374208     0.130807  32.56  0.000113707    1.062    0.058
         4  -9.6575    127.2012    249.1600   1.1426234574e+02   1.0746159678e+01    0.3472078    0.1055773  42.99  0.001723564    2.370    0.578
         5  -9.2716    216.2979    229.7583   9.7100050556e+01  -4.1309275447e-01    0.5900584    0.3088716  -3.70  0.002887421    3.429    0.708
         6 -12.0693    234.2329    209.3830   9.1045939160e+01  -1.0358884821e+00     3.571618     1.136192 -20.86   0.01061508    8.238    0.879
         7 -11.0404    226.6666    229.3777   9.5369493194e+01  -1.9384849351e+00     1.757529    0.7318193  19.13  0.006380123    5.356    0.813
         8 -11.3314    248.5929    203.2038   8.7718583231e+01  -2.6127644742e+00     1.437635     0.514766 -27.77  0.006953471    2.989    0.665
         9 -11.0425    207.1377    247.9238   1.0105419631e+02  -8.9173976911e-01     1.142911    0.4864317  28.84  0.006102454    2.335    0.572
        10 -10.4720    218.3708    246.6251   9.9105344580e+01  -2.3971564924e+00    0.7370401    0.3910567  -8.81  0.004229104    2.903    0.656
        11 -11.5541    238.6097    222.8489   9.2482753031e+01  -3.0738764842e+00     1.638074    0.7404836  -3.88  0.006441826    5.118    0.805
        12 -10.9257    248.3992    215.1593   8.9728855787e+01  -3.7762418623e+00    0.8810462    0.3484808 -18.59  0.004197712    3.338    0.700
        13 -10.4779    225.9008    241.1279   9.7171812981e+01  -2.9653491463e+00    0.5378539    0.3140401  -5.78  0.003439352    2.140    0.533
        14 -13.0892    244.3346    242.1507   9.4460123008e+01  -5.6683259171e+00     2.749674     1.165503 -25.21   0.01637049    2.754    0.637
        15 -10.9734    231.6581    245.5293   9.6882014443e+01  -4.1930633155e+00    0.8437694    0.3519189  20.11  0.003819068    3.720    0.731
        16  -8.3633    184.3158    250.5866   1.0504823401e+02   2.1915660367e+00    0.2568595   0.07783526  40.68  0.001245769    2.404    0.584
        17  -8.9712    167.5743    249.8019   1.0768113837e+02   4.7592959981e+00    0.2785847    0.1460811  37.90  0.001386336    1.442    0.306
        18  -8.3920    144.0322    249.8961   1.1155902589e+02   8.2190011324e+00    0.2931231    0.1037202  41.34  0.001536716    2.089    0.521
        19  -7.9687    138.2122    250.6048   1.1258768606e+02   8.9764815620e+00    0.1525905   0.07878847  37.40 0.0007437689    1.606    0.377
        20  -8.2859    113.5201    249.5148   1.1654598663e+02   1.2627397475e+01    0.1749978    0.1038904 -62.57  0.001216959    2.189    0.543
        21  -8.9617     20.2807    249.2996   1.3122636397e+02   2.3883587637e+01    0.2655221   0.08433417  53.52  0.001704518    2.012    0.503
        22  -8.4492     13.5141    247.5308   1.3216221063e+02   2.4809865341e+01      0.17051    0.0648715  55.21 0.0009357656    1.711    0.416
        23 -10.2825      7.3406    236.2082   1.3270161673e+02   2.7128468108e+01    0.3396663     0.131672  59.45  0.002045183    1.760    0.432
        24  -9.3625      9.3965    248.6892   1.3280267634e+02   2.5028636793e+01    0.2236804    0.1585499  84.57  0.002065048    1.338    0.253
        25  -8.3252     10.4249    244.2514   1.3250776828e+02   2.5599659192e+01    0.1600935   0.08214919  78.12  0.001244159    1.533    0.348
        26  -8.4764      9.4945    240.4947   1.3252087754e+02   2.6262024634e+01    0.1545226   0.08530608  73.46 0.0006627518    1.329    0.247
        27  -9.3750      4.3125    248.6888   1.3353855515e+02   2.5502122533e+01    0.2671143    0.1136112  40.82  0.001946666    1.963    0.491
        28 -10.2173      4.1962    243.3747   1.3339744450e+02   2.6312741761e+01    0.4284714    0.1426923  66.09   0.00273805    2.248    0.555
        29  -8.1582     51.0683    249.5145   1.2656411810e+02   2.0569452537e+01    0.1516089   0.07150834  44.46  0.001038224    1.607    0.378
        30  -9.0281     34.4018    248.2325   1.2906324106e+02   2.2592630928e+01    0.2228222   0.07697682  61.08  0.001338323    2.284    0.562
        31  -8.8594     25.9960    249.1563   1.3037035962e+02   2.3329292389e+01    0.1537651   0.08176762  60.00 0.0006906661    1.269    0.212
        32  -9.2229    197.8799    245.4018   1.0221630418e+02   7.2876965002e-01    0.3773971    0.2001903  16.59  0.002019637    2.766    0.638
        33  -8.0632    201.4488    240.0777   1.0094640294e+02   7.5319066948e-01    0.2101845    0.1363761  18.93 0.0008870965    1.540    0.351
        34  -8.3288    187.6662    245.8939   1.0393632539e+02   2.1996760656e+00     0.196616    0.1137417  33.14 0.0008527518    1.367    0.268
        35  -8.3233    170.3009    246.0167   1.0680053815e+02   4.7892974924e+00    0.2421246     0.103403  41.91  0.001370873    1.716    0.417
        36  -9.5225    157.8880    244.9112   1.0873280638e+02   6.7824905916e+00    0.2891055    0.2018295  15.15  0.001872942    1.915    0.478
        37  -9.1839    163.2286    243.5756   1.0769213364e+02   6.1416243178e+00    0.3640618    0.1660163  55.22  0.001863036    2.616    0.618
        38  -9.2039     21.1036    240.4567   1.3076352265e+02   2.5144104493e+01    0.1845276   0.09660701  57.88  0.001416094    1.299    0.230
        39  -9.4861     21.2925    244.8073   1.3090525542e+02   2.4458849538e+01    0.2428358    0.1025309  64.41  0.001312659    1.760    0.432
        40  -7.9404     44.4949    244.3087   1.2731747351e+02   2.2087958256e+01    0.1692871   0.06825001  41.42  0.001066233    1.980    0.495
        41  -8.4982    192.5514    242.2825   1.0268559721e+02   1.8576101150e+00    0.2568807    0.1298836  32.74   0.00148422    1.633    0.388
        42  -8.7713    178.5385    243.0387   1.0508575268e+02   3.8905377229e+00     0.340097    0.1208159  37.38  0.001691118    2.275    0.560
        43  -8.6410    133.6728    245.0126   1.1278683482e+02   1.0355947174e+01    0.1498625     0.117189  49.78 0.0007771994    1.071    0.066
        44 -10.1766     15.3770    240.8257   1.3164793713e+02   2.5649790803e+01    0.3305562    0.1215901  70.28  0.002073932    2.290    0.563
        45  -7.6483    143.4756    242.0414   1.1083543687e+02   9.2980777703e+00     0.124323   0.09203157  -7.46 0.0006674171    2.319    0.569
        46 -10.6133    116.7603    241.5987   1.1529814816e+02   1.3258808237e+01    0.3113452    0.2318622  37.64  0.002319507    1.318    0.241
        47  -8.5126    205.9450    240.5850   1.0028371100e+02   2.5886676470e-02    0.1965572    0.1403358  -6.30 0.0009479374    1.650    0.394
        48  -9.0894    206.5968    235.1286   9.9439325858e+01   4.9786160412e-01     0.284263    0.1832235  21.61  0.001209429    1.436    0.304
        49  -8.4729    207.4897    230.4432   9.8640946103e+01   8.6201375703e-01     0.241862    0.1614215   3.36  0.001093169    1.759    0.432
        50  -8.4526    170.6232    239.7211   1.0600265819e+02   5.4816450363e+00    0.2355645    0.1480712  23.83  0.001491396    1.744    0.427
        51  -7.2612     38.2964    240.6697   1.2810738738e+02   2.3324281891e+01    0.1051068   0.04941811  63.46 0.0004360026    1.637    0.389
        52  -9.7023     24.8746    238.7351   1.3011297758e+02   2.5031778571e+01    0.3195733   0.06820782  57.97  0.001512877    3.640    0.725
        53  -8.5196    195.6071    236.3525   1.0141163692e+02   2.0412443251e+00    0.2986375    0.1473853  28.31  0.001657355    2.001    0.500
        54  -8.0897    190.1989    234.7821   1.0210217323e+02   3.0479860393e+00    0.2313591     0.131339  16.31  0.001257512    2.465    0.594
        55  -9.9359    125.1665    245.8136   1.1428436251e+02   1.1480583075e+01    0.1872443    0.1769986 -89.44  0.001553291    1.371    0.271
        56  -8.1736    162.8282    234.1516   1.0665121766e+02   7.3658349871e+00    0.1555972    0.1122913  28.54 0.0006894392    1.332    0.249
        57  -8.0679    201.6196    232.0286   9.9831803564e+01   1.5933292500e+00    0.3418116    0.1611294  16.53  0.001265943    5.282    0.811
        58  -7.7907    153.7916    232.4196   1.0799784388e+02   8.9880583556e+00    0.1623257    0.0863665  35.66 0.0006333542    1.631    0.387
        59  -9.3320    138.2229    231.3766   1.1057951042e+02   1.1519121080e+01      0.28295    0.1500451  51.44  0.001680528    1.590    0.371
        60  -8.1549    194.9993    230.6642   1.0074718908e+02   2.7715164077e+00    0.2059715    0.1246002   2.65  0.001137445    2.568    0.611
        61  -7.4131    176.6725    231.6440   1.0397438252e+02   5.5204119153e+00    0.1153968   0.07633578  18.17 0.0004616212    1.777    0.437
        62  -9.7874    123.5451    230.6891   1.1306692259e+02   1.3822943855e+01    0.3688225    0.1942903  26.45  0.001827523    2.981    0.665
        63  -8.5831      1.5704    227.3057   1.3329174510e+02   2.9066595220e+01    0.1989654   0.07651093  78.89  0.001041899    2.168    0.539
        64  -9.4973      6.1454    229.6660   1.3266357359e+02   2.8274397088e+01    0.2158324     0.109137  71.20  0.001302817    1.442    0.307
        65  -8.1822      6.2913    226.3195   1.3252513872e+02   2.8800561410e+01    0.1414207   0.07281748  64.94 0.0003075193    1.354    0.261
        66  -7.8657    188.0327    229.9580   1.0182396079e+02   3.9417542466e+00    0.1850266    0.1146821  21.07  0.001120202    1.759    0.431
        67  -8.4598    211.9666    225.8552   9.7244947027e+01   6.6662116651e-01    0.2401273      0.14737 -12.85  0.001476779    2.059    0.514
        68  -9.4319     10.8286    226.2603   1.3181015867e+02   2.8390518083e+01    0.1987074   0.08940112  59.95  0.001399831    1.562    0.360
        69  -8.9772    223.7574    225.3458   9.5240656972e+01  -1.0910510028e+00    0.2962955    0.1743102  16.84  0.001129701    1.735    0.424
        70  -8.9960    225.9595    219.5367   9.4002021156e+01  -8.2414762881e-01    0.3309555    0.2076293   9.13  0.001796069    1.694    0.410
        71  -8.3433    228.2892    215.3550   9.2970850404e+01  -7.4363098111e-01     0.184503     0.143356  23.82 0.0008253465    1.045    0.043
        72  -7.2472    175.5273    226.5028   1.0350108201e+02   6.3359388943e+00    0.1171203   0.09000715  37.34 0.0001190008    1.007    0.007
        73  -7.9521    199.0696    225.0235   9.9277433058e+01   2.7777909116e+00    0.1794943    0.1144555  19.28 0.0006475337    1.632    0.387
        74  -8.7881    216.9076    221.1600   9.5733751838e+01   4.0685938811e-01    0.2574052    0.1685634 -12.23  0.001413743    1.771    0.435
        75  -7.6675    171.3253    223.3351   1.0381233849e+02   7.4100403961e+00    0.1166914   0.07977413  18.53  0.000705132    1.716    0.417
        76  -9.7245      4.5677    222.2781   1.3265470426e+02   2.9616907147e+01    0.1731735     0.131648  89.82 0.0008678892    1.360    0.265
        77  -9.7514      2.2284    219.0058   1.3291246777e+02   3.0366366284e+01    0.2427097    0.1556038  59.70  0.001806465    1.139    0.122
        78  -8.3234    206.5407    222.9514   9.7723527084e+01   1.8349055153e+00    0.2295177    0.1557724  10.90  0.001143051    1.585    0.369
        79  -7.8074    202.3650    219.7101   9.7951676358e+01   2.8682517286e+00    0.1444058    0.1029981 -13.06 0.0009438216    1.657    0.396
        80  -7.7085    220.9031    218.1793   9.4621284920e+01   1.0545491978e-01    0.1620102    0.1088104  18.51  0.000633492    1.342    0.255
        81  -8.2908    211.0824    216.7283   9.6033461114e+01   1.8179538175e+00    0.2604554    0.1548502   4.86  0.001425347    2.289    0.563
        82  -7.3623    140.5164    217.4696   1.0855720539e+02   1.3151121534e+01    0.1186787   0.09397479  45.68 -3.266401e-06    1.023    0.023
        83  -7.6907    205.8068    215.9481   9.6806323878e+01   2.7538269463e+00    0.1819787    0.1152938   5.63  0.001047152    1.992    0.498
        84  -9.7590      2.8704    213.3080   1.3260778766e+02   3.1265924739e+01    0.3473694     0.096139  64.63  0.001805905    3.009    0.668
        85  -8.7453    215.9448    208.5030   9.3930964795e+01   1.9775430662e+00    0.2839079    0.1603315 -12.57  0.001522781    2.371    0.578
        86  -7.8788    200.3833    209.7711   9.6793018298e+01   4.3786002302e+00    0.1509715    0.1067358 -13.25 0.0009407204    1.676    0.403
        87  -9.0795    228.8258    205.4960   9.1292303628e+01   2.4012773095e-01    0.2486609      0.22958  -0.79  0.001853787    1.347    0.258
        88  -9.0950      7.1825    206.2932   1.3162182891e+02   3.2089123773e+01     0.210372      0.10025  80.37  0.001379414    1.692    0.409
        89  -8.5701    221.5210    213.3989   9.3775264360e+01   5.2998789908e-01     0.289812    0.1459302  21.65  0.001473147    2.288    0.563
        90  -8.5048    223.3304    200.5197   9.1378609012e+01   1.6952240505e+00    0.2044999    0.1299457   0.23  0.001077535    1.814    0.449
        91  -8.0496    225.3361    206.8304   9.2088741483e+01   6.5079231711e-01    0.2025141     0.104428 -16.39  0.001043739    2.508    0.601
        92  -8.7033    230.5754    197.7822   8.9705608164e+01   8.2328390136e-01    0.2026051    0.1444564  -2.35 0.0008203777    1.393    0.282
        93  -8.4831    138.9505    198.7799   1.0644031279e+02   1.6284732497e+01    0.1725114      0.13434  48.13  0.001104008    1.064    0.061
        94  -8.5952    133.0082    199.0686   1.0762218385e+02   1.7218457321e+01    0.1807271    0.1463547  51.21  0.001188853    1.028    0.027
        95  -7.4897    226.6876    196.6734   9.0162930299e+01   1.5889672826e+00    0.1265402   0.07869767  15.02 0.0004665883    1.664    0.399
        96  -8.4015    231.6060    192.1416   8.8555515438e+01   1.3018582408e+00    0.2376891    0.1521378   6.88  0.001041136    1.664    0.399
        97  -9.1809    223.6688    189.1822   8.9366872200e+01   2.9861290247e+00    0.3587152    0.2034679 -38.78  0.001960505    2.118    0.528
        98  -7.6923    215.2348    189.6949   9.0905250181e+01   4.3683071878e+00    0.1760805   0.09586105 -18.76 0.0005701208    2.308    0.567
        99  -8.2554    230.0013    186.4166   8.7804135488e+01   2.2451011935e+00    0.2312377    0.1524392  -6.11 0.0007878687    1.620    0.383
       100  -8.7647      4.3527    197.6675   1.3175050273e+02   3.3861746635e+01    0.1691184   0.07626016  64.24  0.001041794    1.688    0.407
       101  -9.4627    235.1388    180.2830   8.5825825510e+01   2.1073801569e+00    0.2741927    0.1991208  11.62  0.001696306    1.253    0.202
       102  -8.1699    218.2079    177.6943   8.8223607500e+01   5.3853252365e+00     0.248333    0.1526663   1.26  0.001243697    2.103    0.525
       103  -8.3364      1.5176    176.4833   1.3132828085e+02   3.8012661933e+01     0.191965   0.07133824  84.45  0.001032989    2.382    0.580
       104 -10.4494    236.7994    169.4443   8.3492676334e+01   3.1416162460e+00    0.3681236    0.2768584 -14.43  0.002275289    1.283    0.220
       105  -8.5318     88.9985    171.0505   1.1292808313e+02   2.9224726882e+01    0.1788868    0.1577603  69.28            0    1.063    0.060
       106 -11.2114    234.3728    145.5457   7.9029724395e+01   6.6772574228e+00    0.8434416     0.516143   3.05  0.004038767    2.047    0.511
       107 -11.4998    242.5614     97.8921   6.6808462238e+01   1.1579200907e+01      1.03882    0.7577623  58.10  0.005554589    1.551    0.355
       108 -11.4766    248.5834     92.2430   6.4576922937e+01   1.1079251270e+01     1.633695    0.3157579 -28.22  0.004385801    5.188    0.807
       109  -8.1456    191.7902    248.8372   1.0362961757e+02   1.2723297146e+00    0.1681846    0.1138967  26.85  0.001205788    1.270    0.212
       110 -10.3671    245.8894    167.5898   8.1648392275e+01   1.7894169102e+00    0.6191304    0.3043385 -13.70  0.002848751    2.517    0.603
       111 -11.4794    248.5717    154.1912   7.8535133915e+01   2.9534050698e+00     1.095797    0.7831808 -14.94  0.006530843    1.299    0.230
       112 -10.3713    243.6569    138.8973   7.6089842643e+01   5.8036070238e+00    0.7457173    0.4458072  -4.10  0.003595686    1.994    0.498
       113  -9.6568    242.1850    132.2476   7.4865964637e+01   6.9665348579e+00    0.6803989    0.3122637 -16.50  0.002679795    2.846    0.649
       114 -11.1657    240.6676    108.5354   6.9650737202e+01   1.0507152793e+01    0.8412528    0.5063148 -25.12   0.00412204    1.568    0.362
       115 -10.6472    248.2527    128.0714   7.2989196504e+01   6.3541806982e+00     1.194359    0.3537501 -26.96  0.004118628    3.537    0.717
       116 -10.9929    247.3399    112.1771   6.9501654381e+01   8.6506887512e+00     1.597806    0.3546012 -28.42  0.004655519    4.622    0.784
       117  -8.9657    203.0140    167.6938   8.9049762265e+01   9.5471669214e+00    0.2407215    0.2103999  47.95 0.0005154676    1.247    0.198
       118  -9.0726    240.6799    163.2861   8.1643692615e+01   3.2227920424e+00    0.2642029     0.147522 -19.02  0.001353225    1.862    0.463
       119  -8.1721    233.8383    163.3000   8.2777619987e+01   4.4421991482e+00    0.2406549    0.1390748 -17.34  0.001016858    1.863    0.463
       120  -9.0925    237.8585    157.4994   8.0942457792e+01   4.4589691064e+00    0.2759827    0.1636268 -21.14  0.001445973    1.695    0.410
       121  -8.9957    232.8421    152.3469   8.0716595276e+01   6.0556766558e+00    0.2745747    0.1696835 -17.35  0.001418851    1.680    0.405
       122  -7.5205    206.3058    153.3748   8.5590348503e+01   1.1011780432e+01    0.1448272   0.09828441  10.15 0.0003971995    1.769    0.435
       123  -8.9427    222.2542    150.3347   8.2104391454e+01   8.3413709872e+00    0.2331143    0.2024954 -19.02 0.0006077833    1.176    0.150
       124 -11.3940    238.9750    122.0884   7.3082669103e+01   8.9793595289e+00     1.169532    0.5987861 -23.27  0.005265078    1.972    0.493
       125  -9.1296    230.4078    139.6640   7.8423716527e+01   8.2448712671e+00    0.4422715    0.1505739 -32.50   0.00168384    2.879    0.653
       126  -8.3316    216.6603    135.8713   7.9957949868e+01   1.1536296808e+01     0.242159     0.180305  30.78 0.0008109876    1.285    0.222
       127 -10.1348    232.0962    131.8505   7.6413700731e+01   8.9997899462e+00    0.5363023    0.3141716 -41.67  0.002582951    1.899    0.473
       128  -8.5271    225.5433    133.1862   7.7814303494e+01   1.0124436751e+01    0.3195296    0.1313914 -29.52  0.001275437    2.470    0.595
       129  -8.9110    219.9678    126.7729   7.7315609503e+01   1.2202152463e+01    0.4249301     0.189284 -19.31  0.001495642    3.257    0.693
       130  -8.8555    227.1708    124.0455   7.5457754476e+01   1.1107162421e+01    0.3735068    0.1957774 -32.60  0.001694653    1.848    0.459
       131  -9.8433    231.0305    113.9254   7.2448091946e+01   1.1758951922e+01    0.5087602    0.2928414 -27.75  0.002395498    1.667    0.400
       132  -8.7701    219.1994    115.5440   7.4807256337e+01   1.4040321805e+01    0.3547897    0.2362569   6.40  0.001630688    1.904    0.475
       133  -9.2155    230.3594    102.6067   6.9819566793e+01   1.3529046383e+01    0.4466465    0.2495536 -17.91   0.00194209    1.988    0.497
       134  -7.9237    165.3029    101.9062   8.1787037902e+01   2.8515332155e+01    0.2028981    0.1840946 -28.55 0.0002496011    1.117    0.105
       135  -8.9276    221.2005     95.6700   6.9556125339e+01   1.6571285717e+01    0.2893678     0.232419 -22.92 0.0007561979    1.192    0.161
       136  -8.0698    221.9835    104.0251   7.1525928468e+01   1.5154866781e+01     0.228184    0.2094678  -4.09 0.0005968391    1.013    0.013
       137  -7.9890    224.5207     92.4882   6.8212743619e+01   1.6289977384e+01    0.1433523    0.1345214 -15.40 0.0002542836    1.030    0.029
       138  -9.2836    236.8629     89.4743   6.5568971436e+01   1.3971678819e+01    0.2917786    0.1790938 -10.03  0.001313593    1.913    0.477
       139  -8.1094    231.7495     85.9638   6.5438734580e+01   1.5599400028e+01    0.1892747    0.1155093 -27.40  0.000464319    1.547    0.353
       140  -7.3442      9.7389     86.2957   1.2213831945e+02   5.6430650188e+01    0.1117346   0.07478305  78.55            0    1.504    0.335
       141 -10.4174    243.3592    149.3815   7.8370610404e+01   4.4978587445e+00     0.684335    0.3353374 -21.47  0.002992722    2.144    0.534
       142  -7.5292    108.7960     81.6246   9.0166285999e+01   4.4802656696e+01    0.1851664      0.13856  55.32 0.0001933201    1.454    0.312
       143  -7.0871    165.7087     75.2924   7.4214318619e+01   3.3159726804e+01    0.1518434    0.1209944 -71.29 0.0002470472    1.550    0.355
       144 -10.0589    248.7094     72.2117   5.9625869574e+01   1.3710938467e+01    0.3559082    0.2480802  11.24   0.00163834    1.769    0.435
       145  -9.7599    248.6817    141.9401   7.5951794396e+01   4.4742465310e+00    0.7133909     0.356182 -12.10  0.003070978    2.562    0.610
       146  -9.0532    122.7320     59.9349   7.9505157275e+01   4.6086425833e+01     0.240213    0.2149869  53.82 0.0003067028    1.166    0.142
       147  -7.4665    172.0190     50.0111   6.5111182803e+01   3.5592310830e+01    0.1746293    0.1725829  19.14 0.0009476519    1.003    0.003
       148  -7.8292    218.4040     47.2243   5.6970910490e+01   2.4073804714e+01    0.2097709    0.1240997 -38.07 0.0009000185    1.593    0.372
       149  -7.4568    173.7201     34.2921   5.9708615612e+01   3.7310511229e+01     0.150124    0.1121538 -61.93 0.0006945162    1.529    0.346
       150  -7.4085     15.0165     18.0057   1.0414862347e+02   7.0612300298e+01    0.1364952    0.1038481 -40.71  0.000944411    1.013    0.013
       151  -8.7862    151.5477    249.1389   1.1024197544e+02   7.2094598090e+00    0.2214889    0.1136874  32.35    0.0013073    1.902    0.474
