#   1 NUMBER                 Running object number                                     
#   2 MAG_AUTO               Kron-like elliptical aperture magnitude                    [mag]
#   3 X_IMAGE                Object position along x                                    [pixel]
#   4 Y_IMAGE                Object position along y                                    [pixel]
#   5 X_WORLD                Barycenter position along world x axis                     [deg]
#   6 Y_WORLD                Barycenter position along world y axis                     [deg]
#   7 A_WORLD                Profile RMS along major axis (world units)                 [deg]
#   8 B_WORLD                Profile RMS along minor axis (world units)                 [deg]
#   9 THETA_WORLD            Position angle (CCW/world-x)                               [deg]
#  10 FWHM_WORLD             FWHM assuming a gaussian core                              [deg]
#  11 ELONGATION             A_IMAGE/B_IMAGE                                           
#  12 ELLIPTICITY            1 - B_IMAGE/A_IMAGE                                       
         1 -10.8277     39.0812     16.6262   2.9150421825e+02   7.3305253113e+00   0.01689066  0.009775298 -62.41  0.001645243    1.731    0.422
         2 -12.1218    216.7075     16.3188   2.8946750632e+02   6.2645033456e+00    0.0232483    0.0174058  48.11  0.001787059    1.404    0.288
         3 -13.1949    187.8801      7.3747   2.8974168136e+02   6.5405881959e+00   0.03047051   0.02093736  17.16  0.003205121    1.583    0.368
         4 -10.8978     56.3902      6.2293   2.9124126969e+02   7.3453016844e+00  0.009252261  0.006365367 -76.51 0.0005180851    1.653    0.395
         5 -12.1050     43.6864      8.2030   2.9139925003e+02   7.3989823991e+00   0.01667423   0.01527518  39.95  0.001193069    1.103    0.094
         6 -10.7086     12.8151    227.1890   2.9310222692e+02   5.0823053539e+00   0.00987708   0.00886243  69.36 0.0005751749    1.194    0.162
         7 -10.0660    103.8409    225.1084   2.9204876703e+02   4.5609082478e+00  0.009505882  0.007500743 -36.87 0.0008081261    1.324    0.245
         8 -11.2060     95.6613    223.9390   2.9213506530e+02   4.6233471086e+00   0.01885869   0.01340998 -56.85  0.002047607    1.376    0.273
         9 -11.1747    149.6944    222.0297   2.9150586296e+02   4.3207072690e+00   0.02730535   0.01154214 -59.13  0.002309283    2.269    0.559
        10  -9.6699    248.3092    223.6795   2.9039039343e+02   3.7084121236e+00  0.006853384   0.00499373  64.64  0.000703474    1.643    0.391
        11 -10.0002    174.0000    221.4520   2.9122469043e+02   4.1811691206e+00   0.01480944  0.003717991 -61.68 0.0009372726    3.955    0.747
        12 -10.7751    226.4638    221.0587   2.9062340108e+02   3.8699049908e+00   0.01036063   0.00644002 -61.94  0.001034778    1.604    0.377
        13 -10.4546    211.1563    217.7013   2.9077736305e+02   4.0004059199e+00   0.01203297  0.009110339 -77.92  0.001301565    1.460    0.315
        14 -11.1601    220.1598    213.0188   2.9064571639e+02   3.9996503678e+00   0.02752193   0.01222755  59.08  0.001720757    4.850    0.794
        15 -10.6897    232.6233    211.1848   2.9049218117e+02   3.9455148446e+00  0.009648798  0.005730015 -50.65 0.0008339199    1.646    0.393
        16 -10.5958    116.0127    210.0149   2.9181675869e+02   4.6603231503e+00   0.01106945  0.007867065  65.93  0.001111606    1.727    0.421
        17 -10.7026      4.5093    198.8864   2.9302361258e+02   5.4555161113e+00   0.01675282  0.008361687  53.05   0.00138475    2.622    0.619
        18 -10.5531    237.0000    197.9949   2.9036079590e+02   4.0696963931e+00   0.01118479  0.003717381 -61.58 0.0008088631    2.987    0.665
        19 -10.9588    185.7747    203.2579   2.9097802888e+02   4.3181188532e+00   0.01656464   0.00844983 -69.94   0.00144428    2.257    0.557
        20 -10.0446    133.1260    195.1819   2.9152977286e+02   4.7270071578e+00  0.009360291  0.007841195  74.65 0.0009483608    1.343    0.255
        21 -10.0302    215.3772    194.1761   2.9058397911e+02   4.2435726931e+00  0.009629209  0.006317117 -78.28 0.0007055295    1.809    0.447
        22 -12.0130    159.3693    191.9378   2.9120984299e+02   4.6062866044e+00   0.03436555   0.02065378  81.50  0.002956591    2.676    0.626
        23 -10.0648    192.9930    188.4937   2.9080447860e+02   4.4432665385e+00  0.009989227  0.004737397  49.27  0.000810477    2.550    0.608
        24 -10.6766    183.2744    183.0165   2.9088167318e+02   4.5643269189e+00   0.01704206  0.008579768 -58.00  0.001561474    1.913    0.477
        25 -10.3240    210.5826    182.6351   2.9056744158e+02   4.4042173954e+00   0.01338024   0.00582882 -56.00  0.001141988    2.166    0.538
        26 -10.7447    159.0036    187.7527   2.9118820689e+02   4.6562909665e+00   0.01280921  0.008800243  39.36 0.0009072524    1.461    0.315
        27 -11.1686     37.6066    176.7257   2.9250871999e+02   5.5109066825e+00   0.01580918  0.007585196 -54.26  0.001418431    1.982    0.496
        28 -11.1320     34.2549    173.2626   2.9252578363e+02   5.5705540051e+00    0.0168403  0.009641238 -85.74  0.001430949    2.624    0.619
        29 -10.1365    159.3124    174.9851   2.9110590193e+02   4.8002691940e+00   0.01062943  0.005461955 -89.53  0.000704209    4.213    0.763
        30 -10.0429    224.5208    171.9779   2.9034246882e+02   4.4418799183e+00   0.01024911  0.006393925 -60.17 0.0007636932    1.579    0.367
        31  -9.7142     88.3313    168.0004   2.9187454860e+02   5.3066034019e+00   0.01082335  0.005525094 -89.76 0.0007051972    4.362    0.771
        32 -10.2204     55.2901    167.6500   2.9225049231e+02   5.5087353788e+00  0.006865349  0.005011601  68.09 0.0004280629    1.668    0.400
        33  -9.9719    138.9839    164.9839   2.9127657709e+02   5.0367870735e+00   0.01409603  0.006945538  63.53  0.000954812    4.098    0.756
        34 -11.7395    106.0846    157.3697   2.9160589840e+02   5.3214929240e+00    0.0302434   0.01964542  74.14  0.002864921    2.168    0.539
        35 -11.0144    167.1620    156.4679   2.9090185810e+02   4.9645161375e+00   0.01605855   0.01102821 -87.21  0.001616917    1.834    0.455
        36 -10.3140    218.0000    156.0458   2.9031843385e+02   4.6630503086e+00   0.01106121  0.003717831 -61.58 0.0008040882    2.954    0.661
        37 -10.5302     28.7684    156.1785   2.9248350155e+02   5.7986617822e+00   0.01163652  0.006511443  64.77 0.0009501512    2.802    0.643
        38 -10.1307      6.7652    155.9535   2.9273406457e+02   5.9328278424e+00  0.008766094  0.005408969 -60.13 0.0005002107    1.593    0.372
        39 -10.5499     40.0885    151.8639   2.9232733530e+02   5.7802119711e+00   0.01026523  0.008622501  57.50 0.0006140371    1.278    0.218
        40 -10.8511    189.8448    149.9125   2.9060212830e+02   4.9027628038e+00   0.01878492   0.01018713 -76.67  0.001624798    2.417    0.586
        41  -9.9208     38.6377    156.8044   2.9237435661e+02   5.7324331259e+00  0.009269539  0.006292754 -75.23 0.0005761235    1.656    0.396
        42 -11.6138    233.8823    147.3277   2.9008318370e+02   4.6667677005e+00   0.01201246   0.00913521 -73.58  0.001322741    1.407    0.289
        43 -11.0025    106.4788    144.6999   2.9152323672e+02   5.4638769628e+00   0.01779144   0.01014265  74.82  0.001413678    3.113    0.679
        44 -10.2684     56.3226    146.6452   2.9210932649e+02   5.7426001425e+00   0.00706773  0.004959253  65.46 0.0007046488    1.760    0.432
        45 -10.4246    148.4920    145.0026   2.9104449976e+02   5.2078241129e+00  0.009555691  0.005771121  84.67 0.0008105372    2.601    0.616
        46 -11.6707     83.1417    130.9618   2.9170559199e+02   5.7609549064e+00   0.02261334   0.01103462 -69.62  0.001928011    2.377    0.579
        47 -11.6324     98.6844    128.5292   2.9151265362e+02   5.6954265808e+00   0.02349801   0.01391755  83.99  0.001985781    2.758    0.637
        48 -10.1089    117.3369    125.6573   2.9128143707e+02   5.6161515050e+00   0.00709755  0.004940706  63.99 0.0007049963    1.766    0.434
        49 -11.2754     42.9806    122.4489   2.9211301871e+02   6.0990225633e+00   0.02285527   0.01178936 -84.73  0.001704807    3.448    0.710
        50 -10.9760     28.0238    122.5266   2.9228483970e+02   6.1876915242e+00   0.01422392  0.007712016  72.36  0.001039329    3.636    0.725
        51 -11.2828    193.0624    118.4209   2.9037061649e+02   5.2428676708e+00   0.02537669   0.01823107  75.24   0.00263332    1.768    0.434
        52 -10.1848     71.0026    120.1697   2.9177801107e+02   5.9570839836e+00    0.0117301  0.006926067  54.66  0.001085599    2.066    0.516
        53 -11.0933    140.6691    117.1699   2.9096201627e+02   5.5727467601e+00   0.01553101  0.007148498 -70.70  0.001245029    2.679    0.627
        54 -12.2701     37.7471    121.2803   2.9216576883e+02   6.1437195792e+00   0.01206573   0.01101769  40.35 0.0004019834    1.107    0.097
        55 -11.1891     82.6467    115.8908   2.9161826187e+02   5.9360919278e+00     0.014408  0.008907826  38.74 0.0002591334    1.614    0.381
        56 -10.7049     78.0203    111.3185   2.9164302109e+02   6.0160866444e+00   0.01954943   0.01103399  89.37  0.001574391    3.001    0.667
        57 -10.2778      1.5296    115.5012   2.9254514941e+02   6.4264194639e+00  0.006483365  0.006416223 -45.01 0.0008099438    1.004    0.004
        58 -10.5475    108.0055    112.2931   2.9130570072e+02   5.8248727792e+00   0.02043566  0.009708397 -78.10  0.001509793    3.372    0.703
        59 -10.4187    131.0000    128.9733   2.9114557438e+02   5.4961245261e+00   0.01109508  0.003717765 -61.65 0.0008054171    2.963    0.663
        60 -10.2512    174.4527    111.5199   2.9054066621e+02   5.4338087143e+00   0.01164311  0.006562169 -77.22 0.0008452278    2.285    0.562
        61 -11.4924    159.5261    111.3564   2.9071035901e+02   5.5255987203e+00   0.01946788   0.01121785 -74.30  0.001799538    2.077    0.519
        62 -11.2728    121.6269    111.0120   2.9114186605e+02   5.7576164437e+00   0.01590738  0.006223704 -61.58  0.001269325    2.536    0.606
        63 -11.2893     13.6986    110.6819   2.9237600939e+02   6.4087300002e+00   0.01612681  0.009992396 -89.26  0.001468804    2.297    0.565
        64 -10.1416    133.3163    109.6613   2.9099973774e+02   5.7027267632e+00   0.00696999  0.004982315  65.18 0.0004194092    1.703    0.413
        65 -12.2158    140.8829    103.3550   2.9087416238e+02   5.7291956379e+00   0.02936447   0.01728287 -74.55  0.002762063    2.020    0.505
        66 -12.0198     43.7968    100.0112   2.9196530755e+02   6.3504622731e+00   0.03473773   0.01913879 -88.70  0.002754795    3.115    0.679
        67 -11.4198    127.8902    101.1257   2.9100907185e+02   5.8328309999e+00    0.0170601   0.01015998 -66.70  0.001664844    1.762    0.432
        68 -12.0441    107.9995     98.7457   2.9122206655e+02   5.9796159194e+00   0.03022629   0.01785223  64.98  0.002668271    2.470    0.595
        69 -10.6817     81.4081    100.1779   2.9153543809e+02   6.1229939278e+00  0.009541173   0.00639536 -78.53  0.000952085    1.753    0.430
        70 -10.9704     19.5556     97.2448   2.9222606804e+02   6.5271990676e+00   0.01262628  0.006630178 -67.68   0.00111408    2.068    0.517
        71 -10.7741     62.2390     94.4975   2.9171996298e+02   6.3028882487e+00   0.01404655  0.005846879 -76.01  0.000890989    4.395    0.772
        72 -13.1952    170.1691     90.7706   2.9046125570e+02   5.6964489253e+00   0.02555043   0.01593826  51.85 0.0008441783    1.827    0.453
        73 -11.0276    123.6241     90.8263   2.9099422220e+02   5.9760827427e+00  0.009539991  0.006334336 -76.72 0.0009503207    1.743    0.426
        74 -10.4490    173.4475     86.4964   2.9039729729e+02   5.7254644709e+00   0.01137086  0.009256253 -55.51  0.000514803    1.208    0.172
        75 -10.3951     42.3978     87.7150   2.9190546946e+02   6.4992841585e+00   0.01529507  0.009040885 -16.61   0.00130889    2.618    0.618
        76 -11.6481    150.0124    102.5207   2.9076454419e+02   5.6837594281e+00   0.01305157  0.009605508 -86.27  0.001384859    1.615    0.381
        77 -11.2358     86.0324     86.6901   2.9139914783e+02   6.2492521702e+00    0.0149439   0.01009371  73.49   0.00146272    1.989    0.497
        78 -11.4414     46.7550     82.1507   2.9182118248e+02   6.5367199230e+00   0.02668882   0.01619878 -79.72  0.002354893    2.096    0.523
        79 -10.7916    140.5688     82.8254   2.9075076638e+02   5.9654375337e+00   0.01627705  0.006707422 -65.46  0.001289813    2.640    0.621
        80 -11.4336    103.9582     82.9151   2.9117048979e+02   6.1846548744e+00   0.01834578  0.009707048 -71.27   0.00145825    2.211    0.548
        81 -11.0468    249.5206     81.0183   2.8949400847e+02   5.3287505636e+00   0.01029518  0.006460126 -62.24  0.001032782    1.593    0.372
        82 -10.2197    119.3142     80.6711   2.9098076095e+02   6.1179368251e+00  0.006916532  0.004985858  64.74 0.0003618686    1.674    0.403
        83 -11.3874     81.9510     72.8245   2.9136021333e+02   6.4320661385e+00   0.02055142   0.01159423  80.70  0.001593303    3.302    0.697
        84 -11.3436    223.5296     71.0586   2.8972911981e+02   5.5993549710e+00    0.0156195   0.01174287  46.46 0.0004896845    1.383    0.277
        85 -10.6523    219.1781     66.4424   2.8975022602e+02   5.6782768187e+00   0.01486685   0.01417884 -61.34  0.001863584    1.045    0.043
        86 -10.1135    115.6877     72.3631   2.9097089486e+02   6.2345801275e+00  0.007040103  0.004975932  66.69  0.000704052    1.755    0.430
        87 -11.1120     62.3763     71.3100   2.9157517877e+02   6.5668369815e+00    0.0250448   0.00604982 -61.10   0.00159848    3.989    0.749
        88 -10.5137     51.4559     69.9661   2.9169205106e+02   6.6476681194e+00   0.01028335  0.006455381 -63.02 0.0007470581    1.601    0.375
        89 -10.0104    194.9968     68.5063   2.9003942891e+02   5.8007325742e+00  0.009792752   0.00479846  49.77 0.0008095806    2.464    0.594
        90 -12.1292     37.2263     60.7332   2.9179816453e+02   6.8383487259e+00    0.0336291   0.01595183 -63.38  0.002960017    2.149    0.535
        91 -12.3569     30.0008     52.2737   2.9182877199e+02   6.9781890413e+00   0.03315013   0.01203259 -61.71  0.002571727    2.737    0.635
        92 -11.3028     32.2284     60.7950   2.9185585887e+02   6.8675787398e+00   0.02276319   0.01315526 -33.57  0.002094474    2.126    0.530
        93 -12.5725     25.3981     58.8550   2.9192220833e+02   6.9306222242e+00   0.02740282   0.02019569 -75.10  0.002340934    1.482    0.325
        94 -12.5750    236.7251     63.7139   2.8953283530e+02   5.6033702531e+00   0.02469116   0.01187755  43.94  0.002165437    2.205    0.547
        95 -11.7018    231.7760     60.4540   2.8956915382e+02   5.6704428456e+00   0.02231315   0.01273642  17.60  0.002086077    2.016    0.504
        96 -11.4058      8.0501     54.1647   2.9209223625e+02   7.0879596098e+00   0.03368278  0.009479558 -52.13  0.002394284    3.205    0.688
        97 -10.8474     40.2728     52.1156   2.9170998864e+02   6.9184634196e+00   0.01718659  0.009982743 -34.60  0.001591658    2.070    0.517
        98 -11.8519     20.9868     50.5102   2.9192127046e+02   7.0522807336e+00   0.02695319   0.01432244 -53.85  0.002553719    1.806    0.446
        99 -11.1710     19.8900     58.6816   2.9198431061e+02   6.9655695683e+00   0.01211605  0.008666878 -49.04 0.0008483073    1.380    0.276
       100 -10.3919    149.5135     52.5230   2.9046076350e+02   6.2573298015e+00  0.006465056  0.006445082 -76.28 6.102199e-05    1.015    0.014
       101 -11.1030     82.3772     44.6758   2.9118123863e+02   6.7507702667e+00   0.01473988   0.01139514 -49.79 0.0009279067    1.276    0.216
       102 -10.0582    156.9176     44.8636   2.9032854954e+02   6.3000690360e+00  0.009288302  0.007566901  54.72 0.0006954836    1.316    0.240
       103  -9.9103      9.8455     43.6544   2.9200674249e+02   7.1971863162e+00  0.009571521  0.005652303  38.44 0.0004999703    1.686    0.407
       104 -10.3622      5.1581     42.0637   2.9205070087e+02   7.2433717909e+00   0.01564225  0.008786901  88.15  0.001236363    3.109    0.678
       105 -11.2192     69.4806     41.0364   2.9130656681e+02   6.8697343090e+00    0.0182413   0.01149591 -86.12  0.001711959    2.143    0.533
       106 -10.2798    154.2923     41.6460   2.9033866008e+02   6.3525900715e+00  0.006889063  0.005011628  68.19 0.0006592228    1.682    0.406
       107 -11.0370     43.5500     39.2067   2.9159261147e+02   7.0461432903e+00   0.01777191   0.01172319  60.52 0.0009313721    1.876    0.467
       108 -10.7785    119.1416     33.0990   2.9068825041e+02   6.6617875768e+00   0.01529913   0.01091006 -81.12 0.0009302282    1.637    0.389
       109 -10.2548     73.1902     32.3438   2.9121024585e+02   6.9466366580e+00    0.0153898  0.006519791  49.17  0.001164488    3.030    0.670
       110 -10.7367    111.2669     30.9558   2.9076519940e+02   6.7336176623e+00  0.009474161  0.008356738 -61.81 0.0006659248    1.130    0.115
       111 -11.1702    103.4957     30.0837   2.9084885157e+02   6.7903084298e+00   0.02736645   0.01378381  42.83  0.002477398    2.062    0.515
       112 -11.8683     42.6806     21.1871   2.9149113839e+02   7.2569328303e+00   0.03330084   0.01721519   5.95  0.002582455    3.188    0.686
       113 -12.1451    220.8924    248.1530   2.9085407638e+02   3.5941570853e+00   0.02779262   0.01561305  46.75  0.002624819    1.936    0.484
       114 -10.2161    239.5488     20.9514   2.8923523055e+02   6.0736017460e+00   0.00985841  0.008895596  26.45  0.000560377    1.115    0.103
       115 -11.6303     25.5118    242.4551   2.9305066499e+02   4.8318749958e+00   0.01374256  0.009954759  73.41  0.001057351    1.725    0.420
       116 -10.9310      8.3042    240.4191   2.9323489847e+02   4.9580085818e+00   0.01240869  0.006612881  21.14  0.001123042    2.063    0.515
       117 -11.8247     29.8116    233.5637   2.9294698309e+02   4.9078036437e+00   0.03328186   0.01847044  64.40  0.002750198    2.834    0.647
