#   1 NUMBER                 Running object number                                     
#   2 MAG_AUTO               Kron-like elliptical aperture magnitude                    [mag]
#   3 X_IMAGE                Object position along x                                    [pixel]
#   4 Y_IMAGE                Object position along y                                    [pixel]
#   5 X_WORLD                Barycenter position along world x axis                     [deg]
#   6 Y_WORLD                Barycenter position along world y axis                     [deg]
#   7 A_WORLD                Profile RMS along major axis (world units)                 [deg]
#   8 B_WORLD                Profile RMS along minor axis (world units)                 [deg]
#   9 THETA_WORLD            Position angle (CCW/world-x)                               [deg]
#  10 FWHM_WORLD             FWHM assuming a gaussian core                              [deg]
#  11 ELONGATION             A_IMAGE/B_IMAGE                                           
#  12 ELLIPTICITY            1 - B_IMAGE/A_IMAGE                                       
         1 -13.9005    221.0299      2.6750   4.1713077612e+01   2.8894970462e+01     2.420108    0.9146175  59.87  0.007173225    2.485    0.598
         2 -13.6686    179.9408     46.3492   5.9479696293e+01   3.4200133791e+01     1.200191    0.9323024 -23.19  0.001702957    1.355    0.262
         3 -13.9706    190.9212     36.4522   5.4683071380e+01   3.2697524041e+01     1.285826     1.028214 -35.03   0.00319864    1.257    0.204
         4 -14.7771    198.8503     26.7993   5.0721543136e+01   3.1855936010e+01     2.091936     1.449891  36.23  0.001324466    1.714    0.417
         5 -10.9987    189.6640     14.7985   4.8399356928e+01   3.5624365067e+01    0.2616973    0.2258429  86.09 0.0006541288    1.099    0.090
         6 -11.5882     44.7408     11.7487   8.3217907732e+01   6.7946734913e+01    0.2268868    0.1314264 -28.69  0.001303243    1.474    0.322
         7 -10.0754     52.1409    227.1521   1.2470925645e+02   2.2167688438e+01    0.1772562   0.09698857  62.97            0    1.460    0.315
         8 -16.0457     71.8571    149.2021   1.1251976154e+02   3.5624401781e+01     6.349854     3.257603  77.15   0.01332503    3.203    0.688
         9 -10.4923     60.2211    229.9546   1.2353617579e+02   2.0660718769e+01    0.1625473    0.1122208  72.51 0.0005409373    1.137    0.120
        10 -12.0709     38.8002    211.8201   1.2593906610e+02   2.6569908183e+01    0.4032804    0.1658963  70.60   0.00203655    2.539    0.606
        11  -9.0538     43.7222    212.6416   1.2512749385e+02   2.5846227039e+01    0.2553208    0.1930785 -29.16  0.001573217    2.898    0.655
        12  99.0000     43.2484    209.6113   1.2498949102e+02   2.6477366822e+01    0.4278361    0.1683564  71.47  0.001962739    3.042    0.671
        13 -10.6225     43.9931    205.6431   1.2455573268e+02   2.7153987783e+01    0.1779636    0.1289941 -82.79  0.001255201    1.260    0.206
        14 -11.6176    129.4303    211.1692   1.0887416747e+02   1.3749568428e+01    0.3061733    0.1999517 -86.38  0.001616567    2.118    0.528
        15  -9.2944     42.1739    230.1116   1.2658140152e+02   2.2833692234e+01    0.1282827   0.06714161 -77.27 0.0008217177    1.800    0.445
        16 -12.0192    107.7281    203.1460   1.1209265609e+02   1.8781093585e+01    0.4226615    0.2440972  52.64 0.0005202559    1.515    0.340
        17 -11.1969     69.6949    208.9419   1.2007920072e+02   2.3283229992e+01    0.2193431     0.148798  75.84 0.0003757618    1.284    0.221
        18  -9.4382     30.5538    210.5765   1.2730069633e+02   2.7721070337e+01    0.1142509   0.07514494  71.35 0.0001860762    1.140    0.123
        19 -10.7600     75.0339    206.7064   1.1885560076e+02   2.2983565003e+01    0.2438114     0.226364 -75.27  0.001199127    1.385    0.278
        20 -12.0348    193.7468    195.0628   9.3824344853e+01   4.9190062981e+00     1.114664    0.6787248 -68.82  0.004252628    4.258    0.765
        21 -11.7749    106.5908    209.9790   1.1314871278e+02   1.7685971997e+01    0.4233779    0.2876814  60.18   0.00169324    1.294    0.227
        22 -11.4945    133.0209    203.3665   1.0709920698e+02   1.4527668221e+01    0.3982302    0.2397703 -87.03  0.001787514    2.852    0.649
        23  -9.9403     32.5761    205.1184   1.2657974642e+02   2.8545428001e+01    0.1538837    0.1127592  62.54 0.0005468867    1.165    0.141
        24 -13.3370    113.1797    196.8345   1.1017984599e+02   1.9100185127e+01    0.5479875    0.4987383 -67.12  0.003607503    1.249    0.199
        25 -16.4034     85.0836    243.2748   1.2037067394e+02   1.5080945350e+01      7.14005     2.314804  34.56   0.02666182    4.970    0.799
        26 -10.9757     44.8625    198.7184   1.2384757149e+02   2.8410988023e+01    0.2542664    0.2149417 -61.39     0.001852    1.556    0.357
        27 -10.9363    209.0991    198.3044   9.1524807477e+01   1.6390924289e+00    0.2195319    0.1929385 -37.99 0.0006822214    1.363    0.267
        28 -11.1489    204.4227    198.4320   9.2414727790e+01   2.4607349045e+00    0.2935147    0.2281554 -65.54  0.001630649    2.019    0.505
        29 -10.9335    141.1694    198.3054   1.0472851149e+02   1.4014995125e+01    0.2371842    0.1928113 -69.46 0.0007812243    1.396    0.284
        30 -10.7818     36.0194    197.7909   1.2542586515e+02   2.9601986766e+01    0.1952946     0.119612  54.89 0.0005123355    1.397    0.284
        31 -12.6151     31.0241    197.6516   1.2633783182e+02   3.0173257344e+01    0.2125655    0.1477515  62.55 0.0008312179    1.192    0.161
        32 -10.5669     96.4201    200.4245   1.1400464174e+02   2.1076500983e+01    0.3216327    0.2700871  16.17  0.001231551    1.753    0.430
        33 -13.0925     65.4215    190.8823   1.1913502045e+02   2.7430638330e+01    0.6716763    0.5535172 -87.89  0.003287515    1.135    0.119
        34 -11.4095    152.9635    193.3526   1.0156976676e+02   1.2773957881e+01    0.4273213    0.2616278  68.49   0.00192825    2.380    0.580
        35 -10.4222     80.4452    194.5284   1.1651433968e+02   2.4617750008e+01    0.3858466    0.1652226  50.01  0.001548266    2.073    0.518
        36 -10.2081    157.2287    200.5206   1.0186766275e+02   1.0740390713e+01    0.2367904    0.1738532 -76.42 0.0009281194    1.873    0.466
        37  -9.7622     49.9111    193.1358   1.2240898301e+02   2.8931546814e+01    0.2025627   0.09309281  61.49  0.001039522    2.079    0.519
        38 -19.3893      8.0155    136.9954   1.2620561488e+02   4.5134502246e+01     17.51149     1.832984 -75.27   0.03990919   10.138    0.901
        39  -9.8890     43.8589    219.9843   1.2562486134e+02   2.4461631249e+01    0.1553793    0.1020246 -59.41  0.001039045    1.951    0.487
        40 -10.5340     19.3142    188.2252   1.2785054375e+02   3.3253266861e+01    0.1860863    0.1462815 -62.20 0.0008370001    1.592    0.372
        41  -9.6953     73.9010    189.7253   1.1730046642e+02   2.6517475404e+01    0.1863799    0.1424443  80.21            0    1.127    0.113
        42 -11.0631    149.4452    180.3094   1.0009664899e+02   1.5834428791e+01    0.2944311    0.2092806  83.27 0.0009487799    1.986    0.496
        43 -10.9914     99.5058    180.7514   1.1082340169e+02   2.4547309660e+01    0.2426179    0.2076407  63.63 0.0005874591    1.057    0.054
        44 -11.4799    141.3453    175.9170   1.0104965057e+02   1.8210600546e+01      0.29681    0.1938656  50.94  0.001462706    1.439    0.305
        45 -12.1432     76.7079    176.7656   1.1518952654e+02   2.8836380385e+01     0.400157    0.2329242 -51.59  0.001451928    1.986    0.496
        46 -12.3712     80.8602    171.4496   1.1360020083e+02   2.9381707421e+01    0.3961381    0.2702452 -54.40  0.001616191    1.593    0.372
        47  -8.9468    169.2771    177.6806   9.5494166227e+01   1.2503907950e+01    0.1339615    0.1091821  82.56 0.0003153156    1.576    0.365
        48  -9.9155    198.8149    222.5918   9.7504954138e+01   3.8881958725e-02    0.1827093     0.164808  -2.02  0.000294338    1.211    0.174
        49  -9.9588     48.2522    173.5675   1.2088170334e+02   3.3217385475e+01    0.2376411    0.1800845 -69.56  0.001558566    1.300    0.231
        50 -10.4555     43.0733    172.2682   1.2183866821e+02   3.4093202669e+01    0.2994921    0.1875886  69.64  0.001241189    1.446    0.309
        51 -10.1730     39.3892    170.2795   1.2241834048e+02   3.4930936448e+01    0.1741405    0.1617982 -76.94 0.0006516546    1.349    0.259
        52 -10.4960    164.5956    170.8413   9.5172048105e+01   1.4685602686e+01    0.2534643    0.2262608 -80.17 0.0006396314    1.293    0.226
        53 -10.3057    201.4771    169.1175   8.7352337598e+01   7.6271428079e+00    0.3793254    0.2492064 -52.33    0.0017249    1.937    0.484
        54 -10.8854    204.3507    165.2397   8.5993132180e+01   7.7020972456e+00    0.5442393    0.2864284 -43.02  0.001591434    2.058    0.514
        55 -10.0235     49.0054    216.7776   1.2449797586e+02   2.4442079746e+01    0.3668635    0.2732154  18.17  0.002359123    2.434    0.589
        56 -11.3190    230.1323    166.3805   8.1434770176e+01   2.5027956901e+00    0.3022451    0.2009457 -42.54  0.001515641    1.697    0.411
        57 -11.1555    193.7337    166.3842   8.8311959127e+01   9.6392105764e+00    0.3184585    0.3056492 -27.54 0.0007110686    1.132    0.116
        58  -9.9217    191.6718    162.2897   8.7872656526e+01   1.0772207072e+01    0.2141027    0.1851389 -31.05 0.0005969279    1.199    0.166
        59 -12.4073     94.4880    155.0004   1.0804221087e+02   3.0920840089e+01    0.6397898    0.4479854 -32.45  0.003150267    2.095    0.523
        60 -11.0678    189.0840    155.2845   8.6903712819e+01   1.2558285014e+01    0.4990646    0.3361392  42.72  0.002409929    1.422    0.297
        61 -11.4674    133.7053    144.6192   9.6793098168e+01   2.6162781294e+01     1.200801    0.2949807 -54.19  0.002989228    5.610    0.822
        62  -9.4475    113.2017    151.0682   1.0292059971e+02   2.8617644932e+01    0.2419692    0.1590605 -87.78  0.001072655    2.064    0.516
        63 -10.6891    174.3970    148.4202   8.8463250759e+01   1.6944009594e+01    0.3625417    0.2883887 -63.40  0.001437904    1.498    0.333
        64 -10.9635    144.2213    146.1897   9.4675905852e+01   2.3716322138e+01    0.4568344    0.2677956 -63.93  0.001856812    2.237    0.553
        65 -11.2338    106.5452    140.0246   1.0242790057e+02   3.2271812767e+01     0.524458    0.3224402 -34.68  0.002269438    2.246    0.555
        66 -12.5816     94.4032    140.2004   1.0547973401e+02   3.4290376108e+01    0.3006641    0.2824625  -9.52 0.0005601299    1.334    0.250
        67  -9.2233     61.4464    218.5999   1.2243352679e+02   2.2552955804e+01    0.1469852   0.08164189  57.07  0.000622394    1.455    0.313
        68 -10.8062    106.0076    130.7740   1.0069002780e+02   3.4472720038e+01    0.3494995    0.2924816 -78.84  0.001210795    1.208    0.172
        69 -10.8447    114.1270    130.4220   9.8552155505e+01   3.3074852892e+01    0.3102078    0.2849719 -11.62 0.0008684779    1.298    0.230
        70 -10.9053    136.0244    127.0870   9.2353506563e+01   2.9498184587e+01    0.6385441    0.2343406 -52.88  0.002049892    3.084    0.676
        71 -10.2470    160.3902    127.6539   8.6747091696e+01   2.4135076929e+01     0.430067    0.2642865 -53.25  0.001809525    1.792    0.442
        72 -11.0077    101.5753    126.6275   1.0095850679e+02   3.6202673484e+01    0.2667587    0.2321853 -24.59 0.0005378489    1.387    0.279
        73 -10.8998    119.7157    123.8758   9.5670948264e+01   3.3486835306e+01    0.4382516    0.2949724 -14.22  0.001729042    2.678    0.627
        74  -9.1627    152.5896    119.7737   8.6605472257e+01   2.7498617420e+01    0.2168861    0.1455004 -54.29 0.0009372042    1.604    0.377
        75  -9.6961    135.0000    119.8963   9.0880313696e+01   3.1277416467e+01     0.253665    0.0860253 -46.34 0.0007981208    2.913    0.657
        76 -10.0838    109.8366    119.1626   9.7139145675e+01   3.6427086921e+01    0.2127355    0.2039753 -64.68  0.000464242    1.033    0.032
        77 -10.0192     58.5922    214.3585   1.2259835049e+02   2.3707697915e+01    0.4270793    0.3609254  32.54  0.001124865    1.658    0.397
        78  -9.9697    167.9001    112.7506   8.1298456328e+01   2.5450075890e+01    0.4000378    0.2706617 -75.56  0.001479378    2.384    0.580
        79  -9.8191    135.0000    112.5741   8.9044732930e+01   3.2867063378e+01    0.3452925   0.08646823 -45.28  0.000933376    3.924    0.745
        80 -11.5905    118.7611    110.2388   9.2625544607e+01   3.6724667539e+01    0.5688316    0.4587891 -78.97  0.002810764    1.439    0.305
        81 -10.1785    205.4266    110.1354   7.2909815481e+01   1.7140615443e+01    0.3224777    0.2161587  40.64 0.0008442278    1.562    0.360
        82  -9.4633    134.5322    105.5314   8.7318828781e+01   3.4483871098e+01    0.2827374    0.1425649 -54.37  0.001031758    2.266    0.559
        83 -13.8322     55.9334    204.4064   1.2224902345e+02   2.5948853853e+01    0.6947402    0.5071152  52.58  0.002633212    1.271    0.213
        84 -10.1420    131.4872     96.4732   8.5614606161e+01   3.7069680315e+01    0.6659108     0.366219  72.50  0.001882507    4.705    0.787
        85  -9.7807     72.1958    230.2583   1.2149778084e+02   1.9042455243e+01     0.146925    0.0948142  63.73 0.0004678293    1.225    0.184
        86 -11.3057     42.0299     91.7914   1.1063454251e+02   5.2571396288e+01    0.2657079    0.2344071 -52.99 0.0008885642    1.106    0.096
        87  -9.9238    186.8307     86.6643   7.0169377696e+01   2.5838453388e+01    0.3416767    0.2522866 -55.33  0.001551859    1.491    0.329
        88  -9.0176    155.3100     80.2914   7.5016458864e+01   3.4803468798e+01    0.1584792    0.1234082  14.55 0.0002726463    1.584    0.369
        89  -9.4294     67.3586     71.0821   9.7196009052e+01   5.4164448271e+01    0.1880462    0.1556434 -47.42 0.0004879451    1.078    0.072
        90 -11.3371    161.2235     62.5241   6.8188959617e+01   3.6502909229e+01    0.3885273    0.3011316 -89.24 0.0006448399    1.626    0.385
        91 -11.5097    162.8796     55.7538   6.5682626956e+01   3.7189804713e+01    0.3668554    0.2995353 -75.23 0.0005765956    1.445    0.308
        92  -9.1726    176.0000    239.9674   1.0411766491e+02   1.5043608850e+00    0.1567984   0.06922441 -44.10 0.0006634562    2.875    0.652
        93  -9.6147     63.7286    223.2864   1.2240961639e+02   2.1401257756e+01    0.1141769    0.0656736  68.27 0.0006348252    1.504    0.335
        94  -9.1847     43.2789    236.5682   1.2680452620e+02   2.1578556789e+01    0.1173696   0.08607528  50.69 0.0008904516    1.355    0.262
        95 -12.5677     48.8927    233.2887   1.2567612299e+02   2.1479249697e+01    0.2323657    0.1445078  79.82 0.0005648762    1.337    0.252
        96  -8.6370    115.5194     31.4431   6.8031238550e+01   5.2348388127e+01    0.1435889    0.1308243  16.62 0.0001376483    1.016    0.015
        97 -10.4413     53.4834    231.1458   1.2476423098e+02   2.1294866481e+01    0.1920204    0.1320929 -87.88 0.0008557425    1.324    0.245
