#   1 NUMBER                 Running object number                                     
#   2 MAG_AUTO               Kron-like elliptical aperture magnitude                    [mag]
#   3 X_IMAGE                Object position along x                                    [pixel]
#   4 Y_IMAGE                Object position along y                                    [pixel]
#   5 X_WORLD                Barycenter position along world x axis                     [deg]
#   6 Y_WORLD                Barycenter position along world y axis                     [deg]
#   7 A_WORLD                Profile RMS along major axis (world units)                 [deg]
#   8 B_WORLD                Profile RMS along minor axis (world units)                 [deg]
#   9 THETA_WORLD            Position angle (CCW/world-x)                               [deg]
#  10 FWHM_WORLD             FWHM assuming a gaussian core                              [deg]
#  11 ELONGATION             A_IMAGE/B_IMAGE                                           
#  12 ELLIPTICITY            1 - B_IMAGE/A_IMAGE                                       
         1 -13.0329    182.9227     34.7840   6.5567991654e+01   3.4694599014e+01      1.09798     0.902905  21.22  0.004474518    1.578    0.366
         2 -11.7365    187.5063     28.6369   6.3495791492e+01   3.4365142242e+01    0.4706153    0.4408114 -63.57  0.001412224    1.152    0.132
         3 -12.0471    204.7518      3.7297   5.6114522990e+01   3.3135812073e+01    0.8185323    0.3679518  69.28  0.004108483    1.865    0.464
         4  -9.8057     63.1393      7.2771   8.1964448645e+01   6.2545538836e+01    0.2554339    0.1457991  65.13  0.001209091    3.452    0.710
         5  -9.7294    111.6939    217.9456   1.2285271425e+02   1.4051830465e+01    0.1827118    0.1743716  85.37 0.0004803411    1.061    0.057
         6 -19.5415     31.1290    147.1134   1.3151390480e+02   4.1278092226e+01     20.43801     3.219564 -65.23   0.05284708    6.191    0.838
         7 -10.7325    113.6139    196.2061   1.1894581062e+02   1.8435810734e+01    0.4501233    0.2453705 -35.76  0.001825581    2.473    0.596
         8  -8.3675    155.5115    196.9825   1.0947400979e+02   1.0811434644e+01    0.2001614    0.1313912 -74.36 0.0008097763    2.571    0.611
         9 -10.1225    185.1295    216.2433   1.0668653998e+02   1.7931585899e+00    0.2372424    0.2156441 -52.82  0.001162743    1.320    0.243
        10 -10.9948     65.1326    192.7041   1.2971427220e+02   2.6641263001e+01    0.3360848    0.3081446  81.10  0.001455177    1.041    0.040
        11  -8.7372     97.4769    213.5842   1.2534723432e+02   1.7246694654e+01    0.3046126    0.1688964  30.58  0.001399269    1.999    0.500
        12  -8.3768     90.1136    183.6588   1.2242082912e+02   2.5123502726e+01    0.2182956    0.1634934  58.92 0.0006950167    1.425    0.298
        13  -9.3664     99.2336    180.8285   1.1971819352e+02   2.4327580930e+01    0.2420083    0.2294095   3.25 0.0007643159    1.169    0.144
        14  -9.3171     10.4707    213.9063   1.4351938462e+02   2.8108818283e+01    0.2125961    0.1567623   7.15  0.001363849    2.212    0.548
        15  -8.0697    129.6659    211.6728   1.1788108084e+02   1.2357291797e+01    0.1422445    0.1098695  -6.95 0.0007051667    1.718    0.418
        16 -10.7776    106.8731    210.1847   1.2274777382e+02   1.6486744540e+01    0.3928907    0.2707202  66.33  0.001803765    1.708    0.414
        17  -9.5007    127.8298    207.1782   1.1754237171e+02   1.3617695230e+01    0.1950391    0.1689534 -13.20  0.001074535    1.340    0.254
        18  -9.3114    142.8446    171.8093   1.0740198721e+02   1.8581917544e+01    0.2084699    0.1834699  83.04 0.0006751788    1.344    0.256
        19  -8.3219     67.8294    172.1863   1.2602194027e+02   3.1073624609e+01    0.1776699     0.154669 -37.09 0.0003335398    1.266    0.210
        20  -9.9186    195.4084    169.1159   9.5156262835e+01   8.9154713084e+00    0.3293321    0.2862223  18.62 0.0005731581    1.167    0.143
        21 -10.2698     81.7351    204.1234   1.2751693922e+02   2.1714105089e+01    0.4123794    0.2365338  50.55  0.001998088    1.758    0.431
        22 -10.1270     95.3026    161.1905   1.1707495080e+02   2.9567813932e+01    0.2912272    0.2423129 -46.04 0.0003923205    1.176    0.150
        23 -10.9985    100.1689    154.2088   1.1441196820e+02   3.0400191262e+01    0.6707408    0.4099795 -33.61  0.002473983    1.963    0.490
        24  -8.5546    164.3620    152.6967   9.8230178135e+01   1.8458711350e+01    0.1547308    0.1234551  85.33 0.0007037396    1.729    0.421
        25  -9.9685    133.8852    144.6633   1.0364696419e+02   2.6372575033e+01    0.9545258    0.2444095 -52.82  0.002237182    5.673    0.824
        26 -10.6435    110.3513    139.2554   1.0846990623e+02   3.2076438914e+01    0.5520456    0.2985467 -34.39  0.002152357    2.203    0.546
        27 -10.8175     99.1023    139.5116   1.1154945416e+02   3.4004586704e+01     0.299052    0.2672453 -20.79 0.0004401763    1.163    0.140
        28  -8.3651    163.3803    203.7544   1.0900759052e+02   8.0060845214e+00    0.1920704    0.1316479 -34.64 0.0003735961    1.547    0.354
        29  -9.8028    106.1106    130.6935   1.0761690200e+02   3.4785546512e+01    0.3557186    0.3223763 -87.19  0.001436914    1.279    0.218
        30  -9.4180    104.7930    125.9770   1.0684723586e+02   3.6079182544e+01    0.3323144    0.2351299 -26.33 0.0006867931    1.605    0.377
        31  -9.5650    116.4725    129.9973   1.0466625101e+02   3.3022343120e+01    0.2855222    0.2150735  15.43 0.0008861624    1.587    0.370
        32  -9.0529    160.5077    126.5107   9.2931622936e+01   2.4748516143e+01    0.1512019    0.1484948 -36.94 0.0008103815    1.029    0.028
        33  -8.9409    135.0000    119.9753   9.7389073015e+01   3.1503758302e+01    0.2540175   0.08578524 -44.02 0.0007995801    2.923    0.658
        34  -9.0512    111.5960    119.0648   1.0327674129e+02   3.6341877095e+01    0.2839499    0.2162248  28.08 0.0005994804    1.388    0.280
        35  -9.8254     89.3131    204.1578   1.2580782589e+02   2.0573806048e+01    0.2716835    0.1961088  31.27 0.0008109333    1.495    0.331
        36 -10.4433    105.5073    198.5242   1.2121803142e+02   1.9270593514e+01     0.306106    0.2405445  58.35  0.001512989    1.307    0.235
        37  -9.1414    167.7532    112.6726   8.7899614548e+01   2.5931554930e+01    0.3761254    0.2521953 -89.73  0.001452067    2.698    0.629
        38  -8.6022    205.0595    110.2650   8.0030839670e+01   1.8240839931e+01    0.2011768    0.1907346  58.66  0.001066291    1.108    0.097
        39 -10.5423    103.1962    200.9993   1.2215042538e+02   1.9095994905e+01     0.297351    0.2414616  75.47  0.001623621    1.338    0.253
        40 -10.1672    193.0693    192.6899   1.0052253051e+02   4.7814700418e+00    0.8117208    0.3836012 -50.74  0.003211602    2.517    0.603
        41  -8.3119    127.4329     94.4895   9.2553749255e+01   3.8175774868e+01    0.1463813    0.1407348   0.23 0.0001001572    1.012    0.012
        42 -10.3986    173.8231     72.6144   7.6480060605e+01   3.1608060873e+01    0.4365517    0.2974792 -84.53 0.0007296874    2.065    0.516
        43 -11.8857    169.0606     49.3849   7.1340649953e+01   3.6048820758e+01    0.5057142    0.4779286 -31.25  0.001243623    1.165    0.142
        44  -8.4216    169.1629    236.8083   1.1356185005e+02   8.1577945915e-01    0.1762117    0.1434809   4.12 0.0003933078    1.271    0.213
        45  -7.7217    198.7046    222.6905   1.0509356466e+02  -1.6189983814e+00    0.1366878   0.09609401  -1.11 0.0002953275    1.591    0.371
        46 -10.2614    189.8514     15.2877   6.0146994282e+01   3.5260052895e+01     0.201475    0.1542889 -57.16 0.0007426642    1.330    0.248
        47  -8.9350      8.0853    217.9464   1.4427660066e+02   2.7483972025e+01    0.1303632    0.1013595 -81.22 0.0009292604    1.142    0.124
        48 -10.5988    163.1167    218.2414   1.1168518915e+02   5.2290919409e+00    0.3677762    0.2149909  18.28  0.001567575    2.311    0.567
