#   1 NUMBER                 Running object number                                     
#   2 MAG_AUTO               Kron-like elliptical aperture magnitude                    [mag]
#   3 X_IMAGE                Object position along x                                    [pixel]
#   4 Y_IMAGE                Object position along y                                    [pixel]
#   5 X_WORLD                Barycenter position along world x axis                     [deg]
#   6 Y_WORLD                Barycenter position along world y axis                     [deg]
#   7 A_WORLD                Profile RMS along major axis (world units)                 [deg]
#   8 B_WORLD                Profile RMS along minor axis (world units)                 [deg]
#   9 THETA_WORLD            Position angle (CCW/world-x)                               [deg]
#  10 FWHM_WORLD             FWHM assuming a gaussian core                              [deg]
#  11 ELONGATION             A_IMAGE/B_IMAGE                                           
#  12 ELLIPTICITY            1 - B_IMAGE/A_IMAGE                                       
         1 -12.9850    228.1916     36.5000   3.0171151621e+01   2.4751217642e+01     1.183537    0.8988245  37.83  0.007010956    1.901    0.474
         2 -12.4623      2.0943     28.9063   9.1492123866e+01   7.1541366924e+01     3.376168          nan -54.89  0.009242024    6.779    0.852
         3 -10.3559    250.2019     15.3656   2.3961326760e+01   2.2842804195e+01     0.507655    0.1513877 -33.22  0.002008846    2.828    0.646
         4 -10.3253     18.1621      2.9817   6.8759186418e+01   7.4568720484e+01    0.2645361    0.1705817   5.20  0.001616945    1.583    0.368
         5 -11.8163    129.0489    231.6946   8.8719505621e+01   9.1435266464e+00     0.594047    0.4204398  44.89  0.003200523    1.269    0.212
         6 -13.7924    100.4890    228.2426   9.4311242061e+01   1.3876505772e+01     5.853198    0.8601245  41.97   0.01773166    4.787    0.791
         7  -9.9030     22.5393    223.7331   1.1043164264e+02   2.4433815306e+01    0.2874259    0.1614113  88.34  0.001716328    1.661    0.398
         8 -13.7067     22.2982    194.4506   1.0872053672e+02   3.0713882510e+01     2.486012     0.854346  51.14  0.008487419    2.499    0.600
         9 -12.0776     10.3773    231.0569   1.1321483903e+02   2.4177703334e+01     0.831717    0.4323808  81.94  0.005058302    1.713    0.416
        10 -11.5625     43.2680    215.7211   1.0553744704e+02   2.3831459539e+01    0.5919155    0.3862295  40.16  0.001586227    1.371    0.270
        11  -9.7028     81.9265    213.9133   9.6807996752e+01   1.9291252017e+01    0.2800989    0.1911252 -87.65 0.0004824624    1.649    0.394
        12  -8.1691    192.6697    193.3410   6.9952776481e+01   5.9380041982e+00    0.1206327    0.1053006  81.85 0.0007051479    1.744    0.427
        13 -11.3817     46.3278    176.0795   1.0131074349e+02   3.2371895140e+01    0.5499995    0.4318863  11.41  0.002164286    1.669    0.401
        14 -11.0037     53.5989    170.2001   9.8767827188e+01   3.2900937436e+01    0.3246952    0.2807593 -40.54 0.0007212861    1.415    0.293
        15  -8.0163    110.4922    167.4848   8.3527277598e+01   2.5041267679e+01    0.1439517    0.1364243  61.61 0.0006209204    1.005    0.005
        16 -11.9836     55.1072    123.8449   9.1549358658e+01   4.4321997913e+01     2.865811    0.8530512 -73.41  0.005645885    9.491    0.895
        17 -12.2178     74.8544    154.9773   9.0900232556e+01   3.3734976243e+01     1.237004    0.7908539  72.60  0.001799239    1.896    0.473
        18 -12.2912     68.0469    144.2422   9.1102635341e+01   3.7391698927e+01    0.9412689    0.5805133  67.02  0.002955174    1.959    0.490
        19 -10.1905     65.7406    160.9851   9.4313453060e+01   3.3555902288e+01    0.2707674    0.2531747 -67.52 0.0004015157    1.141    0.123
        20 -12.4807     51.2935    157.0857   9.7774935000e+01   3.6402057250e+01    0.5114574    0.3570702 -36.90  0.001490644    1.859    0.462
        21 -11.0034     31.9337    156.7215   1.0310615452e+02   3.8676246422e+01    0.4098579    0.2650425 -66.41  0.002209981    1.436    0.304
        22 -13.6918     11.7283    204.3595   1.1167324974e+02   2.9548048697e+01     1.417754    0.9311835 -60.01  0.006432625    1.780    0.438
        23  -9.6065     91.2720    142.0069   8.4013201255e+01   3.4340322136e+01    0.3413534    0.2482561  44.85 0.0008633184    1.366    0.268
        24  -9.1953     94.1565    138.8526   8.2579335041e+01   3.4622002902e+01    0.3479271    0.2788419 -10.47  0.001692046    1.673    0.402
        25  -9.5098    238.4006    138.7961   5.1472191037e+01   7.4501013749e+00    0.1906695    0.1065853 -28.41 0.0009581294    1.687    0.407
        26 -11.5000     78.1310    139.6872   8.7360674606e+01   3.7031555402e+01    0.5189908    0.3920809  87.36 0.0006372409    1.462    0.316
        27  -7.7565    135.6175    131.8198   6.9967258328e+01   2.8447078715e+01     0.215938     0.141266 -60.63 0.0006087924    1.722    0.419
        28  -9.7803    105.5471    130.7232   7.7663309984e+01   3.4554196925e+01    0.3745174    0.3326218   5.73  0.001038998    1.326    0.246
        29  -9.5081     21.9233    229.9770   1.1088494445e+02   2.3247262756e+01    0.1759144     0.136127  64.49 0.0003970676    1.033    0.032
        30  -9.8376     91.4261    126.8352   8.0877805555e+01   3.8028432607e+01    0.2850742    0.2586787 -31.61 0.0004529492    1.215    0.177
        31  -9.9912     66.5393    126.5752   8.8421732384e+01   4.2060970581e+01    0.3762944    0.2090059 -61.79  0.001651586    1.700    0.412
        32  -8.6176    103.4131    119.0813   7.5612556199e+01   3.7724161764e+01    0.2294652    0.2061437  27.46  0.001191906    1.204    0.170
        33  -8.3094     80.2886    117.3445   8.2189710238e+01   4.2245089839e+01    0.1524417    0.1139799 -28.33 0.0002716482    1.652    0.395
        34  -8.8135    205.2153    110.4676   5.0500643489e+01   1.8236928402e+01    0.3375946    0.2130253  36.25  0.001602535    1.953    0.488
        35 -10.5429     53.0721     91.7715   8.5527866985e+01   5.2600997605e+01    0.5443327    0.2419627 -59.42   0.00220019    2.108    0.526
        36  -8.8322     41.3128     92.1012   9.0035716988e+01   5.3974478264e+01    0.1966706    0.1636154 -66.13 0.0004643544    1.118    0.105
        37  -9.8737    164.8636     84.8775   5.1347586456e+01   3.1646851207e+01    0.2248155     0.208473  12.08 0.0006430072    1.247    0.198
        38  -8.6643    151.4759     74.4923   5.1150244562e+01   3.6669680768e+01    0.1469252     0.144863 -71.62 0.0008095306    1.055    0.052
        39  -9.7966     13.2560     60.4090   9.4569309642e+01   6.4080275600e+01    0.2423451    0.1909052 -52.20 0.0004831333    1.073    0.068
        40 -12.1255    210.8475     50.4759   3.5239470167e+01   2.6617136284e+01    0.9749615    0.7452697  31.95  0.005374774    1.851    0.460
        41 -14.1463     19.4414    246.3550   1.1214545781e+02   2.0367886912e+01     4.489038     1.409887  25.10    0.0179295    4.643    0.785
        42 -10.4558      9.0575     53.9237   9.5006399189e+01   6.5822429518e+01    0.4170047    0.1836563  16.46  0.002010366    2.556    0.609
        43 -10.5025      1.9864     50.5279   9.7757500006e+01   6.6987434612e+01    0.3490021    0.1798912 -74.54  0.001781145    2.002    0.501
        44 -14.7895     30.6496    187.3492   1.0623701941e+02   3.1475356486e+01     9.805305     3.308435  82.63   0.02905546    5.677    0.824
        45  -8.7885    120.1870     28.1472   4.2743517433e+01   5.1430456759e+01    0.2502792    0.1759743 -56.28 0.0006844335    1.612    0.380
        46 -10.8687    127.3748    225.4124   8.8273343899e+01   1.0493191519e+01    0.4612947    0.2163866  38.34  0.002239643    1.802    0.445
        47  -7.9489    189.5418     15.4748   2.8644829449e+01   3.5904223425e+01    0.1306881    0.1113452 -73.85 0.0008086558    1.003    0.003
