#   1 NUMBER                 Running object number                                     
#   2 MAG_AUTO               Kron-like elliptical aperture magnitude                    [mag]
#   3 X_IMAGE                Object position along x                                    [pixel]
#   4 Y_IMAGE                Object position along y                                    [pixel]
#   5 X_WORLD                Barycenter position along world x axis                     [deg]
#   6 Y_WORLD                Barycenter position along world y axis                     [deg]
#   7 A_WORLD                Profile RMS along major axis (world units)                 [deg]
#   8 B_WORLD                Profile RMS along minor axis (world units)                 [deg]
#   9 THETA_WORLD            Position angle (CCW/world-x)                               [deg]
#  10 FWHM_WORLD             FWHM assuming a gaussian core                              [deg]
#  11 ELONGATION             A_IMAGE/B_IMAGE                                           
#  12 ELLIPTICITY            1 - B_IMAGE/A_IMAGE                                       
         1 -13.0444    155.0153      4.2736   3.4987697019e+01   4.5211279809e+01     2.090426    0.4963268  68.16  0.007618038    3.321    0.699
         2 -11.8510    231.2833     29.9565   3.3235132108e+01   2.5391453025e+01    0.5232038    0.3924465  27.62  0.001327911    2.367    0.578
         3 -13.8193    210.4366     24.2309   3.3907711739e+01   3.0480243647e+01     2.530501     1.021405  82.51   0.01077787    2.877    0.652
         4 -13.2592    246.1290     11.7399   2.8541425480e+01   2.4580922498e+01     1.209903    0.8970554 -23.91  0.008203087    1.888    0.470
         5 -14.1359    220.3672     12.6347   3.0557594418e+01   2.9666039026e+01     2.291011    0.9180634  78.70   0.01111199    2.402    0.584
         6 -12.4954    181.8369      4.7429   3.2164595662e+01   3.8940994128e+01    0.7845957     0.516363  62.55  0.003474208    1.436    0.304
         7 -11.9345      2.8997      5.9035   8.4322629571e+01   7.4012187595e+01    0.4481605    0.2654826 -53.34  0.002617853    2.655    0.623
         8 -14.3168    178.5872     23.5284   3.7184424296e+01   3.7763236187e+01      2.67739      1.56485  37.12   0.01283783    2.499    0.600
         9 -10.3623     77.0075    225.5508   1.0666346644e+02   1.6541172309e+01    0.2404945    0.1876966 -83.41 0.0005806241    1.324    0.245
        10 -12.7083    112.7876    238.2294   1.0017654560e+02   8.7602328946e+00     0.476851    0.3754455  86.95  0.002402094    1.555    0.357
        11 -13.7905     99.5026    241.8524   1.0351804533e+02   9.9956594023e+00     1.256959    0.6271309  24.55  0.005625337    2.357    0.576
        12 -13.1331     84.0331    245.8522   1.0727101941e+02   1.1383246633e+01     1.045086    0.5267134  42.55  0.002978601    1.657    0.397
        13 -12.7094     58.7497    246.1806   1.1258206245e+02   1.4638721524e+01    0.7850285    0.7245599  76.35  0.001993269    1.180    0.152
        14 -12.3751     69.5124    246.4467   1.1038019756e+02   1.3209451124e+01     0.719751    0.5780579  70.02  0.002869375    1.151    0.131
        15 -11.8752     14.1174    247.8038   1.2144538955e+02   1.9354508692e+01    0.6316169    0.3294057  64.65  0.001557401    1.593    0.372
        16 -12.0899      2.9531    244.6827   1.2335331541e+02   2.1056763918e+01     1.356676    0.3424327 -79.53  0.005827432    3.640    0.725
        17 -13.1767      6.4757    227.1582   1.2182717968e+02   2.4328253483e+01     1.614323    0.6536241  82.17  0.007806602    2.454    0.593
        18 -15.2952     26.6843    182.5468   1.1413990815e+02   3.2652966711e+01      8.55904       3.1762  83.98   0.02629616    4.860    0.794
        19  -8.5085    226.6979    206.2823   7.0923687748e+01  -2.8497248909e+00    0.1079671     0.104818 -60.56 0.0002770244    1.552    0.356
        20  -8.6216     67.7165    206.2994   1.0664296819e+02   2.2134366459e+01    0.1393854   0.09324879  66.24 0.0002187848    1.549    0.354
        21  -9.3185    191.4740    191.9936   7.5127157775e+01   5.1080333850e+00    0.1892424    0.1255027 -65.38 0.0008097158    2.575    0.612
        22 -11.5475     46.5559    179.0965   1.0871224098e+02   3.1394033550e+01    0.3861947    0.2871602 -31.82  0.001578002    1.738    0.425
        23 -11.4935     53.7126    173.0152   1.0604644532e+02   3.2075559942e+01    0.2972315    0.2539032 -42.98 0.0005026049    1.304    0.233
        24  -8.4980    110.5265    167.4814   8.9646333955e+01   2.4952827628e+01    0.1520241    0.1475318  77.51  0.000205508    1.043    0.041
        25 -10.7088     65.9466    163.2101   1.0124235479e+02   3.3007201504e+01    0.2573479    0.2458016 -26.70 0.0003442885    1.168    0.144
        26 -12.9995     51.4889    159.4205   1.0476532866e+02   3.5823565520e+01    0.5686991    0.3320667 -38.11  0.001651849    2.108    0.526
        27 -12.1485     74.7174    156.2251   9.7568537942e+01   3.3574321717e+01    0.6587769    0.5857627  88.59  0.002212529    1.138    0.121
        28 -13.8354     12.1790    206.3784   1.1941209521e+02   2.8375484035e+01    0.9553602    0.6751341  29.18  0.001705862    1.624    0.384
        29 -14.2216     21.8056    199.0031   1.1673244243e+02   2.9174598865e+01     2.438331    0.9535022  54.71  0.009782291    2.551    0.608
        30 -12.8356     67.4985    143.7113   9.7446742163e+01   3.7831788382e+01    0.9873181    0.6035602  63.36  0.003059518    2.199    0.545
        31 -10.0212     91.0010    143.1824   9.0272902443e+01   3.4380090160e+01    0.2890385     0.253499  34.99 0.0007902575    1.183    0.154
        32  -9.2290     94.7254    140.0412   8.8499160186e+01   3.4546513891e+01    0.2804632    0.2104945 -19.18 0.0009506479    1.669    0.401
        33 -11.8110     78.3726    141.2781   9.3670778099e+01   3.6877499914e+01    0.3430985    0.2718353 -49.13 0.0006142777    1.211    0.174
        34 -10.3930    105.6328    131.1974   8.3267459543e+01   3.4801697901e+01    0.4029347    0.3465536   3.31 0.0009894372    1.312    0.238
        35 -12.0240     52.6389    115.9675   9.6735091513e+01   4.6871618282e+01    0.9047627    0.3357566 -69.50   0.00255569    4.014    0.751
        36  -9.9889     91.4828    127.5285   8.6661838806e+01   3.8236142560e+01    0.3053927    0.2569343 -14.02 0.0008030956    1.341    0.254
        37  -9.3949    103.4109    119.8072   8.1142321964e+01   3.7977540568e+01     0.236717    0.2089488  48.11 0.0004272617    1.193    0.162
        38 -10.1279    243.3340    113.6623   4.9469615655e+01   1.0472945007e+01    0.1367082   0.09240931 -64.25 0.0007051848    1.745    0.427
        39  -9.3664    204.4789    110.9683   5.4912166462e+01   1.8431998854e+01    0.3142671     0.176904  34.00  0.001290208    2.515    0.602
        40 -10.2269      2.0000     88.9982   1.0992740486e+02   5.7723484356e+01     0.193293    0.1417821  73.61   0.00113734    1.704    0.413
        41 -10.6871      2.0000     84.9988   1.0923764155e+02   5.8660338926e+01    0.3310195    0.0854428 -58.08  0.001348914    2.493    0.599
        42  -9.4803    164.3199     84.3005   5.5764771996e+01   3.2261754572e+01    0.1479088    0.1183402  16.19 0.0003394122    1.623    0.384
        43  -8.8734     24.7995     82.6157   9.9632967931e+01   5.7761170490e+01    0.1602282    0.1208706  29.75 0.0002668747    1.533    0.348
        44  -8.6595    184.3346     77.3149   5.0163517658e+01   2.8849306543e+01     0.141883    0.1138638  19.15 0.0007046809    1.689    0.408
        45 -10.3688      3.9889     59.2324   1.0298089300e+02   6.4319429887e+01    0.1726899    0.1013636 -14.23 0.0003965122    1.743    0.426
        46 -10.2497     13.2524     60.0102   9.8897106162e+01   6.3603674365e+01    0.1979403    0.1644309 -18.35 0.0004890776    1.138    0.121
        47 -12.9068     34.1216    248.9003   1.1770465181e+02   1.7014472911e+01     1.966254    0.5494515  27.19   0.00693024    5.080    0.803
        48  -9.6274     28.2158    243.3831   1.1850411746e+02   1.8771030127e+01    0.2791646    0.1174844 -87.37   0.00103557    2.526    0.604
        49  -9.7469     22.1726    243.4953   1.1968379893e+02   1.9390943514e+01    0.1672854   0.09961275  38.14   0.00102481    1.566    0.361
        50 -12.5857     86.0219    234.3408   1.0562113145e+02   1.3428346646e+01     0.688894    0.4095986  18.37  0.003289825    2.244    0.554
        51 -13.8421    105.6814    229.3880   1.0063529669e+02   1.1594418968e+01     2.113565    0.3502127  37.23  0.006154223    4.523    0.779
        52 -11.8602     85.9386    221.8508   1.0420313682e+02   1.6090267884e+01    0.6528767    0.4041214  78.96  0.002107322    2.103    0.525
        53 -10.5296      2.2557     37.6578   9.7710911657e+01   6.8751319593e+01    0.2104873    0.1363731 -62.52  0.001276569    1.746    0.427
        54 -11.0236     74.9307    220.2803   1.0655099040e+02   1.7978578160e+01    0.6095199    0.1161668  43.31   0.00186538    4.269    0.766
