#   1 NUMBER                 Running object number                                     
#   2 MAG_AUTO               Kron-like elliptical aperture magnitude                    [mag]
#   3 X_IMAGE                Object position along x                                    [pixel]
#   4 Y_IMAGE                Object position along y                                    [pixel]
#   5 X_WORLD                Barycenter position along world x axis                     [deg]
#   6 Y_WORLD                Barycenter position along world y axis                     [deg]
#   7 A_WORLD                Profile RMS along major axis (world units)                 [deg]
#   8 B_WORLD                Profile RMS along minor axis (world units)                 [deg]
#   9 THETA_WORLD            Position angle (CCW/world-x)                               [deg]
#  10 FWHM_WORLD             FWHM assuming a gaussian core                              [deg]
#  11 ELONGATION             A_IMAGE/B_IMAGE                                           
#  12 ELLIPTICITY            1 - B_IMAGE/A_IMAGE                                       
         1 -12.8753     42.0032     21.0063   9.7897273646e+01   6.4940285686e+01    0.5487249    0.3226398  20.06  0.003372608    1.791    0.442
         2 -12.7092    216.8031     15.1265   5.5311245365e+01   2.8895426397e+01    0.8101532    0.5368544  68.00  0.002688051    1.368    0.269
         3 -13.5688    186.6447      7.4121   5.7055825878e+01   3.7305490411e+01     0.982806    0.6363797 -84.35  0.004865353    1.757    0.431
         4 -10.3452     56.5117      9.5002   8.7837490053e+01   6.4662916089e+01     0.207926    0.1685037  10.69  0.000876807    1.128    0.114
         5 -11.5120     59.0079      7.2394   8.5990358648e+01   6.4577976085e+01    0.3145526    0.1942216  39.41  0.001938941    1.687    0.407
         6 -11.9074     43.8463      8.5908   9.2151686978e+01   6.6425207241e+01    0.2692115     0.201139  19.69 0.0008723883    1.308    0.236
         7  -9.7023     69.4986      6.4757   8.2108236056e+01   6.3073523076e+01    0.1197458   0.09760654   6.05 0.0001288516    1.036    0.035
         8 -11.8993    166.9787      1.9777   5.8278877588e+01   4.2750266119e+01    0.5875322    0.1753391  65.99  0.002106803    2.910    0.656
         9 -10.4243     53.2982      1.7876   8.5652745826e+01   6.6004604024e+01    0.2393786     0.153699  52.33  0.001410187    2.415    0.586
        10 -10.0471    185.2977    223.3952   1.0888212550e+02   2.1186859753e+00    0.1841791    0.1034986  50.26 0.0009476973    1.594    0.373
        11  -9.8126    174.0000    221.9957   1.1074833818e+02   4.3874374612e+00    0.1841888   0.07483221 -45.69 0.0008063959    2.970    0.663
        12 -11.0120    226.2734    221.0562   1.0109839155e+02  -4.8981521527e+00    0.1702097    0.1500081  11.71 0.0006317666    1.127    0.113
        13  -9.9598    211.3762    218.1862   1.0327948034e+02  -1.8715654204e+00    0.1602528    0.1206211 -48.91 0.0009475178    1.728    0.421
        14 -11.3161    222.6233    213.9949   1.0053206498e+02  -3.3186686615e+00    0.2863612    0.2206185  14.42  0.001755581    1.270    0.212
        15 -10.7207    237.9354    212.3017   9.7513599871e+01  -5.7929293798e+00     0.258739    0.1962002  80.85  0.001338725    2.758    0.637
        16 -10.5975    115.9942    210.0011   1.1996191717e+02   1.6707856009e+01    0.2115735    0.1348245  74.01   0.00113766    1.738    0.425
        17 -10.2066     56.4607    205.5129   1.3046491149e+02   2.6327344907e+01    0.1173417   0.08708531  77.27 0.0001167618    1.054    0.051
        18 -10.6360     48.7015    201.0589   1.3144286863e+02   2.8142206365e+01    0.3005247    0.1198009 -79.08  0.001463101    2.597    0.615
        19  -9.8890     41.5065    201.9634   1.3279518446e+02   2.8812821279e+01    0.1631625   0.09065954 -76.37 0.0008438349    1.556    0.357
        20 -10.8518      5.1537    199.5313   1.3876361429e+02   3.2985897096e+01    0.2508911    0.1157857  61.81  0.001019526    1.848    0.459
        21  -9.6898    133.4198    196.2374   1.1464092553e+02   1.6245633375e+01    0.1770804    0.1232646 -73.32 0.0009443154    1.664    0.399
        22 -12.2956    160.1614    192.2051   1.0863904132e+02   1.1978045413e+01     0.595654    0.4348965  84.13  0.002437135    1.827    0.453
        23 -10.1822     94.5972    186.4189   1.2104362398e+02   2.4744150188e+01     0.250004    0.1108252 -75.88 0.0009555645    3.423    0.708
        24 -10.0810    109.2505    186.2661   1.1804288991e+02   2.2405016280e+01    0.2012955    0.1044179 -72.01  0.000824827    2.406    0.584
        25 -10.1206    183.4849    183.6771   1.0244730217e+02   8.8773127561e+00    0.2821165    0.1391231 -37.15  0.001193713    2.381    0.580
        26 -10.3069    224.3138    183.6709   9.4592897531e+01   7.4600412667e-01    0.1274636    0.1100605  89.43 0.0005202412    1.673    0.402
        27  -9.6694    193.3686    188.6813   1.0143709098e+02   6.0447351237e+00    0.1395058    0.1073545  77.02 0.0006192999    1.788    0.441
        28  -9.9818    137.6609    178.9796   1.1099728072e+02   1.8792594660e+01    0.2204938    0.1118245 -74.01 0.0007049423    4.354    0.770
        29 -11.3975     38.1904    174.8253   1.3092029433e+02   3.4588140214e+01    0.1968461    0.1601403  38.22  0.001411489    1.562    0.360
        30 -10.9778     55.5618    167.9382   1.2668083599e+02   3.4028679979e+01    0.3583533    0.2004631 -78.66  0.001977794    1.672    0.402
        31  -9.5869    168.3297    169.6407   1.0285062175e+02   1.4527975643e+01    0.1494912    0.1121572  84.63 0.0004273291    1.793    0.442
        32  -9.8271     88.4801    168.0108   1.1973015213e+02   2.9510170721e+01    0.1930083    0.1043606 -86.60 0.0008093761    2.687    0.628
        33 -10.7158     44.5900    168.2031   1.2895693073e+02   3.5255554491e+01    0.1644426   0.09058318 -61.83 0.0007913289    1.657    0.397
        34 -10.2047     99.3268    166.6521   1.1717479837e+02   2.8095237103e+01    0.1427516     0.094621  78.15 0.0007049546    1.753    0.430
        35 -10.0681    138.9990    164.9990   1.0822104950e+02   2.1341143974e+01    0.2919829     0.167688  81.75 0.0009526398    4.081    0.755
        36 -10.4911     79.2181    163.6206   1.2109227222e+02   3.1814857255e+01    0.2784323    0.1363723  87.67 0.0009562409    4.286    0.767
        37 -11.6674    106.7613    158.1758   1.1413391758e+02   2.8668545446e+01    0.5991855    0.3743889  71.89   0.00279137    2.034    0.508
        38 -11.3498     24.0105    159.4002   1.3219512503e+02   3.9199172198e+01    0.1988326    0.1907895 -37.17 0.0009927988    1.505    0.335
        39 -10.9178    167.8644    157.7366   1.0055613334e+02   1.6912201674e+01    0.2846111    0.1976612 -76.69  0.001246175    2.123    0.529
        40 -11.4453    119.3929    157.1897   1.1111918907e+02   2.6658287987e+01    0.4477189    0.2465494  46.66  0.002055047    1.761    0.432
        41 -10.0692     68.3398    154.6644   1.2219194159e+02   3.5246079492e+01     0.135244   0.08628273  76.43 0.0007051175    1.755    0.430
        42 -10.4416    218.3638    156.2399   9.0035630385e+01   6.3723777643e+00    0.3838156    0.1298782 -40.81  0.001329589    3.055    0.673
        43  -9.7187     23.4859    153.5357   1.3170992645e+02   4.0468269861e+01    0.1146021    0.0869608 -87.99 9.650477e-05    1.043    0.042
        44 -10.1593    189.6345    150.3605   9.4419397066e+01   1.3617380597e+01    0.2282595     0.183155 -88.09  0.001107919    1.653    0.395
        45 -10.0413     41.5239    149.4960   1.2741727385e+02   3.9552176327e+01    0.1201323   0.09604284 -84.53 8.175654e-06    1.021    0.020
        46  -9.8941     12.1338    148.3286   1.3353045492e+02   4.2522781131e+01    0.1513988    0.1240133 -54.33 0.0005750376    1.445    0.308
        47 -11.3301    107.6180    145.7044   1.1169271239e+02   3.1214631458e+01    0.5999539    0.3178741  69.98  0.002122667    3.560    0.719
        48 -10.6007     55.8562    146.1379   1.2377907008e+02   3.8667397397e+01    0.3696319    0.1668706  72.55   0.00120756    5.319    0.812
        49 -10.3206    148.2105    144.8111   1.0214771961e+02   2.3639049102e+01    0.2535347    0.1626591  87.42 0.0009510119    2.827    0.646
        50  -9.8130    124.3234    142.6521   1.0718565861e+02   2.8847900038e+01    0.1515752    0.1100999  84.65 0.0007049436    1.744    0.427
        51 -10.1894     23.7957    139.1845   1.3007388501e+02   4.3462072435e+01    0.2036352   0.09602641  71.47 0.0009627307    2.921    0.658
        52 -11.3976     82.9993    130.9691   1.1484690887e+02   3.8398060178e+01    0.4848012    0.2141437 -64.86  0.001978979    2.469    0.595
        53 -12.1645     99.5312    129.1513   1.1040151043e+02   3.6206327991e+01    0.6770529    0.4138483  82.11  0.002731015    2.852    0.649
        54 -10.9264     60.5886    125.9342   1.1950510377e+02   4.2521001904e+01    0.4860848    0.2713962  74.89  0.002132529    2.914    0.657
        55 -10.2626    118.2886    126.0245   1.0510395080e+02   3.3568424234e+01    0.3157298    0.1783578  66.39  0.001191361    2.806    0.644
        56 -11.0806     43.3095    122.3665   1.2321605606e+02   4.5234774238e+01    0.7056271    0.3154773 -84.09  0.002638232    3.997    0.750
        57 -11.2374     26.0135    119.2959   1.2702042333e+02   4.7509060879e+01    0.3499683     0.163904 -84.87  0.001646384    2.653    0.623
        58 -11.6367    193.1693    118.4751   8.6253260876e+01   1.8791030964e+01      0.59894    0.4485309 -72.52  0.002226132    1.777    0.437
        59 -10.3139     71.5488    120.6817   1.1578637365e+02   4.2275835320e+01    0.3566137    0.2020783  73.40  0.001465546    3.145    0.682
        60 -10.7589     14.1097    120.8758   1.3008921656e+02   4.8114285237e+01    0.1721251    0.1629332 -25.50  0.001387488    1.402    0.287
        61 -11.7299    141.2955    114.9020   9.6886100025e+01   3.1311698697e+01    0.7819244    0.2573413 -42.91  0.002508118    3.096    0.677
        62 -10.0604    130.3272    118.6545   1.0045573985e+02   3.2801489694e+01    0.1547056    0.1168389 -89.77  0.000705036    1.748    0.428
        63 -10.4990      2.2073    115.4611   1.3224740115e+02   5.0054050964e+01    0.2092946    0.1149965 -71.48 0.0007646059    1.352    0.260
        64 -10.4930    108.4558    113.0453   1.0462314390e+02   3.8170202469e+01    0.5821424    0.2350686 -62.35  0.001698161    4.516    0.779
        65 -10.8200     78.6253    112.1739   1.1223814679e+02   4.3161489740e+01    0.4522398     0.260382 -81.41  0.001848512    2.927    0.658
        66 -12.4347    160.1662    110.6210   9.1389831155e+01   2.8007855167e+01    0.7733302    0.4952393 -63.30  0.003158777    2.094    0.522
        67 -10.6171     91.7807    111.1516   1.0853682495e+02   4.1399924608e+01    0.4299534    0.1792104 -61.70  0.001547088    3.037    0.671
        68 -11.5129     14.8871    110.0097   1.2847997580e+02   5.0344661503e+01    0.5398338    0.3073472  87.57  0.003126436    1.989    0.497
        69 -12.8631    141.0290    104.6742   9.4359199353e+01   3.3464440749e+01    0.5749743    0.4748222  56.78  0.002923976    1.251    0.200
        70 -11.9242     44.6241    101.1293   1.1920492418e+02   4.9686445551e+01    0.6549144    0.3600391 -84.71  0.002998314    2.802    0.643
        71 -12.2239    127.2112    100.1581   9.6609718357e+01   3.7286485062e+01    0.6185581     0.368232 -58.63  0.002597604    2.027    0.507
        72 -12.9420    110.5496    100.0994   1.0091262716e+02   4.0533443875e+01     1.073739    0.5532154  60.63  0.003907505    3.169    0.684
        73 -10.7356    174.3384    111.2067   8.8386919077e+01   2.4606381647e+01    0.3740812    0.2602278 -49.81  0.000988042    1.520    0.342
        74 -10.6540     81.9252    100.3908   1.0873224727e+02   4.5226322184e+01    0.2290602    0.1788112 -64.91 0.0008122883    1.289    0.224
        75 -10.8545     62.9099     95.6972   1.1297801876e+02   4.8799179605e+01    0.3994842    0.1765614 -71.74   0.00126146    4.985    0.799
        76 -12.5022    170.3445     90.9133   8.3897978606e+01   2.9400484872e+01    0.4340115     0.391554  89.64  0.001163981    1.219    0.180
        77 -10.9189     34.0813     88.2425   1.1967462179e+02   5.3399244105e+01    0.4004176     0.153957 -65.62  0.001787928    2.543    0.607
        78 -11.4410     42.2108     87.8446   1.1723117637e+02   5.2730587958e+01    0.4480731    0.2465404 -21.75  0.001927205    2.962    0.662
        79 -10.7767     46.0802     82.7431   1.1497481168e+02   5.3401517287e+01     0.466797    0.2747453  75.90  0.001921868    4.123    0.757
        80 -11.5351     86.4995     87.0103   1.0413719337e+02   4.7333355760e+01    0.4163095    0.2801989  60.18  0.002055999    2.028    0.507
        81  -9.8943    119.2835     87.6538   9.5283624560e+01   4.1395738877e+01    0.1452385    0.1154719 -77.96 0.0003940728    1.645    0.392
        82 -10.8005    104.5367     83.5777   9.8129488465e+01   4.4995007920e+01    0.3126314    0.2216168 -86.04   0.00138173    2.433    0.589
        83  -9.6813    140.5159     83.0113   8.8566288799e+01   3.7820051229e+01    0.2169451    0.1266365 -60.80  0.000810253    2.546    0.607
        84 -10.5169     23.8647     79.9115   1.2102354465e+02   5.5946976546e+01    0.3349558    0.1508825 -71.38  0.001615232    2.494    0.599
        85  -9.3820      1.6849     77.7069   1.2715705611e+02   5.7802966457e+01    0.1107647   0.06050451 -44.69 0.0007008174    1.598    0.374
        86 -11.3121     82.3354     73.6579   1.0171143411e+02   5.0640107048e+01    0.4452925    0.2533167 -65.38  0.001846944    2.884    0.653
        87  -9.8138     85.3418     72.7133   1.0054659676e+02   5.0358452305e+01    0.1918477    0.1530716 -12.32 0.0004907178    1.356    0.262
        88 -10.1605    116.1829     73.0063   9.1882123758e+01   4.4817276874e+01     0.235156    0.1674301 -67.50  0.001078419    2.014    0.504
        89 -11.3327    223.5522     71.5326   6.8755381188e+01   1.9550706403e+01    0.2748042    0.2662402 -70.86 0.0005075918    1.010    0.009
        90 -10.6805     51.8185     69.9746   1.1010191574e+02   5.5365536281e+01    0.2713213    0.1877847 -63.63  0.001482976    1.574    0.365
        91 -10.6658     39.7888     52.5913   1.0929742972e+02   5.9920044899e+01    0.5576405   0.09693968 -46.48  0.001940288    4.071    0.754
        92 -11.5914     20.8753     51.2267   1.1546703450e+02   6.1771805719e+01    0.5353109    0.1984169 -53.26  0.002767355    2.042    0.510
        93 -13.4322     30.5180     59.8188   1.1439502285e+02   5.9399408937e+01     1.118252    0.5956004  35.41  0.005645494    2.322    0.569
        94 -10.1509    196.7423     67.5903   7.2221616352e+01   2.6863082361e+01    0.3066638    0.1357753  53.78  0.001148278    2.144    0.534
        95 -11.1866    237.0099     63.5149   6.4748192888e+01   1.7521399946e+01    0.2043594    0.1208188 -85.77 0.0008102342    2.539    0.606
        96 -10.0531     72.6107     58.4149   1.0018036517e+02   5.4937373048e+01    0.2533559    0.1109937 -55.91 0.0009594497    3.363    0.703
        97 -11.1519      9.1703     57.2395   1.2089622601e+02   6.1401287417e+01    0.4521467    0.2936102 -86.84  0.002796722    2.226    0.551
        98 -11.4224     19.5208     59.5458   1.1798603179e+02   6.0296082370e+01     0.254706    0.1564057 -49.15 0.0009378406    1.236    0.191
        99 -11.7391    149.5457     52.3556   7.7214977420e+01   4.0979414765e+01    0.3451668    0.2536837  53.33 0.0004536844    1.314    0.239
       100 -10.2773     92.0000     50.0038   9.1462512689e+01   5.3342406527e+01    0.2238514   0.07136022 -39.01 0.0008090065    2.988    0.665
       101 -10.2417     82.4201     47.3030   9.3481421263e+01   5.5381463427e+01    0.1932353    0.1656927  65.51 0.0007431239    1.652    0.395
       102 -10.6181    157.0026     44.9959   7.3316793901e+01   4.0264764646e+01    0.2712334    0.1957164  54.34 0.0004514637    1.308    0.235
       103 -10.9717      7.1115     42.9613   1.1821335019e+02   6.4177564440e+01    0.4150552     0.256391  47.04   0.00265466    2.606    0.616
       104 -11.2764     70.6434     42.6380   9.5658893830e+01   5.7938595394e+01    0.3717314      0.28203  57.94  0.001674413    1.989    0.497
       105 -12.0400     42.1001     37.6589   1.0384501338e+02   6.2313380900e+01     0.567647    0.3035206  15.44  0.001213881    2.318    0.569
       106 -11.0263     46.9210     35.8640   1.0149292696e+02   6.2087783701e+01    0.2641076    0.1815708  -0.08 0.0006826986    1.541    0.351
       107 -10.2068     83.3095     38.4094   9.0110910671e+01   5.6648039933e+01    0.1668229    0.1219613  46.60 0.0008421205    1.579    0.367
       108 -10.7934    119.9005     34.1601   7.8257117967e+01   5.0305904869e+01    0.2730015    0.2560407  53.24 0.0006857226    1.188    0.158
       109 -10.3538     73.9253     32.6565   9.1022724568e+01   5.9002572803e+01    0.2722692    0.2005121  58.57  0.001537674    2.090    0.522
       110 -10.9704    172.0329     31.4104   6.6277717076e+01   3.8334085767e+01    0.2394611    0.2100329 -28.18 0.0002666579    1.230    0.187
       111 -11.0129    105.0152     30.5264   8.0885233203e+01   5.3845230514e+01    0.4859028    0.2017545  49.32  0.001942722    2.355    0.575
       112  -9.1128    101.2966     27.2950   8.0733618046e+01   5.4993915778e+01    0.1347057    0.0919653  15.39 0.0002600145    1.565    0.361
       113 -12.4600    204.1654     21.8070   5.8612404116e+01   3.1311004890e+01    0.5220975    0.2926379  85.20  0.002279887    2.068    0.516
       114 -11.0382    220.8494    249.2953   1.0655035980e+02  -7.4210378030e+00    0.1913965    0.1293847  48.57  0.001216412    1.456    0.313
       115 -11.0600    239.9297     20.5403   5.4062763551e+01   2.2618504074e+01    0.2666744    0.2152937  74.79  0.000451744    1.170    0.145
       116 -10.0763     33.1614    242.3715   1.3704007965e+02   2.2470317330e+01    0.1446418   0.06541803  55.08 0.0009403795    1.690    0.408
       117 -10.1197    134.2961     18.0332   6.9320775891e+01   4.9060235428e+01    0.1823375    0.1702934  24.53 0.0004243914    1.065    0.061
       118  -9.6875     88.6547     18.3146   8.0959882858e+01   5.8470237600e+01    0.1151927    0.1022807 -68.05 0.0007047534    1.715    0.417
       119 -11.6834     22.2363    240.1804   1.3851868902e+02   2.4043695082e+01    0.2164524    0.1418634 -82.40  0.001729636    1.376    0.273
       120 -10.6167      8.0037    240.6885   1.4058290299e+02   2.5425054812e+01    0.1381562   0.09145258  69.18  0.000737076    1.106    0.096
       121 -10.7252     12.6709    227.3997   1.3921843375e+02   2.7228560326e+01    0.1755518    0.1260431  86.50 0.0006004153    1.161    0.139
       122 -10.2178    104.5536    225.3132   1.2389774642e+02   1.5805406383e+01    0.2055253    0.1113937 -70.18  0.001127303    2.075    0.518
       123 -11.1653     96.2092    223.9508   1.2523214995e+02   1.7336167229e+01    0.3554508    0.2453573 -67.04  0.002299339    1.554    0.356
       124 -10.6552    149.3372    223.3397   1.1550368151e+02   8.6172797877e+00    0.2618143    0.1655598  72.78  0.001349336    2.072    0.517
