#   1 NUMBER                 Running object number                                     
#   2 MAG_AUTO               Kron-like elliptical aperture magnitude                    [mag]
#   3 X_IMAGE                Object position along x                                    [pixel]
#   4 Y_IMAGE                Object position along y                                    [pixel]
#   5 X_WORLD                Barycenter position along world x axis                     [deg]
#   6 Y_WORLD                Barycenter position along world y axis                     [deg]
#   7 A_WORLD                Profile RMS along major axis (world units)                 [deg]
#   8 B_WORLD                Profile RMS along minor axis (world units)                 [deg]
#   9 THETA_WORLD            Position angle (CCW/world-x)                               [deg]
#  10 FWHM_WORLD             FWHM assuming a gaussian core                              [deg]
#  11 ELONGATION             A_IMAGE/B_IMAGE                                           
#  12 ELLIPTICITY            1 - B_IMAGE/A_IMAGE                                       
         1 -15.3287     68.0485    143.9891   1.1693115024e+02   3.7601171632e+01     5.082056     2.125664  62.51   0.01554613    5.147    0.806
         2 -14.3742    195.1726     31.3776   5.6846796482e+01   3.2468475032e+01     1.681674     1.125453  34.43  0.007453809    1.821    0.451
         3 -14.7076    206.7973     17.5180   5.1585094802e+01   3.1159109054e+01      1.70847     1.152642  20.11  0.008392656    2.096    0.523
         4 -10.8711     18.0000     11.9993   1.0012869099e+02   7.1301812163e+01    0.1916553   0.05397333 -46.22 0.0008087495    2.986    0.665
         5 -10.8401     32.8098      3.2269   8.8003178292e+01   7.0984653667e+01    0.2566186   0.07531785 -40.53  0.001031206    3.573    0.720
         6 -12.9380    195.8030    195.9127   9.7253906156e+01   5.3978152092e+00    0.7644981    0.6233744  71.66  0.004314851    1.837    0.456
         7 -15.8445    121.4622    246.4306   1.1851171341e+02   9.7014702484e+00     8.128663     1.954327  39.94   0.03248965    3.308    0.698
         8 -15.1204     58.0661    200.8397   1.2602316445e+02   2.6545522205e+01      2.16026     1.290429  73.54   0.01269717    1.625    0.384
         9 -10.8649    207.6576    183.5067   9.2700414561e+01   5.2046044239e+00     0.266472    0.2109367 -24.16  0.001122908    1.275    0.216
        10 -10.9526    211.2065    181.2032   9.1589905304e+01   4.9231933282e+00     0.258094    0.1853753  16.63  0.001416689    1.389    0.280
        11 -12.0161     72.1332    182.2052   1.2113939811e+02   2.8561032932e+01    0.3560213    0.2534902 -40.33  0.002015527    1.946    0.486
        12 -11.8730     76.3524    176.5216   1.1950960075e+02   2.9195209704e+01    0.3131023    0.2364079 -42.69 0.0008259009    1.690    0.408
        13  -9.4765     99.5227    180.5020   1.1486404861e+02   2.4936294388e+01    0.1316915    0.1176006  68.69 3.846933e-05    1.002    0.002
        14 -10.6090    197.8419    176.6157   9.3238987197e+01   8.0831114519e+00    0.3310802    0.2712256 -26.25  0.001361046    1.246    0.197
        15 -11.1318    196.8138    172.4065   9.2604786104e+01   8.9670057682e+00      0.32827    0.2870525  -5.25  0.001330011    1.106    0.096
        16 -11.7657     85.5704    237.1666   1.2407394268e+02   1.6268708055e+01     0.276895    0.1756629  86.87 0.0004710661    1.751    0.429
        17 -12.8538     90.7458    159.1327   1.1367748434e+02   3.0900114347e+01     1.463652    0.7698429 -72.74  0.004106774    2.287    0.563
        18 -15.0070     11.1954    206.4790   1.3532888786e+02   3.0456682970e+01    0.7333562    0.6703247  40.35  0.002894628    1.533    0.348
        19 -17.6810      9.3142    241.0445   1.3724022340e+02   2.4408914142e+01     11.87169     2.141299 -78.08   0.03461821    5.027    0.801
        20 -11.0066     37.0279    150.5163   1.2554425394e+02   3.9725907411e+01    0.2622808   0.09573756  38.87  0.001202136    2.663    0.625
        21 -11.1685    133.5123    142.5608   1.0017368479e+02   2.7079552676e+01    0.6996372    0.1962151 -54.29  0.001858916    4.945    0.798
        22 -11.5150     43.9204    148.9417   1.2368181978e+02   3.9361921361e+01    0.2557593    0.1681833  44.55 0.0009118476    1.563    0.360
        23 -11.4944     53.8352    147.2278   1.2100292788e+02   3.8634858536e+01    0.2405575     0.204898 -64.01  0.001410576    1.176    0.150
        24 -11.0233    104.0874    142.7216   1.0749150823e+02   3.2422304662e+01    0.5590969    0.3091936 -32.32  0.002153791    2.901    0.655
        25 -12.3251     91.6935    143.2354   1.1074254449e+02   3.4337995646e+01     0.270692    0.2494644 -45.77  0.000360566    1.180    0.152
        26  -9.3997     81.7187    137.3284   1.1226338370e+02   3.7223846105e+01    0.1404893    0.1016197  80.45 0.0004166104    1.602    0.376
        27 -12.4955     84.7171    166.0489   1.1616450326e+02   3.0276985450e+01    0.6198004    0.4040495 -87.12 0.0007574231    1.751    0.429
        28 -11.8969     69.8621    134.1202   1.1484445390e+02   3.9652200385e+01     0.335958    0.1983631  40.46  0.001673491    1.770    0.435
        29 -10.3319    112.5517    132.2344   1.0318683040e+02   3.3292703944e+01    0.2721435    0.2357971   7.12  0.000936356    1.389    0.280
        30 -10.2327    105.9699    130.5626   1.0454205067e+02   3.4846320497e+01    0.2965065    0.2183298 -57.46   0.00146883    1.331    0.249
        31 -12.5377     44.1880    128.1586   1.2082127191e+02   4.4147244377e+01    0.4943605    0.2426786 -83.13  0.001777625    2.408    0.585
        32 -10.1080    160.5650    126.7363   9.0183230924e+01   2.4803476670e+01    0.2149952    0.1442422 -52.04  0.000950567    1.622    0.383
        33 -10.5976    118.0029    125.9906   1.0039084571e+02   3.3675769941e+01    0.2407137    0.1862286 -10.39 0.0009956107    1.753    0.430
        34  -9.7770    108.8569    120.3821   1.0151398798e+02   3.6631944715e+01    0.1967446    0.1782794  40.20 0.0004438426    1.146    0.128
        35 -13.5731     72.8996    162.2239   1.1841124702e+02   3.2800790205e+01    0.6613607     0.457163 -39.73  0.003012919    1.893    0.472
        36 -11.0486    100.1297    128.5885   1.0566837494e+02   3.6306733044e+01    0.2789837    0.2305243 -22.11 0.0006041658    1.477    0.323
        37 -12.1186     54.0405    110.1708   1.1498192462e+02   4.7281532019e+01    0.3803838    0.3076549  52.14  0.002263006    1.367    0.268
        38 -11.0372    137.2976    170.9944   1.0486577297e+02   2.0467075766e+01    0.1942047    0.1902623 -64.55  0.001175379    1.084    0.077
        39  -9.3385    205.5203    110.4285   7.6820548955e+01   1.7870517126e+01     0.147331    0.1398268 -12.34 0.0006472367    1.010    0.010
        40 -10.0788    167.5503    112.3523   8.4992914298e+01   2.6102832948e+01    0.3323934    0.2429603 -74.58  0.001431491    1.992    0.498
        41  -9.7607    160.9859     54.6284   6.9606362406e+01   3.7963334275e+01    0.2108529    0.1854279  64.69 0.0005287196    1.160    0.138
        42 -12.8909    186.5027     37.9539   5.9994757750e+01   3.3838053606e+01     0.520618    0.4629399 -31.93  0.001059834    1.144    0.126
        43 -14.3467     45.4748    233.0475   1.3085672395e+02   2.2003895683e+01     1.141743    0.5184388  58.34  0.006425415    1.814    0.449
        44 -10.6827     71.1816    229.1763   1.2599582296e+02   1.9554056827e+01    0.1607637    0.1345702  59.27 0.0005660736    1.139    0.122
        45 -14.0925     49.1004    210.7182   1.2860618914e+02   2.5689862660e+01    0.9489219     0.578159 -52.73  0.001734443    2.167    0.539
        46 -11.9449     21.1917     35.8029   1.0816536923e+02   6.6777488340e+01    0.2318866    0.2094183 -64.55  0.001656455    1.388    0.279
