#   1 NUMBER                 Running object number                                     
#   2 MAG_AUTO               Kron-like elliptical aperture magnitude                    [mag]
#   3 X_IMAGE                Object position along x                                    [pixel]
#   4 Y_IMAGE                Object position along y                                    [pixel]
#   5 X_WORLD                Barycenter position along world x axis                     [deg]
#   6 Y_WORLD                Barycenter position along world y axis                     [deg]
#   7 A_WORLD                Profile RMS along major axis (world units)                 [deg]
#   8 B_WORLD                Profile RMS along minor axis (world units)                 [deg]
#   9 THETA_WORLD            Position angle (CCW/world-x)                               [deg]
#  10 FWHM_WORLD             FWHM assuming a gaussian core                              [deg]
#  11 ELONGATION             A_IMAGE/B_IMAGE                                           
#  12 ELLIPTICITY            1 - B_IMAGE/A_IMAGE                                       
         1 -14.3770    101.2286     50.1458   2.1641112118e+01   5.3101084168e+01     1.368984    0.9685367  35.26  0.004693581    1.611    0.379
         2 -13.3032     79.6405     58.9643   3.2442448065e+01   5.6446262090e+01     1.511546     1.187124   4.17  0.007106551    1.673    0.402
         3 -14.9316      6.7610     71.2783   7.2298217375e+01   6.3448389954e+01     1.269151     0.862482 -65.59  0.004431488    1.301    0.231
         4 -14.1072     64.2037     53.7787   3.6844450853e+01   6.0701089129e+01     2.995344     1.300701 -30.53  0.008576954    4.557    0.781
         5 -13.5124     33.0075     24.3293   4.0088305501e+01   7.2016591449e+01     2.034364    0.9345673  19.21  0.007120874    3.724    0.731
         6 -13.2869      6.1917     43.1921   6.7174091859e+01   7.0591748611e+01     1.220393    0.5960099   0.89  0.005323945    2.280    0.561
         7 -13.2435      8.7091      3.4433   4.7313911380e+01   7.8997296019e+01    0.6769301    0.5098706  33.49  0.003311053    1.467    0.319
         8 -15.8464     11.9613     22.1202   5.5222456835e+01   7.5018048844e+01     2.060021     1.080482 -33.45  0.008391577    1.905    0.475
         9 -14.1906     26.6349     12.9459   3.7729891024e+01   7.5019166182e+01    0.8569802    0.5836263   1.49  0.003894408    1.711    0.415
        10 -12.8182    230.0011      2.7071   3.4991614354e+02   2.7939238793e+01    0.7317701    0.2632475  74.84  0.003613016    2.836    0.647
        11 -14.5836    212.5232     40.7374   3.5986910885e+02   2.7281715607e+01      1.98633    0.7612506  75.99  0.008375793    3.083    0.676
        12 -14.5819    189.7581     21.0703   3.5686887772e+02   3.4706169663e+01     1.616885    0.7226066 -42.47  0.007625156    1.868    0.465
        13 -14.8724    216.9840     13.2183   3.5296425868e+02   2.9527094815e+01     1.853191    0.8460774 -33.82  0.008728763    1.859    0.462
        14 -13.2151    242.9025     35.2189   3.5626685601e+02   2.1944005362e+01    0.5493025    0.4861681  88.85  0.002795259    1.318    0.241
        15 -14.3180    167.0115     29.6554   1.6028782937e+00   3.9191810840e+01     1.067167    0.7940006  87.04  0.003943452    1.276    0.216
        16 -15.2739     98.8240     12.3454   6.2032084562e+00   5.9021599130e+01     1.802586    0.8391005  62.29  0.004723718    1.854    0.461
        17 -12.1262     60.3970     15.7819   1.9906708543e+01   6.8118746786e+01    0.5114923    0.3753113  32.84  0.002669073    1.354    0.261
        18 -11.6474     71.0269     16.5403   1.6160568680e+01   6.5560986125e+01     0.333824    0.2644637 -14.74  0.001822588    1.408    0.290
        19 -11.8594     74.3212     10.5367   1.1765520831e+01   6.5465512556e+01    0.3298706    0.2467096  11.90  0.001344976    1.577    0.366
        20 -14.0837     41.5030      5.2567   2.2351954818e+01   7.3499548428e+01    0.9391134    0.6367438   6.48  0.004168121    1.760    0.432
        21 -11.8753     46.8542     12.8988   2.4622212176e+01   7.1407000126e+01    0.4059272     0.274203  53.00  0.002139241    1.492    0.330
        22 -10.5780    142.9488     12.1476   3.5892082262e+02   4.7340592615e+01    0.2447825    0.1331476 -71.58  0.001075391    1.976    0.494
        23 -11.6371    152.7606      8.6282   3.5666407146e+02   4.5139071114e+01    0.2761415    0.2440213  47.36  0.001661399    1.340    0.254
        24 -14.0747    122.3885     36.8159   1.1170035499e+01   4.9792756751e+01     1.065406    0.5541927  42.03  0.002556917    2.331    0.571
        25 -14.3461    147.7875     29.5516   4.1175534640e+00   4.4103773803e+01     1.388151    0.6837924  72.93  0.004853421    1.981    0.495
        26 -12.1869    119.8956      3.0708   3.5856440369e+02   5.4296379776e+01    0.5688312     0.262293 -82.30  0.002188538    2.613    0.617
        27 -11.0763     67.6415      2.8587   9.5174781006e+00   6.7875082416e+01    0.3156977    0.1687012  41.94  0.001470456    1.809    0.447
        28 -10.4089    192.9326      2.4990   3.5174932152e+02   3.5903969598e+01    0.1774163    0.1107185  86.20 0.0004512706    1.491    0.329
        29 -11.8529     80.7576      1.7579   5.1926245051e+00   6.4700127169e+01    0.6793197    0.1122351  62.25  0.002052455    3.877    0.742
        30 -11.6066     61.4175      1.5400   1.0812990467e+01   6.9494355113e+01    0.4780553    0.1424821  63.39  0.001669839    3.161    0.684
        31 -13.1984    223.6037     20.9820   3.5436145310e+02   2.7316960974e+01     0.376499    0.3576813 -87.12   0.00173155    1.303    0.232
        32 -12.8124    131.5746     33.2697   8.0604809427e+00   4.7867193276e+01    0.5406669    0.4038445  35.62  0.001700388    1.627    0.385
        33 -14.4312     95.2495    233.9210   6.2483029801e+01   1.3783765819e+01     1.337531    0.7291424  55.40  0.006907694    2.127    0.530
        34 -13.1475     28.2751    246.4415   7.8200918532e+01   1.9115810413e+01    0.6151661    0.4457641  25.60  0.003721592    1.351    0.260
        35 -12.1647      2.7849    249.5261   8.3605876737e+01   2.0902716576e+01    0.3790141    0.2258032  40.74  0.001907777    1.197    0.164
        36 -14.0352      9.4804    245.4578   8.2135635721e+01   2.1055025876e+01    0.9361733    0.3317611  45.37   0.00382158    1.834    0.455
        37 -13.3924    164.3407    194.8145   4.1940089522e+01   1.1010643610e+01    0.5523952    0.3960607 -76.34  0.002689692    2.882    0.653
        38 -11.3120     80.7449    192.7514   6.1621122599e+01   2.3874253510e+01    0.3868484    0.1420781  37.21  0.001538293    2.206    0.547
        39 -12.2730    200.8939    191.1861   3.4206328535e+01   6.3620668492e+00     0.339843    0.2347752  10.71  0.001406389    1.366    0.268
        40 -10.2164    107.6527    192.6871   5.4694537454e+01   2.0003295084e+01    0.1401745    0.1037688  -6.20 0.0007030204    1.716    0.417
        41 -12.7112     98.6107    186.5974   5.6155205097e+01   2.2646233320e+01    0.4462664    0.3202614  -7.44  0.002190415    1.898    0.473
        42 -10.9258    217.6623    187.3397   3.0632591952e+01   4.6776869140e+00    0.1025147   0.09638967 -63.49 0.0007050738    1.761    0.432
        43 -12.9351     63.8522    223.8916   6.8858512885e+01   1.9541119675e+01    0.7512178    0.3495395  41.54  0.003795002    1.671    0.402
        44 -11.9917    109.3517    183.3828   5.2915509378e+01   2.1695738435e+01     0.294451    0.2145823  20.62  0.001521951    1.387    0.279
        45 -12.4316     48.4243    181.7345   6.9256082985e+01   3.0558987432e+01    0.4784963    0.3171446 -42.71  0.002407826    1.937    0.484
        46 -11.3031    122.8153    181.8134   4.9280026534e+01   1.9897960981e+01    0.4546157    0.2617656  67.04  0.001653092    3.607    0.723
        47 -13.0126    197.8726    180.1620   3.2820487855e+01   8.4570053536e+00    0.5002575    0.3929865 -71.72  0.002772693    2.440    0.590
        48 -12.8067     90.3008    181.3003   5.7623951038e+01   2.5055115626e+01    0.3247434    0.2053531  46.29  0.001576171    1.470    0.320
        49 -13.1880    124.9915    167.9819   4.6398017913e+01   2.2432971451e+01    0.6983269    0.3458463 -56.39  0.002878474    2.328    0.570
        50 -11.5625     89.9906    169.7649   5.6054999244e+01   2.7748587672e+01    0.2040731    0.1137487  32.82 0.0008869878    1.650    0.394
        51 -11.3054    102.0006    161.0018   5.1287552792e+01   2.7868237256e+01    0.3275752    0.1963527  34.59  0.001461851    1.555    0.357
        52 -12.7376    237.3431    159.6623   2.2569987471e+01   5.9360170645e+00    0.6363032    0.1431202  37.30  0.002223742    5.654    0.823
        53 -12.9379    112.0635    156.0229   4.7624339184e+01   2.7299359404e+01    0.6069966    0.3997851  69.10  0.002561581    2.196    0.545
        54 -13.0991     85.4951    152.9554   5.4697532483e+01   3.2492612044e+01    0.8132964     0.640221  21.32  0.004077234    1.354    0.262
        55 -12.6697     77.2915    156.9692   5.7809171012e+01   3.2771630213e+01    0.6152124    0.4162684  28.12   0.00200277    1.470    0.320
        56 -13.6664     74.0013    153.4873   5.8278472730e+01   3.4133843006e+01    0.8422238    0.5318001  35.66  0.001937453    1.473    0.321
        57 -12.5140    121.5333    156.3263   4.5147965941e+01   2.5563124576e+01    0.4191842    0.2824529 -14.49  0.001783586    2.214    0.548
        58 -12.3406     55.2108    155.8650   6.4460574136e+01   3.6134930957e+01     0.526022    0.3559766  -4.29  0.002362899    2.127    0.530
        59 -12.8085    208.4452    154.4103   2.6107155202e+01   1.0897839656e+01    0.6417356    0.3415893  34.77  0.003271607    2.022    0.505
        60 -11.8574    103.7383    149.5220   4.8733328431e+01   3.0266174927e+01     0.406129    0.3191044 -22.45  0.001586123    1.566    0.361
        61 -12.4645      9.0456    149.0408   7.8555706026e+01   4.2561991249e+01    0.6657906    0.4524712  21.60  0.003614643    1.559    0.358
        62 -12.1876     59.5204    148.9796   6.2175502008e+01   3.7342530629e+01    0.2754723     0.216048   5.74  0.001372191    1.545    0.353
        63 -11.5352     38.2805    145.7497   6.8727237487e+01   4.0782069933e+01    0.2353936    0.2026483  33.33 0.0005576465    1.179    0.152
        64 -11.2663    162.5005    142.4973   3.2456210030e+01   2.0886652109e+01    0.1426663    0.1337978  -5.74  0.000810661    1.012    0.012
        65 -11.6478    150.1551    141.3334   3.4973126528e+01   2.3452007567e+01    0.3146869    0.1822211  63.45  0.001162313    2.974    0.664
        66 -12.9316     41.9631    138.1832   6.6581212912e+01   4.2381506800e+01    0.6475946    0.3501811  40.38  0.002858918    1.718    0.418
        67 -12.4155     44.1896    132.8035   6.5089609962e+01   4.3565294247e+01    0.3826656    0.2695117 -24.54  0.001142365    1.874    0.466
        68 -12.4250    246.5372    133.9809   1.6429595107e+01   8.2269712729e+00    0.3552225    0.2750955 -55.80  0.002354043    1.673    0.402
        69 -13.0127    230.0449    119.2885   1.5663222767e+01   1.2833660266e+01     0.500993    0.1483769 -37.77  0.002003146    2.746    0.636
        70 -13.0996    233.8705    132.9574   1.7923338345e+01   1.0230477376e+01    0.5093064    0.3531702  21.96  0.003086117    1.728    0.421
        71 -10.1950     11.0064    134.0110   7.6939516765e+01   4.6360026255e+01    0.1622727    0.1442871  45.87 0.0004563365    1.134    0.118
        72 -12.9807    136.7251    131.8997   3.6117985000e+01   2.8050606387e+01    0.7437533    0.3509911  38.74  0.002848542    2.151    0.535
        73 -12.1947    111.6704    131.6759   4.2805899489e+01   3.3033326350e+01    0.4175934    0.3288198 -29.90   0.00199071    1.464    0.317
        74  -9.9585     64.6296    132.2619   5.7860469797e+01   4.1001775097e+01    0.1633394     0.105783  57.70 0.0004421668    1.654    0.395
        75 -12.8014    223.4724    127.9406   1.8381358458e+01   1.2603847634e+01    0.4409248    0.3574603 -71.30  0.002696415    1.750    0.429
        76 -10.6371     34.2922    129.6817   6.8225935281e+01   4.5504265549e+01    0.1547219    0.0984522  61.66 0.0001801736    1.603    0.376
        77 -10.8368      5.3610    128.6435   7.8557900407e+01   4.8159046648e+01    0.2891191    0.1597809 -44.48  0.001344366    2.085    0.520
        78 -14.7613    106.5564    121.6455   4.2020442610e+01   3.6409288762e+01     1.808312     1.163534  35.48  0.007801661    1.577    0.366
        79 -12.7361     28.7053    122.0560   6.9353118016e+01   4.8128366489e+01    0.6087598    0.3559973 -57.14  0.002590177    1.676    0.403
        80 -10.9112     59.0780    124.7315   5.8486416254e+01   4.3801692680e+01    0.2585506    0.1999079 -83.63 0.0006530089    1.338    0.253
        81 -12.8576    181.4970    120.9905   2.3797415736e+01   2.1260843234e+01     0.516418    0.4129798 -83.10  0.002698289    1.721    0.419
        82 -11.3942     73.3784    120.0883   5.2495720643e+01   4.2843660096e+01    0.4390129    0.2593659  12.28  0.001620288    2.578    0.612
        83 -13.5140     85.4006    114.1908   4.7026035264e+01   4.2277068183e+01     1.095882    0.8119387  -3.33  0.003729623    1.939    0.484
        84 -12.3541     79.1505    110.8233   4.8402509715e+01   4.4257583971e+01    0.3660103     0.308587 -34.00  0.001118086    1.325    0.246
        85 -12.8330      4.9677    118.8120   7.8038690029e+01   5.0807496772e+01    0.6449298     0.476929 -36.50  0.003532588    1.550    0.355
        86 -11.6393     42.8577     90.1790   5.8082200121e+01   5.5243187856e+01     0.392329    0.2584104 -66.53  0.000912794    1.480    0.324
        87 -13.0457     20.6935     86.2031   6.7613699614e+01   5.8581825238e+01    0.8114558      0.50622  -2.63   0.00188585    1.941    0.485
        88 -14.3168     18.2637    111.1634   7.2143936329e+01   5.1992805887e+01    0.9527819    0.8214651 -10.52  0.003272149    1.338    0.253
        89 -14.0434     10.9410    103.0683   7.4284045719e+01   5.4702919386e+01    0.8649886    0.7114972  50.23  0.004715507    1.229    0.186
        90 -13.6780      2.4075     97.0574   7.7368967539e+01   5.6787641885e+01     1.037546    0.4503632 -82.70  0.003181778    2.091    0.522
        91 -14.5710     25.2859     93.7764   6.6738832719e+01   5.6151839287e+01     1.693909     1.003349  -2.10  0.007444923    2.166    0.538
        92 -14.8887    106.1486    104.3902   3.7810922657e+01   4.0581556390e+01     1.524564     1.286234  31.44  0.007146075    1.251    0.201
        93 -12.3013     36.7864     92.8189   6.1369859119e+01   5.5257632800e+01    0.4853325    0.3432097   9.21  0.001727607    1.634    0.388
        94 -11.8064    194.9827    113.2885   1.9631256391e+01   1.9990213694e+01    0.1853276    0.1795089  -4.84 0.0006099383    1.093    0.085
        95 -12.7064    121.3024    111.6395   3.5288302872e+01   3.5707528675e+01    0.4408572    0.3654115  82.01  0.001199431    1.418    0.295
        96 -10.7646     42.9505    107.2434   6.1499731287e+01   5.0641765302e+01    0.2302572    0.1919691  65.42 0.0004832012    1.217    0.178
        97 -11.2475     45.9449    110.2014   6.0833270876e+01   4.9472368981e+01    0.4124054    0.2348084 -37.62  0.001332239    2.179    0.541
        98 -11.8702     62.8011    110.0311   5.4228742676e+01   4.7169465786e+01    0.8216514    0.4696069 -79.41  0.003173345    2.238    0.553
        99 -10.8839     64.6726    101.7090   5.1625862644e+01   4.9065806855e+01    0.2642176    0.2194641 -16.13  0.000426876    1.447    0.309
       100 -12.0365     61.3975     97.9647   5.2025022012e+01   5.0563879363e+01    0.5615479    0.4029722  62.21  0.002032929    1.589    0.371
       101 -13.4865    134.8868    102.7561   2.9354530907e+01   3.4674589164e+01     1.008262    0.3903308  50.20  0.002901722    2.673    0.626
       102 -13.5529    120.5519    102.3564   3.3040696160e+01   3.7941967462e+01    0.8195833    0.3893966  45.01  0.003039031    2.091    0.522
       103 -11.8857     49.1211     93.4394   5.6070468615e+01   5.3558683520e+01    0.6785578    0.5731119 -41.46  0.003518057    1.228    0.186
       104 -11.4686     48.5985    101.2003   5.7995878039e+01   5.1559681086e+01    0.6534041    0.3854053  67.64  0.002594424    2.262    0.558
       105 -11.9607     52.2783     98.0142   5.5773773441e+01   5.1908156402e+01    0.6694643    0.3880848   7.20  0.002542677    2.581    0.613
       106 -11.3857    249.5106     99.5053   9.2126986673e+00   1.2534082671e+01     0.228335   0.07926437 -42.14  0.001034085    2.341    0.573
       107 -11.5082    222.6541    109.1057   1.4508940943e+01   1.5596264315e+01    0.2296008    0.1887433  37.18  0.001332738    1.422    0.297
       108 -12.6086    163.5263     97.4308   2.1494958438e+01   2.9324292254e+01    0.4402395    0.3449954  47.29 0.0008063868    1.340    0.254
       109 -13.1709    137.2539     95.1916   2.6695816094e+01   3.5704421989e+01    0.4901928     0.407366  73.17  0.001214499    1.314    0.239
       110 -10.4817     74.5156     95.4982   4.6256199598e+01   4.8982978021e+01    0.2934131    0.1562787  23.18  0.000973975    2.549    0.608
       111 -10.8350    124.5904     91.7518   2.8953853341e+01   3.9326936721e+01    0.2224903    0.1467517 -55.01 0.0008214258    1.617    0.382
       112 -11.7912     90.7415     96.4766   4.0653760029e+01   4.5638487428e+01    0.3692077    0.2989678  16.62  0.001566642    1.476    0.323
       113 -13.4653     32.1020    112.2967   6.6718302416e+01   5.0460381670e+01    0.7780763    0.4115437 -55.66  0.003369911    1.819    0.450
       114 -13.6417    188.5016     84.0563   1.3622313978e+01   2.6184395551e+01     1.070078    0.4636117  47.27  0.003898712    2.665    0.625
       115 -14.0380    197.2714     71.0505   9.0751810524e+00   2.6341874331e+01     1.758679    0.8486871  38.06  0.006644751    3.592    0.722
       116 -11.6981    152.3961     83.0694   1.9853988505e+01   3.4528588802e+01    0.3166305    0.2152889  59.32 0.0007546899    1.521    0.342
       117 -15.0071    165.6541     78.7049   1.6048405530e+01   3.2199849783e+01     2.197915    0.9881978  43.84  0.008189242    2.722    0.633
       118 -13.8967    164.9743     71.0199   1.4021389665e+01   3.3662529254e+01     1.127286    0.8363661  84.39  0.005570536    1.518    0.341
       119 -10.2654     78.6326     86.8789   4.2266023046e+01   5.0347104198e+01    0.2147029     0.147945 -66.22  0.000395761    1.640    0.390
       120 -11.9396    132.2899     85.6673   2.5184627904e+01   3.8783465644e+01    0.3011335    0.1887791 -53.17  0.001269132    1.689    0.408
       121 -12.4919    242.6835     83.6884   6.6556414897e+00   1.5805647458e+01    0.3902007    0.2149341  61.67  0.002051724    2.267    0.559
       122 -13.0357    237.7669     80.0657   6.3930370024e+00   1.7148746000e+01    0.4092558    0.3061162 -89.51  0.002294206    1.680    0.405
       123 -11.7873     97.9823     83.8241   3.4476988610e+01   4.7064794628e+01    0.2878874    0.2435914 -71.58  0.001011232    1.284    0.221
       124 -11.7371    235.5004    248.0166   3.7135841437e+01  -4.7268429083e+00    0.2073573    0.1074239  11.19  0.001398141    1.633    0.388
       125 -12.5869     39.6391     67.4399   5.3756662820e+01   6.1526242464e+01     2.280717    0.5384747  26.49  0.006301511    4.723    0.788
       126 -13.9496    170.6157    241.7617   4.7564352845e+01   3.0289949124e+00    0.8985031    0.5340407  17.74  0.005589957    1.406    0.289
       127 -13.7779     74.4906     73.7412   3.9763436894e+01   5.4267016405e+01     1.603649    0.8186328  21.42  0.004872178    3.848    0.740
       128 -13.4339     87.3193     65.2927   3.1937347280e+01   5.3450274966e+01    0.8974527    0.6153686  -6.27   0.00293883    2.518    0.603
       129 -13.2629     55.4543     80.6769   5.0008591301e+01   5.5942353375e+01    0.6340266    0.4777963 -35.70  0.001703006    1.442    0.307
       130 -13.8077     61.1809     75.7369   4.6001287581e+01   5.6234896098e+01    0.8410167    0.5685096 -44.30  0.002681908    1.509    0.337
       131 -13.6992    214.7361     78.5341   8.6544218633e+00   2.1642162240e+01    0.9152998    0.6602046  78.30   0.00518559    1.667    0.400
       132 -11.7000    214.4257     71.4962   7.0394788592e+00   2.2726317081e+01     0.260478    0.2334992 -41.01 0.0006855422    1.093    0.085
       133 -11.9654    114.2950     80.1079   2.8289316393e+01   4.4160939656e+01    0.4681613     0.341771 -51.87  0.001197676    1.404    0.288
       134 -12.9218    135.3040     79.2783   2.2542395506e+01   3.9318231973e+01    0.8265168    0.4054609  55.25  0.003006653    2.068    0.516
       135 -10.7028     90.1290     80.9097   3.6230732825e+01   4.9419002788e+01    0.2536258     0.218893  84.34  0.001239279    1.293    0.227
       136 -13.1366     26.2065    237.5640   7.8292725731e+01   2.0966540015e+01    0.8501836    0.5040602  47.70  0.005359647    1.255    0.203
       137 -14.1662      5.4011     63.4482   7.1823743412e+01   6.5549704311e+01    0.8001044    0.6453422   9.25   0.00412022    1.350    0.260
       138 -11.3708     42.6586     79.3151   5.5548971035e+01   5.8117918572e+01    0.2839797    0.2328709 -42.76 0.0008168924    1.220    0.181
       139 -11.2964     41.6114     76.2180   5.5238546470e+01   5.9050728974e+01    0.3271378    0.2205716 -53.25 0.0008120564    1.413    0.292
       140 -11.5684     27.4247     76.3337   6.2363929443e+01   6.0616588279e+01    0.3675577    0.2517419  80.55  0.001168534    1.736    0.424
       141 -11.3122    241.2038     70.4145   3.9730412477e+00   1.7847512925e+01    0.1554731    0.1106228 -85.80 0.0009572633    1.726    0.420
       142 -12.8491    134.9014     65.7214   1.8414164469e+01   4.1926540344e+01    0.6685444    0.5577961  53.46  0.002284234    1.209    0.173
       143 -11.8670    100.3690     64.3931   2.7213254376e+01   5.0643610265e+01    0.4059844    0.3700396   0.10  0.001524425    1.266    0.210
       144 -13.6081    177.9090     57.2156   8.0993910865e+00   3.2777050037e+01    0.8484676    0.5623948 -51.99  0.002259191    1.413    0.292
       145 -12.1767     38.7249     59.7409   5.1834677127e+01   6.3534858306e+01     0.452267    0.2958878  69.98  0.001947361    2.323    0.570
       146 -11.2321     34.6019     60.3313   5.4289753404e+01   6.3913228614e+01    0.4057918    0.2748982 -43.28  0.001561769    1.439    0.305
       147 -12.2438     35.4363     54.8060   5.2006000866e+01   6.5142344728e+01      0.37973    0.3105889  -9.15  0.001040205    1.301    0.232
       148 -11.9806     24.8190     59.5288   5.9618162841e+01   6.5176382410e+01    0.4665734    0.2740538 -51.49  0.001563272    1.555    0.357
       149 -14.6067    119.8469     54.6999   1.8265991300e+01   4.7643451081e+01     1.155876    0.6275893  49.98  0.001724025    1.816    0.449
       150 -12.7264    136.1660     50.4917   1.3142690598e+01   4.4160545385e+01    0.6427172    0.4902027 -32.96  0.001494606    1.388    0.280
       151 -12.4749    248.3739     52.2506   3.5949291936e+02   1.8910916289e+01    0.6110473    0.2833767 -31.76  0.003254363    1.822    0.451
       152 -10.8364     47.2885     56.1901   4.6020857099e+01   6.3139606709e+01    0.2904767    0.1807346  57.33  0.001234477    2.170    0.539
       153 -11.1432     17.5867     54.9797   6.2718996879e+01   6.6945569696e+01    0.3349045    0.2235231 -81.83  0.001680431    1.669    0.401
       154 -11.3585    231.5577     55.2152   1.5306105131e+00   2.1610178317e+01    0.2110341    0.1708676  87.04  0.001149409    1.368    0.269
       155 -10.5092     23.5256     50.0075   5.7555524138e+01   6.7635398281e+01    0.2004277    0.1287052 -60.20 0.0004440063    1.486    0.327
       156 -12.5834     24.8633    216.8942   7.7706116244e+01   2.5206495089e+01    0.7584014    0.3352429  43.42  0.003939258    1.680    0.405
       157 -13.3798     26.7440    225.8016   7.7670716394e+01   2.3205092115e+01    0.6166397    0.3831701 -53.82  0.003610899    2.154    0.536
       158 -13.8944     20.6862    224.5472   7.9009611388e+01   2.4041522932e+01    0.6996722    0.4800116  40.48  0.003968464    1.148    0.129
       159 -12.1805    144.9779    232.4680   5.1488814284e+01   7.5806479022e+00    0.3070216    0.2393989 -58.41  0.002005035    1.795    0.443
       160 -12.7724      3.2269     34.4075   6.7030132668e+01   7.2837012087e+01    0.3815993    0.2414962 -53.79  0.001278109    1.358    0.264
       161 -12.6148    147.5887    238.6877   5.1731851058e+01   6.3037356534e+00    0.4607755    0.2658997  49.03  0.002247453    2.294    0.564
       162 -12.9893    237.1231    229.4950   3.4237035721e+01  -2.8765111738e+00    0.3169487    0.2890093  37.65  0.002525976    2.140    0.533
       163 -12.4837    154.5344     46.5144   8.5123155042e+00   4.0071335637e+01    0.4852237    0.2615756  61.87  0.002128523    1.806    0.446
       164 -13.1111    158.8057     43.0906   6.7842634408e+00   3.9482866413e+01    0.6330908    0.4811125  61.72  0.001902363    1.331    0.249
       165 -10.8339     29.8466     46.1862   5.2252802369e+01   6.7847355630e+01    0.2944658    0.1730481 -44.79  0.001399795    1.619    0.382
       166 -13.0344     68.5168    221.1429   6.7525044726e+01   1.9521756534e+01    0.5946686    0.3926112  86.90  0.003383488    1.832    0.454
       167 -13.8278     63.9091    214.5470   6.8083430226e+01   2.1412497858e+01    0.5018418    0.4222934  36.95  0.002738962    1.079    0.073
       168 -11.1777    249.1227    224.8914   3.1729098525e+01  -3.5602289354e+00    0.1514147    0.1185002  -2.67 0.0009682395    1.268    0.212
       169 -12.7671     57.3538    246.8351   7.1939711272e+01   1.5999115626e+01    0.7565016    0.3225809  21.24  0.003578328    2.463    0.594
       170 -12.5331    110.1171     41.9300   1.5982584819e+01   5.2220059230e+01    0.5715326    0.2459794  56.15 0.0009986163    2.145    0.534
       171 -13.0272    113.6033     37.9029   1.3556857814e+01   5.1929609188e+01    0.4977984    0.3632719  71.84   0.00159728    1.346    0.257
       172 -12.5947     46.1959     33.4535   3.6780809074e+01   6.8121726885e+01    0.6444221    0.4489367 -18.87  0.003173553    1.720    0.419
       173 -13.3464     57.2860     26.9750   2.7607786730e+01   6.7135202184e+01     1.074264    0.3796105  44.58  0.002807926    2.668    0.625
       174 -12.2482     36.7205     34.4203   4.2896939673e+01   6.9481228816e+01    0.5988085    0.3330597  11.10  0.002395898    2.761    0.638
       175 -12.2921     40.4964     40.3150   4.3336156915e+01   6.7687188024e+01    0.6144953    0.3131305  35.89  0.002704695    1.935    0.483
       176 -12.5913     32.8219     40.3753   4.8057636480e+01   6.8776860883e+01    0.3895874    0.3453612 -18.88   0.00117344    1.074    0.069
       177 -13.2040     74.7320     36.9681   2.5061728653e+01   6.1678929843e+01    0.7492017    0.3431029  54.51  0.001722987    2.199    0.545
       178 -12.5865     94.4440    218.1828   6.1058972815e+01   1.6785823639e+01    0.3237399    0.2014438  32.14  0.001306758    1.319    0.242
       179 -11.0937    104.5560     37.2215   1.5555999720e+01   5.4366534476e+01    0.2795488    0.1404774 -38.13  0.001133755    2.044    0.511
       180 -12.6178    140.2585     21.2640   2.4117279524e+00   4.7065624218e+01    0.6422378    0.3300633  69.46  0.001280463    1.784    0.439
       181 -10.6270      5.5968    219.2355   8.2288908371e+01   2.6475949496e+01    0.1487037    0.1017732 -77.25 0.0008368195    1.638    0.389
       182 -12.1978    120.8190     26.3889   7.5398060382e+00   5.1599268036e+01    0.5190485    0.3523051  72.61  0.001918834    1.385    0.278
       183 -11.5811     41.2180    248.1898   7.5507156057e+01   1.7491410091e+01    0.4352823    0.1961121 -88.30  0.002312515    2.773    0.639
       184 -12.4513      4.7321    211.5931   8.2276500066e+01   2.8137380057e+01    0.4458374     0.227707 -73.67  0.002460564    2.123    0.529
       185 -10.9559    136.5196    210.9766   5.0439835428e+01   1.2272930741e+01    0.1754197    0.1294003 -47.78  0.000932737    1.583    0.368
       186 -10.9928     40.1613    210.8880   7.3665820776e+01   2.4905299193e+01    0.3451226    0.1460303  28.97   0.00161057    1.998    0.499
       187 -14.0121     57.2086    203.7571   6.8846454313e+01   2.4500397442e+01     1.387105    0.6862864 -68.86  0.006715151    2.232    0.552
       188 -11.9055    135.1552     39.7417   9.6731919230e+00   4.6034953977e+01    0.5672473    0.3321394  82.56  0.001645292    1.971    0.493
       189 -11.2903    175.8804     13.8350   3.5606860024e+02   3.8806250875e+01    0.1841447    0.1665367 -80.26 0.0002573357    1.118    0.106
       190 -12.4908     46.6430    208.6234   7.1900572878e+01   2.4676799010e+01    0.5267612    0.2342109  70.09   0.00224752    2.799    0.643
       191 -10.9881     80.6731    208.3440   6.3358613837e+01   2.0565994985e+01    0.2187499    0.1296264  54.67  0.001099881    1.713    0.416
       192 -11.5187     50.6638     20.3384   2.7190190177e+01   6.9543084493e+01    0.4149006    0.1896567  50.60  0.001738144    2.181    0.541
       193 -13.2739     59.5249    212.6739   6.9006571709e+01   2.2327700122e+01    0.5289599    0.3229985 -33.68  0.002594867    2.558    0.609
       194 -10.9573    150.7065    206.8564   4.6732458256e+01   1.0956517191e+01    0.2364206    0.1569265  19.07   0.00131294    1.398    0.285
       195 -11.3116     46.3725     20.0268   2.9312504741e+01   7.0438673657e+01    0.4404944    0.2670241  25.95  0.002063607    1.905    0.475
       196 -13.3819     16.2677    197.2052   7.8929534089e+01   3.0276440329e+01    0.9295838    0.3393443 -52.43  0.003646347    3.945    0.747
       197 -13.8956     40.3978    195.8657   7.2587431727e+01   2.8180871079e+01    0.8638818    0.4241762  49.79  0.003629502    1.740    0.425
       198 -14.2865     30.1556    168.7539   7.3417064763e+01   3.5715205678e+01     1.113163    0.9016138 -11.30  0.003188675    1.596    0.374
       199 -13.9458     22.2971    180.9683   7.6492568916e+01   3.3490875431e+01    0.9234408    0.5241024 -57.50  0.004233679    2.017    0.504
       200 -15.2171      8.2501    183.2304   8.0432351220e+01   3.4174816066e+01     1.372553     1.094524  84.69  0.008716749    1.195    0.163
       201 -15.1889     15.4558    175.0927   7.8073904085e+01   3.5517937593e+01     2.498166    0.9198493  57.30   0.01031161    2.480    0.597
       202 -12.1661    180.8408    197.7093   3.9077823030e+01   8.1526721187e+00    0.2093325    0.1413627  10.91  0.001200527    1.444    0.308
