#   1 NUMBER                 Running object number                                     
#   2 MAG_AUTO               Kron-like elliptical aperture magnitude                    [mag]
#   3 X_IMAGE                Object position along x                                    [pixel]
#   4 Y_IMAGE                Object position along y                                    [pixel]
#   5 X_WORLD                Barycenter position along world x axis                     [deg]
#   6 Y_WORLD                Barycenter position along world y axis                     [deg]
#   7 A_WORLD                Profile RMS along major axis (world units)                 [deg]
#   8 B_WORLD                Profile RMS along minor axis (world units)                 [deg]
#   9 THETA_WORLD            Position angle (CCW/world-x)                               [deg]
#  10 FWHM_WORLD             FWHM assuming a gaussian core                              [deg]
#  11 ELONGATION             A_IMAGE/B_IMAGE                                           
#  12 ELLIPTICITY            1 - B_IMAGE/A_IMAGE                                       
         1 -14.0610    216.1908      8.2072   3.8540597535e+01   2.9942295983e+01     2.939696     1.708039  33.65   0.01359814    2.735    0.634
         2 -13.2715    191.3166     39.0801   4.9625964551e+01   3.2427807596e+01     1.027133    0.8279209 -30.13   0.00374508    1.295    0.228
         3 -12.8157    196.4223     33.0955   4.7240965894e+01   3.1920374448e+01    0.6800891    0.6599099 -57.79  0.001635816    1.093    0.085
         4 -10.8177    189.7133     14.7424   4.2993330140e+01   3.5739453486e+01     0.281459    0.2410807 -42.19  0.001019713    1.208    0.172
         5 -13.2148    176.8210     52.2906   5.5800227912e+01   3.4243679684e+01     2.030245     1.293775  27.03  0.005682291    2.195    0.544
         6  -9.7848     74.2356      3.2277   6.1414093701e+01   6.4140097955e+01    0.1933654    0.0848021 -33.17 0.0008950315    2.478    0.596
         7  -9.7883    167.9303    232.6581   9.9136114564e+01   2.8029245268e+00    0.2306567    0.1786981  35.24 0.0007831057    1.070    0.066
         8 -12.1901    248.8640    243.7077   8.6187787445e+01  -1.0905311468e+01    0.5209264    0.4448286  14.47  0.003982728    1.357    0.263
         9  -9.5224     55.6755    216.8034   1.1934448936e+02   2.2755661630e+01    0.1756966   0.09461271  73.20 0.0007343442    1.861    0.463
        10  99.0000     49.5515    216.9594   1.2053188931e+02   2.3479841774e+01    0.2632677    0.2008028  -5.18  0.001542881    2.689    0.628
        11  -8.1815     98.6728    214.2609   1.1051122636e+02   1.7264911721e+01    0.1308214   0.08307532  63.16 0.0002107932    1.562    0.360
        12 -10.1601    183.8954    211.1190   9.2622756309e+01   3.5017488806e+00    0.3134021    0.2029019 -44.73  0.001683168    1.781    0.439
        13  -9.8383     37.6386    211.9656   1.2241487686e+02   2.5874986750e+01    0.1446066    0.1076339  81.51  0.000211344    1.082    0.076
        14  -9.2937     43.7011    210.2420   1.2111866993e+02   2.5527487917e+01    0.2065003    0.1213093  64.93  0.000194825    1.469    0.319
        15  -5.3912     43.1448    205.9541   1.2088098999e+02   2.6471007398e+01    0.2931612    0.1787169 -46.05  0.001114545    2.506    0.601
        16  -8.2207     64.2349    209.3510   1.1698354854e+02   2.3159215990e+01    0.1084986    0.0887576 -53.24 0.0002607044    1.567    0.362
        17 -10.0247    174.3816    211.6322   9.4603471787e+01   5.0698013928e+00    0.4282482    0.1099883  37.46  0.001370348    3.834    0.739
        18 -10.8014     33.2369    206.5890   1.2285956468e+02   2.7457216565e+01    0.3230521    0.1554903  70.96  0.001727058    2.003    0.501
        19  -8.7961    224.2585    206.3657   8.4068007657e+01  -2.5851162391e+00    0.1315747   0.08695518  -0.25 0.0006973572    1.637    0.389
        20 -11.0411    194.3486    197.6084   8.8156831336e+01   3.8679087266e+00     1.202505    0.5888343 -59.47  0.003692592    5.874    0.830
        21 -10.3347     67.1872    204.3810   1.1588976608e+02   2.3792257027e+01    0.3428112    0.2011534 -48.42 0.0009773117    2.272    0.560
        22  -8.8821     71.7861    201.8386   1.1466851265e+02   2.3699939982e+01    0.3725208    0.1929042  77.71  0.001697249    2.504    0.601
        23 -10.2986     96.2343    201.9426   1.0950795371e+02   2.0111295796e+01    0.5013735    0.2981839 -43.90  0.002486684    2.242    0.554
        24 -12.4087     57.4197    198.1897   1.1729041135e+02   2.6366912967e+01    0.6133777    0.2239911 -60.30  0.002772527    2.660    0.624
        25 -10.7493     59.6953    194.3056   1.1641981731e+02   2.6908540094e+01    0.1997247    0.1473826  84.31 0.0004022029    1.200    0.166
        26  -8.6292     87.8904    202.3607   1.1133498645e+02   2.1288168404e+01    0.1745914    0.1168328  29.26 0.0009309506    1.779    0.438
        27 -10.1444    204.8197    199.1852   8.6399457889e+01   1.7670115062e+00    0.1955462     0.144422   9.35 0.0008424323    1.382    0.276
        28 -10.7408    150.5309    196.0295   9.6932346703e+01   1.2093735874e+01    0.3248234    0.2443012 -61.22  0.001749584    1.560    0.359
        29  -9.1447     44.3311    198.3687   1.2000174498e+02   2.7919500571e+01    0.1147258   0.09319896  83.81 0.0001337905    1.066    0.062
        30  -9.5278     36.1358    197.8483   1.2161441045e+02   2.8958673590e+01    0.1588806     0.116943  67.66 0.0003907378    1.124    0.110
        31  -9.7481     82.1543    195.0260   1.1167698220e+02   2.3676102306e+01    0.2094014    0.1722054  53.58 0.0004455527    1.138    0.121
        32  -9.4567    207.6647    192.6597   8.4619219404e+01   2.3064017264e+00    0.1440489   0.09686552   5.31 0.0007051104    1.756    0.430
        33 -10.3566     95.7261    189.0812   1.0791161130e+02   2.2902167920e+01    0.4093913    0.3006498  66.08  0.002172726    1.333    0.250
        34 -10.2937     98.7808    185.8376   1.0676552376e+02   2.3121417557e+01    0.3054466    0.2239856 -85.48  0.001326271    1.458    0.314
        35 -10.5693     99.2508    180.9377   1.0593764385e+02   2.4118713330e+01    0.2927567    0.2678767   4.99 0.0009027162    1.395    0.283
        36  -9.0875    156.5245    189.9650   9.4595032107e+01   1.2153227201e+01    0.1935405    0.1398196 -46.43 0.0003744618    1.503    0.335
        37 -10.2964    150.3149    187.9690   9.5586663281e+01   1.3688495497e+01    0.1923401    0.1880405 -80.74  0.001129338    1.106    0.096
        38 -10.0606    128.4916    184.4764   9.9826416524e+01   1.8372007399e+01    0.1405151    0.1294284  57.58 0.0001032017    1.010    0.010
        39 -10.6990    139.8730    172.8680   9.5174017588e+01   1.8714581467e+01     0.513115    0.3164356  65.95  0.001855404    2.306    0.566
        40 -11.4162    144.9644    180.4181   9.5414625325e+01   1.6192517816e+01    0.3743202    0.3352465 -35.47  0.001261393    1.212    0.175
        41 -10.8295    150.8217    179.5357   9.3946329272e+01   1.5267770282e+01    0.4173644    0.2919902 -77.22  0.001913186    2.103    0.524
        42 -10.5422    130.9711    180.6773   9.8617481797e+01   1.8720663218e+01    0.1972089    0.1771683  49.68 0.0005783036    1.044    0.042
        43 -10.5378    188.6439    176.6282   8.5258756724e+01   8.5556935788e+00    0.7833179    0.4140598 -57.21  0.002375644    3.052    0.672
        44  -8.6515     76.7780    224.6880   1.1598292738e+02   1.8431913125e+01   0.09949482   0.08984275 -54.40  0.000245416    1.481    0.325
        45  -8.9769     65.0000    223.9990   1.1817832344e+02   2.0150055284e+01    0.1719369   0.06210583 -68.99 0.0007870412    2.837    0.647
        46  -8.9972     62.2505    171.7052   1.1327217036e+02   3.1618423924e+01    0.2633559    0.1536745 -58.95  0.001359622    1.662    0.398
        47  -9.6669    240.4734    169.4516   7.3894550510e+01   2.0863567884e-01    0.1353692    0.1149984  -5.39 -8.74776e-06    1.005    0.005
        48  -9.3021     37.0125    224.4073   1.2341163558e+02   2.3492842767e+01    0.1162911    0.1024046  16.60  0.000422838    1.798    0.444
        49  -9.7000    161.2405    161.4341   8.8027347291e+01   1.6910536723e+01    0.2189151    0.1381412  53.02  0.000956359    1.713    0.416
        50 -10.8123     94.2575    153.2969   1.0262619298e+02   3.1255373806e+01    0.3430163    0.3276753 -44.21  0.000523491    1.171    0.146
        51 -10.9972     97.1858    150.3850   1.0134777923e+02   3.1461011969e+01     0.591933    0.3794001  63.68  0.002684446    1.868    0.465
        52 -10.0107    187.5141    152.3203   8.0313497679e+01   1.3330451511e+01    0.3357138    0.2562914 -58.68  0.001624243    1.591    0.372
        53 -10.8779    133.8961    145.8991   9.1148787463e+01   2.5760600601e+01     1.234752    0.3191057 -54.45  0.002977214    5.555    0.820
        54  -8.9708    112.7680    150.5607   9.7406716209e+01   2.8713684494e+01    0.2056718    0.1349445  52.64 0.0004532549    1.589    0.371
        55  -9.7614    174.3271    148.8275   8.2356243985e+01   1.6774120272e+01    0.3065743    0.2693895 -89.77 0.0008273334    1.403    0.287
        56  -9.5268    109.0011    147.0136   9.7661797677e+01   3.0216299365e+01    0.2368492    0.1744462  77.57 0.0006271662    1.667    0.400
        57  -9.7272    143.4763    145.4611   8.8714150410e+01   2.3924908550e+01    0.2894658    0.1452481 -58.46   0.00103781    2.523    0.604
        58  -9.4755     85.0859    142.4925   1.0305104559e+02   3.5287816240e+01    0.2123956    0.1412521  38.32  0.001032582    1.589    0.371
        59 -10.9216    107.6920    138.2487   9.6201017775e+01   3.2509727299e+01    0.5038262    0.4401964 -45.19  0.002487293    1.167    0.143
        60 -11.6868     95.5012    137.6414   9.9325146893e+01   3.4772915608e+01    0.2865639    0.2826575 -89.83  0.001503163    1.081    0.075
        61 -10.7151    105.3479    131.0702   9.5276871944e+01   3.4627088995e+01    0.4861913    0.4145874  -4.58  0.002492724    1.459    0.315
        62  -9.7147    135.6723    129.0336   8.6836875672e+01   2.9188069611e+01     0.363878    0.1425686 -47.25  0.001227708    2.525    0.604
        63 -10.1890    114.5393    129.0395   9.2344303232e+01   3.3403768090e+01    0.3419625    0.2828281 -22.63 0.0007476095    1.421    0.296
        64  -9.0755    161.1573    128.0256   8.0398191944e+01   2.3917802052e+01    0.2695045    0.1873967 -70.37  0.001101338    2.048    0.512
        65 -10.4460    102.3246    124.7968   9.4696088133e+01   3.6653791599e+01    0.3047081     0.238028 -30.71 0.0006225441    1.459    0.315
        66 -10.1997    120.0426    123.1532   8.9478474404e+01   3.3701148059e+01    0.4475548      0.28504 -22.14  0.001728114    2.424    0.587
        67  -8.7128    135.0000    119.9699   8.4764144962e+01   3.1355298549e+01    0.2633555   0.08800182 -45.85 0.0008018751    2.939    0.660
        68  -9.5181     55.8832    223.5756   1.1986763897e+02   2.1400996339e+01    0.1273451   0.08559686  63.94 0.0002875397    1.209    0.173
        69  -9.4072    109.9952    118.2476   9.1016730680e+01   3.6781713219e+01    0.2430392    0.2071173 -51.10 0.0002560514    1.126    0.112
        70 -10.0818    231.2257    113.7029   6.2940741848e+01   1.1163354849e+01    0.2710003    0.2666614  -3.34 0.0008078057    1.103    0.093
        71  -9.2392    167.4901    112.3157   7.4914249792e+01   2.5741794514e+01    0.3451896     0.250218 -73.84  0.001449417    1.950    0.487
        72 -11.1344    118.1854    110.0644   8.6671570219e+01   3.7061024626e+01     0.741145    0.4958946  77.67   0.00287698    2.513    0.602
        73  -8.2879    146.2932    112.7112   8.0027249702e+01   3.0485121958e+01    0.1545872    0.1261628 -84.99 0.0004498221    1.547    0.353
        74  -9.4615    205.4714    110.1931   6.6567479264e+01   1.7396229686e+01    0.3183396    0.2161612  40.40   0.00106746    1.588    0.370
        75  -9.7790    134.4916    105.0293   8.0942090650e+01   3.4747449051e+01    0.4401689    0.1528413 -43.70  0.001385406    2.817    0.645
        76  -9.9653     72.0000    249.0178   1.1897110347e+02   1.4662791840e+01     0.171195    0.1110921 -86.00  0.001119191    1.586    0.370
        77  -8.3823     84.2435    245.7095   1.1651358587e+02   1.3575485368e+01    0.1120273   0.07018291  66.62  0.000683455    1.469    0.319
        78  -8.6326     80.8260    220.3753   1.1476948009e+02   1.8696692306e+01    0.1560063    0.1066858  36.44 0.0004048762    1.525    0.344
        79 -19.5348     18.9120    145.6244   1.2067590700e+02   4.2361200495e+01     19.16259     4.556959 -75.35   0.06593165    3.937    0.746
        80 -10.4561     72.0402    245.0047   1.1864484139e+02   1.5354122058e+01    0.2642142    0.1554602  73.86  0.001319021    1.673    0.402
        81  -8.8970     50.1432    220.3763   1.2069175395e+02   2.2733577367e+01     0.102134   0.06871063 -66.57 0.0003615628    1.594    0.372
        82  -9.7638     50.3887    224.5201   1.2096842641e+02   2.1897731675e+01    0.1769553   0.09009262  88.60 0.0007086802    2.023    0.506
        83 -10.6279     59.1450    230.4948   1.1981764686e+02   1.9668934613e+01    0.1816418    0.1357609 -87.99 0.0002953415    1.260    0.206
