#   1 NUMBER                 Running object number                                     
#   2 MAG_AUTO               Kron-like elliptical aperture magnitude                    [mag]
#   3 X_IMAGE                Object position along x                                    [pixel]
#   4 Y_IMAGE                Object position along y                                    [pixel]
#   5 X_WORLD                Barycenter position along world x axis                     [deg]
#   6 Y_WORLD                Barycenter position along world y axis                     [deg]
#   7 A_WORLD                Profile RMS along major axis (world units)                 [deg]
#   8 B_WORLD                Profile RMS along minor axis (world units)                 [deg]
#   9 THETA_WORLD            Position angle (CCW/world-x)                               [deg]
#  10 FWHM_WORLD             FWHM assuming a gaussian core                              [deg]
#  11 ELONGATION             A_IMAGE/B_IMAGE                                           
#  12 ELLIPTICITY            1 - B_IMAGE/A_IMAGE                                       
         1 -12.8082     67.5916    144.8576   1.2912000466e+02   3.7700037283e+01      1.07132    0.6257811 -89.12  0.004702101    2.316    0.568
         2 -13.3595    191.9555     30.0435   6.9701188047e+01   3.3671071882e+01     1.085458     1.037902 -73.42  0.006099177    1.125    0.111
         3 -14.1050    204.4828     13.5415   6.3971428891e+01   3.2530457153e+01     2.012774     1.233828  43.68   0.01024453    2.015    0.504
         4 -12.5413      2.2143     12.6783   1.1777120544e+02   7.0518058451e+01     1.565226    0.1996937 -48.10  0.005363399    6.206    0.839
         5 -11.9336     13.9743     12.3015   1.1220488742e+02   6.9695252306e+01    0.2649802     0.203313 -32.49  0.001863696    1.346    0.257
         6 -12.6750     15.3924      3.6680   1.0783982104e+02   7.0704185715e+01     1.226819    0.5483958  10.78   0.00660587    2.818    0.645
         7 -11.9048    100.6376    246.2913   1.3570626723e+02   1.0734471262e+01    0.5241561    0.2967033  74.13  0.002754872    2.037    0.509
         8 -11.2093    248.7408    248.5120   1.0870870859e+02  -1.4001500666e+01    0.3532383    0.2294591 -11.95  0.002233678    1.552    0.356
         9 -11.6625    128.1345    246.2025   1.3062323018e+02   6.2614948568e+00    0.5340419    0.2387532 -45.06   0.00243256    3.167    0.684
        10 -11.3974     80.9757    248.5155   1.3944124733e+02   1.3328892571e+01     0.410133    0.1770362  59.55  0.002028324    2.173    0.540
        11  -9.8948     66.6817    250.1362   1.4205441136e+02   1.5079941763e+01    0.1987312    0.1209234  58.57 0.0003904512    1.286    0.222
        12 -10.6091     46.0978    248.7234   1.4538370749e+02   1.8079881441e+01    0.3236776    0.1536459  74.85  0.001799982    2.037    0.509
        13 -14.6215     29.9084    245.3719   1.4777630241e+02   2.0676353252e+01      9.93676      2.55112  33.37   0.02627927   12.216    0.918
        14 -13.3717      6.2136    243.8357   1.5137601358e+02   2.3563354538e+01     1.515359    0.7422981 -80.78   0.01017223    1.665    0.399
        15 -15.6837      8.1024    204.9299   1.4874558105e+02   3.0941772282e+01     9.045835     1.321931 -72.36   0.02812859    4.769    0.790
        16 -12.6110     40.8958    229.6227   1.4482336168e+02   2.2370004906e+01    0.3451889    0.2787093 -83.92  0.000774361    1.283    0.221
        17 -10.2568    144.2394    243.2459   1.2721020411e+02   4.0181475084e+00    0.1794927     0.130047  62.92 0.0005609788    1.362    0.266
        18  -9.0169     92.3542    214.6946   1.3367450104e+02   1.8173148900e+01    0.2323586     0.143433 -88.55   0.00119172    1.802    0.445
        19  -8.7544    152.6776    213.0268   1.2108930493e+02   7.9300728875e+00    0.1751503    0.1678781  72.77 0.0003136676    1.095    0.087
        20 -11.8379    139.4669    248.9447   1.2885005624e+02   3.8801847103e+00    0.4212208    0.3294567 -89.70  0.002662579    1.493    0.330
        21 -11.2552     41.4701    206.5536   1.4276644939e+02   2.7012782561e+01    0.3034062    0.2070656  65.34   0.00195111    1.254    0.202
        22 -14.6699     55.9839    211.3212   1.4044964264e+02   2.4175717596e+01     5.484865     1.043442  50.99   0.01713344    5.387    0.814
        23 -10.0094    192.5445    194.3574   1.0955275463e+02   3.7352812333e+00    0.5230105    0.2792982 -68.36  0.001373916    6.949    0.856
        24 -11.4710     66.2183    195.8676   1.3673023154e+02   2.6114702520e+01    0.3719579    0.2394866 -47.35  0.001608475    2.032    0.508
        25 -11.5844     71.4689    188.3970   1.3469871210e+02   2.7033869173e+01    0.3208795    0.2480033 -72.38 0.0007805441    1.200    0.167
        26  -9.2343    120.4217    188.0791   1.2389192410e+02   1.9071724736e+01    0.2530339    0.1746265   1.68 0.0009961922    3.210    0.688
        27  -8.8477    125.9430    186.0000   1.2231166128e+02   1.8505763624e+01    0.2388846   0.07821546  42.10 0.0008003447    2.928    0.658
        28 -10.9600     80.7592    176.2285   1.3095921208e+02   2.8432823709e+01    0.2488061    0.2087279 -76.48 0.0003826544    1.094    0.086
        29 -13.1165     67.9399    174.0362   1.3355365987e+02   3.0805395698e+01    0.4909737     0.269378 -46.99  0.001554322    2.202    0.546
        30 -11.9343     87.8076    167.1953   1.2791631875e+02   2.9435197611e+01    0.6929833    0.5311421  64.84  0.003781906    1.293    0.227
        31 -10.3458    162.0001    249.2997   1.2468167883e+02  -3.5940637660e-02    0.1893572    0.1435026  44.96  0.001178356    1.081    0.075
        32 -12.0209     88.7684    150.4159   1.2476428548e+02   3.3233869985e+01    0.2897989    0.2498226 -46.63 0.0004976508    1.251    0.201
        33  -9.2106    134.3563    148.2551   1.1301135500e+02   2.5355345204e+01    0.2152862    0.1417001 -60.02 0.0004811696    1.605    0.377
        34  -9.6554    229.8159    230.2009   1.0895193070e+02  -8.7381589402e+00    0.1720524    0.1277798   9.88 0.0005203888    1.285    0.222
        35  -9.2647    102.8995    147.0585   1.2056125477e+02   3.1648177115e+01    0.2267183    0.1785066 -23.79 0.0006981914    1.699    0.412
        36  -8.6744    192.1533    144.1623   9.8963486964e+01   1.3627520892e+01    0.2040497    0.1785027 -74.68 0.0004269415    1.286    0.222
        37  -9.7742    110.7334    136.6915   1.1638758738e+02   3.2662693746e+01    0.3426131    0.2363608 -29.98  0.001521396    1.888    0.470
        38 -11.7892     54.8431    122.4632   1.2845742136e+02   4.4593057296e+01     0.686435    0.2747096 -71.81  0.002370433    3.601    0.722
        39 -11.5950     58.8511    134.6817   1.2960804386e+02   4.1247020077e+01    0.5805646    0.2660443 -72.49  0.002349148    2.528    0.604
        40 -10.3397     98.3195    133.6922   1.1897069613e+02   3.5594228165e+01    0.2711387    0.2270869 -28.72 0.0003565431    1.398    0.285
        41 -11.2473     50.1688    129.9476   1.3107814424e+02   4.3397895366e+01    0.2782331    0.2305669  80.22 0.0005532278    1.265    0.210
        42 -11.3244    156.1803    228.1069   1.2274034687e+02   4.5217453047e+00    0.4237956    0.1539043  36.40  0.001561412    2.995    0.666
        43  -9.4719    107.7565    123.5887   1.1419106617e+02   3.6254596624e+01     0.226649    0.1893765 -43.11 0.0005168272    1.191    0.161
        44 -10.2380    216.2589    248.7501   1.1453072147e+02  -9.0710775253e+00    0.2045069    0.0817072  32.38 0.0009000264    2.430    0.588
        45 -10.5781    167.9630    113.1503   9.6600297895e+01   2.5614834547e+01     0.361131    0.3032786 -83.97  0.000754489    1.365    0.267
        46 -11.5029     51.8766    109.2113   1.2667702653e+02   4.7979717407e+01    0.4076519     0.323015  76.46  0.002387977    1.530    0.346
        47  -9.8923     99.9819    151.3656   1.2213890787e+02   3.1141417773e+01    0.2836359    0.2526768 -76.13 0.0007767395    1.043    0.042
        48 -11.6655      1.9098     87.9774   1.3756783620e+02   5.6775944826e+01    0.8270773   0.08934259 -65.76  0.002394548    6.233    0.840
        49  -9.2171    156.6717     76.6897   8.9161088202e+01   3.5408867817e+01    0.1560557     0.119403  18.93 0.0005025811    1.664    0.399
        50 -14.1881     48.0785    220.1109   1.4275309303e+02   2.3379526111e+01     1.285436    0.7757766  53.11  0.006186331    1.458    0.314
        51 -10.9142    110.5835    248.4888   1.3413283293e+02   8.7560131121e+00    0.3907403    0.1931937  75.33  0.001576259    3.642    0.725
        52 -11.0831    105.4795    246.0138   1.3479319517e+02   1.0016057522e+01    0.2591063    0.1737136 -86.38   0.00102539    1.637    0.389
        53 -10.7693     97.8054    249.3852   1.3654097864e+02   1.0622304865e+01    0.2922871    0.1677185  47.88  0.001690496    1.444    0.308
