#   1 NUMBER                 Running object number                                     
#   2 MAG_AUTO               Kron-like elliptical aperture magnitude                    [mag]
#   3 X_IMAGE                Object position along x                                    [pixel]
#   4 Y_IMAGE                Object position along y                                    [pixel]
#   5 X_WORLD                Barycenter position along world x axis                     [deg]
#   6 Y_WORLD                Barycenter position along world y axis                     [deg]
#   7 A_WORLD                Profile RMS along major axis (world units)                 [deg]
#   8 B_WORLD                Profile RMS along minor axis (world units)                 [deg]
#   9 THETA_WORLD            Position angle (CCW/world-x)                               [deg]
#  10 FWHM_WORLD             FWHM assuming a gaussian core                              [deg]
#  11 ELONGATION             A_IMAGE/B_IMAGE                                           
#  12 ELLIPTICITY            1 - B_IMAGE/A_IMAGE                                       
         1 -12.7757     55.9502    125.5376   1.0055265459e+02   4.3715553048e+01     3.062721     1.265716 -78.58  0.007244956    7.285    0.863
         2 -12.7531      2.0962     82.3993   1.1088827681e+02   5.8723964252e+01     1.527975          nan -62.47  0.004212429    5.879    0.830
         3 -13.9334    223.2748     30.7572   3.7249464523e+01   2.6335941785e+01     1.150032    0.8426647  44.89  0.006795934    1.792    0.442
         4 -13.2666    247.5713      9.0995   3.0798009128e+01   2.3805090480e+01    0.6759154    0.3968185 -50.82  0.003239409    1.400    0.286
         5 -11.2236      2.1478      3.9618   8.6888690245e+01   7.3769141318e+01    0.3232394    0.1376021 -46.19  0.001778495    2.409    0.585
         6 -10.1126     60.2310    232.6245   1.1357397673e+02   1.8033931374e+01    0.2591518    0.1539376  65.95 0.0009082831    1.637    0.389
         7 -14.3232    115.8637    229.8713   1.0153579665e+02   1.0662644654e+01      5.25058    0.6658737  41.32   0.01399349    5.679    0.824
         8 -15.3669     33.3245    190.1865   1.1552839687e+02   3.0463957014e+01     9.628929     3.597064  82.41   0.02866886    5.689    0.824
         9 -11.5541     30.2210    246.5997   1.2044083779e+02   1.8848452569e+01    0.4337727    0.1652324  46.48  0.002321715    2.021    0.505
        10 -10.9046     22.8337    223.9947   1.2041388263e+02   2.4142411715e+01    0.3504344    0.1380557  61.44  0.001671239    2.471    0.595
        11 -10.5625     43.5178    218.4038   1.1579767566e+02   2.3038415864e+01    0.2756898    0.1781753  64.48  0.001005663    1.381    0.276
        12 -13.0247     85.3270    232.9903   1.0840610320e+02   1.4580724614e+01     1.615485    0.9277183 -71.67  0.008601679    1.964    0.491
        13 -12.8602     19.0380    208.2671   1.2011519291e+02   2.7865244843e+01    0.5401139    0.3370151 -52.38 0.0007446361    1.973    0.493
        14 -13.7852     10.4181    206.4783   1.2176682268e+02   2.9072656836e+01    0.9951369      0.77094  59.54  0.003901751    1.170    0.145
        15  -9.6133    191.9859    192.7406   7.9017512057e+01   4.9961752683e+00     0.225494    0.1571049 -81.32 0.0008878956    3.528    0.717
        16 -11.9897     50.3189    180.8058   1.1049499653e+02   3.0749424705e+01    0.6824881    0.3631237 -37.15  0.001323609    3.013    0.668
        17 -11.5764     57.2287    174.5261   1.0798696915e+02   3.1407667288e+01     0.304778    0.2576066 -39.73 0.0007640231    1.397    0.284
        18 -10.9869     68.7907    164.5086   1.0355186421e+02   3.2327364449e+01    0.2563475     0.248973 -84.78 0.0003779451    1.087    0.080
        19 -13.1504     54.7683    160.9985   1.0678191874e+02   3.5024261532e+01    0.5187047    0.3270295 -40.82  0.001444539    1.887    0.470
        20 -14.3381     74.7557    247.6384   1.1200334905e+02   1.3207499969e+01     6.075994    0.9875472  32.56   0.01361085   10.405    0.904
        21 -11.4440     67.5263    142.5079   1.0023751375e+02   3.7965395915e+01    0.3485048    0.3039421  57.24  0.001099855    1.199    0.166
        22 -14.4752     27.6001    200.4897   1.1770950313e+02   2.8718366091e+01     3.065368    0.9142004  52.70   0.01196516    3.417    0.707
        23  -8.6617    151.2371    150.9524   7.9423622625e+01   2.1124171439e+01    0.1950082    0.1280451 -47.01 0.0003345162    1.522    0.343
        24  -9.3628    134.0000    147.0064   8.2809738932e+01   2.5452983768e+01    0.2628025   0.08750907 -48.70 0.0008092579    2.990    0.666
        25  -9.8445     92.9389    143.9500   9.3226141554e+01   3.3731965212e+01     0.285436    0.2462002 -41.13 0.0007557973    1.185    0.156
        26  -9.4323     95.7633    140.9752   9.1812842321e+01   3.3984442216e+01    0.2390055    0.1858523 -18.40  0.000350756    1.613    0.380
        27 -11.8714     80.5014    142.1541   9.6416922830e+01   3.6163932456e+01    0.3145409    0.2710465 -54.74 0.0005356061    1.110    0.099
        28 -10.8038     25.9330    249.1082   1.2137017120e+02   1.8839523876e+01    0.3022535    0.2029855  55.56  0.001340349    1.169    0.145
        29 -10.4177    106.1381    131.4829   8.6777165932e+01   3.4442241029e+01    0.3498597    0.3140543   2.20 0.0009589147    1.232    0.188
        30 -10.0673     93.0480    128.1068   8.9789002263e+01   3.7579828423e+01     0.337825    0.2706167  -4.76   0.00115947    1.547    0.353
        31 -10.7062     65.4704    126.6028   9.7810357939e+01   4.2207405950e+01    0.3940328    0.2141275  63.47  0.001441672    3.136    0.681
        32  -9.4036    104.3256    120.0639   8.4573814616e+01   3.7483187359e+01    0.2080719    0.1871888 -50.50 0.0003183274    1.086    0.079
        33  -9.4639    204.6895    110.6989   5.8596376924e+01   1.8021314556e+01    0.3103815     0.168571  39.80  0.001301748    2.190    0.543
        34  -9.3901    114.1922    125.2319   8.3025242213e+01   3.4396924726e+01    0.2682701      0.17326  -9.25 0.0009596093    2.826    0.646
        35 -12.4745     76.7333    157.5152   1.0027448003e+02   3.2921808412e+01     1.116941     0.697548  73.41  0.001348615    2.199    0.545
        36 -14.5779      3.4840    244.3867   1.2510511012e+02   2.2010948909e+01     9.041628    0.7316502 -77.94   0.02255687   11.853    0.916
        37  -8.8367     24.8437     82.7724   1.0233818032e+02   5.7155221019e+01    0.1586056     0.143514 -81.76 0.0003020008    1.279    0.218
        38 -11.0333     13.4005     60.5424   1.0158111124e+02   6.2861328869e+01    0.2947915    0.1847253 -62.70  0.001420476    1.556    0.358
        39 -11.7285    203.8150     47.9092   4.3427159915e+01   2.8441904923e+01    0.6267372    0.3541184 -66.32  0.002874182    2.101    0.524
        40 -12.5157    210.0400     42.3728   4.1329683778e+01   2.7776878185e+01    0.6797991    0.4035992 -42.92  0.003554516    1.567    0.362
        41 -13.3759      8.6642    229.6469   1.2345481003e+02   2.4398149879e+01     1.731028    0.7066376  84.28  0.008860289    2.397    0.583
        42 -10.1118     19.7022     47.9048   9.5079821138e+01   6.4937446960e+01    0.2013058    0.1654258   6.87  0.000383121    1.279    0.218
        43  -9.8843     95.1123     42.1442   6.3393366766e+01   5.4638240321e+01    0.2986595    0.1879676 -36.81  0.001277264    1.680    0.405
        44 -11.6524     69.9825    145.5134   1.0006976996e+02   3.6873383762e+01     0.428409     0.362691  25.19  0.001270652    1.313    0.239
        45  -9.1376    125.9938     33.5300   5.2391810143e+01   4.8910255585e+01    0.1890521    0.1190329  87.73 0.0008073943    2.438    0.590
        46  -9.3395    116.4849     24.9675   5.1571951492e+01   5.2123031449e+01    0.2270579    0.1733029 -70.84 0.0008071223    1.731    0.422
        47  -9.8881     19.9934    238.0415   1.2181863421e+02   2.1600943389e+01    0.1708321    0.1303751  68.50  0.000407072    1.017    0.017
        48 -10.0091    189.5115     15.0367   3.7038087156e+01   3.5772803607e+01    0.1786462    0.1216416 -35.51 0.0005330634    1.555    0.357
