#   1 NUMBER                 Running object number                                     
#   2 MAG_AUTO               Kron-like elliptical aperture magnitude                    [mag]
#   3 X_IMAGE                Object position along x                                    [pixel]
#   4 Y_IMAGE                Object position along y                                    [pixel]
#   5 X_WORLD                Barycenter position along world x axis                     [deg]
#   6 Y_WORLD                Barycenter position along world y axis                     [deg]
#   7 A_WORLD                Profile RMS along major axis (world units)                 [deg]
#   8 B_WORLD                Profile RMS along minor axis (world units)                 [deg]
#   9 THETA_WORLD            Position angle (CCW/world-x)                               [deg]
#  10 FWHM_WORLD             FWHM assuming a gaussian core                              [deg]
#  11 ELONGATION             A_IMAGE/B_IMAGE                                           
#  12 ELLIPTICITY            1 - B_IMAGE/A_IMAGE                                       
         1 -15.4235    195.2614    125.9431   8.6492436775e+01   1.8346955422e+01     2.893977     1.954795   1.16   0.01013453    1.981    0.495
         2 -14.3680    185.6088     31.8064   6.1816176847e+01   3.4888238894e+01     1.813671     1.069626  17.57  0.007133544    2.374    0.579
         3 -12.0603    208.4697      2.3332   4.9628648297e+01   3.1961028158e+01     0.637177    0.3279286  74.20   0.00249748    1.934    0.483
         4 -10.9159     66.5854    243.7231   1.2669093243e+02   2.0757921812e+01    0.1551043    0.1158945  54.75 0.0007544049    1.192    0.161
         5 -16.5933    227.6683    242.6405   1.0138720857e+02  -1.7147837887e+00     2.964383    0.9699884  38.21    0.0157817    2.220    0.550
         6 -17.9888    153.3540    226.9955   1.1125347940e+02   1.1189285121e+01     3.351925     2.214553  66.86   0.02186925    1.848    0.459
         7 -14.4074    161.4899    189.6283   1.0494134758e+02   1.5005407597e+01     1.212706    0.8353343 -31.80  0.005958183    1.881    0.468
         8 -12.3458     78.6156    249.8321   1.2524151136e+02   1.8474498402e+01    0.8642858    0.2146402  36.19  0.003105948    6.684    0.850
         9 -15.4248     54.1719    243.4736   1.2855574992e+02   2.2216246682e+01      1.06536    0.6340516  85.41  0.008567262    1.589    0.370
        10  -9.8514     41.3479    231.9086   1.2990669961e+02   2.5314655808e+01    0.1289496    0.1149372  51.93  0.001190042    1.560    0.359
        11 -10.6466     81.2209    230.3159   1.2350101326e+02   2.0911872895e+01    0.2311959    0.1686807  35.17  0.001763903    1.639    0.390
        12 -12.1401     71.9045    217.9571   1.2412473636e+02   2.3958951249e+01    0.2879137    0.1547047  52.35  0.001000837    1.408    0.290
        13 -11.5464     76.7719    216.2801   1.2317553192e+02   2.3615140443e+01    0.1710621    0.1114814  75.84  0.001231897    1.404    0.288
        14 -15.7359     87.1361    221.0329   1.2180493508e+02   2.1544833162e+01     1.212258    0.5208784  52.92  0.006368412    1.840    0.457
        15 -12.6783    102.8261    221.9375   1.1923697187e+02   1.9298805548e+01    0.4807215    0.2514986 -74.64  0.002743879    2.467    0.595
        16  -8.9467     70.6979    228.1981   1.2505316357e+02   2.2530849874e+01   0.09918245   0.05229349  57.64 0.0003990396    1.446    0.308
        17 -11.8595     59.8019    226.2417   1.2668146941e+02   2.4122771596e+01    0.2492615    0.1143343  65.55  0.001578165    1.964    0.491
        18  -9.6933    123.9611    226.1120   1.1607489013e+02   1.5700792206e+01    0.1612517    0.1148642  60.46 0.0008485875    1.226    0.184
        19 -10.5913    119.2101    218.1545   1.1607680653e+02   1.7528140020e+01     0.251462    0.1318195  40.28  0.001000672    1.641    0.391
        20 -11.5716     61.3386    215.8300   1.2574455699e+02   2.5571805787e+01    0.2138837    0.1166693  62.64 0.0008585102    1.479    0.324
        21 -12.0045     47.0095    216.5951   1.2816902560e+02   2.7082222626e+01    0.2677028    0.1055591  53.23  0.001067737    1.886    0.470
        22 -12.0239    201.1218    211.2816   1.0121799939e+02   5.5004042730e+00    0.5513377    0.3747035  49.03  0.002435329    1.414    0.293
        23 -15.4428    201.9090    190.9536   9.7936561022e+01   7.7991039266e+00     2.358602     1.574082  30.35    0.0108539    1.315    0.239
        24 -13.0155    228.0216    182.1282   9.2014615273e+01   4.3249423905e+00    0.6848112    0.5704173  26.63  0.002400995    1.092    0.085
        25 -11.2704     64.8597    205.0440   1.2435973132e+02   2.6912125264e+01    0.2137104    0.1665795 -55.49  0.001495511    1.795    0.443
        26 -11.6845     46.3823    204.1895   1.2750644122e+02   2.9188385221e+01    0.1662267    0.1149726  60.90 0.0003121001    1.098    0.089
        27 -10.9379      9.1916    196.3032   1.3339568305e+02   3.4197445468e+01    0.2422362    0.1206174  78.61  0.001181476    1.575    0.365
        28  -9.0760     68.5110    196.6720   1.2303767089e+02   2.7883029992e+01    0.1092495   0.07861541  61.49 0.0001407532    1.086    0.079
        29  -9.0831     65.5992    194.2366   1.2336407933e+02   2.8663024933e+01     0.116113   0.06022013  60.41 0.0006912687    1.671    0.401
        30  -9.7908    130.0955    193.1212   1.1125025305e+02   1.9689206042e+01    0.1750506    0.1461871  37.47  0.000801485    1.234    0.190
        31 -10.5984     73.5738    191.1040   1.2161927893e+02   2.8212551384e+01    0.3297163    0.2582918  51.36  0.001925376    1.212    0.175
        32 -10.2818     83.7401    177.3305   1.1828733834e+02   2.9337984877e+01    0.2121749     0.157883 -60.59 0.0003186352    1.518    0.341
        33 -11.3425     87.4685    172.0073   1.1693812995e+02   2.9804378466e+01    0.3942219    0.2361589 -50.90  0.002273509    2.038    0.509
        34 -10.6064     93.8533    162.5853   1.1445051029e+02   3.0663226371e+01    0.2012725    0.1755505 -78.21 0.0003415841    1.175    0.149
        35 -12.7066     82.6594    157.7952   1.1620531156e+02   3.3191355598e+01    0.3438857    0.2980951 -44.46  0.001947761    1.507    0.337
        36 -19.3385     23.6394    137.4205   1.2699047441e+02   4.4032586913e+01     16.34347     1.210093 -73.16   0.03904041   10.635    0.906
        37 -11.7994    176.2645    159.0270   9.7032703988e+01   1.6984765591e+01    0.3778069    0.3480152 -81.49  0.002375292    1.322    0.244
        38  -9.7719    141.7645    158.2010   1.0376702983e+02   2.3578676286e+01    0.1887999    0.1625737  68.97 0.0006428793    1.175    0.149
        39 -10.9439     98.9335    155.6805   1.1242032476e+02   3.1230215962e+01    0.4561385    0.2846936 -36.95   0.00152391    2.488    0.598
        40 -10.7930     64.2218    155.6973   1.1990835742e+02   3.6027633904e+01    0.2578155    0.1818418  58.31  0.000635404    1.266    0.210
        41 -13.2013    239.0023    141.2800   8.2214366674e+01   7.2611526447e+00     1.697349     1.063903   8.88  0.008583949    1.827    0.453
        42 -13.8679    206.7792    139.2682   8.7312130227e+01   1.3923722373e+01     1.611094     1.015829  43.61  0.006701894    1.466    0.318
        43 -10.1990     70.7397    243.4230   1.2603795771e+02   2.0308599779e+01    0.1759935   0.07434684  60.43 0.0009631056    2.006    0.501
        44 -13.1129    140.8913    143.0605   1.0122432051e+02   2.6469487627e+01    0.8536886    0.7035045  83.55  0.004888003    1.390    0.281
        45 -14.7468    229.1023    126.8473   8.0670502724e+01   1.1104121772e+01     1.388676     1.145104  25.06  0.005135527    1.112    0.100
        46 -10.3456    109.4302    140.2310   1.0766970375e+02   3.2597414790e+01    0.4159358    0.2229549 -38.62  0.001838297    2.667    0.625
        47 -11.4747     98.0717    140.4775   1.1029905152e+02   3.4375636734e+01     0.231715     0.215446  47.89 0.0004587157    1.186    0.157
        48 -13.4817    147.2916    136.7243   9.8608457195e+01   2.6411546304e+01    0.7672423    0.5321401 -59.43   0.00311028    1.673    0.402
        49 -11.3179    133.9201    144.9201   1.0307301669e+02   2.7414591542e+01    0.8051475    0.2437036 -55.50  0.002555447    4.602    0.783
        50 -10.3347    105.8458    130.8443   1.0684135100e+02   3.5084531464e+01    0.3042832     0.250657 -78.52  0.001315587    1.218    0.179
        51 -10.3328    104.1221    127.0492   1.0655271168e+02   3.6148350821e+01    0.2434292     0.200633 -41.43  0.000684671    1.386    0.278
        52 -10.2624    116.1348    130.5702   1.0438160696e+02   3.3385543125e+01     0.246688    0.2121909 -16.80 0.0007605444    1.518    0.341
        53 -12.6917    161.6015    128.2308   9.3763247114e+01   2.5076685971e+01    0.4704289    0.3563948  60.31  0.002449058    1.411    0.291
        54 -11.6871    135.5480    126.7616   9.9156060192e+01   3.0563715280e+01    0.6445445    0.1596256 -46.64  0.001981298    4.195    0.762
        55 -13.5591    149.6653    129.0421   9.6500576205e+01   2.7357973041e+01    0.8925928     0.540085 -34.93  0.004159238    1.912    0.477
        56  -9.2436    111.0724    119.4900   1.0340058601e+02   3.6524342234e+01    0.1933739    0.1306402  45.42 0.0003592467    1.471    0.320
        57 -14.1982    216.4282    122.4031   8.1815953864e+01   1.4364834883e+01     1.059205    0.8344779 -45.75  0.004240623    1.487    0.327
        58 -10.5861     69.2869    116.5309   1.1334891355e+02   4.3556467720e+01    0.3184863    0.1277613  33.82  0.001375632    2.873    0.652
        59 -11.7239    167.4763    112.7060   8.8935640897e+01   2.6588377490e+01    0.4455627    0.3125229  69.62  0.001677852    1.841    0.457
        60  -9.5098    250.3746     93.8056   6.9540365125e+01   1.1024978899e+01    0.1998064    0.1210074 -13.59  0.000946229    1.684    0.406
        61 -11.1596     92.3803    234.6095   1.2202393868e+02   1.8857128852e+01     0.165096     0.118364  64.10 0.0004599885    1.126    0.112
        62 -11.7758    172.9499     71.9128   7.6739383140e+01   3.2344879249e+01     0.551659    0.3679742 -85.97  0.001089386    2.538    0.606
        63  -9.7579    108.7795     63.0964   8.9434423278e+01   4.8456318960e+01    0.2079584    0.1889853 -69.84 0.0005712943    1.219    0.180
        64 -13.2537    171.3758     46.6432   6.9128831687e+01   3.6635435858e+01    0.6504717    0.5720265  11.46  0.001344273    1.179    0.152
        65  -9.7105     70.0175    247.2233   1.2637966423e+02   1.9863795132e+01     0.134697   0.08517533  62.90 0.0002380529    1.170    0.145
