#   1 NUMBER                 Running object number                                     
#   2 MAG_AUTO               Kron-like elliptical aperture magnitude                    [mag]
#   3 X_IMAGE                Object position along x                                    [pixel]
#   4 Y_IMAGE                Object position along y                                    [pixel]
#   5 X_WORLD                Barycenter position along world x axis                     [deg]
#   6 Y_WORLD                Barycenter position along world y axis                     [deg]
#   7 A_WORLD                Profile RMS along major axis (world units)                 [deg]
#   8 B_WORLD                Profile RMS along minor axis (world units)                 [deg]
#   9 THETA_WORLD            Position angle (CCW/world-x)                               [deg]
#  10 FWHM_WORLD             FWHM assuming a gaussian core                              [deg]
#  11 ELONGATION             A_IMAGE/B_IMAGE                                           
#  12 ELLIPTICITY            1 - B_IMAGE/A_IMAGE                                       
         1 -12.4885      2.2562    108.8967   1.2790505027e+02   5.1927390325e+01    0.8909486    0.1582036 -77.74  0.003125704    4.522    0.779
         2 -13.1500    203.9116     34.6211   5.6261716048e+01   2.9641462288e+01     1.216956     1.041783  63.33  0.006466443    1.167    0.143
         3 -13.7563    221.0664     15.7724   4.8753504134e+01   2.7372761221e+01     1.247687    0.9220512  28.97  0.004030754    1.635    0.388
         4 -13.5480      5.9019      6.9481   1.0715784181e+02   7.3479921414e+01     1.586276    0.6371033 -48.22  0.008828195    1.772    0.436
         5 -11.0414     74.0371    244.1845   1.2322377650e+02   1.8894970788e+01    0.2508097    0.2096529 -87.91  0.002018288    1.422    0.297
         6 -11.0290    183.6826    249.9310   1.0578480405e+02   2.6850661592e+00     0.254754    0.1186569  38.22  0.001543837    1.574    0.365
         7 -11.4224    177.1806    249.5047   1.0678658807e+02   3.6951253358e+00    0.4211942    0.1481422  34.88  0.002041556    2.638    0.621
         8 -10.7774    163.4067    250.1232   1.0909406559e+02   5.6668855433e+00    0.2277532    0.1086427  51.60  0.001101318    1.902    0.474
         9 -11.0473    142.9317    248.9167   1.1232121821e+02   8.8221293602e+00    0.3175162    0.1622224  57.32  0.001897918    2.013    0.503
        10 -12.4309    118.9736    236.5540   1.1513777767e+02   1.3946402814e+01    0.5804297    0.4404954  11.84  0.003623985    2.191    0.544
        11 -12.2433    132.0728    248.7961   1.1409425455e+02   1.0410107955e+01    0.6230332    0.3150885  37.19  0.003871683    1.697    0.411
        12 -11.4023    115.7999    249.0168   1.1678338186e+02   1.2685202748e+01    0.4132992    0.3534845  37.41  0.003439176    1.376    0.274
        13 -10.8853    110.0930    247.5421   1.1759414692e+02   1.3675295126e+01    0.2892813     0.190823  51.81  0.001863949    1.086    0.080
        14 -12.3269    124.0796    247.8455   1.1532168457e+02   1.1675946736e+01    0.5515755    0.4737756 -68.16  0.004633619    1.547    0.354
        15 -11.7159    125.4508    243.2404   1.1467146797e+02   1.2092380036e+01    0.3480675    0.2205396 -68.50  0.001954736    2.117    0.528
        16 -11.2402     99.8083    247.9462   1.1930778302e+02   1.5019185545e+01    0.3379778    0.2286683  57.06  0.002595368    1.108    0.098
        17 -10.2321     81.2744    248.1035   1.2231744321e+02   1.7417395747e+01    0.2307865    0.1470925 -86.47  0.001149045    1.738    0.425
        18 -10.8410     84.3629    229.8626   1.2048623931e+02   1.9734427769e+01    0.3220299    0.1781153 -66.34  0.002145441    2.119    0.528
        19  -9.6174     90.9676    250.5128   1.2092842151e+02   1.5830895486e+01    0.2194276    0.1004736  43.60   0.00107073    1.613    0.380
        20 -11.5405     86.8193    247.9614   1.2141524023e+02   1.6727903398e+01    0.3469333    0.3148385  38.40   0.00173481    1.544    0.352
        21 -11.2543     82.5344    239.8637   1.2154010807e+02   1.8456552062e+01    0.4639325    0.1603727  53.77   0.00182471    2.319    0.569
        22 -11.1135     91.1971    241.7784   1.2024908126e+02   1.7043422442e+01    0.2872908    0.1668669  41.77  0.001341996    1.444    0.307
        23 -11.6691     88.4476    237.6861   1.2039591608e+02   1.8008083150e+01    0.4291792    0.2072258  52.90  0.001883295    1.550    0.355
        24 -11.6255     68.3879    245.5428   1.2421734168e+02   1.9390270863e+01    0.4098561    0.1665157  44.57  0.001988858    1.778    0.438
        25  -9.6039     56.2747    250.4749   1.2640537039e+02   2.0105530633e+01    0.1814379    0.1540241 -85.12  0.001054765    1.529    0.346
        26 -10.4680     60.3426    247.3031   1.2559703129e+02   2.0094438591e+01    0.1687681    0.1348786  62.04    0.0011016    1.237    0.191
        27 -10.3198     58.7150    244.6427   1.2570445206e+02   2.0678872607e+01    0.2073924    0.1750531 -51.27  0.001744086    2.015    0.504
        28 -12.1533     44.7604    200.7675   1.2540654322e+02   2.9482845413e+01     0.733391    0.7061517 -29.15  0.004083667    1.711    0.415
        29 -12.6899     29.5585    233.5079   1.2976703470e+02   2.5608882822e+01     1.328844    0.5861802  33.33  0.008221579    2.631    0.620
        30 -14.2078      7.7138    212.1363   1.3242916160e+02   3.1222798847e+01     2.061942    0.8335002 -85.82   0.01336959    2.143    0.533
        31 -13.1662     23.3201    225.0681   1.3039953819e+02   2.7593212144e+01    0.3621076    0.2909726  45.32 0.0008133634    1.505    0.336
        32 -14.2035     28.9650    218.5550   1.2917868339e+02   2.8095486145e+01     0.867839    0.6801605  50.22  0.007348035    1.368    0.269
        33 -12.2900    135.6108    241.2197   1.1277268780e+02   1.0881451977e+01     0.644623    0.2343106  54.07  0.003016797    2.942    0.660
        34 -12.2592    102.9510    230.3869   1.1732716439e+02   1.7125196907e+01    0.6595138    0.3048636  36.97  0.002272481    2.050    0.512
        35 -12.5533    103.0907    239.1097   1.1805372416e+02   1.5822941501e+01     0.561019     0.422812  39.29  0.002020566    1.359    0.264
        36  -9.2747     53.8184    240.8438   1.2627214646e+02   2.1819147093e+01    0.1384774     0.109681  63.55  0.000654661    1.215    0.177
        37 -11.2938    198.2260    245.6280   1.0292390298e+02   9.7783583928e-01    0.2287674    0.1303895  33.81  0.001424132    1.327    0.246
        38  -9.2757     60.9441    239.0000   1.2501987354e+02   2.1264878923e+01    0.1598916   0.04415008  39.82 0.0007910175    2.864    0.651
        39 -11.8675    180.1140    243.3135   1.0558606576e+02   3.9430053517e+00     0.529172    0.1540883  35.48  0.002178498    3.502    0.714
        40 -13.9736      5.5314    245.3754   1.3383394578e+02   2.6127120921e+01      1.08785    0.7183935  84.16  0.009899365    1.341    0.255
        41 -11.3454    113.4615    230.8710   1.1555058127e+02   1.5558924015e+01    0.3096062    0.2690194 -19.09   0.00233332    1.863    0.463
        42 -11.8385    135.5810    236.4250   1.1229149343e+02   1.1526210520e+01    0.2983987    0.2342162  37.24  0.002143042    1.236    0.191
        43  -9.5000     54.8159    235.2831   1.2579825740e+02   2.2557478264e+01    0.1770162   0.08841491  56.00  0.001210625    1.443    0.307
        44 -11.6968    133.7669    232.7218   1.1221921401e+02   1.2303911652e+01    0.2705214    0.2323226 -18.21  0.001778947    1.746    0.427
        45 -10.2240    250.0078    230.9887   9.2754479396e+01  -5.1938966680e+00    0.1359239   0.09715082  20.62  0.001018189    1.023    0.023
        46 -11.8394     48.9233    217.0473   1.2570294607e+02   2.6185766689e+01     1.163696      0.39477  56.53  0.003833408    2.401    0.584
        47  -9.4284     56.7112    228.8159   1.2510073090e+02   2.3353890584e+01    0.2348659    0.1021322 -89.58  0.001345191    2.682    0.627
        48  -9.7270     77.1636    220.8139   1.2103241446e+02   2.2113277872e+01    0.2173502    0.1182005  66.64  0.000924904    1.701    0.412
        49  -9.9825     80.6867    226.7043   1.2087456839e+02   2.0710701467e+01    0.2356872    0.1999378   5.78  0.001311413    2.102    0.524
        50  -9.7585     78.9734    224.5373   1.2100453277e+02   2.1278079572e+01    0.2495248    0.1983153 -12.32  0.001636938    2.755    0.637
        51 -10.7025    136.1050    224.6404   1.1094061897e+02   1.3085098315e+01    0.2759652    0.1542447 -49.29  0.001113631    2.339    0.572
        52  -9.3746     65.0741    224.4410   1.2339965170e+02   2.3051107154e+01    0.1667469    0.1331811 -49.64   0.00126031    1.993    0.498
        53  -9.0506     45.6441    225.2479   1.2674155218e+02   2.5200829396e+01    0.1175098   0.08208268 -81.14 0.0004642376    1.495    0.331
        54  -9.2263     92.5070    226.0973   1.1877155025e+02   1.9226863745e+01    0.1377686    0.1006227 -81.06 0.0006353311    1.518    0.341
        55 -10.8155     97.1475    239.3730   1.1907192735e+02   1.6596544709e+01    0.2229666    0.1380375  61.79  0.000783875    1.359    0.264
        56 -10.9326     98.6456    222.8376   1.1740630220e+02   1.8886769180e+01    0.2298503    0.1809767  63.61 0.0005126884    1.086    0.079
        57  -9.1848     87.5580    223.6820   1.1943578026e+02   2.0277730851e+01     0.198381   0.09308296  55.25  0.001036823    1.741    0.425
        58 -10.5462    141.6828    219.4474   1.0935253313e+02   1.2962507532e+01    0.2772498     0.195938 -49.16  0.001409174    1.822    0.451
        59 -10.5748     70.9714    219.1549   1.2199577345e+02   2.3178788076e+01    0.3567296    0.2110754  71.04  0.002389991    1.529    0.346
        60  -9.7588     90.6257    219.7654   1.1855972466e+02   2.0486535544e+01    0.2525796    0.1099871  61.68 0.0009539859    2.460    0.594
        61 -10.0373    116.7503    215.8925   1.1346773855e+02   1.7343271358e+01    0.2789412      0.16074  28.74   0.00152084    2.253    0.556
        62  -9.3773     87.3692    212.5080   1.1850683980e+02   2.2120996562e+01    0.3235534    0.1403661  65.48  0.001532346    2.913    0.657
        63  -9.3942     58.5289    212.5017   1.2371777526e+02   2.5830859974e+01    0.2108515     0.139112  18.62  0.001244502    2.876    0.652
        64 -10.4954     55.8398    208.3882   1.2391154091e+02   2.6860234538e+01    0.3778721    0.1534488 -75.23  0.002016076    2.540    0.606
        65 -10.4556     63.0909    208.5012   1.2260629921e+02   2.5963677971e+01    0.2864509    0.2189742  41.90  0.001266207    1.411    0.291
        66  -8.8648     74.4024    208.4566   1.2053431326e+02   2.4538882365e+01    0.1115638   0.08428456  64.32 0.0001497864    1.019    0.019
        67 -10.6335    164.6720    242.5264   1.0804714887e+02   6.3689948091e+00    0.2397501    0.1656428 -86.07  0.001487372    2.754    0.637
        68 -10.2016    246.4876    206.4960   8.9462638443e+01  -2.3715276794e+00    0.2181303   0.07953403  34.10  0.001038873    2.373    0.579
        69  -9.2739     90.9789    204.8472   1.1712324104e+02   2.2916016546e+01    0.2830844    0.1271529  30.83  0.001292745    3.114    0.679
        70 -10.3017    106.9695    203.4122   1.1394763692e+02   2.0838239250e+01    0.2020625    0.1665867 -69.69 0.0005308501    1.402    0.287
        71  -8.6218     83.3715    201.6815   1.1825970497e+02   2.4519587494e+01    0.1266565   0.06793377  64.08 0.0007033906    1.795    0.443
        72 -10.3441     74.6957    200.1407   1.1976614787e+02   2.5954526147e+01    0.1844866    0.1514913  64.22 0.0004764812    1.100    0.091
        73  -8.7581     96.7865    199.3685   1.1546395796e+02   2.3033442706e+01    0.1500164   0.09744031  38.73 0.0002843553    1.495    0.331
        74 -10.2368    249.8063    194.4666   8.6899515959e+01  -1.6530580500e+00    0.2427471    0.1748499  26.47  0.001631408    1.120    0.108
        75 -10.1040     30.8153    193.1917   1.2749921455e+02   3.2349908560e+01    0.1873458    0.1201975  55.88 0.0002372854    1.240    0.194
        76  -9.7485     34.2858    192.6950   1.2682449542e+02   3.2082639371e+01    0.2561522    0.1229119  77.48  0.001116265    1.925    0.481
        77 -10.0933     25.9685    192.6996   1.2836479244e+02   3.2927372581e+01    0.2044611    0.1330405  71.54 0.0009632116    1.152    0.132
        78  -9.7810     21.7338    192.8073   1.2914609120e+02   3.3320528670e+01    0.3283532    0.1222035  61.20  0.001112769    2.229    0.551
        79  -9.3632    191.5540    191.6462   9.6335528496e+01   8.5131332033e+00    0.1823539    0.1230214 -30.65 0.0006175363    1.743    0.426
        80 -11.9278     53.4440    193.5707   1.2326977533e+02   2.9794035581e+01    0.3491432    0.2858604 -88.71 0.0006502196    1.240    0.193
        81  -8.7042     72.5964    192.7499   1.1950342901e+02   2.7564623209e+01    0.1000552   0.08858755  15.56 0.0006412666    1.704    0.413
        82  -9.4275     39.4965    189.8904   1.2566138360e+02   3.2048756165e+01     0.310415    0.1301441 -59.94  0.001697985    2.739    0.635
        83 -10.2470    250.1897    187.9044   8.5681431951e+01  -1.0183733151e+00    0.2628217    0.1453777 -16.13  0.001479067    1.894    0.472
        84  -9.4242     76.2878    186.9664   1.1822231685e+02   2.8146351977e+01    0.2927566    0.1436772  89.14  0.001142965    2.724    0.633
        85 -10.6453     71.1440    187.0581   1.1925844960e+02   2.8810016582e+01    0.2407117    0.1539323  41.79 0.0003030446    1.483    0.326
        86 -10.6449      9.9602    186.9399   1.3100614134e+02   3.5479821340e+01    0.2844043    0.1260133  74.34  0.001756288    1.863    0.463
        87 -11.7717     60.0239    185.5117   1.2133088750e+02   3.0508805508e+01    0.2171282    0.1898465 -89.14 0.0004599288    1.252    0.201
        88  -9.1641    107.0458    185.6629   1.1187206133e+02   2.3930161731e+01    0.1722439    0.1285245  49.35 0.0003456087    1.152    0.132
        89 -13.5291     39.1089    244.0586   1.2874597986e+02   2.2974101853e+01     1.103638    0.6974928  60.50  0.009104173    1.059    0.055
        90 -10.7620     37.1726    180.0854   1.2543124743e+02   3.4153178859e+01    0.2398646    0.1596822 -71.94 0.0004238366    1.503    0.334
        91  -9.2001     30.0497    183.5116   1.2705023159e+02   3.4233015452e+01    0.1482527   0.09029499  44.37 0.0005734583    1.518    0.341
        92  -9.5853     27.1015    179.6197   1.2737515382e+02   3.5267772356e+01    0.1832963    0.1212481 -89.49 0.0003661487    1.263    0.208
        93 -13.0311     26.6017    247.3800   1.3078993007e+02   2.3787812147e+01    0.8013393    0.4139769  39.30  0.005966551    1.824    0.452
        94  -9.6632    105.2240    175.9378   1.1100767912e+02   2.6012965026e+01     0.289465    0.1378125  45.84  0.001094903    1.817    0.450
        95 -11.6651    248.3179    172.4714   8.3133396682e+01   1.0078672933e+00    0.4504462    0.3191956   9.84  0.002784917    1.282    0.220
        96 -10.6261     71.5795    173.4867   1.1780922159e+02   3.1361279039e+01    0.2072594    0.1811105  68.43 0.0002491884    1.133    0.118
        97 -10.0348     56.3059    173.0594   1.2097060603e+02   3.3370851213e+01    0.2240007    0.1528198  53.68 0.0005449656    1.268    0.211
        98  -9.7078     51.6748    171.1357   1.2176257133e+02   3.4299277392e+01    0.1911232    0.1399282  56.07 0.0005242991    1.196    0.164
        99 -10.3652     12.4524    173.0489   1.2984687545e+02   3.7885033175e+01    0.2506394    0.1377149 -68.02  0.001665848    1.814    0.449
       100 -10.4678     12.3081    153.9554   1.2876799946e+02   4.1681648731e+01    0.2061247    0.1174495  84.27  0.001314591    1.409    0.290
       101 -11.7656     10.3691    157.4712   1.2939074593e+02   4.1129864515e+01    0.4558634    0.1701081  72.95  0.002273788    2.661    0.624
       102 -10.6459      2.2616    172.0890   1.3176866899e+02   3.8914770083e+01    0.3047574    0.1349117  69.12  0.001059932    1.821    0.451
       103 -11.4424     12.7231    167.2474   1.2947457318e+02   3.8991000383e+01    0.3536208    0.2110453  28.51  0.001849278    2.090    0.522
       104 -11.7161      7.0025    165.9989   1.3054837231e+02   3.9712518966e+01    0.5019858    0.3454237  -9.92  0.003194729    3.106    0.678
       105 -10.0543     27.1207    171.7687   1.2686137868e+02   3.6788803846e+01    0.2105338    0.1631137 -61.17 0.0003931886    1.600    0.375
       106  -9.6151     18.1544    172.1373   1.2867561259e+02   3.7557072468e+01     0.196883    0.1213719  59.50   0.00120158    1.312    0.238
       107 -10.3817     38.8959    167.6969   1.2414344548e+02   3.6403769449e+01    0.1891968    0.1309197  85.75 0.0003948102    1.198    0.165
       108 -11.9489     79.3681    165.2967   1.1521082959e+02   3.1934859204e+01    0.4398789    0.4038177  64.98  0.003068344    1.188    0.158
       109 -11.8722    245.3920    163.2104   8.1810553492e+01   2.6037865134e+00    0.4297124    0.2412007 -36.47  0.002271737    1.982    0.495
       110 -12.1484    247.1239    158.2177   8.0538831217e+01   2.9038207493e+00     0.867084    0.6738489 -68.62  0.004696982    2.524    0.604
       111 -11.0823    249.6837    150.8953   7.8642118017e+01   3.3440123020e+00    0.4225502    0.2727146 -32.58  0.002119867    1.603    0.376
       112 -12.0230    247.9760    142.3271   7.7119576201e+01   4.7270687705e+00      0.56012    0.4246672  11.16  0.003321841    1.226    0.185
       113 -13.1575    248.3196    134.2398   7.5324778192e+01   5.6986999462e+00     1.397071     0.620453 -25.10  0.006161804    2.242    0.554
       114  -9.9819     23.9892    162.0045   1.2683635687e+02   3.9028866883e+01    0.1643874    0.1256228  76.81 0.0003665731    1.021    0.021
       115  -9.3124     67.0326    161.1852   1.1744776819e+02   3.4428269899e+01    0.1622552    0.1555895 -89.24 0.0003651885    1.294    0.227
       116  -8.4533     51.3369    158.6730   1.2065667559e+02   3.6866060489e+01     0.128958    0.0721632  67.80 0.0003945123    1.725    0.420
       117  -9.1519     28.6190    161.1539   1.2579890151e+02   3.8762047271e+01    0.1458978   0.08651949 -71.49 0.0004040917    1.549    0.354
       118 -10.1733     68.1494    166.2873   1.1776880040e+02   3.3245738546e+01    0.2047058    0.1493911  89.52 0.0003762615    1.251    0.201
       119  -8.6231    228.4281    155.5006   8.3083406281e+01   6.6660179982e+00    0.1305059    0.1146101  13.79 0.0001758451    1.049    0.046
       120 -10.7008     26.0324    155.1544   1.2590029606e+02   4.0232595996e+01    0.2126972    0.1524148  51.00 0.0008981643    1.335    0.251
       121  -9.2077     32.4931    153.5501   1.2435571236e+02   3.9944118890e+01    0.1149024   0.08989657  80.15 2.336905e-05    1.007    0.007
       122  -9.8038     54.2844    151.7554   1.1927320752e+02   3.7965599076e+01    0.2181698    0.1760436 -48.57            0    1.594    0.373
       123 -10.2504     44.4284    165.3443   1.2277876961e+02   3.6280735473e+01    0.2549801    0.1791579 -41.47  0.001571936    2.219    0.549
       124 -10.8495     93.6142    150.0868   1.0994156123e+02   3.2958733442e+01    0.2682915    0.2489896  83.03 0.0007329264    1.103    0.094
       125  -9.6070     81.4294    148.6167   1.1257549520e+02   3.5083754151e+01    0.2784535    0.1739895  54.95  0.001519724    1.511    0.338
       126 -11.8730     68.2453    144.1358   1.1508864039e+02   3.7850140617e+01    0.6328375    0.3808315  77.80  0.002591139    1.846    0.458
       127 -12.9583      7.5623    143.3007   1.2912217386e+02   4.4242515190e+01    0.5697427    0.4500362  51.64  0.003835017    1.334    0.251
       128 -10.0749    133.2293    141.0530   9.9194828674e+01   2.7950538702e+01    0.2919645    0.2305223 -72.10 0.0009371609    1.425    0.298
       129 -11.5859     16.6799    139.9493   1.2682611239e+02   4.4224085448e+01    0.3043292    0.1665284  59.76  0.001412509    1.653    0.395
       130  -9.2337     37.1146    140.1507   1.2206099807e+02   4.2315945276e+01    0.1663325    0.1136068  73.30 0.0004649617    1.297    0.229
       131  -9.5701    107.3323    135.7160   1.0429584698e+02   3.3737949058e+01    0.3467573    0.2386626 -15.83  0.001509517    2.860    0.650
       132  -9.6782    235.9417    146.0168   7.9850348531e+01   6.5070178233e+00    0.2104357    0.1411709  13.83 0.0005060072    1.589    0.371
       133  -9.2812     93.9509    133.0659   1.0711241755e+02   3.6514862031e+01    0.1869241    0.1617375 -22.24 0.0003874441    1.553    0.356
       134 -13.2701      3.4525    123.8480   1.2875529911e+02   4.8628489124e+01    0.9873619    0.3067304 -72.48  0.004881804    2.415    0.586
       135  -9.7184     44.4862    130.0006   1.1913564520e+02   4.3762619753e+01    0.1816633    0.1038366 -73.51 0.0004881412    1.527    0.345
       136  -9.7306     58.8590    127.8646   1.1519260335e+02   4.2594519510e+01     0.172688    0.1509512  86.85 0.0004490021    1.039    0.037
       137 -10.1756     59.1584    146.9805   1.1759920445e+02   3.8392916871e+01    0.3138539    0.1933762 -40.08  0.001625661    2.508    0.601
       138 -11.5486     22.7090    149.3912   1.2618876640e+02   4.1728089054e+01    0.3183909    0.1961565  44.70  0.001724512    1.582    0.368
       139 -12.2286     16.5541    121.2825   1.2528619552e+02   4.8243393007e+01    0.4205494    0.1974891  84.57  0.002207133    2.079    0.519
       140  -9.7148     29.6953    165.0114   1.2585874904e+02   3.7879247207e+01    0.1553281    0.1160121  82.25 0.0004485317    1.054    0.051
       141 -10.1230    238.8161    121.6202   7.4004335146e+01   9.2440978869e+00    0.3083974    0.1543248 -12.89  0.001208211    2.742    0.635
       142 -12.9298    248.1192    101.3582   6.7828982447e+01   1.0094266727e+01     1.127622     0.493275 -24.28  0.004632346    2.283    0.562
       143 -11.9759    248.3189    112.8861   7.0514902923e+01   8.5086449827e+00    0.5871289    0.3905367  37.77  0.003102012    1.517    0.341
       144 -10.7334    232.0109    116.5317   7.3922857127e+01   1.1357414178e+01    0.2597179    0.1858576 -41.96 0.0006257673    1.519    0.342
       145 -13.7838      8.6249    111.0026   1.2640251330e+02   5.1062792304e+01     1.325905    0.3517687 -82.00  0.005125436    3.700    0.730
       146 -10.8251    169.0173    249.0609   1.0806354837e+02   4.9570318570e+00    0.2318526    0.1544069  21.67 0.0008212237    1.717    0.417
       147 -10.8641    236.7322    111.4853   7.1972163385e+01   1.1079887779e+01    0.3028861    0.1497719 -40.16   0.00130631    2.096    0.523
       148 -11.2524     19.0046    106.0152   1.2307751072e+02   5.1425551051e+01    0.2333639    0.1757938 -80.86 0.0008819625    1.055    0.052
       149  -8.6268     71.7112    100.3136   1.0693520175e+02   4.7127806568e+01    0.1345012   0.09778764  81.32 0.0002865793    1.586    0.370
       150  -9.6908    167.9126    113.0673   8.5201514683e+01   2.6113964724e+01    0.3302382    0.2439184 -82.63  0.001411695    2.012    0.503
       151  -9.9577    249.8106    117.7840   7.1418748658e+01   7.5613817996e+00    0.2541908    0.1973826 -27.96 0.0006777715    1.233    0.189
       152 -13.2074     13.9663    100.9571   1.2393004468e+02   5.2917578522e+01    0.6195461     0.490602  63.11  0.002616253    1.295    0.228
       153 -10.3819      2.0000     61.9862   1.2278077592e+02   6.2259457541e+01    0.1962785    0.0505486 -72.50 0.0008047529    2.959    0.662
       154 -11.3299    171.0702    244.4574   1.0720804945e+02   5.1771105960e+00    0.2176795    0.1435826  37.04 0.0009562094    1.156    0.135
       155 -11.6623    150.3022    247.3412   1.1094850779e+02   7.9346102867e+00    0.2766714    0.2524595  41.26  0.002344151    1.271    0.213
