#   1 NUMBER                 Running object number                                     
#   2 MAG_AUTO               Kron-like elliptical aperture magnitude                    [mag]
#   3 X_IMAGE                Object position along x                                    [pixel]
#   4 Y_IMAGE                Object position along y                                    [pixel]
#   5 X_WORLD                Barycenter position along world x axis                     [deg]
#   6 Y_WORLD                Barycenter position along world y axis                     [deg]
#   7 A_WORLD                Profile RMS along major axis (world units)                 [deg]
#   8 B_WORLD                Profile RMS along minor axis (world units)                 [deg]
#   9 THETA_WORLD            Position angle (CCW/world-x)                               [deg]
#  10 FWHM_WORLD             FWHM assuming a gaussian core                              [deg]
#  11 ELONGATION             A_IMAGE/B_IMAGE                                           
#  12 ELLIPTICITY            1 - B_IMAGE/A_IMAGE                                       
         1 -14.4015    161.7863     58.5054   7.0246977313e+01   3.7316490385e+01     1.525483     1.253292  32.67   0.00116158    1.273    0.214
         2 -14.7153    175.0886     43.8020   6.2856857363e+01   3.6207070509e+01     1.259093       1.0651   9.56  0.003985116    1.298    0.230
         3 -15.1843    199.2583     10.8753   4.8760744043e+01   3.3930596871e+01     3.197375     1.240568  60.90    0.0121866    2.280    0.561
         4 -10.1540     73.6517     22.3103   8.0665725585e+01   6.1504625185e+01    0.1181251    0.1016552 -63.95 0.0007045116    1.712    0.416
         5 -13.8930    248.1809    247.0188   9.5399740751e+01  -8.9777992046e+00     1.044855    0.4911695 -22.30  0.006260906    2.611    0.617
         6 -17.1212     84.5894    181.6964   1.1503549235e+02   2.7414111538e+01     5.294433     2.313046 -48.83   0.02403793    3.234    0.691
         7 -17.6618     65.7482    228.4482   1.2267824749e+02   2.1569075396e+01     8.220758     5.233696  87.94   0.06032487    1.388    0.279
         8 -11.0690    238.5067    185.5256   8.6735655403e+01  -7.9676694048e-01    0.1288569    0.1072671  21.06 0.0001103354    1.003    0.003
         9 -19.1290     45.9972    100.5185   1.1219406448e+02   4.9540329402e+01     14.85363    0.6948848 -62.69   0.02424108   17.004    0.941
        10 -10.6797     27.2028    179.8786   1.2552943200e+02   3.4727835888e+01    0.2095694    0.1417472  31.62  0.001465023    2.066    0.516
        11 -12.4173    188.5077    175.9803   9.3904658677e+01   1.0119574060e+01    0.6701322      0.41156 -57.60  0.002099585    2.261    0.558
        12 -11.0778    186.9850    165.8929   9.2284251820e+01   1.2072594680e+01    0.3962073    0.2598082 -49.71   0.00145327    1.764    0.433
        13 -10.1922    223.2962    198.6384   9.1715663766e+01   2.8553382838e-01    0.1135285   0.09958695  84.42 0.0005478318    1.710    0.415
        14 -12.2457    237.4628    174.8714   8.4859739057e+01   7.7735530978e-01    0.2872955    0.1481502  31.74  0.001346348    1.957    0.489
        15 -10.3575    194.7376    172.5181   9.2082085361e+01   9.4365207319e+00    0.2350105    0.1890567 -36.28 0.0008215103    1.374    0.272
        16  -9.9498    207.5839    171.5746   8.9513106915e+01   7.0271683050e+00    0.2313809    0.1214813 -49.22 0.0009922753    2.502    0.600
        17 -10.5834    240.3069    169.3134   8.3266534492e+01   9.8446621174e-01    0.1370546   0.09148783  14.28 0.0002429197    1.623    0.384
        18 -11.7483    230.1728    166.8407   8.4515813618e+01   3.2694485850e+00    0.3348646    0.1464429 -47.78  0.001263212    3.517    0.716
        19 -13.7249    133.8248    145.5865   9.9271250946e+01   2.6482867020e+01     1.335868     0.359498 -55.71    0.0037133    5.170    0.807
        20 -12.2801    129.3407    140.1391   9.9200155055e+01   2.8449043436e+01    0.3644727    0.3143853  60.64 0.0009194398    1.115    0.103
        21 -10.9339    186.8955    153.8876   8.9892984851e+01   1.4130480630e+01    0.3951453    0.1466775  40.94  0.001403044    2.755    0.637
        22 -11.9132    126.0029    153.5526   1.0244084090e+02   2.6323623268e+01    0.2541133    0.1851931 -77.51 0.0006642932    1.520    0.342
        23 -10.4800    191.5194    151.5012   8.8488359829e+01   1.3567211478e+01    0.2464701    0.1315584 -50.93  0.001025704    2.304    0.566
        24 -11.6106    174.3904    149.0688   9.1392788373e+01   1.7614342313e+01    0.3151683    0.2623098 -68.86 0.0009532157    1.404    0.288
        25 -13.2491    144.2120    146.9959   9.7293639868e+01   2.4185961213e+01    0.7245746    0.3507804 -63.82  0.002628183    3.201    0.688
        26 -12.6266    141.8834    139.1036   9.6209319614e+01   2.6227003202e+01    0.3649344    0.3028457 -42.93   0.00143564    1.289    0.224
        27 -11.1393    160.3129    147.8065   9.4038306273e+01   2.0780539779e+01    0.2187107      0.17516 -71.52 0.0007195144    1.445    0.308
        28  -9.5137      6.6280    197.4495   1.3006974296e+02   3.3406980815e+01   0.09766721   0.06783799  84.51 0.0005778136    1.097    0.088
        29 -11.3069    159.8710    195.7351   1.0262110939e+02   1.2370016607e+01    0.2327652    0.1631802 -89.95   0.00123806    2.055    0.513
        30 -11.7751    134.6723    106.3479   9.0412386618e+01   3.4443928324e+01      0.55584    0.1441847 -46.80  0.001610535    3.814    0.738
        31 -13.3879    135.6043    126.5408   9.4944603655e+01   3.0053143971e+01     1.444643     0.282752 -51.24   0.00340337    6.359    0.843
        32 -12.3396    160.4055    127.6068   8.9635378821e+01   2.4671488745e+01    0.4440762    0.3523325 -67.69  0.001464221    1.445    0.308
        33 -10.8828    153.9595    125.5017   9.0565663023e+01   2.6472613917e+01    0.2306561    0.1432362  49.52  0.001029685    1.587    0.370
        34 -11.7830    106.7504    123.3222   1.0105952188e+02   3.6109977453e+01    0.2732327     0.259138 -32.06 0.0006415591    1.233    0.189
        35 -12.2452    205.8332    193.4725   9.3866093650e+01   4.1725389359e+00    0.2573986    0.1684819  25.90  0.001208694    1.597    0.374
        36 -11.2906    127.0038    123.3058   9.6230318003e+01   3.2416322632e+01    0.1976034    0.1804428  59.15 0.0002660278    1.095    0.087
        37 -11.3052    113.0977    117.5075   9.8286164594e+01   3.6250353316e+01    0.2613463    0.2209978 -69.16 0.0004205957    1.144    0.126
        38 -10.5748    142.6240    113.8371   9.0379896297e+01   3.1240550619e+01    0.2502368    0.2079063 -80.35  0.001271774    1.366    0.268
        39 -10.8383    231.2869    113.7014   7.2382912818e+01   1.1073822396e+01    0.2654952    0.2368783  17.68 0.0007779277    1.104    0.094
        40 -11.7178    168.0339    113.1288   8.4493105021e+01   2.5799169851e+01    0.4057194    0.3136619 -86.42  0.001165217    1.713    0.416
        41 -16.0637    100.3143    244.4023   1.1853815439e+02   1.4399937422e+01     1.504001     1.213809  36.61  0.007964589    1.675    0.403
        42 -11.0080    205.3350    110.2400   7.6185846223e+01   1.7628407626e+01    0.3422168    0.2572345  44.66 0.0008589455    1.320    0.242
        43 -11.7649     91.7603    112.0206   1.0242557413e+02   4.1050971391e+01    0.2199079    0.2005177  54.85 0.0005480431    1.183    0.155
        44 -12.0900     76.6880    100.0257   1.0381512646e+02   4.5934556212e+01     0.251132    0.2149274  84.20 0.0009048316    1.237    0.191
        45 -10.1129     73.9617     86.0424   1.0137360897e+02   4.9369508117e+01     0.155712    0.1432491 -58.64 0.0005337756    1.060    0.056
        46 -10.5782    149.2251     82.0798   8.0320240444e+01   3.6122034390e+01    0.2298086    0.2066628  -2.41 0.0004703662    1.206    0.171
        47 -10.7188     86.9040     77.8683   9.5527488685e+01   4.9205825351e+01    0.2023156    0.1714194 -30.14 0.0003357806    1.207    0.171
        48 -10.3872    103.1526     72.8952   8.9459438721e+01   4.7482619059e+01    0.3190593    0.1960942  56.12  0.001454762    2.030    0.507
        49  -9.7925    167.8163    241.9418   1.0749669692e+02   4.3350870140e+00    0.1177436   0.08882713 -46.99 0.0006682805    1.752    0.429
        50 -11.1319     32.7646    206.2511   1.2640059843e+02   2.9258962643e+01    0.1742316   0.09387528  56.25  0.001020286    1.491    0.329
        51 -13.0724    179.5960     36.9186   5.9832246281e+01   3.5997142173e+01    0.4557687    0.3858863  27.54 0.0009094182    1.252    0.201
        52 -10.6923     13.5094     59.6133   1.1405716452e+02   6.0982841040e+01    0.1966232    0.1446617 -59.84 0.0005445798    1.015    0.015
        53  -9.6848    164.6612    187.2947   1.0039120660e+02   1.2868743623e+01    0.1319073   0.09573903  72.38 0.0005104488    1.652    0.395
