#   1 NUMBER                 Running object number                                     
#   2 MAG_AUTO               Kron-like elliptical aperture magnitude                    [mag]
#   3 X_IMAGE                Object position along x                                    [pixel]
#   4 Y_IMAGE                Object position along y                                    [pixel]
#   5 X_WORLD                Barycenter position along world x axis                     [deg]
#   6 Y_WORLD                Barycenter position along world y axis                     [deg]
#   7 A_WORLD                Profile RMS along major axis (world units)                 [deg]
#   8 B_WORLD                Profile RMS along minor axis (world units)                 [deg]
#   9 THETA_WORLD            Position angle (CCW/world-x)                               [deg]
#  10 FWHM_WORLD             FWHM assuming a gaussian core                              [deg]
#  11 ELONGATION             A_IMAGE/B_IMAGE                                           
#  12 ELLIPTICITY            1 - B_IMAGE/A_IMAGE                                       
         1 -12.5836     43.9063     23.6354   6.4840286143e+01   7.0201183980e+01     1.379554     1.025625 -42.74  0.007414152    1.330    0.248
         2 -11.8786     83.7959      3.9350   3.5866745687e+01   6.4203771852e+01      1.00763    0.5838144  64.39  0.003706841    1.613    0.380
         3 -11.2831     71.1878      5.8438   4.0881060365e+01   6.7158892103e+01    0.6001897    0.3771783  64.27  0.002221988    1.597    0.374
         4 -11.6272     78.3049     13.6818   4.3028052262e+01   6.4481304929e+01     1.689208    0.6773141 -14.45  0.005012805    4.621    0.784
         5 -12.3924    144.1751      3.7677   2.5173171472e+01   4.8014415240e+01     1.117279    0.5112007  77.21   0.00463354    2.092    0.522
         6 -11.7257    178.3658     24.0183   2.8195850938e+01   3.7118201912e+01    0.8063263     0.401378 -37.95  0.003648567    1.790    0.441
         7 -12.3817    156.1016     11.7620   2.6682413290e+01   4.4101861237e+01     1.206944    0.6527151 -19.10  0.005390028    2.008    0.502
         8 -13.1098    167.7120     15.6114   2.6693241823e+01   4.0700882253e+01     1.490612    0.7599192 -57.58  0.006444623    2.065    0.516
         9 -13.2794    169.2463      4.4825   2.2952772662e+01   4.1375025669e+01     2.044982     0.934607  87.11  0.008609913    2.289    0.563
        10 -10.6128    247.6625     16.0444   2.0812998435e+01   2.2742862030e+01    0.3682192    0.1253971 -49.18  0.001731426    2.421    0.587
        11  -9.9830    115.9363     16.0145   3.4403127075e+01   5.4435329931e+01    0.5349103    0.3210008 -53.12  0.002355283    1.861    0.463
        12 -10.6701    226.8467     15.7204   2.1923197128e+01   2.6898455082e+01    0.4864259    0.2733257 -87.24  0.002643562    1.972    0.493
        13  -9.5940     20.8007     14.0618   7.5908581276e+01   7.5426103944e+01     0.472232    0.1899154 -39.69  0.001944256    2.519    0.603
        14  -9.3894    105.0299     12.7110   3.5192440913e+01   5.7721201362e+01    0.3401054    0.2227455 -22.99  0.001610534    1.628    0.386
        15  -9.3512    129.6881     12.5415   3.0509744979e+01   5.1093237495e+01    0.3109212    0.2401058  32.10  0.001588857    1.472    0.320
        16 -10.8336    250.0543      8.4977   1.8999519935e+01   2.2999836688e+01    0.6892157    0.1226345 -29.61  0.002723281    3.337    0.700
        17 -10.5802     69.5287     12.9875   4.5813323426e+01   6.6675482645e+01    0.3065493    0.2418148 -49.56  0.001416946    1.443    0.307
        18 -11.5555     77.7377     21.3616   4.7415382486e+01   6.3565722789e+01    0.8449335    0.3525676 -31.24  0.003205776    2.492    0.599
        19 -10.8651    231.3813      8.7068   1.9958112070e+01   2.6633599051e+01     0.491548    0.2514322 -58.82  0.002656261    1.800    0.445
        20 -11.8173    204.9989      4.5060   2.0378248787e+01   3.2716465902e+01    0.7038491    0.4377687  57.66  0.003855063    1.828    0.453
        21 -10.5242    217.7990      2.0387   1.9019294360e+01   3.0095672514e+01    0.3665309    0.1770938 -71.34  0.001817078    2.123    0.529
        22 -10.6182    222.5196      4.4642   1.9383965149e+01   2.8866952398e+01    0.3092301    0.1828599 -35.46  0.001752277    1.394    0.283
        23 -10.7830    192.7898      5.3904   2.1413214382e+01   3.5478792392e+01    0.4373366    0.2101504 -46.96  0.002082734    1.810    0.447
        24 -10.8597    131.2701      3.9443   2.6820422439e+01   5.1481918692e+01     0.903778    0.2854216  61.05  0.003244449    2.670    0.626
        25 -11.1992    106.1436      4.7271   3.1178494000e+01   5.8228581801e+01    0.7858706    0.4513893  82.56  0.003454889    1.856    0.461
        26 -11.2341    120.6472      4.2635   2.8474070663e+01   5.4340847880e+01    0.9200747    0.4971826  81.28  0.003983404    1.871    0.466
        27 -10.2015    112.4491      5.3224   3.0295824418e+01   5.6470543811e+01    0.3803133     0.295622  83.60   0.00129596    1.256    0.204
        28 -10.1911     95.2188      2.7271   3.2424391462e+01   6.1333140602e+01    0.3779091    0.3429987 -49.93  0.002172405    1.174    0.148
        29 -10.5971     61.1018      2.1843   4.2296976790e+01   6.9969939767e+01    0.5809394    0.2774753  51.10  0.002562534    1.880    0.468
        30 -10.2166     39.6430      7.8776   5.7492422527e+01   7.3721634630e+01    0.4562531    0.2540545 -25.80  0.001846958    1.992    0.498
        31  -8.4130     17.4756      1.5438   7.0435406895e+01   7.8266043503e+01    0.1279003    0.1105956 -13.59 0.0001976882    1.007    0.007
        32  -8.9028    231.3259     64.6766   3.3460710728e+01   2.0553277858e+01    0.1321557   0.08277883 -53.48  0.000380894    1.689    0.408
        33  -8.5475    138.6517     55.6745   4.4897155074e+01   4.2918331281e+01    0.1597933    0.1171436  23.32 0.0007049403    1.751    0.429
        34  -8.8293     34.8887     52.6851   8.2705230036e+01   6.5019744251e+01    0.2688116    0.1345048  15.27   0.00108126    2.517    0.603
        35  -8.9759    198.6550     50.9684   3.3646391090e+01   2.9064293964e+01    0.2443344   0.05929179 -45.23 0.0007047001    4.367    0.771
        36 -10.2064     85.2947     47.9913   5.7156357967e+01   5.7261219906e+01    0.5840831    0.3846069  54.63  0.002626453    1.579    0.366
        37 -10.8517     81.7414     39.5766   5.4847241327e+01   5.9636285517e+01    0.7916144    0.4558344 -37.07  0.003406593    1.775    0.437
        38 -10.9315      3.4899     40.9342   9.9217709826e+01   7.0382670789e+01    0.5238746     0.481653  87.76  0.002859312    1.139    0.122
        39  -9.9522      6.1731     35.4551   9.6164874889e+01   7.1633836300e+01    0.3203245    0.2282033  29.80  0.001199306    1.562    0.360
        40  -9.7441    185.8377     40.9713   3.2394420192e+01   3.3298082549e+01    0.3585041    0.1192969 -46.21  0.001247869    3.021    0.669
        41 -10.8299     50.0681     37.0697   6.8132030013e+01   6.6453023781e+01    0.8444996    0.5771358  82.14  0.003475375    2.833    0.647
        42 -11.3915    203.5360    223.0990   6.8930201777e+01   4.3166302664e+00    0.2661197    0.1932711   8.51  0.001979274    1.032    0.031
        43  -9.0963     12.1180     32.8230   9.1085141299e+01   7.1947269239e+01    0.2516211    0.1812842  83.78  0.001116975    1.655    0.396
        44  -9.6941    197.9072     34.1139   2.9083904059e+01   3.1294400282e+01    0.2254292    0.1661571 -56.16  0.001251099    1.285    0.222
        45 -10.1655     85.9864     31.6685   4.9652599068e+01   6.0008562821e+01    0.2812206     0.262318   5.63 0.0008784276    1.110    0.099
        46 -10.3318     90.2944     28.5576   4.6737885103e+01   5.9452095085e+01    0.3951253    0.3191946  24.68   0.00173649    1.364    0.267
        47  -9.8501     66.8710     29.4810   5.6073819809e+01   6.4707046895e+01    0.3136842     0.191517 -21.78  0.001340913    2.064    0.515
        48 -10.0437    226.6611     29.1046   2.5237909891e+01   2.5571950485e+01    0.3889944    0.1760456  70.07  0.001904933    2.439    0.590
        49 -10.5709    210.2681    214.9899   6.6608987983e+01   4.4287893372e+00    0.3200913    0.1417641  20.03  0.001684882    2.297    0.565
        50  -9.9457    244.0157    200.4989   5.9015760117e+01   2.0278160249e+00    0.1534145   0.08740075  27.84 0.0007774221    1.594    0.373
        51  -8.8264     20.8237    156.1619   1.0354638232e+02   3.9968104676e+01    0.1646064    0.1489612 -51.93 0.0005494036    1.331    0.248
        52 -12.1749     11.4923    140.5100   1.0545276660e+02   4.4430828079e+01    0.6471707    0.3789836 -83.70    0.0034676    1.588    0.370
        53  -9.4831     39.6725    141.5203   9.6670179299e+01   4.1716120913e+01    0.2440055    0.1202874 -75.77  0.001096143    2.026    0.506
        54 -12.9394    239.8869    128.6031   4.6574624975e+01   1.0973991816e+01     1.085922    0.8917806 -44.49  0.007363213    1.506    0.336
        55  -9.0237     53.8324    143.1924   9.2419535823e+01   3.9714728105e+01    0.1857023    0.1633022 -35.95  0.001072312    1.347    0.258
        56 -10.3697      4.9845    125.2824   1.0675687287e+02   4.8607898431e+01    0.3330854    0.1477608  62.84  0.001514719    2.107    0.525
        57  -9.1509    224.1343     22.8651   2.3873107349e+01   2.6747971348e+01    0.2091362    0.1418658 -51.85  0.001231406    1.288    0.224
        58 -10.2753     85.9241     21.9472   4.4900987644e+01   6.1498039764e+01    0.6546673    0.2271163  50.02  0.002282142    2.651    0.623
        59  -8.3148     19.4981     22.4993   8.1415113020e+01   7.3753638784e+01    0.1295628    0.1207769 -35.86 -0.0005015815    1.069    0.065
        60  -9.5015    187.6506     19.4944   2.5909427419e+01   3.5332587898e+01    0.2854973    0.2039422 -60.97  0.001555715    1.328    0.247
        61  -8.8111    135.3018     19.3359   3.2288297580e+01   4.8848307202e+01    0.1514465    0.1071267  33.54 0.0007036414    1.662    0.398
        62  -9.6591    128.1637     18.1706   3.3030102043e+01   5.0900141132e+01    0.3353891    0.2973273  49.94  0.001006553    1.150    0.130
        63  -8.4381      6.6842     19.6536   9.1034512482e+01   7.5398441592e+01    0.1434482   0.07674328 -38.22 0.0004759957    1.721    0.419
        64 -10.8969     11.4941    124.4891   1.0450553149e+02   4.8396857611e+01    0.2454109    0.2123039  76.04  0.001428123    1.010    0.010
        65  -8.7237    102.9652     26.0064   4.1851873262e+01   5.6618497371e+01    0.2490873    0.1716153  31.75  0.001132396    1.679    0.404
        66  -9.9609    188.7879    117.0414   5.2088004346e+01   2.1416956398e+01    0.2316835    0.1515811  -4.67  0.001085439    1.985    0.496
        67  -9.0562    111.5142     16.6516   3.5593467625e+01   5.5548397708e+01    0.2861314    0.1948991  47.79 0.0009958132    1.453    0.312
        68  -9.7057     94.2519     17.1057   3.9978950302e+01   6.0036544575e+01    0.4334723    0.2458279  79.40  0.001746025    2.263    0.558
        69 -11.8622    249.3996    127.1859   4.5028471760e+01   9.7271963794e+00    0.8550174    0.2523942 -32.41  0.003728997    2.734    0.634
        70  -8.6735     14.3241     16.8900   8.3063114262e+01   7.5476382831e+01    0.2564694    0.1206256 -68.84  0.001093933    2.560    0.609
        71 -10.0737     64.1597     15.8902   4.9750449072e+01   6.7496978292e+01    0.2122825    0.1967256 -76.37 0.0006899666    1.273    0.214
        72 -10.1486     17.0169    104.6757   1.0089627362e+02   5.3105240484e+01    0.3346597    0.2245663  69.68   0.00176225    1.445    0.308
        73  -9.5910     30.5882    102.2046   9.5237274914e+01   5.2649250479e+01    0.2949247    0.1868957 -44.17  0.001427283    1.735    0.424
        74  -9.5340     46.4710    100.4912   8.8646778842e+01   5.1413137024e+01    0.4244492    0.2375072 -51.34  0.001886107    1.798    0.444
        75  -9.1870     92.0036    101.3243   7.2174403084e+01   4.4128308161e+01    0.2470866    0.1298121  17.03 0.0007049512    4.298    0.767
        76  -8.1708    208.6624     94.6953   4.3522929316e+01   2.0950333556e+01     0.135281   0.09780339  10.77 0.0007039832    1.672    0.402
        77  -9.8632      2.3348     88.5575   1.0551678018e+02   5.8143220865e+01    0.3386986     0.221006  80.98   0.00182887    1.407    0.290
        78 -11.5619     41.9519     82.3443   8.6940372182e+01   5.6670954354e+01    0.9428785    0.6450733  26.30  0.004663033    1.539    0.350
        79 -10.0142     46.8154     75.9101   8.3230375014e+01   5.7727274570e+01    0.3982506    0.3287407  48.38  0.001890848    1.259    0.206
        80  -9.2445    145.0279     80.9907   5.1516122402e+01   3.6982588080e+01    0.2385504    0.2354114 -65.10 0.0009256406    1.026    0.025
        81  -8.4245    215.6672     80.3277   3.9069823110e+01   2.1578842352e+01    0.1358702   0.09260154 -56.74 0.0004895547    1.716    0.417
        82 -11.5485      4.3019     75.9067   1.0353860258e+02   6.1357953741e+01    0.8377037    0.4256502  68.38  0.003846894    2.086    0.521
        83  -9.1937    169.9277     76.6162   4.5161278025e+01   3.1940339469e+01     0.305318    0.2061911 -42.15  0.001466834    1.430    0.301
        84  -8.5719    226.6712     80.3119   3.7685675971e+01   1.9464924062e+01    0.1297549   0.08843917 -54.83 0.0003115522    1.668    0.401
        85 -11.3416     17.7169     74.5620   9.6850339549e+01   6.0968151908e+01    0.5856696    0.4097584  12.11  0.003123052    1.602    0.376
        86 -10.7328     11.6573     71.1130   9.9351943857e+01   6.2250519607e+01    0.4115928    0.3208383 -30.10  0.001892528    1.389    0.280
        87  -9.7620     75.5841     68.8968   6.8743272616e+01   5.4822322935e+01    0.4995638    0.3783752  -7.81  0.002279733    1.796    0.443
        88  -8.9201     83.4879     69.5082   6.5899984748e+01   5.3140510102e+01    0.1509607    0.1497834  -5.33 0.0004492062    1.022    0.022
        89  -9.7861     25.3459     65.5667   9.1307561305e+01   6.2724008755e+01     0.446895     0.245845 -60.59  0.002092889    1.613    0.380
