#   1 NUMBER                 Running object number                                     
#   2 MAG_AUTO               Kron-like elliptical aperture magnitude                    [mag]
#   3 X_IMAGE                Object position along x                                    [pixel]
#   4 Y_IMAGE                Object position along y                                    [pixel]
#   5 X_WORLD                Barycenter position along world x axis                     [deg]
#   6 Y_WORLD                Barycenter position along world y axis                     [deg]
#   7 A_WORLD                Profile RMS along major axis (world units)                 [deg]
#   8 B_WORLD                Profile RMS along minor axis (world units)                 [deg]
#   9 THETA_WORLD            Position angle (CCW/world-x)                               [deg]
#  10 FWHM_WORLD             FWHM assuming a gaussian core                              [deg]
#  11 ELONGATION             A_IMAGE/B_IMAGE                                           
#  12 ELLIPTICITY            1 - B_IMAGE/A_IMAGE                                       
         1 -13.7938    223.8311     26.5331   3.7806380408e+00   2.6344501535e+01     0.955372    0.8175242 -35.42  0.004206953    1.235    0.190
         2 -12.7765     31.1025     15.3900   4.3858144686e+01   7.2583938744e+01    0.5569315    0.2659017  33.47  0.002698355    2.141    0.533
         3 -11.1064     39.1957      2.2622   3.0583383645e+01   7.3064748005e+01    0.3837272    0.1005636  39.31  0.001311942    4.090    0.755
         4 -10.4426     60.9914      2.0000   2.1041705537e+01   6.8778831386e+01    0.2140185   0.06835031  58.48 0.0008060489    2.968    0.663
         5 -10.9045     53.6667    241.4806   8.2398615598e+01   1.6786961449e+01    0.2734798    0.1411019  46.57  0.001601017    1.470    0.320
         6 -19.5002     11.0632    145.3180   8.5669617989e+01   4.2982735776e+01     18.92331     5.129872 -82.63   0.06424865    3.503    0.714
         7  -9.7868    211.0031    198.7537   4.4780581245e+01   1.7515541534e+00    0.2006477    0.1576738 -16.87 0.0005161557    1.134    0.118
         8 -10.4802    143.4045    197.1548   5.8039036884e+01   1.2538302222e+01    0.1750701    0.1320808 -64.14 0.0005796705    1.652    0.395
         9  -9.2825     68.9208    195.7008   7.5204299548e+01   2.4220213702e+01    0.3565943    0.1553252 -58.82  0.001578179    2.391    0.582
        10 -11.8104     57.0553    193.9596   7.7881512554e+01   2.6164883562e+01    0.4595596    0.2233183  76.20  0.001934223    2.631    0.620
        11 -12.1278     53.2334    189.1885   7.8350356084e+01   2.7741576049e+01    0.3678513    0.2546771  83.92  0.002043715    1.384    0.277
        12  -9.9925    192.2572    193.3955   4.7300969879e+01   5.3761791179e+00    0.3718194     0.208769 -62.83  0.001247438    5.600    0.821
        13  -9.4477     47.5015    193.1455   8.0104984045e+01   2.7526359861e+01     0.216748    0.1154237 -69.28  0.001061923    1.851    0.460
        14  -8.7140     78.3467    184.2200   7.1554567700e+01   2.5526574227e+01    0.1255842    0.1066131   1.91 0.0003166737    1.541    0.351
        15 -11.1028     89.8465    249.6490   7.5807513318e+01   1.0843702460e+01    0.1734761    0.1587831 -84.21 0.0006226191    1.314    0.239
        16 -12.1100     53.0160    180.8398   7.7572564057e+01   2.9737576035e+01    0.4306394    0.3198134 -30.69  0.001367948    1.965    0.491
        17 -11.5642    179.3836    169.1680   4.5258346762e+01   1.1699521519e+01    0.8328695    0.5682507   6.90  0.004026901    1.838    0.456
        18 -10.1995    174.7286    179.9957   4.8320123017e+01   1.0518911369e+01    0.3056657    0.2424169 -35.24 0.0008296936    1.260    0.206
        19 -11.1482    172.3776    175.9969   4.8046099968e+01   1.1655203511e+01    0.3771451    0.3490237 -38.11  0.001329481    1.175    0.149
        20 -10.9392     58.7720    233.2567   8.0794435384e+01   1.7718505239e+01    0.1402694    0.1202076  42.36 0.0002865012    1.206    0.171
        21  -9.7925     74.0672    179.8148   7.2080788003e+01   2.7171490626e+01    0.2106179    0.1632701  61.90 0.0004026109    1.201    0.167
        22 -12.2863    113.0359    172.5162   6.1080372928e+01   2.2757606062e+01    0.5928006    0.4182229  68.89  0.002814305    1.741    0.426
        23 -11.3455    110.8334    166.9597   6.0678944770e+01   2.4406652923e+01     0.439377    0.3232199  89.72  0.001270068    1.705    0.413
        24 -11.5595    126.2847    173.7048   5.8027658209e+01   2.0211281951e+01    0.3843852    0.1718303  38.67  0.001276742    2.122    0.529
        25 -11.6318     53.0697    231.4318   8.1844447821e+01   1.8757007948e+01    0.1925911    0.1490279 -71.82 0.0003865213    1.476    0.323
        26 -12.0406    232.7401    167.4676   3.5164408398e+01   3.2518997269e+00    0.3982683    0.3206573  79.67  0.002231481    2.492    0.599
        27 -10.8838     47.3758    229.2713   8.2878768327e+01   1.9849822153e+01    0.1503876    0.1064709  68.33 0.0007131767    1.219    0.180
        28 -10.1979    113.4864    152.3255   5.7270108690e+01   2.7377229590e+01    0.4318634    0.2617801 -78.79  0.001538109    2.542    0.607
        29 -10.8273    134.0000    147.9811   5.1103249875e+01   2.4530747944e+01    0.5732215    0.2352639 -54.23   0.00197259    2.686    0.628
        30 -11.2718    133.4886    142.9957   5.0146443296e+01   2.5763739669e+01    0.8430569    0.2598581 -55.13  0.002273697    4.323    0.769
        31 -11.5028    109.1319    145.1189   5.6991694186e+01   2.9906948264e+01    0.4121019    0.3472656 -30.85  0.001268697    1.349    0.259
        32  -8.9435    170.5773    140.7635   4.1016572873e+01   1.8845078525e+01    0.2121238    0.1364653 -52.34 0.0009400431    1.683    0.406
        33 -12.1840    105.4932    131.9033   5.5179723125e+01   3.3834238860e+01    0.7053573    0.4150207 -43.88   0.00229066    1.779    0.438
        34 -11.6571     93.7504    131.4523   5.8499575113e+01   3.6095898217e+01    0.3407853    0.2787828 -66.46 0.0002829623    1.194    0.163
        35 -11.2085    135.4718    126.4801   4.5793210175e+01   2.9138160205e+01    0.7929368    0.2018698 -52.59   0.00183481    5.418    0.815
        36 -10.9364    113.6052    125.6572   5.1436256949e+01   3.3802553032e+01    0.3299556    0.2931195  14.39 0.0007231164    1.292    0.226
        37  -9.8312    160.6004    122.8604   3.8904426564e+01   2.4589875070e+01    0.2291422    0.1391118 -52.68 0.0009450342    1.747    0.428
        38  -9.4945    143.9562    123.0172   4.2821750293e+01   2.8122786201e+01    0.2320016    0.2255525 -65.73 0.0004182295    1.039    0.038
        39 -10.5404    101.0640    120.7996   5.3896200491e+01   3.7442368003e+01    0.3056065    0.2615883   7.42 0.0007157144    1.428    0.300
        40  -9.9688    109.0482    115.9767   5.0347791208e+01   3.7073020883e+01    0.2381089    0.2278148 -45.19 0.0003662354    1.061    0.057
        41  -9.6542     85.2217    116.1534   5.7681564335e+01   4.1525911477e+01    0.2309363    0.2087583 -42.61 0.0004173196    1.150    0.130
        42 -11.4714     37.7297    224.8223   8.4605961835e+01   2.1834633880e+01    0.1901946    0.1452516  61.72 0.0002645849    1.022    0.021
        43  -9.2099    152.8176    112.9677   3.8125257627e+01   2.8377082050e+01     0.262282    0.1751795 -66.35 0.0009361627    1.977    0.494
        44 -11.6114    115.6939    108.4702   4.6457915844e+01   3.7511707355e+01     0.569014    0.3269898  59.11  0.002132899    2.219    0.549
        45  -9.0838     83.4249    223.5244   7.4740747823e+01   1.6427002820e+01     0.125925    0.1036622  52.54 0.0001208772    1.020    0.019
        46 -10.3448    134.4402    105.7158   4.0629928632e+01   3.4060306521e+01    0.3168822     0.150563 -48.61  0.001134377    2.080    0.519
        47  -9.1667    150.3072    104.9368   3.6542324085e+01   3.0644742396e+01     0.272833    0.1140978 -57.64 0.0007034184    4.401    0.773
        48 -12.0076    118.3517    103.3467   4.4289228068e+01   3.8146126680e+01    0.4258941     0.366422 -74.05   0.00184438    1.250    0.200
        49 -10.1472     71.4367    222.8943   7.7277687764e+01   1.8141868578e+01    0.1534527    0.1171272 -76.76 0.0003649287    1.424    0.298
        50 -10.9833    120.5050     98.4151   4.2275891358e+01   3.8809045324e+01    0.2902972    0.2782705 -60.06 0.0007485482    1.009    0.009
        51 -10.2938     77.9935    100.1794   5.6088218760e+01   4.6880916735e+01    0.2389361    0.2029001  74.38 0.0004939146    1.307    0.235
        52  -9.7631     98.1351     88.1640   4.5876319908e+01   4.5981950133e+01    0.2217262    0.1889107  89.93 0.0004976772    1.358    0.263
        53 -11.4917     28.7012     87.6382   7.1959361580e+01   5.6783954831e+01    0.2798162    0.2573716  -8.78 0.0004220492    1.247    0.198
        54  -9.1998    157.4579     87.4624   2.9984090288e+01   3.2532085395e+01    0.1565015    0.1484058 -46.96 0.0001973403    1.023    0.022
        55 -11.3322     59.4393     85.4429   5.8892892794e+01   5.3617809717e+01    0.6482574    0.2808191  48.69  0.001935411    2.988    0.665
        56 -15.9220     66.3973    145.0508   6.9233023293e+01   3.6955717146e+01     3.790569     2.942564  64.01   0.01255316    1.283    0.221
        57  -9.6867     82.9304     74.3131   4.6525558418e+01   5.2228716729e+01    0.2733746    0.2159577 -76.65 0.0007811851    1.566    0.361
        58 -11.2450     87.9424    220.3656   7.3439328977e+01   1.6425781996e+01    0.3649038    0.3178238  38.55  0.001508562    1.130    0.115
        59 -12.8152    179.1137     65.5441   1.9512919360e+01   3.1234605009e+01    0.5360183    0.4704486 -47.46 0.0008315174    1.049    0.046
        60 -11.9430     42.5640     70.7526   6.1698421536e+01   5.9584552690e+01    0.3545455    0.2890855  29.09 0.0006412843    1.355    0.262
        61 -13.7990    195.6961     53.3743   1.3658732294e+01   2.9158426437e+01     1.238572     1.019266  39.27  0.004044855    1.506    0.336
        62 -12.3403    201.8413     47.6757   1.1347929137e+01   2.8541285023e+01    0.5206696     0.458917  21.27  0.001667971    1.475    0.322
        63 -10.0976     61.0273     60.0059   4.9942130436e+01   5.9402241090e+01    0.2171321    0.2014392 -29.82  0.001221935    1.008    0.008
        64 -10.7253     74.0934     58.7653   4.4164222862e+01   5.7323474414e+01    0.3116036     0.253047  53.36 0.0005654541    1.375    0.272
        65 -10.9777     51.3237     58.1724   5.3524012851e+01   6.1344510303e+01    0.3073721    0.2542518  45.50 0.0007001113    1.377    0.274
        66  -9.3557    138.2479     56.2476   2.4241344601e+01   4.3011931723e+01    0.2098132     0.171258 -68.80  0.000399172    1.310    0.237
        67 -10.6118     32.3694     49.9027   5.9721955503e+01   6.5699058974e+01    0.2116559    0.1896793  34.61 0.0006192069    1.289    0.224
        68  -9.8095     68.7920     47.6351   4.1727386134e+01   6.0570097158e+01    0.1937284    0.1362681  51.16 0.0003191306    1.595    0.373
        69  -9.6801    249.6535    249.6736   4.6566326940e+01  -9.2772003823e+00    0.1114495   0.05909584   1.50 0.0007050042    1.748    0.428
        70 -10.7182     60.7154     21.4280   3.2391320751e+01   6.6549002809e+01    0.2561499    0.2331264   4.91 0.0006685238    1.024    0.024
        71  -9.1664    164.0000    204.9038   5.4910530985e+01   7.8563362388e+00    0.1951171   0.07357424 -45.89 0.0007934253    2.880    0.653
        72  -9.7985     51.0453    200.2740   7.9883293119e+01   2.5488394560e+01    0.2952555    0.1123075 -71.87  0.001270284    2.637    0.621
        73 -10.3483     21.2041    247.0143   8.8979038263e+01   1.9345259834e+01    0.1366331    0.1132416  59.37 0.0007054621    1.198    0.166
