#   1 NUMBER                 Running object number                                     
#   2 MAG_AUTO               Kron-like elliptical aperture magnitude                    [mag]
#   3 X_IMAGE                Object position along x                                    [pixel]
#   4 Y_IMAGE                Object position along y                                    [pixel]
#   5 X_WORLD                Barycenter position along world x axis                     [deg]
#   6 Y_WORLD                Barycenter position along world y axis                     [deg]
#   7 A_WORLD                Profile RMS along major axis (world units)                 [deg]
#   8 B_WORLD                Profile RMS along minor axis (world units)                 [deg]
#   9 THETA_WORLD            Position angle (CCW/world-x)                               [deg]
#  10 FWHM_WORLD             FWHM assuming a gaussian core                              [deg]
#  11 ELONGATION             A_IMAGE/B_IMAGE                                           
#  12 ELLIPTICITY            1 - B_IMAGE/A_IMAGE                                       
         1 -12.9520    181.5754     43.2204   5.5536190262e+01   3.4384947443e+01     1.244175    0.9731171  11.83  0.004416709    1.617    0.382
         2 -12.9954    204.0061     12.3602   4.3671263434e+01   3.2432480981e+01     1.006833    0.9456629 -12.33  0.005589425    1.259    0.206
         3  -9.9075     71.4534    240.6682   1.2049977303e+02   1.6853135560e+01    0.1783221     0.145773  72.22  0.000596107    1.145    0.127
         4 -11.6656    247.5502    248.4825   9.0079699912e+01  -1.0893442162e+01    0.5385717    0.2993615  40.05  0.003386672    1.727    0.421
         5 -19.4500     36.4034    149.3635   1.1910656585e+02   3.9975371127e+01     19.25596     3.695105 -71.28   0.05816787    5.035    0.801
         6 -11.3337     16.0803    206.4912   1.2802548225e+02   2.9733108668e+01     0.188363    0.1508481  49.74  0.001454458    1.403    0.287
         7 -10.6810     11.6234    205.0459   1.2874461436e+02   3.0446615495e+01    0.2504228    0.1681271  81.59  0.001825677    1.105    0.095
         8 -10.2559     62.5612    205.8071   1.1918402432e+02   2.4564776191e+01    0.1967006    0.1576428  57.27 0.0005289244    1.163    0.140
         9  -8.7132     87.9639    202.4566   1.1371476159e+02   2.1687720427e+01    0.1862724    0.1107498  43.23 0.0007710788    1.533    0.348
        10  -9.4707     81.7059    195.3313   1.1419531756e+02   2.4064159992e+01    0.3314183    0.2188895  61.81   0.00189361    1.371    0.271
        11 -11.0312     96.9663    191.9845   1.1053984231e+02   2.2449686297e+01    0.3744814     0.290955 -42.40  0.001022706    1.686    0.407
        12 -11.0665     99.8396    187.2990   1.0928973054e+02   2.2971453288e+01    0.3120046    0.2208517  39.47  0.001075458    1.418    0.295
        13  -9.9704     83.5832    239.3050   1.1823656584e+02   1.5431584269e+01    0.1818544    0.1445416  58.12 0.0003771056    1.099    0.090
        14 -11.0975    149.9824    187.9768   9.8504542306e+01   1.4060860132e+01    0.3946553    0.2587376 -65.25  0.001615415    1.949    0.487
        15 -10.5748     69.1994    192.2203   1.1647496020e+02   2.6475696614e+01    0.3411981    0.2448118 -42.95   0.00134324    2.005    0.501
        16 -11.3142    124.6303    186.3779   1.0372417032e+02   1.8983020937e+01    0.2722918    0.2217828 -36.58  0.001528705    1.520    0.342
        17 -10.9206     99.3614    180.9386   1.0850379742e+02   2.4398294752e+01    0.2653096    0.2473845  80.61 0.0006416871    1.107    0.097
        18 -10.5151    150.3990    178.8358   9.6814549604e+01   1.5751446876e+01    0.3697258    0.2443574 -73.00  0.001034705    2.181    0.542
        19 -10.9565    249.0985    232.9894   8.7349796415e+01  -9.4667326068e+00     0.233662    0.1510555 -11.79  0.001520483    1.493    0.330
        20  -9.2833    187.4902    176.4694   8.8528396869e+01   8.9890464652e+00    0.2546017    0.2266182  26.12 0.0007822819    1.035    0.034
        21  -9.2362      1.3435    177.3534   1.2910582225e+02   3.6975469862e+01    0.1041147   0.07908095 -84.11 0.0007644006    1.186    0.157
        22 -11.0071    141.7162    174.5626   9.7958502464e+01   1.8258808634e+01    0.3081599    0.2416887 -69.75  0.001624561    1.450    0.310
        23 -10.7859    111.8278    168.5147   1.0372966766e+02   2.5003827232e+01    0.4197445    0.2314088  65.88  0.001178903    2.517    0.603
        24 -10.6796    104.6384    173.4200   1.0618446531e+02   2.5158399612e+01    0.2618257    0.1687203 -58.14  0.001078833    1.586    0.369
        25  -8.8830    167.3034    226.0642   1.0098825146e+02   4.4241973421e+00    0.1622809    0.1501992  30.95 0.0004359988    1.127    0.113
        26 -10.3700     96.0857    155.7406   1.0534797751e+02   3.0534272388e+01    0.2593807    0.2291699  82.18 0.0003909782    1.051    0.049
        27  -9.4696    113.5667    151.7513   1.0033539787e+02   2.8431401935e+01    0.2463606    0.1797212 -68.09 0.0006876581    1.429    0.300
        28 -11.4780    100.9527    149.7105   1.0308510324e+02   3.1109644913e+01    0.5845993    0.4255569 -35.08  0.002026197    1.751    0.429
        29 -10.0031    133.9499    145.9407   9.4193480173e+01   2.5854940696e+01    0.9277574    0.2075611 -55.01  0.001883263    8.166    0.878
        30 -10.5527    110.8015    136.2261   9.7947716436e+01   3.2488914227e+01    0.4323153    0.2896338 -31.21  0.001910064    1.996    0.499
        31 -10.5913     99.6499    135.6638   1.0074004364e+02   3.4598907970e+01     0.267173    0.2560605 -16.67 0.0004725319    1.215    0.177
        32 -10.4015    105.9151    130.9388   9.8110656772e+01   3.4602075616e+01    0.3596253    0.3218028 -83.68  0.001153024    1.109    0.098
        33  -9.2764    116.7833    128.0199   9.4608651098e+01   3.3257146253e+01    0.2638201     0.201012  23.83  0.001029394    1.598    0.374
        34  -9.5014    105.0860    123.7815   9.6769558010e+01   3.6418838558e+01    0.2552811    0.2231116 -16.32 0.0005818724    1.382    0.276
        35 -13.4894     75.4262    248.5949   1.2042661082e+02   1.4972105825e+01    0.2812794    0.1872788 -68.57  0.001447627    1.725    0.420
        36  -8.7613    231.2092    113.8035   6.6210828189e+01   1.0935746780e+01    0.1977642    0.1655144   6.96 0.0009271007    1.314    0.239
        37  -8.8353    167.6592    112.3618   7.8211470358e+01   2.5696927821e+01    0.1666923    0.1252853 -79.87 0.0007033304    1.834    0.455
        38  -9.0196    205.5067    110.4540   6.9920135699e+01   1.7233000014e+01    0.1503991    0.1451485 -27.02 0.0003105707    1.011    0.011
        39 -11.1761     71.0056    207.9100   1.1771556197e+02   2.3015854931e+01    0.4401206    0.2893116  26.12  0.001894702    2.130    0.531
        40 -12.0677    167.0549     57.2484   6.2466121099e+01   3.6027764339e+01    0.5754994    0.4987117 -48.99  0.001485454    1.177    0.150
        41  -9.8967    162.6891    208.5693   9.9250450061e+01   8.0439747872e+00     0.270681    0.1138526  38.02  0.001147856    2.168    0.539
        42 -12.2248     68.0640    246.9168   1.2156066228e+02   1.6230271490e+01    0.1929518    0.1498269  87.83 0.0005139513    1.274    0.215
        43 -11.5474    186.8627     36.5892   5.2726727165e+01   3.3921217884e+01    0.5075188    0.4067578  41.10  0.001055287    1.359    0.264
