#   1 NUMBER                 Running object number                                     
#   2 MAG_AUTO               Kron-like elliptical aperture magnitude                    [mag]
#   3 X_IMAGE                Object position along x                                    [pixel]
#   4 Y_IMAGE                Object position along y                                    [pixel]
#   5 X_WORLD                Barycenter position along world x axis                     [deg]
#   6 Y_WORLD                Barycenter position along world y axis                     [deg]
#   7 A_WORLD                Profile RMS along major axis (world units)                 [deg]
#   8 B_WORLD                Profile RMS along minor axis (world units)                 [deg]
#   9 THETA_WORLD            Position angle (CCW/world-x)                               [deg]
#  10 FWHM_WORLD             FWHM assuming a gaussian core                              [deg]
#  11 ELONGATION             A_IMAGE/B_IMAGE                                           
#  12 ELLIPTICITY            1 - B_IMAGE/A_IMAGE                                       
         1 -13.8354    178.9350     39.8046   6.8220625493e+01   3.5754320471e+01    0.8958277    0.6470106 -12.05  0.001105992    1.979    0.495
         2 -14.1243    188.6528     31.4936   6.4768565942e+01   3.4512380116e+01    0.9417661    0.8401694  87.17   0.00307582    1.062    0.058
         3 -14.6071    197.3640     19.7417   6.0922940065e+01   3.3876586202e+01     1.091277     0.866132 -14.80  0.001806883    1.776    0.437
         4 -12.9583    211.6162      2.8714   5.5801006979e+01   3.2475390671e+01    0.6316105    0.2156154  74.17  0.002820167    2.543    0.607
         5 -10.6077     44.6629      2.3276   8.7909662951e+01   6.7376142672e+01    0.0908935   0.09056095 -22.44 0.0007051798    1.727    0.421
         6 -13.3776     99.9243    249.2355   1.3050900854e+02   8.9040675380e+00     1.162578    0.5600059  47.56  0.003181297    1.759    0.432
         7 -12.4104     77.0630    217.0175   1.3145102031e+02   1.9132895651e+01    0.5955675    0.3731236  76.44   0.00170473    1.726    0.421
         8 -15.1004    118.0892    228.7321   1.2417913396e+02   1.0047662452e+01     5.978414     1.093795  41.16   0.01728717    4.523    0.779
         9 -14.9780    127.0527    248.0729   1.2492705112e+02   4.7623909899e+00     3.692235    0.9910389  35.63   0.01181657    4.159    0.760
        10 -11.4090     80.6794    249.3065   1.3428227685e+02   1.1812009833e+01    0.3280483    0.2277032 -67.18  0.001943962    1.537    0.349
        11 -10.4838     82.6793    243.3357   1.3327209062e+02   1.2704839338e+01     0.267828    0.1665272 -84.58  0.001240171    1.738    0.425
        12 -10.9560     63.7018    250.2925   1.3760615534e+02   1.4040355057e+01    0.4186991    0.1497224  41.64  0.001653649    2.390    0.582
        13 -11.9586     69.0317    248.6846   1.3645321282e+02   1.3615107177e+01    0.4795656    0.2304641 -70.41  0.001704755    2.140    0.533
        14 -12.3310     72.9406    247.6961   1.3561230841e+02   1.3255650345e+01    0.5034884    0.4048473  57.75 0.0006346642    1.110    0.099
        15 -10.3851     57.4999    249.6559   1.3870538733e+02   1.5011688096e+01    0.2611188    0.1511127  65.13  0.001295429    1.523    0.343
        16 -15.0403     52.7486    230.4357   1.3788647289e+02   1.9603506520e+01     2.743286    0.9433086 -58.37   0.01185552    2.990    0.666
        17 -11.4845    106.5566    202.0870   1.2282198292e+02   1.7807606336e+01    0.4367206    0.2100633  37.35  0.001616668    2.092    0.522
        18 -13.2156     66.7841    197.4005   1.3128396477e+02   2.5123360612e+01    0.6901386     0.561908 -78.96   0.00258191    1.117    0.105
        19  -9.6740     37.9260    200.4602   1.3800442827e+02   2.8119025355e+01    0.1765965    0.1107797  47.54 0.0008274078    1.561    0.360
        20 -15.8509     72.2427    150.2621   1.2269125663e+02   3.5843124401e+01     5.685863     3.045619  84.73    0.0129626    4.121    0.757
        21 -12.8986    196.1785    196.5782   1.0185690702e+02   2.4236266330e+00    0.9618042    0.7152296  76.28  0.004532729    2.159    0.537
        22 -11.2707    208.0050    185.5164   9.7249946116e+01   2.3797462156e+00    0.3070327    0.2333694  18.90  0.001028728    1.442    0.307
        23 -11.4497    212.4758    181.5257   9.5551805941e+01   2.3226219662e+00    0.3780617    0.2529609  -9.83  0.001319539    2.040    0.510
        24 -11.5412    101.0452    232.5423   1.2828546221e+02   1.2068370688e+01    0.3496422    0.2356941 -89.79 0.0004537104    1.702    0.413
        25 -11.9804     78.4279    181.3695   1.2629546890e+02   2.7264361193e+01    0.4821993    0.2845733 -40.32  0.002115524    2.238    0.553
        26 -12.0645     82.1953    175.9340   1.2451433052e+02   2.8013443555e+01    0.3505981    0.2476251 -48.69 0.0008196874    1.496    0.332
        27  99.0000     47.5177    216.9266   1.3764133784e+02   2.3221185463e+01    0.3516393    0.2371625  69.31  0.002069493    1.317    0.240
        28  -9.0269     72.6434    180.3126   1.2754412204e+02   2.8379231040e+01    0.1514194   0.09845235  71.19 0.0007043941    1.739    0.425
        29 -10.6247    197.7709    175.9060   9.7349280347e+01   6.2102368649e+00    0.3404639    0.2360237 -58.73   0.00158539    1.712    0.416
        30 -11.3331    126.4898    173.1356   1.1300161507e+02   2.0979481716e+01    0.3377283    0.1934857  56.06  0.001353173    2.014    0.503
        31 -11.1508     48.6630    172.7114   1.3231085910e+02   3.3434180026e+01    0.2826453    0.2397268  54.83  0.001470393    1.237    0.191
        32 -10.6041    204.1968    168.6058   9.4503455910e+01   6.4277307092e+00    0.2750161    0.2570011  79.13   0.00153321    1.235    0.190
        33 -11.1553    184.9663    168.2310   9.8419735828e+01   1.0338679004e+01    0.3464505    0.2737421 -71.85  0.001181327    1.568    0.362
        34 -12.3255     95.1662    158.6674   1.1814971084e+02   3.0162306120e+01    0.6403338    0.4177798 -33.18  0.001573383    2.017    0.504
        35 -11.2020    138.2480    171.3875   1.0979072146e+02   1.9106381669e+01    0.2709422     0.194833 -77.09  0.001176255    1.748    0.428
        36 -10.0229     39.7993    212.9068   1.3883165378e+02   2.5070148101e+01     0.222174    0.1166924  61.32 0.0007202742    1.828    0.453
        37 -11.2146    134.0000    146.0300   1.0540523821e+02   2.5920536329e+01    0.7391268    0.1536273 -51.68  0.001700502    5.406    0.815
        38 -10.2151    174.3541    148.6938   9.6420532803e+01   1.6761481645e+01    0.1604207    0.1239353  88.65 9.124611e-05    1.716    0.417
        39 -11.0966    107.0197    142.2150   1.1160747522e+02   3.2097143067e+01    0.5794775     0.296327 -34.49  0.002022013    2.816    0.645
        40 -12.3063     95.0030    142.8824   1.1501892043e+02   3.4067878203e+01     0.290666    0.2727524 -38.82 0.0004110865    1.118    0.106
        41 -10.3073     81.9695    137.2827   1.1746638542e+02   3.7572371572e+01    0.1943159     0.191084 -75.95   0.00041316    1.070    0.065
        42 -11.1016    114.4318    131.8873   1.0725051690e+02   3.3169066757e+01      0.32873    0.2622188 -22.84 0.0007311541    1.497    0.332
        43 -11.0468    102.2605    128.4064   1.0978102581e+02   3.6277558382e+01    0.3129539    0.2385879 -34.51 0.0009216589    1.411    0.291
        44 -11.0327    160.6677    126.3575   9.4236021336e+01   2.4655061020e+01    0.2757935    0.2598825 -55.39  0.001083893    1.039    0.037
        45 -10.4252    105.9612    130.7932   1.0931031788e+02   3.5032572318e+01    0.3408577    0.2921389 -82.74  0.001415694    1.286    0.223
        46 -10.1104    135.0000    120.9711   9.9144881724e+01   3.1482320456e+01    0.2663994    0.0881735 -46.25 0.0008071262    2.975    0.664
        47 -10.1924    109.9078    120.2254   1.0566766106e+02   3.6760549620e+01    0.2164022    0.2030362  86.51 0.0003286438    1.134    0.118
        48 -10.3193    167.8130    112.6458   8.9202666596e+01   2.5947646031e+01    0.3077774    0.2316932 -87.43  0.001253522    1.716    0.417
        49 -10.8347    115.1743    210.9267   1.2222010915e+02   1.4341304875e+01    0.2249096    0.1792627  78.20  0.001206462    1.313    0.239
        50  -9.6870    205.5188    110.0345   8.1043389818e+01   1.7883491776e+01     0.223753    0.1392408 -43.19 0.0005841302    1.517    0.341
        51 -11.4898     66.9927    104.7049   1.1457783967e+02   4.7474776797e+01    0.1937501    0.1850096   1.03 0.0009269302    1.112    0.101
        52 -10.1326     73.2546    101.9812   1.1192298365e+02   4.7178718944e+01     0.184096    0.1136807 -50.87  0.000364316    1.504    0.335
        53 -19.3259      9.9851    130.0526   1.3652557499e+02   4.7413005958e+01     18.59597      1.94074 -69.61   0.03859056   10.354    0.903
        54 -11.4838     87.2341    239.6164   1.3195852048e+02   1.2772724865e+01    0.2646274    0.2420191  70.53 0.0004969657    1.158    0.137
        55  -9.1912     37.0897    206.5229   1.3878029482e+02   2.6830159375e+01     0.158598    0.1120456  50.02 0.0003989045    1.386    0.278
        56 -10.7396     78.0147    209.3046   1.3028902599e+02   2.0729845765e+01    0.3122359    0.2463065  79.09  0.001800826    1.165    0.141
        57  -9.9894     30.0083    222.1020   1.4158616120e+02   2.4193879526e+01    0.1701824    0.1292537  80.19   0.00112908    1.020    0.020
