#   1 NUMBER                 Running object number                                     
#   2 MAG_AUTO               Kron-like elliptical aperture magnitude                    [mag]
#   3 X_IMAGE                Object position along x                                    [pixel]
#   4 Y_IMAGE                Object position along y                                    [pixel]
#   5 X_WORLD                Barycenter position along world x axis                     [deg]
#   6 Y_WORLD                Barycenter position along world y axis                     [deg]
#   7 A_WORLD                Profile RMS along major axis (world units)                 [deg]
#   8 B_WORLD                Profile RMS along minor axis (world units)                 [deg]
#   9 THETA_WORLD            Position angle (CCW/world-x)                               [deg]
#  10 FWHM_WORLD             FWHM assuming a gaussian core                              [deg]
#  11 ELONGATION             A_IMAGE/B_IMAGE                                           
#  12 ELLIPTICITY            1 - B_IMAGE/A_IMAGE                                       
         1 -11.9234     81.0595      8.8902   2.5484197016e+01   6.1529619289e+01    0.1831837      0.15244  36.76 0.0003607765    1.024    0.024
         2 -10.7954    114.9205      6.6676   1.6358228089e+01   5.4501149249e+01    0.2219258    0.1365379  13.95  0.001143251    2.236    0.553
         3 -11.2748    122.1523      5.0886   1.4434500007e+01   5.2993936511e+01    0.1875722    0.1449164  46.32 0.0002706298    1.195    0.163
         4 -11.5064    100.5835      2.1423   1.7860716982e+01   5.8057334513e+01    0.2655694    0.1439974  53.30  0.001442232    1.473    0.321
         5 -11.1888     98.9974    248.7443   7.6337327425e+01   9.2800658545e+00    0.2493367    0.1526903 -33.05   0.00119947    2.832    0.647
         6 -11.6191    237.5563    248.9135   4.8621156474e+01  -1.0941221552e+01    0.2824407     0.173551 -30.73  0.001788202    1.578    0.366
         7 -11.6148     83.9063    250.6543   7.9645462045e+01   1.1090588486e+01    0.2803219    0.1054293  33.85  0.001209883    2.489    0.598
         8 -13.1695     70.4766    236.8395   8.1111572822e+01   1.5689149066e+01    0.3886723    0.3687122 -52.55  0.002667915    1.364    0.267
         9 -13.2881     73.4117    230.7503   7.9890043812e+01   1.6544690254e+01    0.4713782    0.2612624 -73.16   0.00129687    1.941    0.485
        10 -12.7875     62.1567    248.6210   8.3865176592e+01   1.4442876558e+01    0.4469227    0.3147846 -23.94  0.001774973    2.825    0.646
        11 -13.7588     70.1186    247.1158   8.2129770647e+01   1.3679201764e+01     0.508971    0.3591237  89.94  0.001049544    1.461    0.316
        12 -12.0646     55.7095    247.8112   8.5084796763e+01   1.5434388319e+01    0.4791095    0.1969256 -66.70  0.002380047    2.535    0.605
        13 -15.5410     60.1034    232.6864   8.2913121500e+01   1.7934467810e+01     2.791809     1.320323  66.69   0.01267817    2.471    0.595
        14 -15.3765     28.3537    150.0721   8.1949885973e+01   4.0876799079e+01     1.397084     0.819859  14.95  0.006971553    2.210    0.548
        15 -15.2060      7.5826    185.0852   9.0512590218e+01   3.4313883415e+01     1.953962     0.831161  61.42  0.009255809    2.393    0.582
        16 -15.4318     36.5840    246.5316   8.8731913295e+01   1.8021467972e+01     1.903443    0.5946659  42.81   0.00901473    2.394    0.582
        17 -14.9436      9.1850    197.6963   9.1040043976e+01   3.1297786549e+01     1.052287    0.6883067 -66.12  0.004491789    1.497    0.332
        18 -16.1811     31.3717    225.8459   8.8336425691e+01   2.2867968162e+01      2.05711     1.130425  56.21   0.01171413    1.548    0.354
        19 -15.6406     16.9631    211.6763   9.0329620397e+01   2.7452980558e+01     1.193779      0.68275  55.52  0.006665344    1.511    0.338
        20 -15.6650      5.0928    214.1969   9.2916676027e+01   2.8030477159e+01     1.454734    0.5527513  77.95   0.00657024    2.785    0.641
        21 -15.5572     14.4298    225.2799   9.1706128193e+01   2.4778809854e+01    0.6648747    0.5371321 -60.63  0.004224154    1.541    0.351
        22 -17.0020      5.2128    238.7237   9.4184374193e+01   2.2926252827e+01     2.021631    0.9266921  82.90   0.01140401    1.951    0.487
        23 -16.6210     11.6841    238.8674   9.2994907104e+01   2.2259230506e+01     1.452981     1.027811 -17.50  0.008441585    3.060    0.673
        24 -11.4637    153.0454    246.1351   6.4684144750e+01   1.4886943846e+00    0.1866186    0.1589249  29.05 0.0003832298    1.017    0.017
        25 -10.7233    205.6866    244.2986   5.3800777201e+01  -6.0836967515e+00    0.1098458   0.09435467  50.41 0.0002797925    1.605    0.377
        26 -14.0103     29.9510    161.4096   8.2848715122e+01   3.7937881617e+01    0.7175789    0.2984414  28.75  0.002874127    2.577    0.612
        27 -11.9183    199.1843    241.2230   5.4580365230e+01  -4.6906136011e+00    0.2094438    0.1659265  26.11 0.0003399055    1.138    0.121
        28 -11.2526    143.0858    242.1534   6.6226812634e+01   3.7400817364e+00    0.1901479    0.1562013  21.45 0.0002742306    1.186    0.157
        29 -12.4692     59.9973    241.1193   8.3672554533e+01   1.6216451897e+01    0.3660719    0.1834396  60.83  0.001419826    1.936    0.483
        30 -11.7758    107.1234    239.9572   7.3632018404e+01   9.7476653637e+00     0.310335    0.1815264 -60.67  0.001317984    1.953    0.488
        31 -13.0136    102.5069    237.7912   7.4371102432e+01   1.0872084389e+01    0.4168517    0.2940573  16.25  0.002232795    1.847    0.459
        32 -10.6536     89.5182    241.0461   7.7509211427e+01   1.2155257984e+01    0.1634803    0.1238751 -70.79 0.0004935654    1.457    0.314
        33 -11.3307    124.3247    250.4582   7.1247477820e+01   5.1605692925e+00    0.1717829    0.1370863   8.73  0.000201763    1.520    0.342
        34 -11.8603    147.9662    239.0277   6.4756701924e+01   3.5290607110e+00     0.262615    0.1652222  31.78 0.0006890518    1.412    0.292
        35 -11.4022     79.4734    237.2473   7.9247832174e+01   1.4356394605e+01    0.2187475    0.1904701  43.97 0.0008307521    1.166    0.142
        36 -11.0874    121.9380    236.0000   6.9942795827e+01   8.2175289728e+00    0.2269643   0.06654249  36.50 0.0006648595    2.951    0.661
        37 -10.5734    209.5003    234.4946   5.1492533180e+01  -5.1474740239e+00    0.1233542    0.1064894  12.10 -0.0004001663    1.103    0.093
        38 -10.8523    158.4721    233.4778   6.1714073627e+01   2.8474897919e+00    0.1332185    0.1156051  28.29 0.0001748751    1.004    0.004
        39 -12.7883    179.3651    229.3586   5.6685617324e+01   2.4010340686e-01    0.4833079    0.3169141  58.33  0.001422644    2.260    0.558
        40 -12.3507    231.7527    227.6098   4.6171092366e+01  -7.2162163707e+00    0.2982266     0.200579 -21.19  0.001082975    1.376    0.273
        41 -11.4449    194.1183    228.7991   5.3584808810e+01  -1.9609739750e+00    0.1939068    0.1713827  32.71 0.0006201112    1.219    0.179
        42 -12.1161    112.6620    227.6498   7.0896064618e+01   1.1330978408e+01    0.2883753    0.2228123   6.89  0.001564699    1.712    0.416
        43 -10.8807    128.3060    226.9951   6.7330405772e+01   8.9549882558e+00     0.203721   0.09412832 -34.64 0.0005571751    4.061    0.754
        44 -11.7861    106.0165    226.4209   7.2219328018e+01   1.2625042503e+01    0.2368944    0.1889993 -37.53  0.001252966    1.574    0.365
        45 -12.3769     91.4932    225.7605   7.5378585675e+01   1.4982771604e+01    0.3070531     0.122821 -59.04  0.001303002    2.656    0.623
        46 -11.2501    222.4645    225.8656   4.7588657912e+01  -5.6721458454e+00    0.1730192    0.1129196 -34.36 0.0007723683    1.508    0.337
        47 -11.3258    156.3098    225.8805   6.1019861229e+01   4.5818962819e+00    0.1813149    0.1691104 -10.54  0.001085618    1.141    0.123
        48 -13.3381     78.1372    220.8651   7.7804872764e+01   1.7982829174e+01    0.5763838    0.3448738  72.65   0.00227703    1.931    0.482
        49 -12.8280     67.9519    223.9011   8.0386991440e+01   1.8749361369e+01    0.4935212    0.1937566 -72.61 0.0003397092    2.891    0.654
        50 -11.6982     90.6882    210.0569   7.3633345903e+01   1.8502883519e+01    0.4427393    0.3008558 -32.51  0.001385125    2.164    0.538
        51 -11.9781     86.6660    210.2074   7.4593276223e+01   1.9077569911e+01    0.3428018    0.2572324  88.69  0.001103207    1.407    0.289
        52 -13.6490     64.6132    215.6199   8.0280195650e+01   2.1010335710e+01    0.9109714    0.3752981  29.79   0.00379882    2.687    0.628
        53 -12.2841     79.2164    212.5682   7.6610809686e+01   1.9649107713e+01    0.3261096    0.2501944  62.33  0.000641687    1.198    0.165
        54 -11.6091     75.6002    212.2048   7.7402460273e+01   2.0249308426e+01    0.2376488     0.190092  67.69 0.0003627038    1.143    0.125
        55 -11.0236    212.2900    222.7319   4.8986470693e+01  -3.7135272843e+00    0.2445064    0.1501295   9.09   0.00124474    1.903    0.475
        56 -11.9592    159.9507    222.3214   5.9673586551e+01   4.6441448719e+00    0.3367631    0.2118193  42.20  0.001123675    1.479    0.324
        57 -12.3421    124.7138    221.8535   6.7407861031e+01   1.0569192653e+01    0.2856803    0.1780844  43.34  0.001111953    1.429    0.300
        58 -12.1637    246.2867    220.4414   4.2360903347e+01  -8.0935333254e+00    0.1991468     0.158671 -20.27 0.0002214397    1.139    0.122
        59 -12.4526    238.0072    219.8513   4.3715398657e+01  -6.9101838245e+00     0.344027    0.1674385 -36.87  0.001789793    1.935    0.483
        60 -12.2142    231.5241    219.5332   4.4828546203e+01  -5.9742793183e+00    0.2929046    0.1122846 -42.30  0.001302113    2.664    0.625
        61 -12.8885    173.3520    219.4985   5.6339526904e+01   2.9510272029e+00    0.3996833    0.2798488 -25.97 0.0008242271    1.615    0.381
        62 -12.6228     87.5302    220.5853   7.5658305776e+01   1.6673947139e+01    0.2470577    0.2143568  56.96 0.0002794208    1.016    0.016
        63 -11.3017    222.9844    220.3112   4.6539246449e+01  -4.8888473461e+00    0.1821236    0.1400991  17.59  0.001133871    1.177    0.151
        64 -13.3566     84.3709    214.7540   7.5683508564e+01   1.8411241762e+01     0.634721    0.3318859  43.20  0.003025668    1.692    0.409
        65 -12.5066    145.1135    216.3885   6.2002824063e+01   8.2695921447e+00    0.3850969    0.3547134  79.55   0.00230773    1.238    0.192
        66 -13.3925    140.2649    211.7400   6.2362746060e+01   1.0027873743e+01    0.5632723      0.43598 -71.40  0.002956977    1.579    0.367
        67 -11.9337    129.8676    217.3444   6.5587363351e+01   1.0637078196e+01    0.2252451    0.1610839 -49.68 0.0009622074    1.549    0.354
        68 -13.0281    108.3076    215.6360   7.0279391060e+01   1.4525234698e+01    0.3593095    0.2710531 -71.56  0.001505869    1.463    0.317
        69 -12.0762    193.1680    215.1188   5.1467514253e+01   5.0614463184e-01    0.2240396    0.1931383  26.14 0.0002487643    1.111    0.100
        70 -11.4945    207.9532    215.3170   4.8546665921e+01  -1.8511949434e+00    0.1785879    0.1481649  12.04 0.0003405238    1.075    0.069
        71 -12.0839    247.6429    213.0760   4.0845203879e+01  -7.1894078024e+00    0.2068062    0.1944144 -16.61 0.0008331459    1.372    0.271
        72 -12.1840    119.1898    213.6291   6.7485520805e+01   1.3181308911e+01    0.3871784    0.1737079  51.39  0.001405358    2.465    0.594
        73 -12.2178    124.9933    212.9639   6.6049184998e+01   1.2357300216e+01    0.2101807    0.1920655  47.39  0.000386266    1.015    0.015
        74 -13.4451    228.2769    206.5413   4.3126230427e+01  -3.4729607509e+00    0.4559107    0.4027452 -82.90  0.001851929    1.857    0.462
        75 -11.9254    113.0515    210.0078   6.8386775802e+01   1.4966425324e+01    0.2106204    0.1947995  51.90  0.000519132    1.026    0.026
        76 -11.7190     69.7650    207.5376   7.8219623344e+01   2.2120830257e+01    0.4746922    0.2621069  33.57  0.002303101    1.809    0.447
        77 -11.3937     63.7525    208.0211   7.9668906622e+01   2.2831068691e+01    0.2197544    0.1901689  38.27 0.0008946894    1.243    0.195
        78 -12.9229     59.8444    206.8410   8.0445217601e+01   2.3618038955e+01    0.4944424    0.3490246 -41.75  0.002090776    1.888    0.470
        79 -11.6546    242.1964    208.0891   4.0908220843e+01  -5.7002068859e+00    0.1875021    0.1404755 -10.49 0.0003467716    1.190    0.160
        80 -12.5048    180.3977    207.9202   5.2866440633e+01   3.9054766937e+00      0.41585    0.1902511  31.28  0.001717223    2.248    0.555
        81 -13.2140    159.7319    206.8155   5.7166210356e+01   7.6614163880e+00     0.434595    0.2966792  33.83  0.001161983    1.365    0.267
        82 -11.6798    205.0690    206.3220   4.7517584417e+01   1.2930968095e-01     0.215689    0.1823632 -34.44 0.0002428125    1.226    0.184
        83 -12.6279    103.1572    206.6823   7.0241263882e+01   1.7301548931e+01    0.3258172    0.2517934  30.22  0.001141914    1.334    0.250
        84 -11.6617     43.8888    200.4184   8.3481429508e+01   2.7083281912e+01    0.2956995    0.1720039 -57.35  0.001296088    1.811    0.448
        85 -12.4725     41.7978    205.4901   8.4436621211e+01   2.6164986733e+01    0.3774884    0.2513904  58.01  0.001694869    1.345    0.257
        86 -12.9234     48.4371    203.4851   8.2732231998e+01   2.5830817910e+01    0.3935214    0.2441099  33.96   0.00181794    1.655    0.396
        87 -13.0146     51.0873    198.2424   8.1581695674e+01   2.6718409882e+01     0.552931    0.3472004  73.37  0.001878601    1.620    0.383
        88 -12.9765    145.2904    202.8563   5.9760630559e+01   1.0987021845e+01    0.5736375    0.3187775 -42.14   0.00255168    2.004    0.501
        89 -13.4071    140.5839    197.3374   5.9915981120e+01   1.2980630906e+01    0.4751653    0.2933543  48.10  0.002194078    1.613    0.380
        90 -12.6729     99.4045    185.7098   6.8041526448e+01   2.2718591822e+01    0.3449766    0.3224014  78.13  0.001668346    1.031    0.031
        91 -12.7219     84.2920    198.6742   7.3667768707e+01   2.2057005275e+01    0.4294566    0.2704815  80.66  0.001404951    1.969    0.492
        92 -12.2526     82.0375    193.7511   7.3557303114e+01   2.3542935354e+01    0.6083843    0.2548594  38.91  0.002218888    2.193    0.544
        93 -13.2745     93.8951    183.5165   6.9096296736e+01   2.4131740474e+01     0.595242    0.3345854 -60.15  0.002018615    1.799    0.444
        94 -13.0219     89.6734    183.1417   7.0115537957e+01   2.4891139542e+01    0.5619536    0.2950696 -63.82 0.0009467743    1.958    0.489
        95 -13.2825     90.0703    201.6089   7.2665730238e+01   2.0503125391e+01    0.6987258    0.3580783 -43.06  0.001115639    2.603    0.616
        96 -13.6104     95.0586    193.4722   7.0304383008e+01   2.1600389154e+01     1.077786    0.4639482  51.15  0.004083605    2.537    0.606
        97 -13.2771     69.8072    186.5983   7.5645431083e+01   2.7012097616e+01    0.8061463    0.4577993  72.54   0.00134977    2.255    0.557
        98 -13.7262     75.5825    184.6614   7.3925689599e+01   2.6655224995e+01     1.183547    0.3462547 -60.41   0.00407595    3.193    0.687
        99 -12.9054     64.2106    183.6801   7.6676410733e+01   2.8483274484e+01    0.9272643    0.3657188 -64.41  0.003727288    2.409    0.585
       100 -11.4903    167.1905    202.7712   5.4813218675e+01   7.1595564359e+00    0.2962161    0.1922119  -4.13  0.001265352    2.410    0.585
       101 -11.2957    212.3021    199.8560   4.4921587276e+01   9.4293163350e-02    0.1990594    0.1683128 -55.88  0.001012702    1.506    0.336
       102 -11.4257    116.9953    205.5431   6.6800591939e+01   1.5283229736e+01     0.261822      0.22626  59.89  0.001204537    1.124    0.110
       103 -11.4185     78.0000    199.9146   7.5350128111e+01   2.2700213518e+01    0.2208005   0.07618077 -64.10 0.0008035878    2.950    0.661
       104 -12.5781    178.7521    196.8327   5.1226145050e+01   6.2920135269e+00    0.3785438    0.2593678  69.52  0.001240784    2.500    0.600
       105 -11.1906    219.4888    198.0272   4.3209062074e+01  -7.2804395863e-01    0.1888959      0.12071 -37.72 0.0004157873    1.499    0.333
       106 -13.1388    151.5117    195.2048   5.7005189442e+01   1.1477789222e+01    0.3778328    0.3309117  38.65 0.0009479855    1.080    0.074
       107 -12.6348    122.7409    196.3825   6.3995189714e+01   1.6322875929e+01    0.4050499    0.2649098  54.65   0.00181979    1.610    0.379
       108 -12.4886    120.6290    191.3703   6.3683746116e+01   1.7812285524e+01    0.2662986    0.2409825  61.66 0.0002763446    1.083    0.077
       109 -11.9331    202.0213    195.6908   4.6175452250e+01   2.5114065408e+00    0.1913665     0.170146  10.42 0.0008775445    1.047    0.045
       110 -12.9404    194.1118    193.2211   4.7319958319e+01   4.3070448432e+00    0.4189561    0.2804503 -17.79  0.001248717    1.788    0.441
       111 -13.1390    189.4925    193.2068   4.8275190665e+01   5.1089587357e+00    0.4303094    0.3590229  25.08  0.001569276    1.148    0.129
       112 -12.7229    162.5194    192.1594   5.3944979169e+01   1.0121550656e+01    0.4254513    0.3305023  86.23  0.001455517    1.871    0.465
       113 -11.5785     69.7427    193.9660   7.6605386130e+01   2.5267764012e+01    0.2058905     0.179374  56.63 0.0003024728    1.081    0.075
       114 -11.1340    217.7843    193.6256   4.2712238938e+01   2.9773893197e-01    0.1760381    0.1214065  44.68 0.0005802137    1.640    0.390
       115 -11.4256    212.3969    193.1897   4.3662694927e+01   1.2443239363e+00    0.1861998    0.1227025 -49.23 0.0009484389    1.705    0.414
       116 -12.4722     50.6300    190.1461   8.0819950796e+01   2.8680923320e+01    0.3298452    0.2321752  26.92 0.0006457919    1.628    0.386
       117 -13.2485     50.1620    183.4508   8.0178682715e+01   3.0340591142e+01    0.3832369    0.2602264  70.46 0.0009970095    1.473    0.321
       118 -11.3004    234.4861    189.9821   3.8959809112e+01  -1.6875024411e+00    0.1978257    0.1149411 -37.93  0.001028289    1.578    0.366
       119 -12.2398    134.5155    189.9560   6.0078417235e+01   1.5668475478e+01    0.2820836    0.2062532  19.37 0.0006843331    1.591    0.371
       120 -12.3299    156.8019    186.4726   5.4195985993e+01   1.2351216084e+01    0.3563411     0.196246 -44.96  0.001536417    1.889    0.471
       121 -11.7634    110.0784    187.8690   6.5710103945e+01   2.0430746848e+01    0.2341868    0.1905979  67.60 0.0007840543    1.282    0.220
       122 -12.4813     43.1234    186.8890   8.2293654883e+01   3.0351170102e+01    0.2811498    0.2168715  53.00   0.00166396    1.230    0.187
       123 -10.6642    226.5170    187.5154   3.9931983818e+01  -3.7298290768e-02    0.1325974    0.1151048 -12.42 0.0008102198    1.012    0.012
       124 -12.2531    194.6890    186.7581   4.5973225098e+01   5.4227412387e+00    0.2731687    0.1862127  47.32 0.0007261451    1.604    0.377
       125 -13.1793    120.4716    186.5077   6.2904351653e+01   1.8945080945e+01    0.4411311    0.2643919  36.13 0.0005196021    1.619    0.382
       126 -13.2121    118.1064    179.7311   6.2320999860e+01   2.0926819661e+01    0.5815791    0.3316215  61.05  0.001951717    2.354    0.575
       127 -11.8223    247.6223    185.8233   3.5914086879e+01  -2.9567173375e+00    0.2530709    0.1905594  14.89  0.001553493    1.383    0.277
       128 -12.2012    164.4459    185.3206   5.2233912591e+01   1.1180805054e+01    0.2663242    0.2495075  35.04 0.0004909631    1.051    0.049
       129 -12.3114    167.5543    181.9641   5.0890862059e+01   1.1300667969e+01    0.2834469    0.1427636 -50.58  0.001150892    2.124    0.529
       130 -12.7460    200.1061    181.9246   4.3933339871e+01   5.3846625165e+00    0.4370972    0.2305648  46.63  0.001073118    2.082    0.520
       131 -12.5445     38.1958    181.4117   8.2923384716e+01   3.2218640565e+01     0.328099    0.1601165  25.51  0.001507151    2.408    0.585
       132 -10.7332    246.4593    179.5248   3.4926906282e+01  -1.7605528200e+00    0.1282515    0.1074336 -19.77 8.345085e-05    1.017    0.016
       133 -12.3370    144.0891    181.3335   5.6221352793e+01   1.5819466261e+01    0.4060947    0.1728968  36.99   0.00117618    2.315    0.568
       134 -11.3582     18.0913    179.8390   8.7653823600e+01   3.4617723763e+01    0.2469869    0.1428365  47.99  0.000780831    1.667    0.400
       135 -11.2667    210.4567    182.5132   4.1999307412e+01   3.4839585156e+00    0.1374181    0.1233632 -10.53 0.0001261644    1.015    0.015
       136 -13.3662    148.6643    175.4549   5.4008097848e+01   1.6255083116e+01    0.4460326    0.3664261  75.78  0.001601667    1.478    0.323
       137 -11.8717    137.4797    177.1059   5.7026870988e+01   1.7994506786e+01    0.2447425    0.2052559  61.59 0.0006477948    1.270    0.213
       138 -10.9970     53.7208    177.5406   7.8570586988e+01   3.1335275713e+01    0.1997284    0.1127323  46.75 0.0009025442    1.724    0.420
       139 -11.6876    105.9229    175.8791   6.4759382542e+01   2.3960812104e+01    0.2221342    0.2063175 -15.48 0.0006668766    1.241    0.194
       140 -11.1191     16.9905    175.4823   8.7539805157e+01   3.5748652907e+01    0.1940084    0.1396544 -82.40 0.0003313763    1.175    0.149
       141 -10.4807    242.6499    175.2818   3.4759442196e+01  -4.7978622160e-01    0.1171943    0.1024674 -76.84 0.0004846374    1.650    0.394
       142 -12.0400    224.2345    174.7169   3.7882102352e+01   2.5673250825e+00      0.25667    0.2282987 -66.48   0.00072162    1.435    0.303
       143 -12.7277    126.9487    174.1052   5.9075556165e+01   2.0634190153e+01    0.3713801    0.2224094 -67.35  0.001527542    2.092    0.522
       144 -13.1179     90.6795    172.2872   6.8139356509e+01   2.7354970507e+01    0.6655025    0.2752511 -52.48  0.002524755    2.407    0.584
       145 -12.5193     83.7001    164.3775   6.8700840670e+01   3.0396172965e+01    0.4570989    0.2070532 -53.79  0.001815058    2.146    0.534
       146 -12.9419     87.6860    165.0480   6.7732196301e+01   2.9606055910e+01    0.3160044    0.2437636  40.20  0.001127178    1.292    0.226
       147 -11.1452     12.9786    173.5791   8.8345879700e+01   3.6549000824e+01    0.2766012    0.1058551 -57.48  0.001242879    2.453    0.592
       148 -11.3940    235.4379    171.0402   3.5172245109e+01   1.3769642173e+00    0.2391554    0.1697388  10.65  0.001289298    1.690    0.408
       149 -12.7658    197.1937    170.4171   4.2236339559e+01   8.1126672856e+00    0.3389709    0.1963878 -33.71  0.001519157    1.795    0.443
       150 -12.4144     61.7099    170.3604   7.5539950301e+01   3.2072287745e+01    0.3753044     0.273238 -83.29  0.001973042    1.358    0.263
       151 -10.5455    231.3118    170.7017   3.5826155164e+01   2.1061113519e+00    0.1230465     0.105336 -73.17 0.0002475308    1.602    0.376
       152 -11.5337    160.3051    168.6896   4.9922447755e+01   1.5494837416e+01    0.2445863     0.150429  44.55 0.0006235111    1.615    0.381
       153 -13.9708    151.9138    165.9750   5.1348109262e+01   1.7724949537e+01    0.6160377    0.4635784 -59.48  0.001419055    1.452    0.311
       154 -13.1297    131.0568    169.5583   5.7180204908e+01   2.0921422836e+01    0.3779203    0.2853125  38.32  0.001293091    1.296    0.228
       155 -12.4982     41.5166    168.4155   8.0619296092e+01   3.5009666379e+01    0.3014981    0.2599404  54.94  0.001842116    1.168    0.144
       156 -13.2463     11.8950    167.5768   8.8093047015e+01   3.8065431441e+01     0.687435    0.3139202  20.35  0.003302546    2.760    0.638
       157 -10.8923      2.8978    168.0000   9.0325134190e+01   3.8667131343e+01    0.1754644   0.06935992  22.93 0.0008100808    2.996    0.666
       158 -12.8880    123.1849    167.6087   5.8804484032e+01   2.2844382338e+01    0.3437813    0.3004009 -25.79  0.001777219    1.297    0.229
       159 -12.4462    106.4358    167.2152   6.3094385794e+01   2.5951376531e+01    0.2708289    0.2475877  46.82  0.000252975    1.074    0.069
       160 -12.9591     54.0056    168.0554   7.7274106611e+01   3.3629321764e+01    0.5286008    0.3190939 -23.97  0.002202902    2.950    0.661
       161 -12.4805     54.6713    164.2426   7.6577391705e+01   3.4491021980e+01    0.3800738    0.2486901   4.39 0.0009529786    2.342    0.573
       162 -12.5548    172.4586    165.9237   4.6588582363e+01   1.3718363051e+01    0.3269182    0.1932667 -44.75  0.001004784    1.694    0.410
       163 -10.6398    166.0352    170.9575   4.9063364967e+01   1.3899721045e+01    0.1753653    0.1656834  29.38 0.0003026697    1.037    0.035
       164 -11.7184    205.8266    164.1790   3.9245709206e+01   7.7292638125e+00     0.201285    0.1633381  -5.99 0.0008368712    1.352    0.261
       165 -12.8126     66.0015    163.4073   7.3375153803e+01   3.3218941475e+01    0.4174035    0.1760633  47.06  0.001516356    2.488    0.598
       166 -11.6972      3.9586    147.0407   8.8267227257e+01   4.3567657303e+01    0.2614557    0.1469547  86.73  0.001019986    1.698    0.411
       167 -13.0778      4.4197    159.4422   8.9254851220e+01   4.0578308402e+01    0.4340558    0.2953062 -84.12  0.001760672    1.217    0.178
       168 -12.3466      3.4924    154.1046   8.9029725331e+01   4.1913749774e+01    0.4505528     0.203047 -60.32  0.001988642    1.903    0.475
       169 -13.1313     47.4221    161.4577   7.8164748819e+01   3.6055807711e+01    0.4812995      0.26607  56.57  0.002217342    1.998    0.500
       170 -13.0163    170.2669    159.4811   4.5735678503e+01   1.5510988128e+01     0.377966       0.2882  50.21  0.001853426    1.366    0.268
       171 -12.6225    188.3105    158.2611   4.1557424143e+01   1.2207352625e+01    0.3766447    0.2802242  30.02    0.0010219    1.437    0.304
       172 -12.1500    156.8665    165.7952   5.0136928725e+01   1.6795512170e+01    0.2299348    0.2274366  31.37 0.0006183851    1.019    0.019
       173 -11.1581    105.4922    158.0798   6.1643412182e+01   2.8330258342e+01    0.2315613    0.2037203  42.28 0.0005401616    1.131    0.116
       174 -11.5303     71.7533    157.0012   7.0775092544e+01   3.4011360596e+01    0.2058648    0.1782909 -70.06 0.0004280171    1.097    0.089
       175 -12.8845     76.9155    154.8289   6.8960819889e+01   3.3799496855e+01    0.3193384    0.2483727  51.51 0.0003456397    1.302    0.232
       176 -13.2004     62.5306    154.2106   7.2919411512e+01   3.5982089759e+01    0.4559563    0.2500398 -77.80  0.001937066    2.083    0.520
       177 -10.7855     53.7579    156.6139   7.5746699721e+01   3.6503354799e+01    0.1849828    0.1229168  44.38 0.0005480885    1.532    0.347
       178 -12.1627    212.4587    153.5841   3.5787868268e+01   8.5199518929e+00     0.243469    0.2327578  48.01  0.001454229    1.154    0.134
       179 -12.0210     88.7642    153.4267   6.5379615479e+01   3.2306295295e+01    0.2929158    0.2421964  40.40  0.001521423    1.222    0.182
       180 -11.9454    249.1879    151.9618   2.9170359865e+01   2.4309739607e+00    0.1886779    0.1772991 -16.21 0.0003169775    1.117    0.105
       181 -12.3008     68.7147    151.9514   7.0796651992e+01   3.5703803560e+01    0.2840639    0.1849755  -9.27  0.001177761    2.618    0.618
       182 -12.5628    171.6373    149.8711   4.3364124926e+01   1.7277916788e+01    0.2675532      0.21024  30.66 0.0009460891    1.351    0.260
       183 -12.4103    108.6875    149.1716   5.9010695086e+01   2.9922045903e+01    0.3597859    0.2829164 -61.11 0.0009192267    1.288    0.223
       184 -12.0966     84.2156    149.6879   6.5974686163e+01   3.3960940686e+01    0.2633638    0.2392345 -41.52 0.0009563135    1.167    0.143
       185 -11.3683     55.2846    150.5748   7.4411483861e+01   3.7824007523e+01    0.2642153    0.1271546  35.64  0.001001284    2.109    0.526
       186 -15.9270     24.4460    170.6477   8.5248524043e+01   3.6221036812e+01     3.527592       1.0543 -80.31    0.0116728    4.057    0.753
       187 -11.7270    147.0014    148.8828   4.8935885109e+01   2.2534719766e+01    0.2646899    0.2226415 -51.59 0.0005091871    1.203    0.169
       188 -12.2341     95.9574    149.1292   6.2542706524e+01   3.2174140908e+01    0.2841401      0.22647   4.38  0.001370437    1.606    0.377
       189 -13.0985    119.0678    144.2481   5.5146373757e+01   2.9165114230e+01    0.5101488     0.358782 -88.61  0.001510469    2.042    0.510
       190 -11.4926    123.2959    143.3371   5.3811768331e+01   2.8562953136e+01    0.2494467    0.1910947 -33.87 0.0006459256    1.458    0.314
       191 -11.3669      5.4874    138.4846   8.7009942081e+01   4.5515373133e+01    0.2046003    0.1235631  22.05 0.0005836262    1.976    0.494
       192 -12.0210      1.6430    137.1751   8.7946412048e+01   4.6073185002e+01    0.2778093    0.1362987 -64.00  0.001458818    1.637    0.389
       193 -14.6679     14.4002    140.8287   8.4765978307e+01   4.4318972233e+01    0.7924358    0.5866395 -36.71  0.004474144    1.547    0.354
       194 -12.1550     14.5391    136.4636   8.4223317686e+01   4.5368080103e+01    0.2337706    0.1771348 -80.17 0.0006755018    1.146    0.127
       195 -11.1493    229.1643    145.8182   3.1196488049e+01   6.9094846510e+00    0.1962291    0.1735171 -54.07 0.0004364636    1.175    0.149
       196 -10.4636    151.5006    145.5758   4.7108423340e+01   2.2355480525e+01    0.1521315    0.1497729  40.41 9.239327e-05    1.013    0.013
       197 -13.2261    102.6153    143.0918   5.9448983839e+01   3.2493663093e+01    0.7701718    0.3884738  59.27  0.002588055    3.102    0.678
       198 -12.0273    138.8622    149.7752   5.1160623155e+01   2.3976002844e+01    0.2336733     0.213411  -5.26 0.0006745424    1.215    0.177
       199 -12.6450     70.3487    143.1482   6.8795118582e+01   3.7674990503e+01    0.2758806    0.2525296  85.63 0.0001811453    1.083    0.077
       200 -14.8486     34.6179    205.3701   8.6036641842e+01   2.7010618847e+01     1.477304    0.6143498 -62.03  0.004864271    2.307    0.567
       201 -13.8790     10.4080    137.9060   8.5566596398e+01   4.5318985847e+01     0.614782    0.2396079 -55.50   0.00281736    2.185    0.542
       202 -11.2296    178.1625    142.2003   4.0234345239e+01   1.7550879602e+01    0.2068621     0.180152  87.48 0.0005183491    1.345    0.256
       203 -11.6987    131.9629    140.2692   5.0841307520e+01   2.7560367681e+01    0.2804399    0.2022197 -33.98 0.0006998915    1.562    0.360
       204 -12.1198     82.8288    145.0596   6.5505486801e+01   3.5329583655e+01     0.239646    0.1940082  74.49  0.001213689    1.362    0.266
       205 -11.2590     77.4394    139.4477   6.6011595502e+01   3.7555597107e+01    0.1453949    0.1382861 -73.78 3.223485e-05    1.002    0.002
       206 -11.6231     29.7902    139.6058   8.0196523708e+01   4.3324035736e+01    0.1752167    0.1154485  42.58 0.0004905607    1.628    0.386
       207 -12.1281     45.5088    136.9803   7.5146987715e+01   4.2372632181e+01    0.3143626    0.1777586 -55.16 0.0007852511    1.599    0.375
       208 -12.3944     43.0712    133.4798   7.5324868017e+01   4.3509583473e+01    0.2232173    0.1786741 -46.23  0.001264026    1.245    0.197
       209 -11.9231     36.2346    138.4339   7.8136955700e+01   4.2992494328e+01    0.2307044    0.1380986  15.66  0.001123014    2.100    0.524
       210 -11.0584    212.5040    137.4608   3.2364319549e+01   1.1564352167e+01    0.1411655    0.1313311 -42.91 2.951645e-05    1.021    0.021
       211 -11.5881      3.2175    142.4404   8.8028893016e+01   4.4716466667e+01    0.1916302    0.1260061   9.52 0.0006911499    1.985    0.496
       212 -11.1759    126.5366    137.4559   5.1640017170e+01   2.9304773295e+01    0.1528823    0.1520055   7.69 4.575275e-05    1.034    0.033
       213 -11.9271    120.6344    137.2786   5.3189800448e+01   3.0513973402e+01    0.2976888    0.2271896  74.79 0.0008910454    1.640    0.390
       214 -11.9395    118.7733    134.4332   5.3056589163e+01   3.1549294977e+01    0.3005652    0.2399621  -0.51 0.0009566164    1.627    0.385
       215 -11.8546     37.0375    134.9919   7.7388189208e+01   4.3764271467e+01    0.2031675    0.1829655 -76.97  0.000399957    1.029    0.028
       216 -12.3149    101.6714    134.2474   5.7832133302e+01   3.4810302544e+01     0.414765    0.2196255  28.10  0.001579598    2.290    0.563
       217 -11.0864    138.8282    133.0412   4.7412398173e+01   2.7809823480e+01    0.2347444     0.208232  83.78 0.0005661305    1.246    0.197
       218 -11.6547    128.4943    133.0498   5.0110910399e+01   2.9934868149e+01    0.2306308    0.2064395  44.85 0.0003819805    1.112    0.101
       219 -11.9267     60.7864    133.8237   6.9970620501e+01   4.1308300839e+01    0.2518051    0.1381197 -28.72 0.0009561199    2.880    0.653
       220 -12.7215     19.9749    131.9534   8.2073712179e+01   4.6046266122e+01    0.2866687      0.24067 -46.41  0.001812015    1.221    0.181
       221 -12.3850      2.5163    131.4791   8.7118639418e+01   4.7378391484e+01    0.2331499    0.1735844 -57.31 0.0005308105    1.222    0.182
       222 -10.8552    230.0777    130.6614   2.7896882131e+01   9.4748403145e+00    0.1763818    0.1690148 -37.90  0.000458185    1.072    0.067
       223 -13.3890     83.0045    128.1779   6.2052236691e+01   3.9468207859e+01    0.5778204    0.2461551 -50.70  0.002180399    2.227    0.551
       224 -12.3958     80.4592    127.4711   6.2679023456e+01   4.0044600350e+01    0.2600526     0.228874 -74.30 0.0007259077    1.158    0.137
       225 -10.7195     69.2634    131.3699   6.6910222557e+01   4.0760087465e+01    0.1510902    0.1041551 -35.03 0.0006984368    1.655    0.396
       226 -13.3502     36.2002    129.9446   7.6869320467e+01   4.5094433235e+01    0.4017211    0.3327424  77.12  0.001759668    1.273    0.214
       227 -12.1025      8.0736    131.1760   8.5482091201e+01   4.7099779534e+01    0.1900324    0.1480939 -52.04 0.0005262246    1.240    0.194
       228 -10.9532     50.4839    129.9908   7.2458057072e+01   4.3539245478e+01    0.1971123    0.1156614  86.51 0.0008093452    2.457    0.593
       229 -11.7886    187.9823    127.9328   3.4949380227e+01   1.8411682822e+01    0.2173281    0.2086263 -40.75 0.0003178154    1.028    0.027
       230 -10.4945    130.5002    128.4862   4.8509829335e+01   3.0574188094e+01    0.1542744    0.1523896  77.20 5.893799e-05    1.003    0.003
       231 -11.3721    121.7654    127.8718   5.0717770084e+01   3.2492159886e+01    0.2340822    0.2164295 -19.59 0.0009123374    1.167    0.143
       232 -13.3104     59.9706    124.9610   6.8553839920e+01   4.3607161534e+01    0.3605886     0.243891  37.20  0.001803805    1.558    0.358
       233 -11.8671     45.7654    128.2052   7.3617319687e+01   4.4519958340e+01    0.1979934    0.1760103  83.70 0.0004073269    1.160    0.138
       234 -13.0518     27.5980    125.5323   7.8856443800e+01   4.6977714444e+01    0.3845778    0.3215471 -77.75  0.002018031    1.104    0.094
       235 -11.2022    169.5126    126.4309   3.8515141467e+01   2.2684438426e+01    0.1496796    0.1484769  -6.82 -0.0001624015    1.041    0.040
       236 -11.6542      5.8552    125.8689   8.5524303658e+01   4.8513249090e+01    0.1718434    0.1315104  76.93 0.0005994383    1.339    0.253
       237 -12.1593     74.8905    125.0272   6.3881689734e+01   4.1497720103e+01    0.2288193    0.2125185  32.32 0.0003239734    1.129    0.115
       238 -13.4447     20.5402    122.6037   8.0626863731e+01   4.8273162370e+01    0.4115869    0.3272485 -60.30  0.001060844    1.090    0.083
       239 -13.4287     19.1352    115.9003   8.0093348206e+01   4.9995641049e+01    0.4139393    0.2835329  67.25  0.002293753    1.740    0.425
       240 -11.5959     23.9999    114.9987   7.8379182248e+01   4.9832662910e+01    0.2976866     0.231126 -66.05  0.001096967    1.119    0.107
       241 -12.4554    104.4601    121.2301   5.4048159194e+01   3.7404190278e+01    0.3704352    0.2662053  49.25  0.001475022    1.447    0.309
       242 -12.4986     99.2948    117.8111   5.4761123520e+01   3.9160987972e+01    0.4380545    0.2968872  77.35   0.00164286    2.337    0.572
       243 -11.9281      5.6742    121.9274   8.5113267151e+01   4.9464303969e+01    0.1822935     0.136352 -72.74 0.0005172927    1.111    0.100
       244 -11.5793    200.3781    120.4756   3.0842443300e+01   1.7259325106e+01     0.256434    0.1330873 -41.94  0.000931224    1.829    0.453
       245 -11.4936    189.0523    121.4961   3.3253713331e+01   1.9464702345e+01     0.212078    0.1471879  50.66  0.000346339    1.493    0.330
       246 -11.1007     42.1382    120.3048   7.3386454922e+01   4.6853581860e+01    0.2236605    0.1655492  41.26 0.0007027267    1.479    0.324
       247 -10.9830     37.0302    119.8879   7.4961695281e+01   4.7477847901e+01    0.2929897    0.1388109  34.47  0.001327663    2.243    0.554
       248 -12.9851     72.3837    118.7094   6.3316127610e+01   4.3406469002e+01    0.3559009    0.2384656  62.86  0.001314369    1.962    0.490
       249 -12.5933     64.1285    122.0634   6.6656672742e+01   4.3763800041e+01    0.2446155    0.2087624  28.88 0.0008478306    1.252    0.201
       250 -12.9521     58.1109    116.8589   6.7531521538e+01   4.5825574885e+01    0.4304787    0.1620885 -52.60  0.001355124    2.340    0.573
       251 -13.4942     62.8582    111.6197   6.4856914986e+01   4.6460183821e+01    0.6219292    0.4307924 -69.01  0.003073738    1.548    0.354
       252 -11.1321    210.9627    117.2105   2.8205465839e+01   1.5677946840e+01    0.1822296    0.1156186  53.00 0.0005088483    1.693    0.409
       253 -12.8476     12.1958    114.8406   8.2165363513e+01   5.0738702474e+01    0.2762027    0.1364792 -51.41 0.0005431616    1.738    0.424
       254 -10.9140    196.8066    115.4261   3.0355299028e+01   1.8984293694e+01    0.1936631     0.138821  39.36 0.0005701967    1.567    0.362
       255 -12.2031    120.3319    114.2732   4.7799327092e+01   3.5890102882e+01    0.2738432    0.2647964  42.08 0.0003880558    1.032    0.031
       256 -13.1700    104.7212    113.9314   5.2196879919e+01   3.9051731946e+01     1.160087    0.2408554  38.85  0.002891777    5.029    0.801
       257 -11.6337    109.6845    112.2684   5.0324017276e+01   3.8475168052e+01    0.2490922    0.2132688  50.98 0.0001877346    1.195    0.163
       258 -12.6809    113.0252    110.4874   4.8905718678e+01   3.8217086365e+01    0.3907064    0.3020493  65.43  0.001841904    1.524    0.344
       259 -13.0610     82.9574    111.2997   5.8244673429e+01   4.3523120792e+01    0.5573427    0.2149527 -53.31   0.00125262    2.511    0.602
       260 -11.8476     90.1589    111.4055   5.6000664217e+01   4.2283736454e+01    0.3120459    0.2276439  82.97 0.0009736643    1.987    0.497
       261 -12.0234     53.0029    110.6512   6.7934911978e+01   4.7957454849e+01    0.3362501    0.2264581  29.87  0.001610874    1.593    0.372
       262 -12.3475    221.1842    109.8461   2.4877915547e+01   1.4938754430e+01    0.3203117    0.2000885  56.82  0.001026546    1.756    0.431
       263 -12.4027     73.6864    109.2343   6.0746861736e+01   4.5471146305e+01    0.3743113    0.2274794 -67.50   0.00147656    1.946    0.486
       264 -11.5291    161.7964    110.3684   3.6351752467e+01   2.7717126684e+01    0.2160545    0.1413719  39.75 0.0003550262    1.637    0.389
       265 -12.0432    170.2014    109.1740   3.4204883660e+01   2.6069324769e+01    0.2077737    0.1769303 -80.22  0.000397928    1.293    0.226
       266 -11.0521    209.5310    107.9928   2.6386694355e+01   1.7674867325e+01    0.2276365    0.1309345 -43.40  0.001036825    1.617    0.381
       267 -11.0399    156.3037    107.3350   3.6845784378e+01   2.9573154575e+01    0.4144219    0.2909602  15.71  0.001360223    2.191    0.544
       268 -10.7909     92.2179    107.6142   5.4417124485e+01   4.2798292071e+01    0.1969449    0.1423381  23.65 0.0001828302    1.549    0.355
       269 -13.6473      9.8645    104.8472   8.1485929092e+01   5.3245561491e+01    0.4025651    0.2655256  76.14  0.001889832    1.843    0.457
       270 -11.5776    197.1609    104.1156   2.7664142364e+01   2.1043563103e+01    0.2040915    0.1640541 -70.53   0.00045203    1.327    0.246
       271 -11.9374    229.5058    103.0972   2.2137666439e+01   1.4459166267e+01    0.2201875    0.1945939  71.64 0.0003509011    1.220    0.180
       272 -12.4326    153.3325    100.6312   3.5818451255e+01   3.1603998726e+01    0.5026265    0.2997691 -71.21  0.001310352    2.935    0.659
       273 -12.3939     78.9305    101.5144   5.7137726761e+01   4.6439443509e+01    0.2970388     0.272132 -87.98 0.0005664158    1.239    0.193
       274 -12.3764     76.5853     97.0815   5.6781286499e+01   4.7815723912e+01    0.2761301    0.2163775  29.55  0.000581947    1.314    0.239
       275 -12.4966     32.6049     98.4005   7.2471204200e+01   5.3022990929e+01    0.5161707    0.2642665 -29.33  0.002287755    2.434    0.589
       276 -11.8167    193.3401    100.5501   2.7518768745e+01   2.2546633679e+01    0.3586469    0.1379046  50.40  0.001303934    2.662    0.624
       277 -12.7176    162.7451     99.4312   3.3381458431e+01   2.9692571633e+01      0.29318     0.263974 -75.07 0.0002510398    1.143    0.125
       278 -10.9010    208.4975     99.5492   2.4645944906e+01   1.9422238912e+01    0.1414851     0.129911 -64.48 9.422516e-05    1.007    0.007
       279 -11.6778     93.9338     99.1793   5.1696397321e+01   4.4388818287e+01    0.2247763    0.2047935  78.35 0.0006553917    1.253    0.202
       280 -11.7453     25.4601     97.3761   7.4816183237e+01   5.3879343571e+01    0.3627838    0.1710705 -43.56  0.001658714    1.954    0.488
       281 -11.3101     58.1604     97.1714   6.3132267357e+01   5.0465770834e+01    0.3084345    0.1811604  17.66  0.001406744    2.044    0.511
       282 -10.8463     45.7561     97.4261   6.7577531296e+01   5.1911626271e+01    0.1760209    0.1287255   2.65 0.0009368865    1.580    0.367
       283 -11.8840     66.0106     94.3433   5.9688261174e+01   5.0029253137e+01    0.1950101     0.181254  17.08 0.0004860414    1.109    0.098
       284 -12.6318     78.7733     92.8674   5.4935004864e+01   4.8398191168e+01    0.2383817    0.2111742  50.81 0.0003668286    1.242    0.195
       285 -11.6268    249.5923     91.8751   1.7069791927e+01   1.2461226252e+01    0.1781953    0.1704438 -87.23 0.0003676625    1.194    0.162
       286 -10.3359     55.2841     92.2960   6.2962335614e+01   5.1943017067e+01    0.1394597   0.09780555 -26.23  0.000445937    1.543    0.352
       287 -11.4509     41.0693     91.6384   6.7961544748e+01   5.3744081330e+01    0.2033265    0.1746813 -68.75 0.0004105969    1.231    0.187
       288 -10.8241     19.2386    105.0015   7.8342145255e+01   5.2578449566e+01    0.1657516    0.1405263 -57.35 0.0003944694    1.005    0.005
       289 -11.1179    121.9744     90.4595   4.1013021577e+01   4.0640027664e+01    0.2325528    0.1458164  49.34  0.001015435    1.585    0.369
       290 -11.8473    148.9708     87.5353   3.3366968912e+01   3.5161725360e+01     0.231773    0.2062007 -44.97 0.0006144703    1.152    0.132
       291 -12.1004    177.9307     86.8916   2.7070508825e+01   2.8547096236e+01    0.2618763    0.2170061 -80.61  0.000456577    1.280    0.219
       292 -12.3315     54.3982     85.7681   6.1630150435e+01   5.3504716391e+01    0.4172389    0.3351149  -6.39  0.002368018    1.316    0.240
       293 -11.3499      8.5342     87.4638   7.9136353996e+01   5.7314107843e+01    0.1740838    0.1301664 -54.66 0.0001208259    1.090    0.083
       294 -10.9946     11.9906     87.0000   7.7774549729e+01   5.7212340555e+01    0.2290849    0.1703599  25.60 0.0004163214    1.564    0.360
       295 -11.2764    159.4979     85.4337   3.0447604574e+01   3.3108423514e+01    0.1496538    0.1407659  83.01 4.643216e-05    1.033    0.032
       296 -13.0691     61.0115     83.6525   5.8651200997e+01   5.3083570291e+01    0.4395246    0.2813132 -24.51  0.002102268    1.827    0.453
       297 -10.9701    133.2750     84.2556   3.6279908259e+01   3.9370622643e+01    0.1963847    0.1700607 -89.43  0.000306271    1.313    0.238
       298 -10.8262    125.8358     84.6159   3.8320339194e+01   4.0956965262e+01    0.2174335    0.1388391  58.67 0.0009397923    1.723    0.419
       299 -11.6949    150.2857     83.0003   3.1834930876e+01   3.5705492527e+01    0.2760007    0.2044677  29.60  0.001026162    1.634    0.388
       300 -11.9041    112.0094     83.2098   4.1756547490e+01   4.4196219953e+01    0.3721655    0.2076972  46.09  0.001585018    1.755    0.430
       301 -12.5026    182.5027     81.0638   2.4754993524e+01   2.8519249092e+01    0.3447562    0.2370045 -62.01 0.0009045121    1.584    0.369
       302 -10.8932     78.6743     82.3073   5.2031618074e+01   5.0669972173e+01    0.1384391    0.1143172  76.81 0.0003261929    1.651    0.394
       303 -11.2416    206.4990     80.5366   2.0597944146e+01   2.3157797059e+01    0.1397498    0.1262841 -72.23 5.337546e-06    1.003    0.003
       304 -12.2381      7.5914     78.4573   7.7840210985e+01   5.9364838629e+01    0.4560137    0.1349064 -60.49  0.001965239    2.489    0.598
       305 -11.5420    153.6509     79.0487   3.0007231668e+01   3.5638225423e+01    0.2020785    0.1859646 -46.90 0.0003759326    1.123    0.110
       306 -11.4973    112.8275     78.7641   4.0219954446e+01   4.4887321634e+01    0.2975328    0.2082564 -54.66 0.0009906663    1.625    0.385
       307 -11.9570     89.0107     78.5434   4.7464786353e+01   4.9630680043e+01    0.3033288    0.2455173  19.50   0.00117224    1.282    0.220
       308 -11.6775     53.6579     78.3485   5.9921901064e+01   5.5195259984e+01    0.4363156    0.2260896  15.98  0.001343444    2.499    0.600
       309 -10.9034    227.5852     76.7286   1.6731150841e+01   1.9249086694e+01    0.1765041    0.1109844 -51.04 0.0002831878    1.428    0.300
       310 -11.5071    161.5889     76.7659   2.7700809558e+01   3.4174603781e+01    0.2042782     0.134822 -51.58 0.0006631857    1.587    0.370
       311 -11.4772     70.7029     76.9687   5.3264182450e+01   5.3054813593e+01    0.1931051    0.1712817 -33.20 0.0003892774    1.086    0.079
       312 -12.2420     75.3830     75.2059   5.1085205882e+01   5.2661092395e+01    0.3380408     0.200467 -35.38  0.001209539    1.742    0.426
       313 -10.5621     48.6744     76.3173   6.1260718911e+01   5.6243962527e+01    0.1266933    0.1053354  71.13 0.0006720994    1.673    0.402
       314 -11.4425     86.2959     74.9931   4.7292582200e+01   5.0823781705e+01     0.260787    0.1932337   8.97 0.0009493677    1.599    0.375
       315 -11.9230    150.5461     73.6823   2.9217959302e+01   3.7315659954e+01    0.2509577    0.2372767 -72.24 0.0005828083    1.071    0.066
       316 -10.8511    115.4975     74.5093   3.8199483983e+01   4.5119093669e+01    0.1459024    0.1400955  38.06 0.0008105926    1.012    0.011
       317 -11.3390    105.8905     72.3341   4.0311165954e+01   4.7540593861e+01    0.2305146    0.2005405 -52.90 0.0005492295    1.259    0.206
       318 -11.2373     51.3720     73.2154   5.9356872803e+01   5.6557127079e+01    0.1815303    0.1226577 -59.43 0.0006118702    1.647    0.393
       319 -11.1038    204.3213     72.3080   1.9018808878e+01   2.4998301824e+01    0.1311209    0.1102489  23.46 0.0003447131    1.642    0.391
       320 -10.8559     10.9908     71.5483   7.5090581955e+01   6.0661031904e+01    0.1678886    0.1156964   8.50  0.001032617    1.604    0.376
       321 -11.3861      2.3418     69.5027   7.8174423817e+01   6.1567278762e+01    0.3297785    0.1838681 -85.87  0.001680092    2.483    0.597
       322 -10.6520    236.2792     69.3559   1.4073913659e+01   1.8615737737e+01    0.1172813    0.1029295  -1.86 0.0003020696    1.657    0.397
       323 -12.3638     52.9450     68.2722   5.7307714379e+01   5.7358028198e+01    0.2292904    0.2103796 -53.09  0.000479425    1.244    0.196
       324 -13.2651    241.6964     67.0032   1.2956273205e+01   1.7883297991e+01    0.2748686    0.2306936 -63.11 0.0006576834    1.025    0.024
       325 -11.9146    225.3515     67.2649   1.4975329410e+01   2.1204575518e+01    0.2294942    0.1880943 -70.05 0.0003141503    1.082    0.076
       326 -10.7807     72.4705     68.5156   5.0071521569e+01   5.4448270598e+01    0.1390736    0.1247194  -5.75 -1.958034e-05    1.041    0.040
       327 -11.3947     64.3672     68.4387   5.3007904875e+01   5.5725907879e+01    0.2287482    0.1289575  28.50 0.0006798654    1.833    0.454
       328 -12.4310     97.7371     66.6449   4.1018947711e+01   5.0225210780e+01    0.2430404    0.2358983   4.81 0.0003518884    1.057    0.054
       329 -11.6721     60.1577     67.0873   5.4174447394e+01   5.6605289171e+01     0.207549    0.1649126 -15.77 0.0004097298    1.239    0.193
       330 -11.7484    199.0177     65.6819   1.8258173696e+01   2.7255748456e+01    0.1915989    0.1676696  85.13 0.0004051059    1.072    0.067
       331 -11.5584    178.7757     64.4043   2.1210744954e+01   3.2167895440e+01    0.2378291     0.190188 -43.69 0.0002574719    1.282    0.220
       332 -10.9712    188.4190     64.1899   1.9547851120e+01   2.9937094353e+01    0.1966559    0.1209497 -51.72 0.0004887322    1.623    0.384
       333 -11.6032     10.0326     63.2364   7.3626471511e+01   6.2464603882e+01    0.2212307    0.1586301   1.27 0.0008017059    1.479    0.324
       334 -11.5708     13.4740     61.4951   7.1738100141e+01   6.2604775046e+01     0.226998    0.1841407 -40.49  0.001053907    1.032    0.031
       335 -11.5830    109.5039     60.0016   3.5416422368e+01   4.8951568683e+01    0.2331822    0.1820877  46.29 0.0008887497    1.208    0.172
       336 -11.8488     42.4929     59.5188   5.8847398318e+01   6.0363653887e+01    0.2150543    0.1815904 -18.13  0.001227581    1.033    0.032
       337 -12.9114     38.0420     58.3534   6.0347705245e+01   6.1088999719e+01    0.3426974    0.2480804  67.61  0.001068996    2.552    0.608
       338 -13.1599    192.7863     57.8038   1.7305847463e+01   2.9904279099e+01    0.3107433    0.2782725 -42.15 0.0008404937    1.227    0.185
       339 -11.4854    159.9598     57.3465   2.2770108252e+01   3.7752446209e+01    0.2023997    0.1735956  68.72 0.0004755412    1.083    0.077
       340 -10.7357     18.4600     57.4468   6.8527347445e+01   6.3068753230e+01    0.1219622   0.09925994 -32.07 0.0001104748    1.004    0.004
       341 -11.8229    116.1794     54.1541   3.1727309024e+01   4.8444675314e+01     0.188982     0.166176  83.03 0.0004708505    1.311    0.237
       342 -11.8819     26.2301     54.3591   6.4235219035e+01   6.3032793868e+01    0.1618553    0.1059166  29.10  0.000888889    1.680    0.405
       343 -12.5725    127.8914     53.0280   2.8414741758e+01   4.5977036772e+01    0.5771916      0.19413  41.03  0.001775472    3.872    0.742
       344 -12.5859    101.0461     50.6355   3.4809298195e+01   5.2237760990e+01    0.3315297    0.2456235  43.28  0.001128693    1.247    0.198
       345 -13.5284     30.9832     49.8951   6.0759842548e+01   6.3426381660e+01    0.3475515    0.2708311  44.42  0.001037814    1.719    0.418
       346 -11.9998     19.4622     46.5897   6.4948068947e+01   6.5084097926e+01    0.5021873    0.1224052 -46.53  0.002035932    3.059    0.673
       347 -10.8920    198.3246     57.3108   1.6372104416e+01   2.8699640746e+01    0.1303592    0.1064103  31.74  0.000521287    1.656    0.396
       348 -11.2928     41.1862     47.3847   5.5461716674e+01   6.2761689037e+01    0.1673633    0.1094937  35.16 0.0007257294    1.662    0.398
       349 -11.5783    143.2842     42.0439   2.1705943981e+01   4.3948804121e+01    0.1888656    0.1778648 -83.14  0.000465505    1.099    0.090
       350 -13.0200     22.8906     39.4656   6.1041153754e+01   6.6081387895e+01    0.5044028    0.2235351 -59.78  0.002225967    3.298    0.697
       351 -13.4254     27.2228     37.3895   5.8273666210e+01   6.6028897248e+01    0.3646765    0.2973053  40.54  0.002052253    1.656    0.396
       352 -13.0042     36.5962     40.1263   5.4940606878e+01   6.4556473393e+01    0.3561002    0.2285499  15.75 0.0009506276    1.526    0.345
       353 -13.1663     31.0419     32.3829   5.4641173818e+01   6.6460007866e+01    0.3537857    0.2643276  -6.51  0.002125345    1.160    0.138
       354 -11.6432      9.4008     36.5022   6.6616052431e+01   6.7674786526e+01     0.218528    0.1040688  15.57  0.001210025    2.161    0.537
       355 -10.9812     67.8840     33.7025   3.9660138895e+01   6.1047066342e+01    0.1738517    0.1424312  28.70 0.0002823968    1.114    0.102
       356 -11.4047     96.5434     31.9017   2.9648935178e+01   5.5821495696e+01    0.3254997    0.1803547  27.18  0.001281408    2.261    0.558
       357 -12.1832     43.8815     32.8516   4.8991154904e+01   6.4829562854e+01    0.2597546    0.1646956  -0.10   0.00143771    1.741    0.426
       358 -11.1346    106.5112     32.0239   2.6962913876e+01   5.3683312418e+01    0.1903768     0.132642 -29.94  0.001032118    1.591    0.371
       359 -12.8523     78.4200     31.3267   3.5055030123e+01   5.9484186308e+01     0.271111    0.2156295  67.82  0.001268356    1.722    0.419
       360 -11.1306    209.2205     30.7817   8.8808334968e+00   2.9878220515e+01     0.161366    0.1422935  61.63  0.000383286    1.325    0.245
       361 -11.1666    241.8431     40.1401   7.5241019546e+00   2.1684812030e+01    0.1855281    0.1327167 -67.26 0.0003413538    1.171    0.146
       362 -11.3610     96.2590     27.4424   2.8131365370e+01   5.6433358409e+01    0.1788612    0.1188661  61.41 0.0009397587    1.604    0.377
       363 -13.2491     87.8985     24.6269   2.9522909307e+01   5.8483713206e+01    0.3887186    0.2342347  52.49  0.001492841    1.553    0.356
       364 -11.9773     58.9981     26.0164   4.0003967685e+01   6.3582662309e+01    0.1858936    0.1573709   9.75 0.0003512038    1.030    0.029
       365 -12.2547     45.5898     25.9227   4.5489024797e+01   6.5620369288e+01    0.2382829    0.1877059  46.28  0.000853611    1.674    0.403
       366 -12.6207      4.6479     24.5484   6.5054437230e+01   7.0059112507e+01    0.2221575    0.1565718 -34.15 0.0003377713    1.143    0.125
       367 -11.3421    166.9243     23.4844   1.2451757691e+01   4.0599620092e+01    0.2071847    0.1644926 -60.90 0.0006175035    1.288    0.224
       368 -11.3255     67.6670     24.6939   3.6217010028e+01   6.2292692394e+01    0.1319054   0.08535834  15.93 0.0007039452    1.665    0.399
       369 -11.6626    131.4117     18.5628   1.6944625114e+01   4.9568230698e+01    0.2662255    0.1962747 -52.83  0.001501798    1.572    0.364
       370 -11.6921     81.1787     19.0030   2.9428068341e+01   6.0461142322e+01    0.1739296    0.1709681  71.27  0.000689135    1.295    0.228
       371 -11.0190     67.0000     15.4749   3.2703275809e+01   6.3508910477e+01    0.2491247   0.06765645 -30.56 0.0009414881    3.989    0.749
       372 -11.3339     74.1348     13.4979   2.9478543188e+01   6.2410133142e+01    0.1803487    0.1062123  47.40 0.0005281203    1.488    0.328
       373 -10.8393    245.3650    249.7272   4.7374980587e+01  -1.1991325517e+01   0.09794348   0.08544619  34.28 0.0003515822    1.664    0.399
       374 -12.0660    139.5764    247.4695   6.7678917688e+01   3.3453369196e+00    0.2974296    0.2349302 -50.05  0.001463436    1.498    0.332
       375 -10.9945    114.3131    248.6852   7.3130589620e+01   7.0045086732e+00    0.2117745    0.1314304  61.05  0.001109729    1.801    0.445
