#   1 NUMBER                 Running object number                                     
#   2 MAG_AUTO               Kron-like elliptical aperture magnitude                    [mag]
#   3 X_IMAGE                Object position along x                                    [pixel]
#   4 Y_IMAGE                Object position along y                                    [pixel]
#   5 X_WORLD                Barycenter position along world x axis                     [deg]
#   6 Y_WORLD                Barycenter position along world y axis                     [deg]
#   7 A_WORLD                Profile RMS along major axis (world units)                 [deg]
#   8 B_WORLD                Profile RMS along minor axis (world units)                 [deg]
#   9 THETA_WORLD            Position angle (CCW/world-x)                               [deg]
#  10 FWHM_WORLD             FWHM assuming a gaussian core                              [deg]
#  11 ELONGATION             A_IMAGE/B_IMAGE                                           
#  12 ELLIPTICITY            1 - B_IMAGE/A_IMAGE                                       
         1 -15.2130     68.6712    144.4841   9.0960633154e+01   3.7241838991e+01     4.977113     2.467503  79.33   0.01182218    4.607    0.783
         2 -14.1525    221.4494     32.5805   2.9876275666e+01   2.6676879133e+01     1.016466     0.809341  36.18  0.006147091    1.780    0.438
         3 -14.0535    208.1333     43.8347   3.3916615666e+01   2.8133360111e+01     1.429571       1.1568  34.16  0.007235847    1.674    0.402
         4 -12.9388    247.4816     11.0542   2.3239068268e+01   2.3851204426e+01    0.6390312    0.4596542 -60.98   0.00375553    1.074    0.069
         5 -11.5666    244.4874      6.9832   2.2572813266e+01   2.4881526460e+01    0.3372342    0.1720481 -44.38   0.00152237    1.534    0.348
         6 -12.0788    247.5133      3.6582   2.1726188555e+01   2.4640231831e+01    0.4214171    0.2454845  89.46  0.002634955    1.642    0.391
         7 -10.4106      2.2715      2.5734   7.9639598406e+01   7.6297403931e+01     0.295821   0.06424199 -44.82  0.001202852    3.569    0.720
         8 -10.6098     44.5052      1.5006   5.3632736365e+01   7.0752082438e+01    0.2063799    0.1150997  59.43  0.001034999    2.384    0.581
         9 -10.7149     87.0485    205.3985   9.4689034122e+01   2.0341393839e+01    0.3155012     0.185473 -63.18 0.0006890373    1.826    0.452
        10 -11.7234    140.2457    249.8062   8.8668172211e+01   4.6023504040e+00    0.3410235    0.1822795  33.87  0.001927892    1.521    0.342
        11 -11.7161    129.3782    249.6445   9.0779731779e+01   6.1254914075e+00    0.2727305    0.2154613  36.95  0.001869504    1.034    0.033
        12 -11.8620    125.0720    246.2592   9.1252199929e+01   7.2648282121e+00    0.4977819    0.1683628 -52.33   0.00223928    3.484    0.713
        13 -14.4409      6.7745    186.1418   1.1179327644e+02   3.4023740977e+01     2.103917    0.9508427  85.80   0.01055055    2.023    0.506
        14 -16.2481     34.0420    192.4356   1.0583424352e+02   2.9950922067e+01     10.50291     3.481434  83.85   0.01256738    6.705    0.851
        15 -15.5501      9.1524    207.7792   1.1240036383e+02   2.9053050536e+01     1.294774     1.158831  88.77  0.007809271    1.267    0.211
        16 -17.3460     11.2505    241.8838   1.1349408089e+02   2.2015325557e+01     7.965806     2.727548  22.77   0.02127557    4.708    0.788
        17  -9.1803     64.4342    190.4802   9.8340487414e+01   2.6741853242e+01    0.1369943    0.1123119  66.51 0.0001264443    1.087    0.080
        18 -10.1204    115.9870    185.9851   8.5228849533e+01   2.0030569374e+01    0.1651794    0.1596564  85.43  0.000507933    1.075    0.069
        19  -9.8909    145.4883    183.4837   7.7995809446e+01   1.5571788278e+01    0.1378455    0.1298254  34.98  0.000163005    1.031    0.030
        20 -10.0250     99.3419    180.9275   8.8487019301e+01   2.3829356716e+01    0.2520852    0.1980669  31.09 0.0006092098    1.303    0.232
        21  -9.5146    180.1802    175.1913   6.9073120669e+01   1.1152678665e+01    0.1772855    0.1663542 -83.30 0.0005622464    1.335    0.251
        22 -12.9607     76.0892    157.9019   9.1018492302e+01   3.2834937043e+01    0.9937476    0.5480692  51.95 0.0003715521    1.881    0.468
        23 -13.4951     63.2769    153.4103   9.3904486855e+01   3.5764567296e+01    0.4939163    0.4105928 -29.13  0.001267859    1.511    0.338
        24 -11.8952    193.6099    195.9175   7.0227426745e+01   5.3676255408e+00    0.6726268    0.3501206 -59.09   0.00258369    4.094    0.756
        25 -12.1145     61.2343    171.3185   9.6895476826e+01   3.1651260117e+01    0.4190124    0.2981629 -34.44  0.002129627    1.920    0.479
        26 -12.0232     66.3152    166.4701   9.4917121920e+01   3.2139142959e+01    0.3420977    0.2827972 -33.10 0.0009687078    1.524    0.344
        27 -12.5834    241.3487    169.9870   5.7154769601e+01   2.2051430127e+00     0.405544    0.2743304  26.38  0.002456097    1.583    0.368
        28 -12.4520    231.6746    168.2362   5.8358735331e+01   3.9059116662e+00    0.4667906    0.3150136  30.45  0.002741017    1.574    0.364
        29 -10.2170    191.9827    167.1985   6.5192028181e+01   1.0553521819e+01    0.3261523    0.1961402 -42.76  0.001103474    1.639    0.390
        30  -9.5553    110.8280    167.7415   8.3487112225e+01   2.4925597112e+01    0.2013515    0.1641535  75.01 0.0006120576    1.350    0.259
        31 -12.0246     32.5517    156.5779   1.0292044033e+02   3.8648226092e+01    0.4452281    0.2981637  71.81 0.0009254231    1.439    0.305
        32 -12.2134     83.6261    151.6049   8.7903804351e+01   3.3228676504e+01    0.5828449    0.4547986 -22.40  0.002901042    1.715    0.417
        33  -9.4658    125.4812    150.5637   7.6559799171e+01   2.6211672521e+01    0.2591507    0.1343168 -40.78  0.001015501    2.178    0.541
        34 -10.1868    174.8629    149.1451   6.4910571266e+01   1.7044596271e+01    0.2159778    0.1997875 -77.20 0.0006533988    1.249    0.199
        35 -11.4993     54.8208    147.5640   9.5470175496e+01   3.8341869678e+01    0.3729434    0.2817848 -45.87  0.001980795    1.474    0.322
        36 -11.1058    134.0000    144.0118   7.3071230137e+01   2.6059455477e+01    0.9391958    0.3170936 -58.63  0.002383467    5.350    0.813
        37  -9.7153     47.6187    146.1999   9.7375830036e+01   3.9573455136e+01    0.2006903    0.1147872 -59.69 0.0005783016    1.641    0.391
        38 -10.8410     29.6301    143.0213   1.0225237779e+02   4.2331102585e+01    0.3634486    0.3076082   3.04   0.00189619    1.507    0.337
        39 -12.4452     85.9474    137.2863   8.4627544945e+01   3.6382083964e+01    0.3077922    0.2662564 -59.21 0.0004203428    1.136    0.120
        40 -10.7424    136.0000    130.5263   6.9574275979e+01   2.8655980122e+01    0.5013404   0.08575775 -47.55  0.001141864    5.791    0.827
        41 -11.1849    107.1606    130.2174   7.7101401352e+01   3.4374881701e+01        0.548    0.3777771  22.75  0.002424687    1.826    0.452
        42  -9.2789     81.0737    128.5021   8.4324099775e+01   3.9352303799e+01    0.2267589    0.1459712  37.62  0.001032966    1.592    0.372
        43 -10.0715     96.9117    124.5301   7.8758393149e+01   3.7618862957e+01    0.2702711     0.224744 -22.59  0.001341596    1.450    0.310
        44 -11.6838    113.6691    173.1366   8.3701138987e+01   2.3227377667e+01    0.5849317    0.1867388  36.81  0.001975839    3.017    0.669
        45 -10.8448     99.0307    138.1927   8.1071874430e+01   3.3936031884e+01    0.5340508    0.3737399 -20.80  0.002304699    2.135    0.532
        46 -14.4953     44.2007    185.6740   1.0279866383e+02   3.0363672550e+01     1.409659     1.020487 -77.03  0.008265705    1.318    0.241
        47  -9.6462    162.5089    120.0098   6.0905501245e+01   2.5356821260e+01    0.2308659     0.143011 -46.68  0.001013503    1.575    0.365
        48  -9.9831    106.3472    118.1258   7.4541630804e+01   3.7390965562e+01    0.2276099     0.207138  26.05 0.0003414431    1.191    0.160
        49 -10.6195    231.3652    113.8882   4.7251391292e+01   1.2647817242e+01    0.2669805    0.2115313 -35.98  0.000744426    1.087    0.080
        50 -10.0035    158.7149    114.8233   6.0460599232e+01   2.7221350856e+01     0.306162     0.211866 -67.78 0.0005954779    1.860    0.462
        51  -9.3263     76.8634    112.1090   8.2097577421e+01   4.4094115293e+01    0.2208288    0.1911332  87.09 0.0004322588    1.227    0.185
        52  -9.9642    205.5949    110.2435   5.0386002249e+01   1.8199574229e+01    0.2355068    0.1979889  54.72 0.0005824608    1.315    0.240
        53  -9.4271    114.6525    109.6788   7.0095010913e+01   3.7702658042e+01    0.1579353    0.1242642  -5.23 -4.750632e-05    1.737    0.424
        54 -10.7905     53.6097     94.7951   8.6055445018e+01   5.1794275438e+01    0.2076603    0.1311776 -70.96 0.0009533436    1.703    0.413
        55  -9.4216    161.4783     84.4682   5.1911493008e+01   3.2507668305e+01    0.1486872    0.1425777 -64.26 0.0001633414    1.013    0.013
        56 -11.2100     13.4964     59.9646   9.4345848761e+01   6.4164007954e+01    0.2550561    0.1967438 -57.66 0.0004275266    1.128    0.113
        57 -12.1511    119.9237    245.0004   9.2141795047e+01   8.1870749169e+00    0.2732816    0.1928867  65.13  0.001284629    1.704    0.413
        58 -12.8980    198.7024     50.4265   3.6691850407e+01   2.9351754395e+01    0.6125275    0.4625626  56.62  0.001044766    1.450    0.310
        59  -9.7743    109.6071    198.6964   8.8608759343e+01   1.8367810845e+01    0.1367508    0.1048726  -4.53 0.0001330778    1.813    0.449
        60  -9.1720     25.1467     58.1471   8.8309187080e+01   6.3606926043e+01    0.1617363    0.1488984  70.66 0.0004160865    1.318    0.241
        61  -9.4503    198.0595     23.6811   2.9927527660e+01   3.2983235651e+01    0.1776931     0.155231 -71.33 0.0006014791    1.040    0.038
        62 -14.0899     55.2434    233.7318   1.0434318857e+02   1.8785271974e+01    0.6762205    0.4732769  72.72 0.0006293033    1.328    0.247
        63 -10.2339    157.9085    192.6083   7.6857123721e+01   1.1709702997e+01    0.2270967    0.1925943 -53.10 0.0004731683    1.327    0.246
        64 -11.7935    137.8084    213.1068   8.4383430986e+01   1.1139763093e+01    0.3574843    0.1801179  28.09  0.001371689    2.063    0.515
        65  -9.3909    189.5962     15.2164   2.8571897845e+01   3.5919705718e+01    0.1617558    0.1253748 -18.73 0.0006351926    1.578    0.366
        66 -13.1719    125.3951    205.7542   8.6031424969e+01   1.4470167768e+01    0.8308167    0.4413905 -67.77  0.002843053    2.693    0.629
