#   1 NUMBER                 Running object number                                     
#   2 MAG_AUTO               Kron-like elliptical aperture magnitude                    [mag]
#   3 X_IMAGE                Object position along x                                    [pixel]
#   4 Y_IMAGE                Object position along y                                    [pixel]
#   5 X_WORLD                Barycenter position along world x axis                     [deg]
#   6 Y_WORLD                Barycenter position along world y axis                     [deg]
#   7 A_WORLD                Profile RMS along major axis (world units)                 [deg]
#   8 B_WORLD                Profile RMS along minor axis (world units)                 [deg]
#   9 THETA_WORLD            Position angle (CCW/world-x)                               [deg]
#  10 FWHM_WORLD             FWHM assuming a gaussian core                              [deg]
#  11 ELONGATION             A_IMAGE/B_IMAGE                                           
#  12 ELLIPTICITY            1 - B_IMAGE/A_IMAGE                                       
         1 -14.3803    221.0844      4.7395   3.9655704579e+01   2.8947935907e+01      2.76052      1.45097  52.99  0.008165831    2.098    0.523
         2 -13.9539    180.1637     47.8964   5.6741558829e+01   3.3976913371e+01     1.806923     1.263155  24.40 0.0009469994    1.878    0.467
         3 -14.0020    191.6237     38.3563   5.2100354345e+01   3.2359831282e+01     1.227892     1.041327 -49.63  0.003337163    1.163    0.140
         4 -14.2310    199.1626     29.5786   4.8556768275e+01   3.1567388516e+01     1.171127      1.02952  29.68  0.001361933    1.332    0.249
         5 -11.1198    189.6717     14.8133   4.5583020665e+01   3.5703495200e+01    0.2813434    0.2271975 -51.90 0.0009425776    1.235    0.190
         6 -11.6794     68.6846      2.9063   6.6157512299e+01   6.5320697171e+01    0.3809462    0.1718031  36.84  0.001836671    2.062    0.515
         7  -9.4223     72.0869    230.7962   1.1933031433e+02   1.8351365256e+01    0.1537586    0.1132259  56.86 0.0003823795    1.102    0.093
         8 -19.5038     14.5034    146.0981   1.2360008054e+02   4.2622173756e+01     18.51962     5.288922 -79.24   0.07192858    3.328    0.700
         9 -12.8368     32.4560    206.6177   1.2473941469e+02   2.7854105770e+01    0.3703045    0.1448325  56.10  0.001570202    2.201    0.546
        10 -10.9945     97.4238    200.4345   1.1123584265e+02   2.0502795445e+01    0.3462693    0.2872744   5.10  0.001175791    1.847    0.459
        11 -12.3821    196.4523    197.9355   9.0529243845e+01   3.6051695474e+00     1.262598    0.9578779  73.93  0.006574015    2.146    0.534
        12 -11.5865    153.0318    198.8634   9.9404101455e+01   1.1346404727e+01    0.4828577    0.2283829 -54.98  0.002089907    2.594    0.615
        13  -9.3419     87.5267    202.5188   1.1353097572e+02   2.1586231423e+01    0.1992988    0.1190498  29.64  0.001008976    2.109    0.526
        14  -9.8266     37.0696    224.8931   1.2514013690e+02   2.3805365087e+01    0.1319347    0.1203028 -81.82 0.0004408986    1.485    0.327
        15 -11.9919     66.9597    206.7666   1.1812319760e+02   2.3632586282e+01    0.4356712     0.369486 -15.99 0.0008624084    2.031    0.508
        16 -10.5380     72.7124    204.1586   1.1671796686e+02   2.3376435108e+01    0.3655748    0.2551721  81.18  0.002246048    1.325    0.245
        17 -12.3166     29.2723    196.9159   1.2464739758e+02   3.0160628896e+01     0.194499    0.1486203  70.74 0.0005347157    1.078    0.073
        18  -9.8704    159.8735    196.9770   9.7682351688e+01   1.0442874524e+01    0.1989791    0.1833795  49.56 0.0004245817    1.071    0.066
        19 -10.5129     55.1593    210.0150   1.2071345664e+02   2.4512757739e+01    0.5586062     0.272725  61.99  0.003006072    1.893    0.472
        20 -11.2826    207.5422    194.5360   8.7777703575e+01   2.1490237827e+00    0.2825396    0.1865352 -37.94  0.001314301    1.637    0.389
        21  -9.8905     82.1619    195.0088   1.1376979015e+02   2.3913508705e+01     0.225559     0.170211  52.22  0.001067215    1.201    0.168
        22 -13.4378     64.8133    188.5735   1.1670181482e+02   2.7689410235e+01    0.7281909     0.687265 -43.60  0.005003041    1.461    0.315
        23  -9.9669     61.6843    220.1151   1.2033804713e+02   2.1715461831e+01    0.1756882    0.1194644  76.50   0.00114405    1.263    0.208
        24 -13.5042     55.3887    201.5391   1.1992157698e+02   2.6192041711e+01    0.4694997     0.392805  76.20  0.001492167    1.099    0.090
        25 -10.6823     44.1339    210.2000   1.2281964448e+02   2.5816175588e+01    0.3021125    0.1786668 -89.81  0.001357082    1.508    0.337
        26 -10.8875     96.9172    191.0955   1.1014135519e+02   2.2494661693e+01    0.2818227    0.2630931 -53.02  0.001103598    1.312    0.238
        27 -10.2750    154.0401    185.5472   9.6939035989e+01   1.3638211729e+01    0.2592832     0.198904 -74.50 0.0009683723    1.667    0.400
        28  -9.6980     30.6590    218.2187   1.2584071078e+02   2.5783982941e+01    0.2615428    0.1877875   0.54  0.001493759    3.472    0.712
        29 -11.7785    147.0239    183.8786   9.8151033182e+01   1.5274114161e+01    0.4673374     0.308834  71.31  0.002012181    2.136    0.532
        30 -10.3045     72.9992    217.9685   1.1801578306e+02   2.0619124683e+01    0.1798719    0.1382914  69.47 0.0004083185    1.049    0.046
        31 -10.8766     99.4007    180.7292   1.0815838800e+02   2.4295028449e+01    0.2584351    0.2169444  49.88 0.0006191956    1.155    0.135
        32 -10.3717    204.4387    176.3690   8.4853813519e+01   5.6418565534e+00    0.3825862    0.2502363 -52.16  0.001848617    1.967    0.492
        33 -10.7123     58.8777    176.5514   1.1665332089e+02   3.1078905765e+01    0.2183173    0.1790109 -88.86 0.0004022714    1.062    0.059
        34 -10.3808     37.4203    176.4195   1.2130321954e+02   3.3640899737e+01    0.3193045    0.1453939  50.50  0.001655423    2.037    0.509
        35 -10.1797     64.2131    173.2689   1.1507850144e+02   3.1116960162e+01    0.5217298    0.1487377  49.37  0.001882517    3.598    0.722
        36 -11.5237     44.3313    172.5710   1.1942917327e+02   3.3720384013e+01    0.5826737    0.2356286  49.40   0.00266185    2.340    0.573
        37 -10.7473     42.1693    206.2439   1.2288440674e+02   2.6834348986e+01    0.2553205    0.2118604 -50.23  0.001790943    1.742    0.426
        38  -9.9850    161.9481    166.5690   9.1660979269e+01   1.5794653955e+01    0.2501287    0.2026825 -67.48 0.0004803388    1.466    0.318
        39 -10.6530    229.9998    165.9660   7.7914833045e+01   2.5292264685e+00    0.2012018    0.1732145 -67.46 0.0006946936    1.688    0.408
        40 -16.0700     70.7018    146.7854   1.0985741071e+02   3.6339408072e+01     11.53381     5.375136  80.20   0.02811912    7.932    0.874
        41 -12.4179     94.2000    153.6113   1.0509797022e+02   3.1203335017e+01    0.6585345    0.4752494 -31.54  0.003242274    1.919    0.479
        42  -9.2771    149.5220    156.0174   9.2294161361e+01   2.0442995033e+01    0.2125022    0.1314918 -72.52 0.0008102637    2.620    0.618
        43 -11.5243    133.8746    145.0747   9.3678455310e+01   2.5942306222e+01      1.22974    0.3141935 -54.65  0.002992464    5.637    0.823
        44  -9.6264    191.6756    152.0061   8.2251697499e+01   1.2496827652e+01    0.2389712    0.1138008 -58.11 0.0007050339    4.312    0.768
        45  -9.0141    113.3085    150.9527   9.9897703586e+01   2.8533847335e+01    0.2393125    0.1181743 -74.97 0.0007042527    4.329    0.769
        46 -10.7094    174.4190    148.7446   8.5163220616e+01   1.6756295451e+01    0.3115191    0.2793777 -81.58  0.001033253    1.313    0.239
        47 -10.8338    143.8752    146.0509   9.1496349248e+01   2.3710512593e+01     0.382051    0.2164264 -59.38   0.00153431    2.113    0.527
        48 -11.2985    106.3315    139.1560   9.9326943918e+01   3.2497194080e+01    0.5771979    0.3623594 -32.75   0.00245998    2.195    0.544
        49  -9.4367    110.7729    140.5643   9.8476735130e+01   3.1372822979e+01    0.2286094    0.1687157  80.19 0.0006400624    1.656    0.396
        50 -12.3660     94.1614    139.2176   1.0249018519e+02   3.4569138792e+01    0.2832734     0.260613 -38.32 0.0003969255    1.227    0.185
        51  -9.1396    102.0080    132.9792   9.9182734253e+01   3.4701147410e+01    0.1706351    0.1612385 -84.00 0.0003143369    1.013    0.013
        52 -10.9896    105.9425    130.6625   9.7652392154e+01   3.4544934577e+01    0.3814225    0.3048605 -68.26  0.001272045    1.256    0.204
        53 -11.0909    135.8024    127.8013   8.9309321106e+01   2.9377965811e+01    0.7595559    0.1983146 -49.77  0.002067166    4.078    0.755
        54 -10.8758    114.1012    129.9206   9.5345870975e+01   3.3214281147e+01    0.3337618    0.2923533  -8.22  0.000837606    1.399    0.285
        55 -10.2131    160.9170    127.8139   8.3287253379e+01   2.3952992038e+01    0.3568243    0.2259868 -48.54  0.001529889    1.619    0.382
        56 -11.1356    101.4900    125.8421   9.7793252610e+01   3.6465187635e+01     0.285359    0.2351857 -27.84 0.0006650149    1.435    0.303
        57 -10.8770    120.0349    123.2314   9.2254265246e+01   3.3605747905e+01     0.570477    0.3408166 -20.86  0.001949913    3.326    0.699
        58 -10.2080    109.6310    118.9822   9.4020217884e+01   3.6581960144e+01    0.2312544    0.2100823  48.30  0.000453171    1.140    0.123
        59 -10.1616    167.7357    112.4235   7.7826951778e+01   2.5569925358e+01    0.3728084    0.2702045 -83.23  0.001543728    2.068    0.516
        60 -10.4752    135.0000    112.0499   8.5583658324e+01   3.3021645082e+01    0.4400595   0.08762381 -45.10  0.001051329    4.934    0.797
        61 -11.3975    118.2429    110.2123   8.9514279464e+01   3.6914647142e+01    0.6765285    0.4454176  66.17  0.002827951    2.057    0.514
        62 -10.1973    205.4837    110.1285   6.9481305704e+01   1.7227628178e+01    0.3171306    0.2188456  40.06 0.0009298113    1.545    0.353
        63  -9.5996    134.6156    105.9549   8.4064583621e+01   3.4430070288e+01    0.3573606    0.1477729 -44.61  0.001233138    2.370    0.578
        64 -10.3069     48.9413    217.5137   1.2248791374e+02   2.3812307545e+01    0.2494214    0.1525717  22.17  0.001360595    2.812    0.644
        65  -9.9926     51.7015    215.3105   1.2180424412e+02   2.3901871809e+01    0.1562792   0.09290489  64.08 0.0005466734    1.404    0.288
        66 -11.3207    130.9722    213.8882   1.0614134318e+02   1.2476776806e+01    0.2731221     0.184763 -65.59  0.000418366    1.750    0.429
        67  -9.2814    182.3046     82.3161   6.6454201024e+01   2.7819791760e+01    0.1576641    0.1225757  14.75 0.0003918131    1.624    0.384
        68  -9.2936    155.4984     80.5663   7.1649134498e+01   3.4753496751e+01    0.1550368      0.15234  13.10 0.0001148244    1.025    0.025
        69  -8.9955    184.6892     76.6889   6.4387494198e+01   2.8215409226e+01    0.1567852    0.1212797  17.78 0.0003031171    1.626    0.385
        70  -9.6582     66.3951     70.8401   9.4404486794e+01   5.4618682297e+01    0.2088207    0.1844499  45.49 0.0005485538    1.327    0.247
        71 -11.7742    159.0114     60.7261   6.4751601324e+01   3.7392867686e+01    0.9065915    0.5195668 -83.63  0.001082748    4.396    0.773
        72 -10.3728    153.2306    212.3353   1.0146901257e+02   8.9357099801e+00    0.2741032    0.1838904  81.46  0.001010132    2.497    0.600
        73  -9.2570    169.1709    236.8253   1.0193677072e+02   2.3789265648e+00    0.1569193    0.1240754  22.23 0.0003159219    1.260    0.206
        74 -11.9604     61.4345    234.8053   1.2155874580e+02   1.9029598128e+01    0.2043923    0.1479079  73.71 0.0005171004    1.120    0.107
        75 -11.6942     50.0812    234.5368   1.2352142606e+02   2.0498468668e+01    0.2076119    0.1314367  65.60 0.0003928488    1.220    0.180
        76 -11.1032     38.0166    211.7557   1.2407389504e+02   2.6216982223e+01    0.1601086    0.1185065  73.09 0.0003464873    1.014    0.014
        77 -10.6458    169.7831    214.6037   9.8550513370e+01   5.6723359610e+00    0.1922942    0.1067286  48.17 0.0009550181    1.682    0.405
        78 -10.9245    160.4740     53.8062   6.2254634810e+01   3.8135098490e+01     0.274306    0.2621259  75.14 0.0003867597    1.055    0.052
        79 -10.5589     53.9031    231.3349   1.2262712428e+02   2.0608884695e+01    0.2045357    0.1254702  84.29  0.001010725    1.477    0.323
