#   1 NUMBER                 Running object number                                     
#   2 MAG_AUTO               Kron-like elliptical aperture magnitude                    [mag]
#   3 X_IMAGE                Object position along x                                    [pixel]
#   4 Y_IMAGE                Object position along y                                    [pixel]
#   5 X_WORLD                Barycenter position along world x axis                     [deg]
#   6 Y_WORLD                Barycenter position along world y axis                     [deg]
#   7 A_WORLD                Profile RMS along major axis (world units)                 [deg]
#   8 B_WORLD                Profile RMS along minor axis (world units)                 [deg]
#   9 THETA_WORLD            Position angle (CCW/world-x)                               [deg]
#  10 FWHM_WORLD             FWHM assuming a gaussian core                              [deg]
#  11 ELONGATION             A_IMAGE/B_IMAGE                                           
#  12 ELLIPTICITY            1 - B_IMAGE/A_IMAGE                                       
         1 -12.5515    185.7636     37.5797   6.0016938257e+01   3.4840544821e+01     1.124347     0.895758  28.51  0.004442988    1.628    0.386
         2 -11.9811    210.3405      6.7920   4.9751718603e+01   3.2843753861e+01    0.7985113    0.5519977  61.54   0.00489614    1.378    0.274
         3 -10.4074    205.5022      2.9978   4.9471583233e+01   3.4324084864e+01    0.3089819    0.2602084  82.04   0.00161819    1.088    0.081
         4  -9.9643     61.9473    235.6338   1.2800127002e+02   1.7723241230e+01    0.2497026    0.1679616 -83.00  0.001101846    1.331    0.248
         5 -19.4237     25.6696    141.7417   1.2492125121e+02   4.2791982194e+01     19.38963     3.248442 -67.45    0.0554449    5.569    0.820
         6  -8.6342     55.8789    211.6648   1.2673826539e+02   2.3592744608e+01     0.245573    0.1375834  66.78  0.001048276    1.783    0.439
         7 -10.1314     71.4483    210.5265   1.2350175460e+02   2.1721404873e+01    0.2662111    0.1948786  47.13   0.00141584    1.380    0.275
         8  -9.8550     63.7285    206.8075   1.2463488823e+02   2.3615870287e+01    0.2425033     0.206298 -86.46 0.0007773113    1.102    0.092
         9  -9.4222      4.2900    207.0995   1.3594848707e+02   3.0266818819e+01   0.07859593   0.06525832  40.62 0.0005758436    1.602    0.376
        10 -11.2915     42.7436    202.8393   1.2840456421e+02   2.7164272732e+01    0.2090951    0.1645227  69.75 0.0003642063    1.152    0.132
        11  -9.9516    141.6187    200.6002   1.0706319072e+02   1.2203525135e+01    0.3563381    0.1401595 -57.77   0.00126987    2.933    0.659
        12 -10.4990     96.6025    199.0110   1.1668983216e+02   2.0474642431e+01    0.5708476    0.4566943 -14.93  0.001853612    2.019    0.505
        13 -10.2932     64.1545    199.2546   1.2365684754e+02   2.5245826083e+01    0.3734648    0.2222329 -44.72  0.001449432    2.278    0.561
        14  -8.5914    153.4992    200.4892   1.0445023578e+02   9.9805885649e+00    0.1437359    0.1360866  55.65 1.078664e-05    1.025    0.024
        15  -9.3525    193.0155    194.7765   9.4955958145e+01   3.5186966702e+00    0.7042894    0.3652264 -69.13  0.001795502    6.925    0.856
        16  -8.7868    159.8823    197.1640   1.0246563923e+02   9.4568740559e+00    0.2158941    0.1889734  73.80 0.0003657226    1.201    0.167
        17  -8.5492     81.9450    195.9117   1.1943934505e+02   2.3464082478e+01    0.3110944      0.15794 -47.71  0.001370954    2.366    0.577
        18  -9.5850     94.9159    186.9777   1.1526551634e+02   2.3502061352e+01    0.4059435    0.2471593 -73.58  0.001281117    1.724    0.420
        19  -9.5642     73.8202    189.0165   1.2026979073e+02   2.6236719956e+01    0.3962369    0.3047564 -35.07   0.00217913    1.816    0.449
        20 -10.5951     72.9568    183.2446   1.1966090411e+02   2.7697160584e+01    0.6812084    0.5922213 -81.89  0.004042422    1.049    0.046
        21  -9.4797     99.4625    180.9512   1.1327041440e+02   2.4163110273e+01    0.2373293     0.203861  19.88 0.0005883222    1.488    0.328
        22  -9.4595    149.5452    187.0307   1.0288437750e+02   1.3647315319e+01    0.2994568    0.2009265  59.94  0.001052122    1.636    0.389
        23  -8.8997    204.5835    177.0184   8.9037934708e+01   4.7865963955e+00    0.3068251    0.1876046 -60.46  0.001295923    2.136    0.532
        24 -10.4736    124.4938    171.8527   1.0580942483e+02   2.1885861039e+01    0.5006295    0.3511978 -87.98  0.002268343    1.809    0.447
        25 -10.1049    104.6169    171.9613   1.1054162448e+02   2.5408941368e+01    0.3753734    0.2923788 -74.91  0.001961961    1.266    0.210
        26 -10.4896     97.2743    169.0556   1.1178565502e+02   2.7323224935e+01    0.4319754     0.291609  81.66  0.002009331    1.838    0.456
        27  -8.4162    163.8435    169.8345   9.6298544792e+01   1.4582926336e+01    0.2060321    0.1759447 -84.91 0.0003016493    1.306    0.234
        28  -8.2345    192.2502    165.0374   8.9093746568e+01   9.7354010961e+00    0.1967198    0.1268244 -44.04  0.000537235    1.540    0.350
        29  -9.9374     70.1848    160.2259   1.1684198550e+02   3.3500508681e+01    0.4165911    0.2766604 -77.21  0.002140965    1.498    0.332
        30 -10.1335     93.2954    159.8229   1.1112106496e+02   3.0160589160e+01    0.3035225    0.2478421 -52.67 0.0005190195    1.214    0.176
        31 -11.1141     98.9074    152.6696   1.0839704879e+02   3.0943412747e+01    0.6456277    0.4584315 -32.34  0.003079508    1.784    0.440
        32  -8.6940    189.0070    155.0000   8.7620844820e+01   1.2530952591e+01    0.2530682   0.08670124  45.76 0.0008045642    2.957    0.662
        33  -9.5632    134.0000    143.9768   9.7830336811e+01   2.6539538997e+01      0.84502    0.2525243 -57.93  0.001942342    6.003    0.833
        34 -10.1905    109.1962    138.9678   1.0299722441e+02   3.2401594606e+01    0.5199235    0.2660047 -36.65  0.001947182    2.563    0.610
        35 -10.8659     97.7360    138.5106   1.0587371140e+02   3.4481756411e+01    0.2898526    0.2740712 -50.51 0.0002511771    1.073    0.068
        36  -9.6373    105.9463    130.9295   1.0209638695e+02   3.4843044041e+01    0.3570318    0.3163951 -71.88  0.001169649    1.134    0.118
        37  -9.4020    115.6528    129.8282   9.9309073406e+01   3.3340365433e+01    0.3230416    0.2405356 -24.86  0.000857219    1.681    0.405
        38  -8.1473     72.1877    250.5947   1.2757550281e+02   1.3328948110e+01    0.1192778   0.07212532  83.10 0.0006719757    1.618    0.382
        39  -9.0759    160.6939    127.7047   8.7686333858e+01   2.4585365451e+01    0.3263188    0.1838156 -64.41  0.001173032    2.537    0.606
        40  -9.7810    103.5933    125.6174   1.0153229413e+02   3.6472935247e+01    0.2795347    0.2473678 -17.86 0.0007493717    1.272    0.214
        41  -8.2492    120.4853    123.4754   9.6580713568e+01   3.3868103962e+01     0.149049    0.1440997 -41.88 0.0008096405    1.042    0.040
        42  -8.4163    110.8393    118.8054   9.8015535383e+01   3.6720083516e+01    0.2156109    0.1964804 -18.73 0.0004784963    1.182    0.154
        43 -10.7028     68.3504    115.5395   1.0901371082e+02   4.4145014197e+01    0.3336355    0.2620982  26.61  0.001122607    1.442    0.307
        44  -8.4694    168.2150    113.0491   8.2428934026e+01   2.6022230388e+01    0.2679286    0.1789804 -72.61  0.001086089    2.095    0.523
        45  -8.7894    205.7683    110.0107   7.3999260342e+01   1.8086111989e+01    0.2612567    0.1892249  39.58 0.0008924272    1.581    0.367
        46  -9.9717    117.8340    109.8371   9.3963310650e+01   3.7378353403e+01    0.4010695    0.2301926  60.26  0.001579066    2.438    0.590
        47  -8.5919     60.2124    230.0846   1.2778465089e+02   1.9098086680e+01    0.1626966    0.1087511  79.02 0.0004689467    1.312    0.238
        48 -11.9083     50.1168    218.1603   1.2851146040e+02   2.2930970661e+01    0.3968197    0.1932612  59.67  0.001757074    1.988    0.497
        49 -10.5008    166.4243     66.6578   7.0927231948e+01   3.5097986596e+01     0.481088    0.2965328  84.47 0.0009033079    2.551    0.608
        50 -11.7617    171.5348     52.0185   6.6099255412e+01   3.6170160317e+01    0.5654037    0.4742662   0.05  0.001412328    1.538    0.350
        51 -10.0461      1.8130    248.0546   1.3894769488e+02   2.2360371619e+01    0.1162398   0.08764637  86.52  0.000338084    1.204    0.169
        52 -11.5784    190.6990     31.0030   5.7679531960e+01   3.4534036682e+01    0.5497065    0.4259294  63.29  0.001229365    1.172    0.147
        53  -9.7305     42.8430    214.7075   1.2955412239e+02   2.4570619282e+01    0.1569902    0.1223276  75.49 0.0001942441    1.077    0.072
        54  -8.8023    189.5000     14.9778   5.4064122286e+01   3.6690855017e+01    0.1701954    0.1258636 -35.58   0.00060051    1.569    0.363
        55 -10.6947    247.0038    243.2253   9.3317966030e+01  -1.3779416247e+01    0.2459124    0.1836159   6.41  0.001586729    1.216    0.177
