#   1 NUMBER                 Running object number                                     
#   2 MAG_AUTO               Kron-like elliptical aperture magnitude                    [mag]
#   3 X_IMAGE                Object position along x                                    [pixel]
#   4 Y_IMAGE                Object position along y                                    [pixel]
#   5 X_WORLD                Barycenter position along world x axis                     [deg]
#   6 Y_WORLD                Barycenter position along world y axis                     [deg]
#   7 A_WORLD                Profile RMS along major axis (world units)                 [deg]
#   8 B_WORLD                Profile RMS along minor axis (world units)                 [deg]
#   9 THETA_WORLD            Position angle (CCW/world-x)                               [deg]
#  10 FWHM_WORLD             FWHM assuming a gaussian core                              [deg]
#  11 ELONGATION             A_IMAGE/B_IMAGE                                           
#  12 ELLIPTICITY            1 - B_IMAGE/A_IMAGE                                       
         1 -13.8929     24.3131     71.7440   1.1645810462e+02   5.8470578820e+01     3.042401    0.9712851 -73.56   0.01120574    3.606    0.723
         2 -14.6148      3.4023     75.4977   1.2395330427e+02   5.9038270081e+01     8.233166          nan -66.46   0.01995669    8.657    0.884
         3 -13.8072      2.1108     21.8227   1.1332047710e+02   7.0661383815e+01     3.746346    0.3889345 -62.08   0.01133046    5.863    0.829
         4 -13.5141      2.2211    109.9990   1.2807584667e+02   5.1478920166e+01     2.149096     0.167469 -74.76  0.005913102    7.266    0.862
         5 -13.7219    159.6578    126.8214   9.1798710488e+01   2.5138703487e+01     1.357943    0.9902304 -35.77  0.006855552    1.449    0.310
         6 -14.5218    197.4795     29.7412   5.7015089168e+01   3.1827764138e+01     2.650779     1.588548  22.98   0.01078095    2.297    0.565
         7 -14.2881    207.2210     15.4224   5.1400694377e+01   3.0899038595e+01     2.000063     1.394755  27.70  0.009654558    1.720    0.419
         8 -13.9807      7.4085    135.6130   1.2889430998e+02   4.5614810066e+01     2.144006    0.9769665 -59.69   0.01237012    2.163    0.538
         9 -13.6505     92.8445    208.3663   1.1816665641e+02   2.1838557134e+01      1.67926     0.697193  55.35  0.008726214    2.187    0.543
        10 -11.0419    140.6445    249.7359   1.1415979867e+02   9.0212762462e+00    0.3071608    0.1047949  41.68  0.001627063    2.215    0.549
        11  99.0000     31.8333    212.5614   1.2903260414e+02   2.8582466406e+01      1.30137    0.6679384 -73.80  0.009054576    1.905    0.475
        12 -13.7014     27.4971    247.4021   1.3132676754e+02   2.3521259309e+01    0.6217251    0.3315408  60.15  0.004968816    1.247    0.198
        13 -15.8186      3.8309    235.5665   1.3433058216e+02   2.7595752484e+01     2.502938    0.7888154 -79.93   0.01587188    2.844    0.648
        14 -15.5443     49.5818    241.9435   1.2779389439e+02   2.1958216122e+01     1.790171    0.8038462  55.88   0.01242593    1.577    0.366
        15 -13.5357     35.2100    242.7837   1.2999773646e+02   2.3404010472e+01    0.3864556    0.2040038  52.09  0.001844961    1.345    0.256
        16 -14.9508     10.0415    197.7341   1.3194402109e+02   3.3287694262e+01    0.8195534    0.4744116 -78.63  0.005920526    1.573    0.364
        17 -14.5340      2.6676    189.6807   1.3285052602e+02   3.5378764964e+01    0.8267256     0.354608 -81.75  0.005378187    1.911    0.477
        18 -14.6519     69.3910    182.6868   1.2004587517e+02   2.9577126839e+01     1.567185     1.254907  68.18  0.009830815    1.046    0.044
        19 -15.1069     79.0888    164.0282   1.1602703976e+02   3.1911950473e+01     2.689986     1.292829  49.99   0.01389232    1.899    0.473
        20 -13.1992     71.2411    216.4547   1.2264765580e+02   2.3372622422e+01    0.7392372    0.3646848  46.19  0.003406329    1.625    0.385
        21 -13.0558     72.7054    226.0934   1.2312678650e+02   2.1636898373e+01    0.5753666    0.3418172  51.00  0.002497009    1.288    0.223
        22 -10.4678     94.7958    223.7439   1.1924064111e+02   1.9102331397e+01    0.2834481    0.1747974 -78.92   0.00160919    1.842    0.457
        23 -14.2114    117.8959    196.8666   1.1233214200e+02   2.0062272501e+01     2.175355     1.304644  64.01   0.01241904    1.740    0.425
        24 -13.9863     92.2220    193.3567   1.1675819894e+02   2.4505581567e+01     1.314087     1.099329  76.37  0.009517457    1.089    0.081
        25 -10.9134    198.9292    198.4998   9.7917351532e+01   6.2980190367e+00    0.2711266    0.1900329  17.86   0.00166074    1.497    0.332
        26  -9.6867    208.4952    186.5056   9.4277070934e+01   6.1817897457e+00    0.1260655    0.1027955  24.73 0.0008102683    1.043    0.042
        27 -12.5895     49.3927    177.3669   1.2346432059e+02   3.3043628298e+01     1.023307    0.4391074 -69.30  0.005646137    2.157    0.536
        28  -9.9220      1.2933    170.6536   1.3223622457e+02   3.9037109799e+01    0.2432496   0.08116551 -83.47  0.001261727    2.423    0.587
        29 -10.6818      1.5065    166.4395   1.3198858969e+02   3.9832075621e+01    0.5158181   0.09202502 -77.72  0.002111343    4.239    0.764
        30 -12.9497     81.0899    219.5838   1.2121579081e+02   2.1595209879e+01    0.5761425    0.4302116  68.81  0.002632031    1.085    0.078
        31  -8.7772      6.2591    173.6906   1.3146331008e+02   3.8047053743e+01    0.1068763   0.05476103  69.95 0.0002825646    1.525    0.344
        32 -11.7698    124.9644    167.0117   1.0683330212e+02   2.4182611318e+01    0.6129612    0.4456261  69.10  0.003507422    1.448    0.309
        33 -10.4408    124.8148    159.9804   1.0574306616e+02   2.5528569276e+01    0.2340155    0.2162719  60.56  0.001497331    1.062    0.058
        34 -10.9037    138.7514    167.6256   1.0411710742e+02   2.1666239693e+01    0.2628328    0.1983207  85.60 0.0005372529    1.628    0.386
        35 -12.1183    100.0559    156.5816   1.1051438813e+02   3.0302207471e+01    0.8087078    0.4709395 -61.23  0.003673599    1.738    0.425
        36 -10.8221    101.3446    146.3517   1.0863607874e+02   3.2180391595e+01     0.429078    0.3048946  12.77  0.002110647    2.458    0.593
        37 -10.4153      8.8146    158.0614   1.3009734040e+02   4.0889122519e+01    0.3676325    0.1185942 -71.96  0.001923075    2.473    0.596
        38  -9.3733     35.0180    157.6766   1.2468295730e+02   3.8540979861e+01    0.1610811    0.1273551  70.16  0.001168835    1.115    0.103
        39  -9.8645     70.0428    248.9446   1.2508309649e+02   1.8543767792e+01    0.2653265    0.1180568  37.64  0.001644099    2.251    0.556
        40  -9.0452     87.3639    240.2489   1.2179706001e+02   1.7622234623e+01    0.1247445   0.08127272  84.13 0.0007785477    1.585    0.369
        41 -10.4964    193.2497    236.6486   1.0432487660e+02   2.7320084321e+00    0.1612104    0.1350217 -53.71  0.001086002    1.755    0.430
        42 -13.0513    113.1928    222.6592   1.1600708734e+02   1.6675226559e+01     1.299811    0.7332509  41.87  0.008222707    1.508    0.337
        43 -13.9078    146.2471    130.8251   9.5587738397e+01   2.7134153977e+01     1.479809    0.8552232 -24.02  0.005731662    2.967    0.663
        44 -13.7048    133.0359    135.7984   9.9555889213e+01   2.8744848518e+01     1.229162    0.8925163 -71.45  0.006286351    1.618    0.382
        45 -13.3516    149.8056    142.8207   9.7314367031e+01   2.4147777026e+01    0.5553561    0.4565507  56.44   0.00293184    1.188    0.158
        46 -11.8987     48.0715    213.7228   1.2638949937e+02   2.6613274567e+01    0.3036263    0.2263177 -59.08 0.0008783289    1.875    0.467
        47 -12.7470     66.9739    142.5143   1.1594455124e+02   3.8019022077e+01    0.9327949    0.5062325  60.22  0.004017718    1.924    0.480
        48 -13.3953     69.5978    131.3370   1.1372109937e+02   4.0098256798e+01     1.072953     0.672976 -58.89  0.004793979    1.512    0.339
        49 -11.6708     91.4371    144.1630   1.1054069749e+02   3.4195017746e+01    0.2777414     0.254815  54.54 0.0005378528    1.186    0.157
        50 -12.2555     34.4136    144.2129   1.2357818439e+02   4.1410789925e+01    0.7402115    0.5889609 -88.27  0.005189974    1.071    0.067
        51 -11.5432    106.3982    130.2175   1.0461892780e+02   3.4720731349e+01    0.5497437    0.4532069 -25.92  0.002822257    1.610    0.379
        52 -11.3399     99.5187    129.4119   1.0611729291e+02   3.6047313009e+01     0.464563    0.3848686 -19.15  0.001628479    1.708    0.415
        53 -11.6965     35.0430    129.5493   1.2189609908e+02   4.4511195199e+01    0.6152532    0.3229026 -70.28  0.003304452    1.582    0.368
        54 -11.9514     89.9287    131.4967   1.0880720838e+02   3.7129171305e+01    0.9471858    0.6871774  -6.47  0.004539889    2.681    0.627
        55 -13.6523    139.6036    148.4254   1.0057406896e+02   2.5050856764e+01     1.481103    0.7992164  44.97  0.006933113    1.745    0.427
        56  -9.4383    108.7930    120.9632   1.0219963407e+02   3.6276683293e+01    0.1989039    0.1850188 -30.54 0.0005508698    1.253    0.202
        57 -11.9154     42.8233    112.8280   1.1777978597e+02   4.7439408183e+01    0.7392237    0.4669612  85.01  0.003890606    1.606    0.377
        58 -10.8966    167.4575    112.1885   8.6660862600e+01   2.6166386762e+01    0.3370018    0.2606355 -54.37 0.0009346994    1.418    0.295
        59 -13.0568     56.6611    101.0840   1.1203987678e+02   4.8543394467e+01     1.438964    0.6919962 -48.87  0.006780469    2.086    0.521
        60 -12.1989     86.3771     93.2975   1.0191621977e+02   4.6130206229e+01     1.006662    0.6829318  83.47  0.004734206    2.084    0.520
        61 -14.1856     52.7947    130.3796   1.1768600636e+02   4.2414384167e+01     1.357311     1.203078   7.64   0.00678451    1.623    0.384
        62 -11.8532     84.5899    103.6212   1.0477320203e+02   4.4110754236e+01    0.3865112    0.3219776  87.09  0.002174249    1.235    0.190
        63 -11.8026     49.2645     90.7774   1.1223162553e+02   5.1755125776e+01    0.6837856    0.4823122  -4.46  0.003699182    2.290    0.563
        64 -11.0290    184.6986     77.0348   7.3617227165e+01   2.8284848129e+01    0.2261707    0.2027276 -24.21 0.0007648808    1.089    0.082
        65 -12.6362     51.7362     71.9973   1.0731024145e+02   5.5718877618e+01    0.8282884    0.4785894 -35.08  0.004070876    2.103    0.525
        66 -11.4886     41.0739     76.0657   1.1177258444e+02   5.5973276956e+01    0.3653025    0.2072176 -68.56  0.001932156    1.566    0.361
        67 -11.2470     50.1750     64.7910   1.0598626450e+02   5.7498926240e+01    0.3333231    0.2095501 -50.27  0.001830375    1.343    0.255
        68 -13.2571    187.1405     35.8493   6.0452091204e+01   3.3785266781e+01    0.9726463    0.7220325  57.03  0.003065653    1.350    0.259
        69 -13.0635     57.2207    225.7671   1.2564468545e+02   2.3575989498e+01    0.8099896     0.391691  50.21   0.00542894    1.543    0.352
        70 -12.5315     57.5757    202.7881   1.2398289687e+02   2.7384373017e+01    0.7709132    0.5889269  86.47  0.005036179    1.185    0.156
        71 -13.4343     10.3032    112.0317   1.2619861174e+02   5.0483329312e+01     1.148983    0.4967944 -78.01  0.005308796    1.810    0.448
