#   1 NUMBER                 Running object number                                     
#   2 MAG_AUTO               Kron-like elliptical aperture magnitude                    [mag]
#   3 X_IMAGE                Object position along x                                    [pixel]
#   4 Y_IMAGE                Object position along y                                    [pixel]
#   5 X_WORLD                Barycenter position along world x axis                     [deg]
#   6 Y_WORLD                Barycenter position along world y axis                     [deg]
#   7 A_WORLD                Profile RMS along major axis (world units)                 [deg]
#   8 B_WORLD                Profile RMS along minor axis (world units)                 [deg]
#   9 THETA_WORLD            Position angle (CCW/world-x)                               [deg]
#  10 FWHM_WORLD             FWHM assuming a gaussian core                              [deg]
#  11 ELONGATION             A_IMAGE/B_IMAGE                                           
#  12 ELLIPTICITY            1 - B_IMAGE/A_IMAGE                                       
         1 -13.3172     30.9752     10.0986   9.2364694535e+01   6.8165212980e+01     1.637649    0.5620313 -23.77   0.00738195    3.576    0.720
         2 -14.6906      5.2083     76.1756   1.2505052428e+02   5.9925731551e+01     3.473724     1.942393 -63.92   0.01980508    1.717    0.417
         3 -15.5685     54.1555     71.0764   1.0543571303e+02   5.6214136536e+01     3.673108     2.173477  11.00   0.01304877    2.108    0.526
         4 -14.8852     75.1784     63.9321   9.5950087646e+01   5.4315562978e+01     2.964918     1.778965 -42.07   0.01511882    1.704    0.413
         5 -14.8388     44.3070     41.6348   9.9393563367e+01   6.2435225407e+01     2.477321     1.565736   8.20   0.01435742    1.644    0.392
         6 -15.2831      8.5708     22.6828   1.0761631732e+02   6.8996866571e+01     1.832847    0.9351919 -33.37   0.00998943    1.622    0.383
         7 -14.2809     96.6586     71.3573   9.1599199047e+01   4.9181742700e+01     1.351097     1.147876 -12.91  0.002250666    1.207    0.172
         8 -11.8966    149.5733      8.3428   6.1348781663e+01   4.5756477282e+01    0.5668579    0.3270202  79.58  0.002674307    1.666    0.400
         9 -13.3797    138.4398      4.2323   6.1890783455e+01   4.8596609491e+01     2.845796    0.1510004  57.93  0.008833918    4.863    0.794
        10 -12.8357     80.6295     31.8015   8.3314837904e+01   5.7976993819e+01     0.712133    0.5594066  49.29  0.002444198    1.314    0.239
        11 -11.7520     73.2994      1.5011   7.4319875757e+01   6.2251735186e+01    0.2694534    0.1166447  52.76 0.0006162797    1.919    0.479
        12 -13.6831    123.6373     10.2777   6.6056314971e+01   5.1349036157e+01     1.448977    0.5685699  50.11 0.0006235191    2.108    0.526
        13 -13.3317     83.5843     22.5351   7.9173809824e+01   5.8454061439e+01    0.8835485    0.5300624  54.35  0.001522209    1.632    0.387
        14 -12.3692     75.7761     13.4611   7.8093888093e+01   6.0795687016e+01    0.3214206    0.3059587  51.58 0.0009807063    1.324    0.245
        15 -14.2562     86.1377     11.8807   7.4707161560e+01   5.8985289322e+01     2.375638    0.6023486  56.18  0.008955698    3.588    0.721
        16 -14.5195     84.8002      3.7392   7.2156096012e+01   5.9914598613e+01     3.257522    0.4968209  58.11  0.009449926    6.322    0.842
        17 -11.8905    240.8577     22.7315   5.4591682903e+01   2.4289425490e+01    0.5753829    0.2787404  89.96  0.002172074    2.075    0.518
        18 -12.0102    150.9740     20.8998   6.4428839072e+01   4.4228901760e+01    0.5432907    0.4048412  57.89  0.002136418    1.191    0.160
        19 -11.6044    169.4348     10.2890   5.9198548393e+01   4.1098050854e+01    0.3305377    0.2301738 -85.75  0.001163522    1.362    0.266
        20 -12.4116    176.3053     12.0546   5.8781390178e+01   3.9376443527e+01    0.8409171    0.5335849  20.33  0.004237438    3.032    0.670
        21 -12.7497    191.8231      5.8286   5.5704509183e+01   3.6543920946e+01    0.6523256    0.4265151  87.74  0.003098144    1.287    0.223
        22 -11.5927     64.6807     17.6277   8.3038025315e+01   6.2351442878e+01    0.3969263    0.2589754  25.52  0.001418693    1.360    0.265
        23 -10.4997    133.0641     14.8659   6.5717509048e+01   4.8859430221e+01    0.3081415    0.1517875 -43.57   0.00137307    2.395    0.582
        24 -10.9220    186.9183     18.3243   5.8967122343e+01   3.6334070446e+01    0.3031832    0.2277772 -62.58  0.001212425    1.291    0.225
        25 -10.3149     48.9531      4.0903   8.2899418059e+01   6.6187109186e+01     0.250783    0.1519051  36.93  0.001264192    1.353    0.261
        26 -11.1111    167.8958      2.5447   5.7550144535e+01   4.2161701843e+01    0.2851799    0.2110363  83.34   0.00155287    1.123    0.110
        27 -12.8658    185.5304     12.0080   5.7713202928e+01   3.7313781771e+01    0.5862545    0.4398011  89.18  0.002240375    1.114    0.102
        28  -9.8464    211.9973      1.5041   5.2986057171e+01   3.2628245696e+01    0.1726557   0.09247382  77.63 0.0005735446    1.536    0.349
        29 -10.9812    114.1901     96.6284   9.3965448613e+01   4.0926800481e+01    0.4519885    0.3119473 -45.71  0.001264113    1.454    0.312
        30 -13.1496    126.6974     72.6623   8.3894586041e+01   4.2742935997e+01     2.369105    0.7909189  41.83  0.007660386    3.413    0.707
        31 -12.0774    128.2325     81.8665   8.6142371922e+01   4.0789552658e+01     0.505105    0.4667149  38.23  0.001478198    1.070    0.065
        32 -12.5273    122.2536     80.4343   8.7248636262e+01   4.2346450221e+01     0.695948    0.5162199  47.84  0.002859899    1.310    0.237
        33 -11.1812    187.8121     93.2066   7.6448366669e+01   2.5141251801e+01    0.5166821    0.3462487 -62.53  0.002438575    1.604    0.376
        34 -11.0261     59.1674    145.0749   1.2151632217e+02   3.8959689227e+01    0.4417987    0.3352161  67.33  0.001700514    1.526    0.345
        35  -9.3159    203.2894     94.0027   7.3975081076e+01   2.1537624165e+01     0.196177    0.1755215 -63.45 0.0005115889    1.038    0.037
        36 -12.0198    248.8600     85.6330   6.5776186735e+01   1.3567341433e+01    0.4998347    0.3052164 -51.83  0.001901032    1.369    0.270
        37  -9.1108    215.1831     88.3707   7.0851550267e+01   1.9952036869e+01    0.1956742    0.1254544  74.88 0.0009500246    1.742    0.426
        38 -11.7257    152.2843     88.2582   8.2265573395e+01   3.4208202792e+01      0.39657    0.2778147  69.11  0.001174762    1.601    0.375
        39 -11.5527    164.1068     84.4416   7.8783198903e+01   3.2178124138e+01     0.379815    0.3202146  -3.35  0.001964566    1.563    0.360
        40 -13.0372    121.7150     89.5335   8.9968423262e+01   4.0761686066e+01     1.174279    0.8874506  84.84  0.005495222    1.851    0.460
        41 -10.7881    178.5069     83.5030   7.5779723474e+01   2.9014569497e+01    0.3067752     0.227114  76.94   0.00126005    1.432    0.302
        42 -10.5786    195.8842     76.0579   7.1028063066e+01   2.6315279395e+01    0.3254816    0.2427803 -60.85  0.001599417    1.286    0.222
        43 -10.8864    162.3883     76.7697   7.7141915290e+01   3.3917963017e+01    0.3054242    0.1922183  46.39  0.001390832    1.643    0.392
        44 -10.0023    235.3029     75.9178   6.5479702929e+01   1.7835313729e+01    0.2464709    0.1890643  64.67  0.001473935    1.408    0.290
        45 -10.4351    250.1476     74.5672   6.3468049633e+01   1.5113153793e+01    0.2328186    0.1619814 -30.39 0.0009899223    1.861    0.463
        46 -10.1743    201.7561     75.1568   6.9909664521e+01   2.5143946373e+01    0.3237227    0.1622049  50.06  0.001414358    2.203    0.546
        47 -10.8739    170.3796     72.2638   7.4460061465e+01   3.2815086810e+01    0.4628773    0.2753176  73.32  0.002043898    1.956    0.489
        48 -10.5605    182.6535     71.9709   7.2220989549e+01   3.0016692731e+01    0.2403864    0.1889502  74.77 0.0005269772    1.229    0.186
        49 -10.9447    117.0941     67.4774   8.4788663735e+01   4.5685674979e+01    0.3892438    0.3237767  12.94  0.001455996    1.343    0.255
        50  -9.6069    209.9858     67.0094   6.6890071537e+01   2.4632062068e+01    0.2252536    0.1435268 -70.72 0.0007377814    1.670    0.401
        51 -10.8252    146.9701     66.4758   7.7535242105e+01   3.9188343081e+01    0.3345518    0.3069441  48.04  0.001211837    1.096    0.087
        52 -11.4047    214.5781     61.4187   6.5058060414e+01   2.4492961952e+01    0.3872945    0.3271998 -44.65  0.001281159    1.294    0.227
        53 -10.7860    169.9956     63.0059   7.2179756886e+01   3.4382968426e+01    0.3222518    0.2282248  51.02 0.0007913728    1.421    0.296
        54 -10.2431    165.9792     62.9687   7.2888353724e+01   3.5324959389e+01    0.2387789    0.1937009  55.88 0.0003901449    1.201    0.168
        55 -12.0535    124.6861     57.4612   7.9931144746e+01   4.5607010330e+01    0.3680609    0.2744288  53.28 0.0009245531    1.253    0.202
        56 -11.1028    174.7510     56.4269   6.9716026499e+01   3.4267936502e+01    0.2524157    0.2145941 -84.99 0.0004176109    1.113    0.102
        57 -12.7894     50.4741    141.9371   1.2343902143e+02   4.0842102482e+01    0.9620115    0.6147829  26.54   0.00479695    1.815    0.449
        58 -11.9966    134.1595     53.9688   7.6758980142e+01   4.4005745188e+01    0.5449511    0.2953219  63.50  0.001462959    1.945    0.486
        59 -10.6423    154.7147     53.0322   7.2352209811e+01   3.9423490886e+01    0.4797409    0.2570119  41.67  0.002113262    2.170    0.539
        60  -9.8530     88.8962     47.9329   8.6398944555e+01   5.4347242529e+01    0.3124924    0.1875216  63.84  0.001419756    2.549    0.608
        61 -11.6374     92.7208     52.8864   8.6910421161e+01   5.2905090437e+01    0.2721577    0.2225249 -17.97 0.0003061098    1.258    0.205
        62 -10.9250     98.5470     50.1664   8.4370476090e+01   5.2159374308e+01    0.6081878    0.2490172  42.89  0.002551839    2.275    0.561
        63 -11.3988    145.3375     50.2462   7.3390874465e+01   4.1982463339e+01    0.4083704    0.2709522 -41.36  0.001178174    1.617    0.382
        64  -9.0506    213.2133     50.6098   6.2909304593e+01   2.6389149803e+01    0.1713739    0.1099008  59.57 0.0008885646    1.598    0.374
        65 -10.2102    137.2632     48.1966   7.4444277498e+01   4.4109190636e+01    0.2457663    0.2091445 -82.14 0.0006951073    1.304    0.233
        66 -11.0889    175.4086     46.3818   6.7126328311e+01   3.5537607229e+01    0.4891729    0.3618801  33.80  0.002640391    1.806    0.446
        67 -10.7158    181.6895     43.3596   6.5454907549e+01   3.4494118968e+01    0.2950612    0.2237274  71.71 0.0005568795    1.182    0.154
        68 -11.7942    157.4794     43.8713   6.9421037772e+01   4.0035624624e+01    0.3338187    0.3227394  83.74 0.0007093839    1.115    0.103
        69  -9.7353    209.7195     54.9197   6.4275636409e+01   2.6531252668e+01    0.2198825    0.1646018  60.25 0.0007914695    1.401    0.286
        70  -9.1603    243.2014     45.3994   5.8601402929e+01   2.0842320951e+01    0.1635197   0.09999415  87.52 0.0005473738    1.573    0.364
        71 -10.5544    122.2170     43.7786   7.6406493042e+01   4.8057034565e+01    0.2560064    0.2141979   8.69 0.0009004103    1.367    0.269
        72 -11.9252    197.1275     41.2415   6.2865664746e+01   3.1258109841e+01    0.8805635    0.4248904  77.97  0.003338442    2.245    0.555
        73 -12.6347    216.2888     38.6865   6.0044516151e+01   2.7366188657e+01     1.230451    0.2774755  58.69  0.004428574    3.965    0.748
        74 -11.5971    205.0091     37.4884   6.1073533912e+01   2.9992421062e+01    0.4966024    0.2885291  73.12  0.001972596    1.570    0.363
        75 -10.4774    139.8697     43.9523   7.2710808611e+01   4.4080736089e+01    0.3778088    0.1950412  62.10  0.001740582    1.830    0.454
        76 -10.3053    188.7047     40.4451   6.3789407955e+01   3.3272507581e+01    0.3096778    0.1540399 -47.58  0.001493461    2.000    0.500
        77 -10.2005    159.9905     36.4236   6.7053086809e+01   4.0400850864e+01    0.2076286    0.1929927 -54.42 0.0003217384    1.189    0.159
        78  -8.6191    130.4529     37.4240   7.2734672735e+01   4.7029614603e+01    0.1310303    0.1159899  60.60 0.0001049884    1.032    0.031
        79 -11.3493     76.1648    139.8712   1.1560594636e+02   3.7835496916e+01    0.6696439    0.2031907 -52.88  0.002196954    2.893    0.654
        80 -11.5778     34.0831    135.8631   1.2713246989e+02   4.4156605760e+01    0.3181711    0.1965005  26.78  0.001496274    1.885    0.470
        81 -11.0566     82.1251    134.0838   1.1264012568e+02   3.8324918218e+01    0.2909128    0.2074787 -60.49  0.001395909    1.363    0.266
        82 -10.1931     21.5816    133.7100   1.3041025748e+02   4.5841946589e+01    0.2157945    0.1493374  56.87   0.00109264    1.726    0.421
        83 -11.2801    122.2915    127.5545   9.9826569259e+01   3.2522303036e+01    0.4800296    0.4520251  86.96  0.001439571    1.108    0.098
        84  -9.2843    162.5280    117.5097   8.7476660201e+01   2.6069685476e+01    0.1539715    0.1479023 -70.61 0.0001151614    1.002    0.002
        85 -11.8409    147.8693    114.4270   9.0072543718e+01   2.9985176039e+01    0.4236734    0.3411426  64.18   0.00206073    1.327    0.247
        86 -12.0274    191.0242    112.8878   8.0517722104e+01   2.0665453590e+01    0.4605128    0.3377739  81.91  0.001314248    1.655    0.396
        87 -12.6650    178.0757    104.1803   8.0938268086e+01   2.5270631085e+01    0.8532696    0.5505601  67.98  0.003781899    1.796    0.443
        88 -11.6095    176.5950     33.3208   6.3772066630e+01   3.6948915901e+01    0.2977175    0.2138593  71.02 0.0005147152    1.218    0.179
        89  -9.8352    140.9950     33.8760   6.9660307089e+01   4.5072240616e+01    0.2372312    0.1508968 -21.17  0.001234552    1.990    0.497
        90 -10.1277     97.0934     33.5427   7.9296242449e+01   5.4605742641e+01     0.245962    0.1765561  23.34 0.0007940439    1.438    0.305
        91 -10.8389    150.9263     32.1703   6.7434815507e+01   4.2999937799e+01    0.4857936    0.1873935  54.95  0.002091933    2.208    0.547
        92 -10.1319    104.1912     29.6379   7.6209212242e+01   5.3605427772e+01    0.3091197    0.1715554  56.59  0.001104356    1.669    0.401
        93 -10.2807    109.1450     28.1501   7.4551386087e+01   5.2733748954e+01    0.3560821      0.19641  34.92  0.001596911    1.925    0.481
        94  -9.9210    216.2212     28.4934   5.7960800248e+01   2.8691162408e+01    0.2079607    0.1573875 -51.20 0.0006769549    1.317    0.241
        95  -9.8695    168.7587     27.7235   6.3516371968e+01   3.9411776069e+01    0.2561308    0.1681708  49.43  0.001367014    1.584    0.369
        96  -9.1611     37.2632     27.3045   9.6823166117e+01   6.5330891963e+01    0.1151952   0.07363729  -2.90 0.0002138006    1.523    0.343
        97 -11.4893    170.7604    102.5261   8.2004335579e+01   2.7255220562e+01    0.4435725    0.3282676 -55.33  0.002052388    1.353    0.261
        98  -9.2672    198.3626     24.2478   5.8972856775e+01   3.3108108810e+01    0.1191161   0.08409241  52.96 0.0004306097    1.611    0.379
        99 -10.7277    194.5090    249.4893   1.0750489753e+02  -7.0241183607e+00    0.2393143    0.1098606  26.04  0.001040271    2.389    0.581
       100  -9.8473    222.3074     19.8553   5.5656523051e+01   2.8443548183e+01     0.214354    0.1344656 -89.37 0.0008933563    1.377    0.274
       101 -11.2006    209.0662     18.8147   5.6704744316e+01   3.1390593265e+01    0.3231217    0.2288026 -77.46  0.001071607    1.208    0.172
       102  -9.9139     33.8074    177.3956   1.3318544714e+02   3.3909193018e+01    0.1648261    0.1327911   9.30 0.0008832612    1.691    0.409
       103  -8.9413    208.5361    161.4595   8.8008154061e+01   7.1659269514e+00    0.1456302    0.1337699 -37.53 0.0001419449    1.004    0.004
       104 -11.2259     19.0116    154.1303   1.3400425887e+02   4.1095135696e+01    0.2696927    0.2313555 -13.23  0.001715334    1.497    0.332
       105 -13.9852    140.7612     95.5807   8.6856768817e+01   3.5424061293e+01     1.622277     1.331239  26.93  0.008176964    1.394    0.283
       106 -12.0000    151.7447     72.5926   7.8197943255e+01   3.7089856792e+01    0.7703072    0.5144981 -82.74  0.003391466    2.167    0.539
       107 -12.3004    149.4938     79.2547   8.0470890926e+01   3.6470339862e+01    0.5966663    0.4458872  14.90  0.002143164    1.925    0.481
       108 -10.7170    139.6673     20.5934   6.6191549691e+01   4.6823853686e+01    0.3005526    0.2081705  62.91 0.0008487672    1.223    0.182
       109 -10.0428    240.4383     34.1812   5.6745873200e+01   2.2917561390e+01    0.1868952    0.1422812  75.74 0.0004662865    1.316    0.240
       110 -12.0702    144.3408     75.2760   8.0517424760e+01   3.8338892359e+01    0.8123115    0.3996831 -39.50   0.00221154    2.109    0.526
       111 -13.1033      3.5877     46.6640   1.1804983309e+02   6.5593950393e+01    0.5351726    0.4437808 -26.51  0.001911706    1.144    0.126
       112 -10.2409     29.7045    153.1779   1.3103786994e+02   4.0330519689e+01    0.2196088    0.1519724 -83.33  0.001191756    1.379    0.275
