#   1 NUMBER                 Running object number                                     
#   2 MAG_AUTO               Kron-like elliptical aperture magnitude                    [mag]
#   3 X_IMAGE                Object position along x                                    [pixel]
#   4 Y_IMAGE                Object position along y                                    [pixel]
#   5 X_WORLD                Barycenter position along world x axis                     [deg]
#   6 Y_WORLD                Barycenter position along world y axis                     [deg]
#   7 A_WORLD                Profile RMS along major axis (world units)                 [deg]
#   8 B_WORLD                Profile RMS along minor axis (world units)                 [deg]
#   9 THETA_WORLD            Position angle (CCW/world-x)                               [deg]
#  10 FWHM_WORLD             FWHM assuming a gaussian core                              [deg]
#  11 ELONGATION             A_IMAGE/B_IMAGE                                           
#  12 ELLIPTICITY            1 - B_IMAGE/A_IMAGE                                       
         1 -14.4634    163.3760     48.3374   7.9367569313e+01   3.8388769319e+01     1.754973     1.392086  14.51  0.005803663    1.578    0.366
         2 -14.3782    176.7124     32.4826   7.2514044849e+01   3.7205663290e+01    0.9626723    0.9344202 -23.49  0.003796075    1.181    0.153
         3 -13.6928    180.7056     25.7055   7.0048887667e+01   3.7037355245e+01    0.6013382      0.51549  64.88  0.001118719    1.079    0.073
         4 -13.5779    190.8832     15.3110   6.5922014040e+01   3.5703445884e+01    0.9634432    0.5803556 -85.21  0.004195006    1.824    0.452
         5 -13.9065    194.7504      3.1849   6.2436066178e+01   3.6012643340e+01     1.678131     0.609417  60.71   0.00522491    2.277    0.561
         6 -11.0845    182.5133    234.1267   1.1824481760e+02  -1.1651591200e+00    0.2207387    0.1651823  25.73   0.00128124    1.319    0.242
         7 -19.7770     50.3666    164.8577   1.3619164743e+02   3.5237931766e+01     19.58767     5.595552 -68.90   0.06939312    3.439    0.709
         8 -11.0168    157.5775    192.5549   1.1628975732e+02   1.1067568466e+01    0.2632632    0.2289834  74.03  0.001443719    1.216    0.178
         9 -11.9362    207.5954    183.7712   1.0414353942e+02   2.7880403880e+00    0.3653129    0.3619025 -43.47   0.00119751    1.134    0.118
        10 -12.0324    210.9759    181.1942   1.0294862495e+02   2.5908104885e+00    0.4525729    0.3199468 -23.13  0.001714959    1.561    0.359
        11 -11.5697    197.8475    175.7588   1.0446613141e+02   6.2328747955e+00    0.4126792    0.3202369 -54.18  0.001087515    1.444    0.308
        12 -10.5149    145.3778    178.3567   1.1633946751e+02   1.6462397708e+01    0.2152913     0.178589   3.85   0.00061504    1.605    0.377
        13  -9.2022    168.3180    175.3415   1.1064369490e+02   1.2421054905e+01    0.1522425    0.1193983   0.66 0.0007049195    1.714    0.417
        14 -10.4431    177.9743    170.9512   1.0764284350e+02   1.1306845439e+01    0.4308762     0.182578 -55.58  0.001404745    3.306    0.698
        15 -10.9503    225.9652    167.2375   9.7134865728e+01   2.1586955838e+00    0.3816687    0.1859991 -55.78  0.001336057    3.391    0.705
        16 -11.6208    204.1196    168.3350   1.0162708144e+02   6.3613806209e+00    0.5053616    0.4890276 -12.00  0.002244345    1.030    0.029
        17 -11.1677    157.1425    218.8656   1.2086022990e+02   6.0638744040e+00    0.2139981    0.1751198  65.99 0.0007324127    1.271    0.213
        18 -11.1258    145.9318    168.4785   1.1428586892e+02   1.8502508447e+01    0.2600655    0.2401943   2.85 0.0005292678    1.268    0.212
        19 -10.2275    142.2704    165.6034   1.1455418550e+02   1.9882711086e+01    0.3436142    0.2159989 -72.11 0.0005803032    2.170    0.539
        20 -10.5992     18.5997    218.8510   1.4776527047e+02   2.7069214263e+01    0.1443334    0.1105185 -79.13  0.000743465    1.312    0.238
        21 -11.0516    229.8370    165.8569   9.6117697383e+01   1.6481091119e+00    0.1904846     0.171906 -65.17 0.0006831465    1.331    0.248
        22  -9.9445    122.5346    165.8403   1.1924018401e+02   2.3715826864e+01    0.2191942    0.1856603  55.06 0.0005316557    1.146    0.128
        23 -10.6346     19.0726    213.8731   1.4733528797e+02   2.8023207690e+01    0.1594889     0.105157  71.76 0.0003949038    1.192    0.161
        24 -10.6773    133.0660    213.5058   1.2497782199e+02   1.1506897693e+01    0.2102074    0.1224284  44.04 0.0005777135    1.543    0.352
        25 -10.7533    139.9367    156.4332   1.1321299594e+02   2.2411642669e+01    0.2622913    0.2198215 -58.38  0.000413352    1.201    0.167
        26 -11.7496    162.8902    154.7189   1.0750438579e+02   1.7940205869e+01    0.3690776      0.33104 -87.09  0.001240082    1.203    0.169
        27 -11.0088    165.0355    205.3833   1.1699032419e+02   7.0965669256e+00    0.5292579    0.2709869 -65.41  0.001932623    3.495    0.714
        28 -10.3291     10.0304    153.4370   1.4399307310e+02   4.1858748781e+01    0.2627588    0.1774361   8.60  0.001636737    2.356    0.575
        29 -12.4403    134.0493    145.5647   1.1229253744e+02   2.6085443070e+01     1.232735    0.3262118 -54.70  0.003051164    5.092    0.804
        30 -11.0505    174.4310    148.2698   1.0347018569e+02   1.6792620130e+01    0.4019774    0.2937987 -55.53  0.001145656    1.458    0.314
        31 -11.6197     92.0736    148.4423   1.2340624413e+02   3.3202135085e+01    0.5038142    0.2224194  51.89  0.001908483    2.662    0.624
        32 -12.3129    145.3292    146.2217   1.0970979815e+02   2.3582743061e+01    0.4972152    0.3844231  88.49  0.002289922    1.611    0.379
        33 -13.9199     12.4144    205.9890   1.4795517553e+02   3.0310090310e+01    0.4912756    0.2626372  36.53  0.003047844    2.165    0.538
        34 -11.6365    128.4440    206.4574   1.2487415025e+02   1.3762385870e+01    0.3460812    0.1931924  42.26  0.001624947    1.667    0.400
        35 -11.2985      4.0747    146.5214   1.4462411013e+02   4.3846913016e+01    0.1979984    0.1830099 -34.16  0.001181572    1.464    0.317
        36 -13.3682    194.1335    194.1190   1.0890416638e+02   3.5419942225e+00     1.203448    0.7998216 -66.96   0.00523078    2.358    0.576
        37  -9.5188    170.6775    137.3016   1.0175689026e+02   1.9961686768e+01    0.1594117    0.1247256 -89.33  0.000697297    1.631    0.387
        38 -11.6014    106.0000    130.9961   1.1619467280e+02   3.4903013008e+01    0.4198098    0.3094243  68.30  0.001785654    1.617    0.382
        39 -11.6700    106.4212    126.7855   1.1513015141e+02   3.5803205088e+01    0.5930998    0.3997855 -58.87 0.0009333759    1.475    0.322
        40 -11.9392    118.4482    130.1761   1.1274766650e+02   3.2745927699e+01    0.4176801    0.3820685 -39.81 0.0008846852    1.133    0.118
        41 -12.4356    135.7047    124.6476   1.0701326897e+02   3.0474023945e+01     1.050076    0.2480195 -48.52  0.002732618    4.341    0.770
        42 -11.2979    160.5350    128.3914   1.0192523072e+02   2.4170896824e+01    0.4416552    0.2732313 -36.20  0.001822246    1.755    0.430
        43 -10.7770    141.5590    126.6616   1.0604858839e+02   2.8767965875e+01    0.3956804    0.2802126  85.15  0.001632368    2.060    0.515
        44 -11.5394    125.0495    127.0332   1.1030219564e+02   3.2151155233e+01    0.4232192    0.2858218  75.08  0.001654071    2.150    0.535
        45  -9.3087    170.4302    205.4746   1.1588456579e+02   6.0425508111e+00    0.1397997    0.1274913  50.03 0.0001536014    1.048    0.045
        46 -10.8364    112.8433    119.4509   1.1167890734e+02   3.6281459562e+01     0.297302    0.2653585  46.05 0.0006717991    1.160    0.138
        47 -11.2919    167.8972    113.0495   9.6380070805e+01   2.5709749289e+01    0.6102644    0.3749058  75.21  0.002203905    2.627    0.619
        48 -11.0616    134.7178    104.1493   1.0199183414e+02   3.5149460116e+01    0.6935952    0.1767973 -43.24  0.001908927    3.918    0.745
        49 -11.6928      2.8753    112.4440   1.4096413708e+02   5.1451111102e+01    0.2634056    0.2116109 -55.70  0.001045142    1.175    0.149
        50 -10.6122    205.5184    110.2283   8.7898208531e+01   1.7357070070e+01    0.3211503     0.244994  44.99 0.0009132632    1.380    0.276
        51 -10.0806    211.0966    202.5983   1.0714927480e+02  -1.1708197754e+00    0.2045456    0.1840107 -42.06 0.0004241457    1.258    0.205
        52  -9.7558     23.4827    201.8146   1.4562407437e+02   3.0053980808e+01   0.09232558   0.08435741 -22.66 0.0006571203    1.825    0.452
        53 -11.7219    204.0858    199.0275   1.0784749499e+02   7.5169388146e-01    0.3236596    0.2693707 -27.19  0.001062116    1.250    0.200
        54  -9.2095    124.9270     94.6997   1.0194905988e+02   3.9219164687e+01    0.2518661    0.1165539  28.27 0.0004226702    4.363    0.771
        55 -11.8529    138.9346    198.7023   1.2138989995e+02   1.3413503925e+01    0.6627714    0.3025509  57.36  0.002451687    2.760    0.638
        56 -10.0960    177.8440    196.7230   1.1275621207e+02   6.2515787968e+00    0.2623428    0.2101045 -68.40  0.001196125    1.536    0.349
        57 -10.1357    168.4758    248.4642   1.2308044768e+02  -9.7124622959e-01    0.1276892    0.1040642  46.80 -3.120171e-06    1.069    0.064
        58 -10.1628    200.4854    247.4721   1.1692594736e+02  -6.2579562437e+00    0.1250899    0.1028159  31.85 0.0008096684    1.030    0.029
        59 -10.3929     13.6181     59.9358   1.2791028297e+02   6.1745017103e+01    0.1702241    0.1587369 -10.26 0.0004115138    1.283    0.220
        60 -10.9774    179.7546    192.7885   1.1161651113e+02   6.6235141820e+00    0.5789897    0.3427238 -68.38   0.00223452    3.022    0.669
        61  -9.8610    120.7080     24.9103   8.1010919870e+01   5.1441017530e+01    0.1754059    0.1638127  37.09 0.0004133058    1.072    0.067
        62  -9.3849    218.7935    241.9941   1.1266039494e+02  -8.5053323965e+00    0.1447516   0.09650394 -32.89 0.0004442241    1.672    0.402
