#   1 NUMBER                 Running object number                                     
#   2 MAG_AUTO               Kron-like elliptical aperture magnitude                    [mag]
#   3 X_IMAGE                Object position along x                                    [pixel]
#   4 Y_IMAGE                Object position along y                                    [pixel]
#   5 X_WORLD                Barycenter position along world x axis                     [deg]
#   6 Y_WORLD                Barycenter position along world y axis                     [deg]
#   7 A_WORLD                Profile RMS along major axis (world units)                 [deg]
#   8 B_WORLD                Profile RMS along minor axis (world units)                 [deg]
#   9 THETA_WORLD            Position angle (CCW/world-x)                               [deg]
#  10 FWHM_WORLD             FWHM assuming a gaussian core                              [deg]
#  11 ELONGATION             A_IMAGE/B_IMAGE                                           
#  12 ELLIPTICITY            1 - B_IMAGE/A_IMAGE                                       
         1 -10.4867     24.8542     16.7296   1.2198239066e+02   7.3471305480e+01    0.3494687      0.28653  30.54  0.001015821    1.376    0.273
         2  -9.1559     31.6692     10.6056   1.1386094937e+02   7.3889302822e+01    0.4024036    0.2051045 -31.50  0.001178945    2.104    0.525
         3  -8.3358    127.8255     16.8469   7.9270856879e+01   5.1873648802e+01    0.2279029    0.1931247  38.00 0.0003112679    1.200    0.167
         4  -8.6448    146.7621     14.0639   7.4768625548e+01   4.6897244117e+01    0.2486689    0.2025213  66.09  0.000366597    1.150    0.130
         5  -8.6264     88.5145     13.3715   8.7684070561e+01   6.2562952483e+01    0.3447199    0.1952145  32.00  0.001455387    2.053    0.513
         6  -8.9702     74.7794     13.0882   9.2411140720e+01   6.5785855823e+01     0.359407    0.2720541 -10.15  0.001518975    1.396    0.283
         7  -8.7869     80.0966     12.6844   9.0188393415e+01   6.4639938431e+01     0.296305    0.2587456 -37.82  0.001051691    1.228    0.186
         8  -9.6828     64.0123     14.3098   9.7662265588e+01   6.7881708552e+01    0.4357472    0.2612026  30.10 0.0008472444    1.869    0.465
         9  -8.0668    134.7664     13.2546   7.6456779658e+01   5.0344136983e+01    0.2087048    0.1618069  37.88 0.0003476679    1.348    0.258
        10  -8.1438    105.9540     10.8528   8.1453721164e+01   5.8451506917e+01    0.2365719    0.1841585  36.44 0.0006177222    1.278    0.217
        11  -8.5559     97.2552     12.0968   8.4379684289e+01   6.0554750880e+01    0.2961109    0.2067688  39.16 0.0005703029    1.411    0.291
        12 -10.5777     20.0800      8.7708   1.2139741688e+02   7.5545015753e+01    0.3143201    0.2246543   1.68 0.0004146567    1.495    0.331
        13  -8.1308     39.0740      8.8879   1.0786322869e+02   7.3163302834e+01    0.2150269     0.145698  -7.79   0.00112869    1.744    0.427
        14  -8.1550      1.9266      8.1714   1.3631563669e+02   7.6910216898e+01    0.2142068    0.1496237 -61.44  0.001376328    1.217    0.179
        15  -8.3146    128.4895      7.9624   7.5362268957e+01   5.2633693814e+01    0.2138175      0.15069 -15.64 0.0007159835    1.557    0.358
        16  -7.8215     76.8487      7.3200   8.8320522127e+01   6.6072367570e+01    0.2130526    0.1107149  46.64 0.0006124676    1.795    0.443
        17  -8.2024     84.4128      5.6724   8.4800401284e+01   6.4479898354e+01    0.2663302    0.1389105 -20.05  0.001146949    2.051    0.513
        18  -8.7567     56.4328      4.7144   9.5329934710e+01   7.0777664532e+01    0.3392294     0.196308  10.09  0.001430838    2.640    0.621
        19  -9.9741     49.0648      4.6151   9.9097258129e+01   7.2183356635e+01    0.2689817    0.2129417   5.41 0.0003682904    1.249    0.199
        20  -9.1177    110.8644      4.3613   7.7182274746e+01   5.7815631435e+01    0.3829499    0.2010131 -36.43 0.0006312118    1.993    0.498
        21  -8.7126     68.9282      3.8005   8.9207294808e+01   6.8284396153e+01     0.375014    0.1962165 -11.07  0.001571784    2.427    0.588
        22  -8.4864     12.8445      4.5796   1.2507359010e+02   7.7013023547e+01    0.2434621     0.207975 -68.17   0.00164575    1.363    0.266
        23  -8.8905    125.2323      3.9191   7.4187462167e+01   5.3921470030e+01    0.2529275    0.1991276  60.75 0.0006266298    1.164    0.141
        24  -8.1793    153.7515      3.3851   6.9746469960e+01   4.5957919231e+01    0.2061283    0.1224317  61.62 0.0003075162    1.545    0.353
        25  -8.0552    182.1249      2.3043   6.6355849478e+01   3.8182173174e+01    0.1991924    0.1658193 -90.00 0.0004407408    1.119    0.106
        26  -8.3089    142.7747      2.1705   7.0718891418e+01   4.9158211799e+01    0.3769318    0.1624215  59.89  0.001475017    2.026    0.507
        27  -8.2038    105.3167      2.3206   7.7399713353e+01   5.9493290006e+01    0.1571859   0.09845392  35.40 0.0003824836    1.660    0.398
        28  -7.7417      3.0413      1.3575   1.3239704462e+02   7.8300399826e+01    0.1515997    0.1058552   2.72 0.0003935248    1.542    0.351
        29  -7.9232    194.8168    229.1844   1.1793470591e+02   4.2782651431e+00     0.159983    0.1013882  18.46 0.0005576719    1.384    0.277
        30  -8.2444    249.4896    249.9862   1.1195989244e+02  -4.6696809738e+00    0.1283437   0.08055909 -11.36 0.0007578449    1.562    0.360
        31  -9.5572    212.1466    250.2319   1.1776180141e+02  -1.4543027071e-01    0.3492053   0.09901052  38.54  0.001748474    2.640    0.621
        32 -10.1288    200.4874    249.2370   1.1954212205e+02   1.4535108083e+00    0.3662979    0.1579249  27.38  0.001569995    1.886    0.470
        33  -8.4091    150.8584    249.7622   1.2815977361e+02   8.0741571715e+00    0.1701501    0.1125963  28.47 0.0008084455    1.208    0.173
        34  -7.9393    123.5726    250.5002   1.3315978408e+02   1.1671409000e+01    0.1998996   0.08195559  29.73  0.001025273    2.316    0.568
        35  -7.4108    133.3624    229.2995   1.2925089756e+02   1.3145794190e+01      0.11462   0.07749266  17.32  0.000703478    1.720    0.419
        36  -8.4417    187.1316    226.9278   1.1898031981e+02   5.6250578703e+00    0.2568448    0.1393444  13.15  0.001294628    2.377    0.579
        37  -7.4286    110.6790    227.6966   1.3351239966e+02   1.6594900303e+01    0.1076329   0.08059537  16.44 0.0004783877    1.632    0.387
        38  -7.5591     93.2236    227.5371   1.3695484638e+02   1.8999524277e+01    0.1582008   0.09077226  29.96 0.0007153432    1.642    0.391
        39  -7.8507     69.8469    226.1606   1.4150508227e+02   2.2216286582e+01    0.1430537    0.1131748  34.73  0.000505227    1.305    0.233
        40  -7.4118    229.7071    225.6952   1.1163398999e+02  -1.5057006641e-01    0.1101202   0.06275983  13.31 0.0002341294    1.577    0.366
        41  -7.6560    223.6832    224.6591   1.1245361505e+02   7.5253904220e-01     0.115264   0.06467943  12.81 0.0007048681    1.709    0.415
        42  -7.2948    200.3023    223.3203   1.1618237193e+02   4.1385178804e+00    0.1152216   0.06975325  14.10 0.0004361278    1.628    0.386
        43  -9.2582    238.8928    220.0688   1.0935874019e+02  -8.3222897464e-01    0.2720406    0.1196681 -14.07  0.001446938    2.883    0.653
        44  -8.1009    129.9554    220.6333   1.2896869659e+02   1.4875430199e+01    0.1746628     0.158925   6.06  0.001303748    1.342    0.255
        45  -7.4578     51.6077    221.7498   1.4487775886e+02   2.5109200723e+01   0.09745035   0.07925445  16.92   0.00050074    1.678    0.404
        46  -8.3551    182.3391    219.8925   1.1889054634e+02   7.1477465172e+00    0.2122998    0.1259513  21.58   0.00105097    1.578    0.366
        47  -7.4446    114.6986    220.3002   1.3198269612e+02   1.7145120515e+01    0.1184776   0.07269808  55.52 0.0002810109    1.584    0.369
        48  -7.5272     40.3437    220.3127   1.4705471190e+02   2.6599021944e+01   0.09153353   0.08310328  -0.58 0.0006228418    1.706    0.414
        49  -7.5722    173.5232    218.9910   1.2038501056e+02   8.5739202242e+00    0.1439633   0.09044269  -3.08 0.0006298035    2.266    0.559
        50  -7.7986    227.5087    217.4921   1.1078177663e+02   9.3725290628e-01    0.1138844   0.07952527  17.24 -5.576631e-05    1.053    0.050
        51  -7.8391    105.5012    217.5058   1.3356956011e+02   1.8892048076e+01    0.1204479   0.09092748  43.33 0.0008106132    1.016    0.016
        52  -8.8082    247.4850    215.0707   1.0727799361e+02  -1.4905831706e+00    0.2013422    0.1541912 -13.76 0.0009436921    1.429    0.300
        53  -8.2778    248.2621    211.5858   1.0662173062e+02  -1.2718271988e+00    0.2643252    0.1098137  31.75  0.001153076    1.938    0.484
        54  -7.6224    203.8008    216.4141   1.1459176976e+02   4.3945489212e+00    0.1630467     0.082412  28.61  0.000352435    1.612    0.380
        55  -8.2990    193.6028    215.4296   1.1623970535e+02   6.0040294889e+00    0.2069473    0.1405469  20.54  0.001051928    1.233    0.189
        56  -7.8084    179.0617    214.9767   1.1881196277e+02   8.2404205922e+00    0.1838915    0.1199135  11.98 0.0009799849    1.669    0.401
        57  -7.7420     83.7605    215.3752   1.3786001631e+02   2.2224049766e+01     0.162315   0.09310427  31.01 0.0006175555    1.631    0.387
        58  -8.8452    232.0728    212.6076   1.0930726805e+02   7.9609431276e-01    0.2910095    0.1417386  -2.87  0.001465926    2.934    0.659
        59  -7.9010     53.9760    210.8738   1.4374956411e+02   2.6720261022e+01    0.1668342    0.1285933   4.08  0.001088151    2.062    0.515
        60  -7.9399    186.5627    210.2277   1.1675736111e+02   7.6878477872e+00    0.1439827    0.1031801  -8.94 0.0003447235    1.577    0.366
        61  -7.6625    163.1903    207.6378   1.2079477490e+02   1.1652253337e+01    0.1753063   0.09130035  31.47 0.0004889913    1.629    0.386
        62  -9.2522    124.0104    206.0059   1.2849195776e+02   1.8002468894e+01    0.1776361    0.1384217  41.17  0.001167138    1.003    0.003
        63  -7.7284    246.8120    205.1323   1.0582640209e+02  -4.7469434177e-01    0.1556833   0.09809733   7.59  0.001056737    1.333    0.250
        64  -8.5418    227.9158    201.8570   1.0829252382e+02   2.4786672357e+00    0.5588663     0.227888 -10.62  0.001724684    7.622    0.869
        65  -7.9509    215.8985    205.4989   1.1087000500e+02   3.8331694463e+00    0.1753393   0.09046386  34.29  0.001014917    1.548    0.354
        66  -7.5073    205.5382    204.9826   1.1257290898e+02   5.4324721888e+00    0.1569075   0.08786548  -3.35 0.0007428846    2.452    0.592
        67  -8.1407    117.3403    205.1492   1.2979073782e+02   1.9153503798e+01     0.216527      0.13953  31.94 0.0007699685    1.381    0.276
        68  -7.5600     48.5026    205.5157   1.4457525374e+02   2.8311880337e+01    0.1140773   0.08827401  53.38 -4.530271e-05    1.063    0.059
        69  -8.0491    121.9244    213.3656   1.2977323281e+02   1.7158721993e+01    0.2440162    0.1285958  28.69  0.001282113    1.872    0.466
        70  -7.3582    176.2770    204.3276   1.1780932629e+02   1.0038822882e+01    0.1196036   0.08134438  11.66 0.0002228107    1.592    0.372
        71  -8.2181    250.4904    199.4855   1.0435449507e+02  -4.2786153082e-01    0.2099754   0.09478717 -25.10  0.001216822    2.187    0.543
        72  -7.7481    195.5146    200.5283   1.1366470957e+02   7.5021879510e+00     0.122256   0.09415887  23.82  0.000809827    1.001    0.001
        73  -8.1349    243.5659    198.2405   1.0521171375e+02   6.3921844939e-01     0.151445   0.08881982  -9.05 0.0009248183    1.646    0.392
        74  -8.1343    166.0587    197.6240   1.1879309730e+02   1.2596426950e+01    0.1855936     0.128841  35.40 0.0008795272    1.147    0.128
        75  -7.0853     42.6624    198.6704   1.4542546321e+02   3.0229100231e+01   0.09942843   0.08851228 -23.68 0.0007051967    1.733    0.423
        76  -8.2103    193.0631    194.2543   1.1311915039e+02   8.6793746485e+00    0.2739606    0.1666443   1.35   0.00144794    2.162    0.537
        77  -7.5663      1.6925    194.3091   1.5402003050e+02   3.4947747643e+01    0.1170116   0.05128673  56.40 0.0004047285    1.615    0.381
        78  -7.4653     90.4820    192.4059   1.3424115120e+02   2.5338028290e+01    0.1265558    0.0989784  48.23 0.0001827308    1.018    0.017
        79  -7.9900    246.3116    190.3267   1.0346835829e+02   1.0514637676e+00    0.1854447    0.1026323  13.14  0.001083874    1.768    0.434
        80  -7.6372    224.7107    189.5973   1.0679976578e+02   4.2888753482e+00    0.1261139   0.07462492   7.86 0.0006992373    1.799    0.444
        81  -7.8084     64.7993    189.4354   1.3980933312e+02   2.9373435435e+01    0.1627325    0.1067389  26.96 0.0008123864    1.653    0.395
        82  -7.2829      1.6859    187.3057   1.5385516306e+02   3.6277289153e+01    0.1187448    0.0526982  56.39 0.0006715226    1.622    0.383
        83  -7.7098    130.5251    182.9827   1.2406481211e+02   2.0792944085e+01    0.1658459     0.109733 -21.24 0.0008089985    2.455    0.593
        84  -7.9363    249.8873    182.3292   1.0154754077e+02   1.3613945295e+00    0.1614372    0.1143638  18.56 0.0005852964    1.131    0.116
        85  -7.3737    165.3765    182.2669   1.1653692375e+02   1.4971191687e+01    0.1339955   0.08860903  18.14 0.0006989843    1.677    0.404
        86  -7.4601    156.5067    180.5377   1.1808805471e+02   1.6771239855e+01    0.1332666    0.1091294  30.18 6.578655e-05    1.052    0.049
        87  -7.7256     96.6266    178.2485   1.3120258561e+02   2.7098482838e+01    0.1551372    0.1203637 -51.72 0.0002611623    1.575    0.365
        88  -7.6023     68.8110    178.3743   1.3786462611e+02   3.1032070835e+01    0.1708682    0.1092006  28.47 0.0009441928    1.644    0.392
        89  -7.9331    147.4368    175.6389   1.1922962663e+02   1.9150837463e+01    0.3039787    0.1835506  13.14  0.001325312    2.676    0.626
        90  -7.6656     46.6528    175.6818   1.4297763515e+02   3.4300273605e+01    0.1093711   0.09353581 -28.30 0.0007048618    1.729    0.422
        91  -7.7562    184.4723    171.4841   1.1087850673e+02   1.3240649866e+01     0.131889    0.1101642  24.82  7.80413e-05    1.004    0.004
        92  -7.7849     14.9713    170.3393   1.5028208685e+02   3.8563693743e+01    0.1592158   0.08955875  -9.45 0.0007044952    4.314    0.768
        93  -8.1384    176.9547    167.8143   1.1170210217e+02   1.5130391857e+01    0.2295991    0.1360532  19.35   0.00107263    2.080    0.519
        94  -7.8362    168.7378    163.9360   1.1267262384e+02   1.7235364964e+01    0.2858248    0.1524923  21.99   0.00116852    2.648    0.622
        95  -7.7070    122.8308    162.4144   1.2268484131e+02   2.5855260792e+01    0.1918588    0.1195337  30.66 0.0004027272    1.622    0.384
        96  -7.4989    160.3978    159.7982   1.1367328548e+02   1.9463399800e+01    0.1777934    0.1288474 -25.52 0.0009414601    1.628    0.386
        97  -7.5654    204.8053    159.3935   1.0478991790e+02   1.1334531344e+01    0.1912719    0.1050238  32.83 0.0008646562    1.689    0.408
        98  -7.5600     21.3447    157.3368   1.4806056633e+02   4.0754671789e+01    0.1118771   0.08595056 -45.37 0.0007049094    1.772    0.436
        99  -7.3418    145.6842    151.6649   1.1542125505e+02   2.3674954961e+01    0.1419975    0.1070824   7.28 0.0007047402    1.692    0.409
       100  -7.7315    107.1261    151.6377   1.2481210555e+02   3.0729376554e+01    0.2015648     0.122688  29.76 0.0008996282    1.758    0.431
       101  -8.0587    133.2258    147.7944   1.1762539635e+02   2.6773648827e+01    0.1932595    0.1651082   7.92 0.0006379308    1.361    0.265
       102  -9.4752     67.0168    144.5749   1.3454696609e+02   3.8490129695e+01    0.4684166    0.2883208  70.35  0.002344235    1.751    0.429
       103  -8.4113     15.2433    139.1859   1.4864364220e+02   4.5285799700e+01    0.3209887    0.1723186 -18.86  0.001409601    3.945    0.747
       104  -7.9124    139.5842    138.2255   1.1421080628e+02   2.7388241961e+01    0.1866322    0.1385587 -30.53 0.0003900193    1.598    0.374
       105  -7.6438    107.5047    137.0126   1.2216483096e+02   3.3743633788e+01    0.1837439    0.1220833 -28.52 -0.0002667288    2.271    0.560
       106  -7.8224     54.8229    135.4083   1.3688118660e+02   4.2175855070e+01    0.1728334    0.1270519  17.29 0.0007407666    1.695    0.410
       107  -8.5711      4.6416    134.3146   1.5136071004e+02   4.7156587063e+01    0.3165254    0.1760799 -10.63  0.001602044    3.125    0.680
       108  -7.9980     68.4737    133.4998   1.3260781342e+02   4.0819120290e+01    0.1340409    0.1245998  70.19 0.0001130957    1.078    0.072
       109  -8.4206     23.6948    129.8316   1.4555996970e+02   4.6738516699e+01    0.3048095    0.1917798 -29.44  0.001583713    2.468    0.595
       110  -7.3004    143.6994    126.6372   1.1073457679e+02   2.8790880583e+01     0.150791    0.1156831   3.34 0.0007035378    1.724    0.420
       111  -7.7575    128.4465    125.1570   1.1422001294e+02   3.2228387568e+01    0.1965353    0.1479983 -47.87 0.0003211051    1.432    0.302
       112 -10.2374    241.6986    121.1220   9.0787286759e+01   9.6950908087e+00    0.2615465    0.2143941  24.17 0.0005923741    1.182    0.154
       113  -8.9237     12.2586    121.5353   1.4841808248e+02   4.9572226469e+01    0.3153004    0.1535427 -52.50  0.001493924    2.349    0.574
       114  -7.2887     84.6867    121.6794   1.2580149803e+02   4.1101890680e+01    0.1389019    0.1136106 -19.58 0.0006270369    1.653    0.395
       115  -8.0472     22.3217    113.6396   1.4459705858e+02   5.0685730450e+01    0.1409435   0.07676917  62.85 0.0004198031    1.773    0.436
       116  -8.9019    248.6281    110.5398   8.7504601034e+01   9.7441975451e+00    0.2595867    0.1076395 -14.88 0.0009566676    3.452    0.710
       117  -7.6945    143.0067    111.4681   1.0733201021e+02   3.1896474612e+01    0.2173715    0.1266177  26.09 0.0006287912    2.459    0.593
       118  -9.4768      3.1303    109.3817   1.5055293103e+02   5.3003815523e+01    0.3870478    0.2027894 -40.02  0.001988644    2.523    0.604
       119  -7.5181    188.2916    107.3161   9.6424184938e+01   2.2476817938e+01    0.1480502    0.1093274  13.17 0.0003000215    1.597    0.374
       120  -8.2147    133.8723    106.6716   1.0843856981e+02   3.4862501984e+01    0.2599758    0.2144537 -24.06 0.0008620645    1.398    0.285
       121  -9.3948     13.8034    106.0218   1.4676803110e+02   5.3147593814e+01    0.2899752    0.1834334 -48.09  0.001313096    1.788    0.441
       122  -8.4728     17.3367    103.3375   1.4531504052e+02   5.3549460816e+01    0.2041463    0.1626784 -45.66 0.0009916893    1.440    0.305
       123  -7.2667    109.3054    106.3607   1.1514217004e+02   4.0103929357e+01     0.152179    0.1211179  -8.53 0.0007039107    1.731    0.422
       124  -7.6317     66.3064    105.3418   1.2856472164e+02   4.7808121107e+01     0.141691    0.1075632 -31.54 0.0007042324    1.686    0.407
       125  -7.9824    248.6595    104.3119   8.6116881161e+01   1.0496534409e+01    0.1238667   0.09421046 -54.27 0.0007046053    1.696    0.411
       126  -7.4552     77.6557    104.6790   1.2463371805e+02   4.6235760153e+01    0.1450063    0.1139753 -20.27 0.0007049896    1.729    0.421
       127  -7.8877     94.1064    103.2135   1.1899724514e+02   4.3736333493e+01    0.3293826    0.1226034  33.22  0.001039394    3.340    0.701
       128  -9.2761    245.0402    101.7292   8.6012288380e+01   1.1487767459e+01     0.300496    0.1413113  45.69  0.001356711    2.227    0.551
       129  -7.9127    123.8069    107.4185   1.1130498761e+02   3.6883076711e+01    0.2187667    0.1398987  33.56 0.0005752251    1.704    0.413
       130  -9.8323      9.1971     96.4434   1.4758290558e+02   5.5746028903e+01     0.354148    0.1938574  -5.87  0.001781638    2.656    0.624
       131  -7.5789     82.3328     94.3433   1.2071472747e+02   4.7900640678e+01    0.1501524    0.1163176 -18.77 0.0007050625    1.757    0.431
       132  -7.5764     53.2850     93.2899   1.3082907430e+02   5.2506298648e+01    0.1337916     0.102953 -35.77 0.0002428125    1.534    0.348
       133  -9.5974     20.2782     92.0210   1.4305639763e+02   5.6095922801e+01    0.4068929    0.2201858 -47.81   0.00204911    1.990    0.497
       134  -8.5171     44.0644     91.6243   1.3396956215e+02   5.4010623354e+01    0.3304638    0.2223043  20.03  0.001711772    1.743    0.426
       135  -8.0533     96.4499     90.4279   1.1502349636e+02   4.6207877027e+01    0.3656936      0.22673   9.50  0.001223667    3.624    0.724
       136  -7.7400    109.5072     91.4292   1.1121554609e+02   4.3336948954e+01    0.1519688    0.1461304  51.67 0.0002780683    1.027    0.027
       137  -8.2614     67.7654     85.5844   1.2374723611e+02   5.2357368877e+01    0.2846283    0.1443312  29.21  0.001162823    2.253    0.556
       138  -9.4658     35.8340     81.9403   1.3545225434e+02   5.7260760281e+01     0.575521    0.2704657 -34.24   0.00222466    3.294    0.696
       139  -7.4443    127.3583     83.3340   1.0374223168e+02   4.1061997590e+01    0.1639706    0.1240149  12.07 0.0007041281    1.803    0.445
       140  -8.4087     88.6841     78.7928   1.1435314189e+02   5.0335634549e+01      0.43451    0.2479995  19.83  0.001526137    3.135    0.681
       141  -9.6908      8.3165     77.1728   1.4611640024e+02   6.0472757774e+01     0.431861    0.2306755 -41.71  0.001509057    2.074    0.518
       142  -7.9310    184.1635     78.1417   8.9458654916e+01   2.8081310378e+01    0.2271721    0.1968875  16.55 0.0006819973    1.245    0.197
       143  -8.8259     48.7749     76.9796   1.2912830192e+02   5.7059456125e+01    0.3406407    0.2588491 -33.94  0.001329814    1.502    0.334
       144  -7.8882    105.8130     76.3863   1.0793832612e+02   4.7361333807e+01    0.2230131    0.1428286  36.36 0.0009486992    1.679    0.404
       145  -9.7811     24.2593     73.0954   1.3876946169e+02   6.0454545306e+01    0.8268513    0.3090205 -37.32  0.002917932    4.071    0.754
       146  -7.9748     23.4443     69.4948   1.3850988217e+02   6.1401127703e+01    0.2221126    0.1594318 -64.82 6.089927e-05    1.219    0.180
       147  -7.8838     75.1736     74.5663   1.1801358104e+02   5.3754217323e+01    0.1997686    0.1426419  22.61 0.0005533565    1.680    0.405
       148  -7.5537    129.3207     69.3557   9.8831084296e+01   4.3314010037e+01    0.1640034    0.1242372  13.14 0.0007045963    1.758    0.431
       149  -8.3460     43.0931     68.1377   1.2945235257e+02   5.9878005712e+01    0.2602257    0.2097974 -35.49   0.00141596    1.330    0.248
       150  -7.3709    116.3292     68.7033   1.0224858160e+02   4.6560811066e+01    0.1579228    0.1237096 -87.94 0.0007026607    1.635    0.388
       151  -8.2025     80.2132     68.1181   1.1414018235e+02   5.4324519842e+01    0.2197147    0.1952736 -22.25  0.000351513    1.238    0.192
       152  -8.4712     84.0736     63.9446   1.1132269328e+02   5.4514145903e+01    0.3944995    0.2413244  24.49  0.001611911    2.225    0.551
       153  -8.6432     61.7976     66.9950   1.2109574565e+02   5.7674908646e+01    0.2728924     0.173033 -47.95 0.0006636435    1.528    0.346
       154  -9.5482     65.2222     61.3605   1.1791762010e+02   5.8440647497e+01     0.430408    0.3285621  -9.91  0.002138424    1.712    0.416
       155  -9.6417     17.9028     62.2603   1.3979426554e+02   6.3560119798e+01    0.4453663    0.2146082 -49.46  0.001648262    1.933    0.483
       156  -7.3134    157.2529     63.7011   9.0365653611e+01   3.7210284451e+01    0.1522449    0.1180495 -65.63 0.0001527119    1.497    0.332
       157  -9.0952     51.5034     60.7038   1.2368540311e+02   6.0614406635e+01    0.3581986    0.3177529  67.18  0.001700799    1.230    0.187
       158 -10.7521     38.3388     57.7032   1.2896045096e+02   6.2910812812e+01    0.5367128    0.3183468 -25.05 0.0005249053    2.297    0.565
       159  -6.9564    194.6707     59.6749   8.2436026276e+01   2.8201750917e+01    0.1539537    0.1107216  25.01 0.0007050273    1.701    0.412
       160  -9.4723      2.6040     55.5420   1.4619694006e+02   6.5961047992e+01    0.5420589     0.268684 -59.58  0.002883012    1.673    0.402
       161 -10.0227      9.7351     47.6134   1.4128612417e+02   6.7560671676e+01    0.5895901    0.2571683 -40.87  0.002001211    2.310    0.567
       162  -7.9488     99.4966     54.8680   1.0262302162e+02   5.3155077219e+01     0.227688    0.1502048 -41.32 0.0009957918    1.532    0.347
       163  -9.3276     75.2368     50.3729   1.0985952008e+02   5.9092765982e+01    0.4014421    0.3036731  -1.02 0.0003430446    1.756    0.430
       164  -7.8622    118.5034     51.4612   9.5517925097e+01   4.9267372483e+01     0.268706    0.1518427  66.04 0.0007041497    2.143    0.533
       165 -10.2687     45.3360     49.0290   1.2291793988e+02   6.4120988641e+01    0.2553783    0.2351575  -5.04 0.0005628929    1.152    0.132
       166  -9.7444     30.2544     44.9374   1.2944929452e+02   6.6734733756e+01     0.536185    0.2752395 -15.63  0.002145163    3.319    0.699
       167  -9.7692     23.8280     47.4554   1.3362767955e+02   6.6700375460e+01    0.5122803    0.2784679  -9.63  0.002069191    2.622    0.619
       168  -9.4473    249.4532     45.2993   7.2151148786e+01   1.7323251666e+01    0.2296644    0.2082031  -7.24 0.0004282475    1.170    0.145
       169 -10.1672     83.0193     40.3719   1.0268854589e+02   5.9520335511e+01    0.4448135    0.2950096 -20.41            0    1.887    0.470
       170  -8.8807      1.9685     45.3568   1.4512800802e+02   6.8416153862e+01    0.2682038    0.1591347 -51.00  0.001134005    1.489    0.328
       171  -9.7174     43.1868     41.6007   1.2140144180e+02   6.6066352009e+01    0.3773208    0.2696438 -50.87  0.002058786    1.278    0.217
       172  -8.4973     96.7747     42.3762   9.8595833853e+01   5.6114588997e+01    0.2146961    0.1365193  42.10 0.0005279267    1.585    0.369
       173  -8.2038    106.8895     48.1529   9.7669168444e+01   5.2698532391e+01    0.2161411    0.2048214 -79.51            0    1.124    0.110
       174  -9.3454     18.7985     36.6105   1.3353089514e+02   6.9615771777e+01    0.7231926    0.2155739 -50.31  0.002924691    2.661    0.624
       175  -7.3782    123.4355     40.5073   8.9983593063e+01   4.9834014986e+01    0.1558444    0.1461055  33.07  0.000196211    1.081    0.075
       176  -8.6867      3.6489     39.7502   1.4326248691e+02   6.9684568313e+01     0.247946   0.09045865 -70.38  0.001127139    2.158    0.537
       177  -7.8733     67.7469     38.9616   1.0837762616e+02   6.2804158149e+01    0.1901237     0.118286 -42.86 0.0007750392    1.562    0.360
       178  -9.1159     91.6697     37.2041   9.8136169683e+01   5.8197111893e+01    0.4300993    0.2567145  30.90  0.001329102    2.074    0.518
       179  -9.0640     96.1046     33.2191   9.4860246908e+01   5.7840588968e+01    0.2768445    0.2316439  14.65 0.0003125463    1.312    0.238
       180  -9.4570     54.6803     36.6755   1.1352696130e+02   6.5492242348e+01    0.3437189    0.2864434  10.13  0.001084352    1.296    0.228
       181  -8.5192    106.7700     36.5630   9.2973950783e+01   5.4710314358e+01    0.3774263    0.2219892  33.38  0.001514973    2.068    0.516
       182  -8.5821     37.5508     35.4493   1.2213597605e+02   6.8111412242e+01    0.3190032     0.210118  -9.13  0.001591739    1.989    0.497
       183  -9.0227      7.2365     34.2516   1.3999508696e+02   7.0829275608e+01    0.3579122    0.2479205 -59.22  0.002205598    1.190    0.159
       184  -8.2245     70.7650     35.6011   1.0556768641e+02   6.2889519690e+01    0.1962775    0.1360749  52.25 0.0009491915    1.589    0.371
       185  -7.4180    143.9572     33.9878   8.2831753572e+01   4.5273197528e+01    0.1837195    0.1713526  67.22 0.0003142179    1.028    0.028
       186  -8.1796     76.7865     33.8252   1.0223069836e+02   6.2021601067e+01    0.1986311    0.1734733 -68.30 0.0005318091    1.364    0.267
       187  -7.3416    190.6421     32.7287   7.4979068161e+01   3.2734220303e+01    0.1508363    0.1056428  38.36 0.0003998492    1.645    0.392
       188  -7.9390     82.0238     32.3193   9.9463087940e+01   6.1185261730e+01    0.2029377    0.1812023  31.55 0.0004112565    1.104    0.094
       189  -8.3004    127.8572     30.4197   8.4882237360e+01   5.0148891221e+01    0.2481141    0.2162882 -20.28 0.0002619452    1.217    0.178
       190  -7.8060    105.4276     31.5104   9.1188905175e+01   5.5840403714e+01    0.1486574    0.1449377  36.50 0.0002894662    1.014    0.014
       191  -8.8861      1.4391     29.9808   1.4274707194e+02   7.2039511280e+01     0.288848   0.09898104 -73.57  0.001272962    2.424    0.587
       192  -7.9841    112.8056     29.8913   8.8401305240e+01   5.4205851636e+01    0.3267537    0.1573943  37.64  0.001159016    2.561    0.610
       193 -10.3774     72.1153     25.7817   1.0029045169e+02   6.4389941265e+01     0.761964    0.3517534  52.75 0.0007853839    2.400    0.583
       194  -7.6165     77.2596     24.3211   9.7440210350e+01   6.3553767347e+01    0.1425883    0.1081434   6.52 0.0001737749    1.548    0.354
       195  -7.6130    183.9922     27.5282   7.4203430399e+01   3.5110456700e+01    0.2083857    0.1403466  69.44 0.0003555042    1.452    0.311
       196  -8.0328    162.1573     26.8110   7.7028916444e+01   4.1159816219e+01    0.2043885    0.1720741  28.95 0.0002303179    1.326    0.246
       197  -7.8173    153.4627     27.0487   7.8524286337e+01   4.3543492465e+01    0.2010653    0.1272467  17.70 0.0004345202    2.214    0.548
       198  -8.2145    143.9557     25.7305   7.9717611227e+01   4.6347339115e+01    0.2917668    0.1948894 -27.06  0.001027494    1.561    0.360
       199  -8.4523     61.8636     26.8218   1.0542327448e+02   6.6191336273e+01    0.2497881    0.2010133  40.79 0.0008051506    1.281    0.219
       200  -8.8048     57.5508     25.2596   1.0673628580e+02   6.7247966739e+01     0.361241    0.2290926  31.86  0.001782763    1.673    0.402
       201 -10.5482     48.3475     25.5285   1.1169020924e+02   6.8708259441e+01    0.2784888    0.2323187  17.32 0.0004164027    1.235    0.190
       202  -7.6455    102.2795     25.3413   8.9338147140e+01   5.7545186593e+01    0.1542765    0.1121321  20.39 0.0004258565    1.626    0.385
       203  -8.4725     27.8149     21.7725   1.2233595735e+02   7.2122410585e+01    0.5654159    0.1988868 -34.77  0.001868598    4.341    0.770
       204  -9.3478     65.0704    247.2351   1.4370856019e+02   1.9512838019e+01    0.2533916    0.2032937  21.58  0.001305937    1.615    0.381
       205  -9.9629    192.6445    243.9240   1.2020247040e+02   3.0224880550e+00    0.2219924     0.193573   0.46  0.001663393    1.393    0.282
       206  -7.3819    150.3605     23.2536   7.7653923040e+01   4.4864041944e+01    0.1599758    0.1058903  41.72  0.000485437    1.617    0.381
       207  -9.3919     84.0816     21.8899   9.3618078500e+01   6.2420133740e+01    0.4627925    0.2434154  44.28 0.0008356395    1.861    0.463
       208  -8.2722    132.0024     20.9125   8.0119083501e+01   5.0245333251e+01    0.4815058    0.2299372  30.79  0.001583365    3.245    0.692
       209  -8.8368     92.2908     20.8633   9.0289239696e+01   6.0641124895e+01    0.3050312    0.1856965  44.68  0.001286336    1.589    0.371
       210  -9.9646      8.8017     20.0617   1.3502957809e+02   7.3988484305e+01    0.2576564    0.2301745   6.96  0.000383867    1.271    0.213
       211  -8.5973     12.3755     18.3233   1.3177147322e+02   7.4162872157e+01    0.2253139    0.1730331 -30.51 0.0007113381    1.221    0.181
       212  -7.5306    117.0191     19.9748   8.2992213214e+01   5.4437094526e+01    0.1749858    0.1717992  29.04            0    1.045    0.044
       213  -8.0977     45.5262     19.6124   1.1021703112e+02   7.0265545780e+01     0.275504    0.1228032 -44.81  0.001196656    2.121    0.528
       214  -7.4287    146.5706     19.4998   7.6879449624e+01   4.6357441122e+01    0.1506128    0.1424117  60.98 8.193687e-05    1.042    0.041
       215  -8.0061    102.0333     18.9667   8.6411402953e+01   5.8483018097e+01    0.3270627    0.1521004  26.95 0.0009648068    4.181    0.761
       216  -8.0616     32.2009    247.3806   1.4969074206e+02   2.3076108201e+01    0.1513246   0.05672181  43.08 0.0005541052    1.657    0.397
       217  -8.5564     50.4428     15.3604   1.0507336482e+02   7.0231259699e+01    0.2657247    0.2018643   7.58 0.0008440629    1.438    0.305
       218  -7.7667    189.3329     15.6835   6.9871072344e+01   3.4969211873e+01    0.1579369   0.09646561 -59.54 0.0007047259    1.689    0.408
       219  -8.4351    218.5079    245.4385   1.1612961273e+02  -5.2166601035e-01    0.1670017   0.08510445 -14.14  0.001037553    2.462    0.594
       220  -7.3543     81.3103    246.6390   1.4066466377e+02   1.7654324174e+01    0.1148044   0.05719697  55.93 0.0007041129    1.744    0.427
       221  -8.3404    249.4872    244.2270   1.1118706821e+02  -4.2194545522e+00    0.1619434   0.08221717 -16.20 0.0007893532    2.019    0.505
       222  -9.0320    243.2887    244.3173   1.1212687772e+02  -3.4919925103e+00     0.224252    0.1158322  12.01   0.00150385    1.750    0.429
       223  -9.3348    157.5075    244.9264   1.2645742806e+02   7.7303208774e+00    0.2208301    0.1171828  27.86  0.001058129    1.593    0.372
       224  -8.4220    233.9986    243.9352   1.1349419076e+02  -2.3323838592e+00    0.1665084    0.1094355  19.29 0.0008017708    1.023    0.022
       225  -9.3523    176.4822    243.1502   1.2289339543e+02   5.3094116762e+00    0.2345537     0.108372  26.32  0.001050347    1.981    0.495
       226  -8.0362     95.7402    243.4065   1.3773413938e+02   1.6300309184e+01    0.1481496   0.08167513  32.70 0.0005180903    1.514    0.340
       227  -8.8880    170.5899    239.7673   1.2353359658e+02   6.5079038784e+00    0.2363244    0.1449873   9.39  0.001260596    2.047    0.512
       228  -7.6272     25.5981    241.1903   1.5067539137e+02   2.4692036749e+01    0.1130597   0.08552383 -82.28 0.0003617102    1.624    0.384
       229  -8.5807    249.5225    238.7730   1.1043213835e+02  -3.7861649012e+00    0.2275324    0.1379493   2.03  0.001493608    1.404    0.288
       230  -7.1746    214.3445    239.3109   1.1599973252e+02   5.8539150732e-01    0.1127257   0.06171538  15.94 0.0004377136    1.704    0.413
       231  -7.3953    121.8364    239.3629   1.3246292609e+02   1.3382248027e+01    0.1654152   0.08180737  31.12 0.0009077105    1.727    0.421
       232  -8.8571    242.1861    237.0786   1.1130225101e+02  -2.7576914014e+00    0.2154029    0.1241301  13.60  0.001539703    1.389    0.280
       233  -8.2575    224.5131    238.5089   1.1425307074e+02  -6.6165067980e-01    0.1080983   0.07339519  20.28 0.0008104584    1.011    0.011
       234  -8.1700     79.2405    238.5600   1.4051392648e+02   1.9106895710e+01     0.154143   0.08558434  30.63 0.0009537335    1.665    0.399
       235  -8.0152    195.7035    236.3666   1.1872724795e+02   3.3880259761e+00    0.1580831   0.07531212  30.26 0.0004949144    1.591    0.372
       236  -9.7627    189.1923    234.7420   1.1963999377e+02   4.4641956911e+00    0.2301396    0.1848961  24.00  0.001139335    1.166    0.142
       237  -8.2990    161.7221    234.3188   1.2449046865e+02   8.4082887779e+00    0.2194135    0.1284639  27.03 0.0006228559    1.445    0.308
       238  -7.3320    138.3092    234.7069   1.2888598203e+02   1.1704938368e+01    0.1116382    0.0704139  52.26 0.0003472805    1.586    0.369
       239  -8.6053    247.0575    225.4360   1.0889759368e+02  -2.3612317821e+00    0.3073778    0.1506117  14.87  0.001871248    1.952    0.488
       240  -8.2229    248.2884    232.9946   1.0980409900e+02  -3.1602921810e+00     0.157327    0.1060006 -12.56 0.0004705862    1.468    0.319
       241  -8.3915    246.7110    229.6917   1.0956898715e+02  -2.6863192068e+00    0.1656627     0.103379 -11.52 0.0001838576    1.524    0.344
       242  -7.5636    124.3425    230.2880   1.3109600482e+02   1.4295785362e+01    0.1111017   0.07760234  18.51  0.000477371    1.646    0.393
