#   1 NUMBER                 Running object number                                     
#   2 MAG_AUTO               Kron-like elliptical aperture magnitude                    [mag]
#   3 X_IMAGE                Object position along x                                    [pixel]
#   4 Y_IMAGE                Object position along y                                    [pixel]
#   5 X_WORLD                Barycenter position along world x axis                     [deg]
#   6 Y_WORLD                Barycenter position along world y axis                     [deg]
#   7 A_WORLD                Profile RMS along major axis (world units)                 [deg]
#   8 B_WORLD                Profile RMS along minor axis (world units)                 [deg]
#   9 THETA_WORLD            Position angle (CCW/world-x)                               [deg]
#  10 FWHM_WORLD             FWHM assuming a gaussian core                              [deg]
#  11 ELONGATION             A_IMAGE/B_IMAGE                                           
#  12 ELLIPTICITY            1 - B_IMAGE/A_IMAGE                                       
         1 -14.9037     68.4602    144.3604   1.0189678974e+02   3.7825074500e+01     5.038789     2.647109  72.66  0.002788825    3.560    0.719
         2 -14.4752    204.7873     38.1825   4.2221532707e+01   2.9743446431e+01     2.044441     1.446608  35.01  0.008768906    1.979    0.495
         3 -14.3311    217.8443     25.5467   3.7773079621e+01   2.8308915526e+01     1.298832    0.9369512  36.99  0.007229531    1.999    0.500
         4 -12.8266    243.1322      3.2162   3.0937846297e+01   2.5334676019e+01    0.7294555    0.3287968  78.05   0.00390475    2.081    0.520
         5 -10.3430     53.0182      4.5196   6.2149383692e+01   6.7900549236e+01    0.1739175    0.1051385  44.78 0.0009649482    1.554    0.356
         6 -10.6150     47.7076      2.3179   6.3077150685e+01   6.9009713897e+01    0.2137126    0.1617164  15.29 0.0003136694    1.076    0.071
         7  -9.9289     56.6868      1.5341   5.9274588257e+01   6.7534335332e+01    0.1494004    0.1087401  53.26 0.0009365865    1.524    0.344
         8  -9.3520     79.5049    183.0802   1.0513410283e+02   2.6725946995e+01    0.2026032    0.1304262 -67.21 0.0004606972    1.510    0.338
         9 -10.6688    139.8875    249.5348   1.0085650165e+02   3.8111318482e+00    0.2008808    0.1639341  61.85   0.00130608    1.334    0.250
        10 -15.2278     83.9815    221.8427   1.0897739632e+02   1.7464239763e+01     5.318232    0.8046642  43.40  0.003483871    4.703    0.787
        11 -14.9543      5.7136    187.2699   1.2265232194e+02   3.4325038177e+01     2.909852     1.268321 -61.73  0.002218704    2.188    0.543
        12 -14.5167     20.5321    221.2569   1.2185121201e+02   2.5520028380e+01     1.268015    0.7103316  59.80  0.006607601    1.465    0.318
        13 -13.8555     37.8290    202.3808   1.1692119177e+02   2.7710950945e+01    0.9436191    0.6501257 -50.10  0.001650908    1.842    0.457
        14 -15.0448     47.7617    192.1347   1.1374551999e+02   2.8874710676e+01      2.37633     1.485958 -87.60  0.009568662    1.509    0.337
        15 -15.3568      9.7498    207.2463   1.2309381291e+02   2.9553750352e+01     2.394941     1.335461 -46.31   0.01068781    2.803    0.643
        16 -13.4388     57.6623    240.8024   1.1610040278e+02   1.7249964189e+01    0.5896377    0.3648603 -88.85 0.0004422202    1.607    0.378
        17 -16.1854     38.7544    248.6511   1.2018844932e+02   1.8061524309e+01     9.244757     2.823881  27.34   0.02594906    9.329    0.893
        18 -12.1626     64.4111    175.8349   1.0784489610e+02   3.0600431942e+01    0.4325259    0.3063608 -42.31  0.002250577    1.741    0.426
        19 -12.0685     69.1320    170.8389   1.0596200069e+02   3.1161688486e+01    0.3532089    0.2936758 -34.48 0.0006204251    1.511    0.338
        20  -9.5403    149.3918    177.1497   8.7327508320e+01   1.5997197857e+01    0.1995056    0.1407443 -61.61 0.0004979344    1.634    0.388
        21 -12.9082     85.6477    154.8817   9.9042884603e+01   3.2623467067e+01     1.672028    0.7752616 -60.30  0.002270212    2.074    0.518
        22 -12.5452     78.4368    161.3108   1.0207662191e+02   3.2148543873e+01     0.629636    0.4824468  78.14 0.0008403823    1.377    0.274
        23 -13.6865     66.4515    157.1225   1.0458832785e+02   3.4913789072e+01    0.6996827    0.5797787 -13.24  0.003796657    1.632    0.387
        24 -16.6033      7.5194    241.5464   1.2532993830e+02   2.2787751636e+01     9.941401     1.817223 -77.04   0.03888067    4.742    0.789
        25 -10.0414    146.5950    171.8238   8.6924354739e+01   1.7679857646e+01    0.2123519    0.1425804 -61.55 0.0009488631    1.724    0.420
        26 -10.7661    136.7734    167.5796   8.8403196886e+01   2.0503489175e+01    0.5230132    0.3214819 -72.01  0.002067945    2.401    0.583
        27 -10.3835    229.6352    166.7762   6.8786807960e+01   3.0354216721e+00     0.197891    0.1151994 -43.81 0.0009522795    1.701    0.412
        28 -10.5916     36.4303    161.4958   1.1309191724e+02   3.7491381208e+01    0.3244726    0.1928506  39.29   0.00147649    1.760    0.432
        29 -12.2876     32.3647    155.4013   1.1341770624e+02   3.9410560339e+01    0.7540749    0.3570064 -78.44   0.00343552    1.980    0.495
        30 -11.1186    133.5385    143.7312   8.4109320729e+01   2.6593469975e+01     1.169717    0.2939695 -54.22  0.002673936    5.781    0.827
        31 -10.8750    207.9842    194.6916   7.8390213194e+01   1.9669711452e+00    0.2720019    0.1638382 -37.38 0.0009529846    1.628    0.386
        32 -10.3900    174.7610    149.1778   7.5669206507e+01   1.6872143256e+01    0.2556819    0.2260561  40.54 0.0007155671    1.159    0.137
        33 -10.3001     48.1021    145.2339   1.0777263090e+02   4.0228844627e+01    0.2723801    0.1972905 -30.64  0.001415138    1.792    0.442
        34 -11.2311     28.2635    144.0171   1.1311152020e+02   4.2623651161e+01    0.2770683    0.2312908 -89.09  0.001726477    1.069    0.065
        35 -11.0039    100.4216    140.0952   9.2081285910e+01   3.3787743379e+01     0.581038    0.3705685 -23.89  0.002276059    2.504    0.601
        36 -12.3698     87.4943    139.9613   9.5669914985e+01   3.6026125282e+01    0.3073281    0.2609801 -49.52 0.0004814648    1.165    0.142
        37 -10.5145     80.8866    140.7418   9.7698429495e+01   3.6887389027e+01    0.3574401    0.2301031  63.22  0.001578941    1.918    0.479
        38 -11.4072    135.5569    128.1936   7.9905123015e+01   2.9744778067e+01    0.5702818    0.2026519 -50.18  0.001783968    2.904    0.656
        39 -10.3703    110.1840    130.5805   8.7238205877e+01   3.4298119828e+01    0.3183424    0.2581035  -1.38 0.0009190487    1.598    0.374
        40  -9.8369     99.2360    180.8048   9.9971420976e+01   2.4172252859e+01    0.2383496    0.2210494  76.12 0.0006573421    1.002    0.002
        41 -11.5475    121.8290    173.5501   9.3180609723e+01   2.1937562516e+01    0.5734866    0.1392432  39.52  0.001637752    3.977    0.749
        42 -10.1512    160.5190    127.4964   7.3684796751e+01   2.4501104795e+01    0.3372749    0.1510507 -44.01  0.001210283    2.169    0.539
        43 -11.2093     97.2048    126.6459   8.9984597558e+01   3.7642079378e+01     0.296871    0.2611422 -11.19  0.000353678    1.328    0.247
        44  -9.9259    116.3916    124.7751   8.4128559423e+01   3.4469092901e+01    0.2235305     0.141344 -39.38 0.0003792692    1.656    0.396
        45 -11.5469     46.5047    124.6055   1.0482955405e+02   4.5584094655e+01    0.2916783     0.219226 -44.59 0.0008479673    1.337    0.252
        46 -10.5092    106.0966    131.1023   8.8496071550e+01   3.4942279499e+01    0.3875441    0.3208447 -58.57  0.001538322    1.173    0.147
        47  -9.9604    106.9960    119.1054   8.5344114443e+01   3.7639040023e+01    0.2191309     0.212861 -44.87 0.0003021652    1.028    0.027
        48  -9.6208     84.0225    118.0252   9.1866648821e+01   4.2000435606e+01    0.2400624    0.1800478  79.33 0.0008069761    1.733    0.423
        49  -9.5833     22.1365    114.1591   1.1068251944e+02   5.0536403160e+01    0.1721898    0.1391643  81.06 0.0003631651    1.302    0.232
        50  -9.2426    168.0374    113.0139   6.8306658666e+01   2.5849080094e+01    0.2588332    0.1932141 -79.80  0.001130898    1.802    0.445
        51 -10.3555     39.6481    113.1272   1.0487269825e+02   4.9176030670e+01    0.2110027    0.1810422  54.21 0.0004765038    1.317    0.241
        52 -10.4849    246.0000    110.0014   5.3863588309e+01   9.7469579959e+00    0.2357982   0.06725795 -37.41 0.0008081038    2.982    0.665
        53 -10.0194    205.4477    110.1774   6.0251489115e+01   1.8002438260e+01    0.3014677       0.2134  43.12 0.0009739844    1.570    0.363
        54 -10.3082     33.0690    109.1177   1.0627089265e+02   5.0811796116e+01    0.2405666    0.1798923 -80.82 0.0007009743    1.337    0.252
        55 -10.4823     29.0010    107.2413   1.0727174873e+02   5.1642355069e+01    0.1796339    0.1625771 -58.98 0.0004303246    1.082    0.076
        56 -10.0233    134.6726    105.5212   7.4189611862e+01   3.4973160598e+01    0.2899694    0.1431731 -43.86  0.001083246    1.979    0.495
        57  -9.2749     45.2723    105.3701   1.0144933962e+02   5.0465823132e+01    0.1768955    0.1255286  41.39 0.0004672796    1.604    0.376
        58 -10.6463     38.8082    101.9748   1.0292460369e+02   5.1979716301e+01      0.31444    0.1588253  47.11  0.001391552    2.510    0.602
        59 -10.1069    241.3057     99.2935   5.2119029767e+01   1.2427033726e+01    0.1280083    0.1047414  -0.65 0.0001872055    1.580    0.367
        60 -10.6827     35.5281    172.6785   1.1457847796e+02   3.4871626220e+01    0.2545304    0.2089123  85.39  0.001088792    1.028    0.027
        61  -9.8832     32.7022     96.6664   1.0392737093e+02   5.3850622755e+01    0.2563093    0.1738434  69.17  0.001306519    2.022    0.505
        62 -10.6689     53.0657     91.0114   9.5365349893e+01   5.2950937765e+01    0.3019362    0.1792474 -47.51  0.001339269    1.481    0.325
        63 -10.2376     42.1981     91.5540   9.9392081538e+01   5.4097218193e+01    0.2613247    0.2057849 -23.07  0.001494513    1.356    0.263
        64 -10.2104     10.6218     92.5238   1.1093439272e+02   5.6555235476e+01    0.2094415    0.1255696  17.14 0.0007339104    2.042    0.510
        65 -10.4046     72.9003     83.4164   8.6259771020e+01   5.1836248308e+01    0.4195393    0.2623301  60.40  0.001777357    2.510    0.602
        66  -9.3958    151.0529     82.8481   6.3729063612e+01   3.5764287191e+01    0.2335343    0.2001877 -78.71 0.0005169149    1.301    0.231
        67  -9.4453    159.7892     82.2057   6.1634035611e+01   3.3791295138e+01    0.2060712    0.1821607  13.81 0.0004631244    1.315    0.240
        68 -10.0901    243.4984     77.5072   4.6937146065e+01   1.5479516167e+01    0.1357084    0.1133108 -53.15 -3.489056e-05    1.018    0.017
        69 -10.7270     13.4628     59.9087   1.0271987036e+02   6.3683631376e+01    0.2435168    0.1888788 -55.85 0.0004358568    1.171    0.146
        70 -12.2036    195.6787     44.5997   4.5003865003e+01   3.1048811843e+01    0.5952359    0.4838395  50.43 0.0009758925    1.372    0.271
        71  -9.9153    172.5393    238.7731   9.2933923624e+01   4.7702756171e-01    0.2704544    0.1263043 -50.01   0.00127769    2.671    0.626
        72  -9.9189    143.9688    179.0285   8.8941448550e+01   1.6617303135e+01    0.2392533    0.1839119  -3.60  0.001138954    1.734    0.423
        73  -9.3638    137.4769     43.4887   5.4420846876e+01   4.5486156979e+01    0.1415068    0.1345759  78.53  3.96678e-06    1.057    0.054
        74  -9.0335     48.8139     42.6365   8.1393720332e+01   6.3394710790e+01    0.1662441    0.1153846  40.54 0.0006152268    1.677    0.404
        75 -10.2023    140.3770     38.0376   5.2041175830e+01   4.5509255976e+01    0.3324467    0.2247328 -83.10    0.0012079    1.973    0.493
        76  -9.0888     73.7692     55.6483   7.6706603079e+01   5.7226921752e+01    0.1852736    0.1262166  47.92 0.0004208377    1.675    0.403
        77  -9.5189    189.7018     14.9947   3.8004195638e+01   3.6077719987e+01    0.1792574    0.1582784 -67.03 0.0005210821    1.090    0.082
        78  -9.8096     72.7513    172.6491   1.0530841645e+02   3.0208729381e+01    0.2150109    0.1778634 -63.50 0.0003075431    1.190    0.160
        79 -11.1734    109.3590    201.6113   1.0077950576e+02   1.7824791581e+01    0.4016823    0.2831191 -45.22  0.001433593    1.629    0.386
        80 -11.7047    193.9619    196.3231   8.1451973300e+01   4.0782462726e+00     1.086083    0.6031092 -65.09  0.003496849    5.234    0.809
        81  -9.7931     64.9920    192.1387   1.0977151991e+02   2.6664424645e+01    0.2409834    0.1770021 -79.01  0.001017273    1.276    0.216
