#   1 NUMBER                 Running object number                                     
#   2 MAG_AUTO               Kron-like elliptical aperture magnitude                    [mag]
#   3 X_IMAGE                Object position along x                                    [pixel]
#   4 Y_IMAGE                Object position along y                                    [pixel]
#   5 X_WORLD                Barycenter position along world x axis                     [deg]
#   6 Y_WORLD                Barycenter position along world y axis                     [deg]
#   7 A_WORLD                Profile RMS along major axis (world units)                 [deg]
#   8 B_WORLD                Profile RMS along minor axis (world units)                 [deg]
#   9 THETA_WORLD            Position angle (CCW/world-x)                               [deg]
#  10 FWHM_WORLD             FWHM assuming a gaussian core                              [deg]
#  11 ELONGATION             A_IMAGE/B_IMAGE                                           
#  12 ELLIPTICITY            1 - B_IMAGE/A_IMAGE                                       
         1 -12.1443     85.3304     23.8249   7.2080255652e+00   6.0389160745e+01    0.2630334     0.231062  84.96  0.000350313    1.103    0.093
         2 -11.6053     78.7990     13.9861   4.4954657940e+00   6.3140702813e+01    0.2281667    0.2118086  74.35  0.001426904    1.042    0.041
         3 -10.9360     50.4506     13.5636   1.4003648638e+01   6.9680360570e+01    0.3908486    0.1999294  48.51  0.001871431    1.740    0.425
         4  -9.7274    223.5134     12.0032   3.4682219239e+02   3.0240068506e+01    0.1675891   0.05032551 -50.51  0.000450185    2.304    0.566
         5 -10.8302     83.0981      7.1898   2.4359845267e-01   6.2800303434e+01    0.1988543    0.1894197 -44.76 0.0003889615    1.176    0.150
         6 -10.1873    116.4657     11.7708   3.5601756769e+02   5.4076178853e+01    0.2792188    0.1394976 -10.74  0.001138259    3.264    0.694
         7 -10.8080     66.2296      5.5508   3.7895655278e+00   6.7014103553e+01    0.3203109    0.2328019 -75.38  0.001588785    1.641    0.391
         8 -11.5700    178.5471      3.6142   3.4740604113e+02   4.0214047676e+01    0.5483258    0.2035006  74.57  0.002590822    2.502    0.600
         9 -10.5555    149.9809      5.0144   3.4992669137e+02   4.6584293150e+01    0.2146674    0.1172143 -62.44 0.0007559012    1.659    0.397
        10 -10.7339     72.5034      2.9417   7.0362559918e-01   6.5765175764e+01    0.1772694    0.1308892 -23.60 0.0006807754    1.550    0.355
        11  -9.3050    114.6795      1.3301   3.5241841685e+02   5.5501683126e+01    0.1404906   0.08270457 -64.27 0.0004996267    1.692    0.409
        12 -10.2237    186.2930    242.7799   3.6157010617e+01   1.1139471461e+00    0.2245677    0.1447457 -40.93   0.00151131    1.682    0.406
        13 -11.0265    139.2600    248.8543   4.5936718325e+01   5.1940561495e+00    0.2787424    0.1673782 -37.84  0.001354867    1.802    0.445
        14 -10.4899    125.1748    246.1712   4.8547512426e+01   7.1911807752e+00     0.185078    0.1465721 -28.82 0.0002852003    1.365    0.267
        15  -9.2566     86.0184    251.0000   5.7532954616e+01   1.0742570106e+01    0.2055181   0.05665728  26.87 0.0007995527    2.922    0.658
        16 -13.0698     12.2872    190.7266   7.1543844738e+01   3.1344642827e+01    0.5391743    0.4366142  73.48  0.001978499    1.121    0.108
        17 -13.5250      4.3741    217.2668   7.4715571419e+01   2.5786842348e+01     1.334412    0.5290995 -81.89  0.006199932    2.569    0.611
        18 -12.8654     13.0305    215.0444   7.2482890773e+01   2.5557784706e+01    0.7296403    0.3887899 -83.26   0.00366608    1.934    0.483
        19 -13.6425      4.6490    201.9910   7.4101134030e+01   2.9259315445e+01     1.125122    0.5870033 -79.79  0.005724166    1.918    0.479
        20 -13.0914     18.8804    242.7594   7.2225058392e+01   1.9157869144e+01    0.8421839    0.5149522  -6.92  0.004470743    2.513    0.602
        21 -13.1498      5.9544    234.4021   7.4888950143e+01   2.1979353204e+01    0.5801725    0.5379342 -16.02  0.002750591    1.425    0.298
        22 -13.2273     14.9517    229.1976   7.2598496452e+01   2.2298528629e+01    0.6491998    0.4784843  75.56  0.002191278    1.312    0.238
        23 -12.8491      4.7170    248.7664   7.5579141314e+01   1.9200830545e+01    0.7695584    0.3303139  23.48  0.004042597    2.043    0.511
        24 -13.4679      9.2071    240.4279   7.4335540345e+01   2.0473431859e+01    0.9529511    0.5478498  -4.06  0.004136964    2.717    0.632
        25  -9.9918    125.4238    249.5061   4.8866737965e+01   6.6181045466e+00    0.1925186    0.1304324  15.64 0.0006102817    1.270    0.213
        26 -10.0224    226.4602    246.4987   2.9969594071e+01  -3.1026046094e+00    0.1022326   0.07294641  -8.44  5.57599e-05    1.020    0.020
        27  -9.5080    179.4680    241.4148   3.7209623495e+01   2.0021410354e+00    0.1124222   0.08682631   1.08 4.413361e-05    1.014    0.013
        28 -10.8262     32.9274    240.5195   6.8898655539e+01   1.8295509967e+01    0.2326604    0.1411666  51.02 0.0005187637    1.388    0.280
        29 -10.0014    211.4506    237.2964   3.1094441483e+01  -6.0445838074e-01    0.1340121   0.09215199 -39.73 0.0007908921    1.645    0.392
        30  -9.6135     64.4519    237.4898   6.1327636284e+01   1.5641755837e+01    0.1262963    0.1036614  37.33 0.0001467823    1.011    0.011
        31 -10.8160    119.9096    235.4143   4.8446068906e+01   9.6311124136e+00    0.2458646     0.143286 -34.46   0.00132663    1.998    0.499
        32 -10.4226    158.5109    233.6839   4.0167787777e+01   5.4315574101e+00    0.1953183     0.180481  19.65  0.001003821    1.300    0.231
        33  -9.4640    250.5846    233.5525   2.4623324514e+01  -3.5799563397e+00   0.09904655   0.06832712 -14.62 6.109243e-05    1.021    0.021
        34 -10.1029     99.9911    233.0205   5.2639796413e+01   1.2428727974e+01    0.2071008    0.1326122  52.03  0.001133917    1.753    0.429
        35 -10.5080     72.8465    231.4156   5.8832394883e+01   1.5908919297e+01    0.3775378    0.1932582 -41.99  0.001794712    2.582    0.613
        36 -10.1123    217.5968    231.7763   2.9320516095e+01  -4.6451500867e-01    0.1363222   0.08904069 -39.40 0.0008589739    1.639    0.390
        37 -10.8419    152.5532    230.5617   4.0943221828e+01   6.6147135946e+00    0.2709392    0.2144821 -53.81  0.001786775    1.607    0.378
        38 -10.9347    155.0862    225.3492   3.9722026136e+01   7.1721136331e+00    0.2534986    0.1708728 -42.37  0.001122991    1.558    0.358
        39  -9.8309     62.0387    231.4803   6.1421424247e+01   1.7108526677e+01    0.2036841    0.1069586  28.33  0.001034351    1.597    0.374
        40 -12.1316    138.2253    228.1913   4.3600562436e+01   8.7053333057e+00     0.217542    0.1966139 -11.43 0.0002953976    1.138    0.121
        41  -9.9961     24.6161    229.1411   7.0285859137e+01   2.1432513187e+01    0.1590754    0.1078961 -64.73 0.0005137799    1.721    0.419
        42  -9.4263    194.3754    228.6815   3.2772316575e+01   2.2675588433e+00   0.09867495   0.08717005  46.55 0.0007029773    1.807    0.446
        43 -12.9080    115.0379    226.5230   4.8473669432e+01   1.1824805102e+01    0.4427224    0.3913039 -35.51  0.000814276    1.246    0.197
        44 -10.4063     30.3281    227.8747   6.8842438103e+01   2.1158214000e+01    0.2218383    0.1385219  40.60 0.0006235954    1.282    0.220
        45 -10.4360    230.4918    227.5333   2.6699572892e+01  -1.1155148121e+00    0.1056538   0.07631656 -12.17 7.291426e-05    1.004    0.004
        46 -10.9992    107.1740    225.8818   5.0191634562e+01   1.2909987878e+01    0.2992687    0.2110814 -22.16   0.00165994    1.679    0.404
        47  -9.3087     85.2826    226.6691   5.5414702066e+01   1.5407861257e+01    0.1303827   0.08701522  54.75 0.0005505502    1.610    0.379
        48 -11.3263    147.6191    224.3710   4.1118602672e+01   8.2279720300e+00     0.292976    0.2012594 -32.48 0.0007445179    1.478    0.323
        49  -9.9848     91.8711    224.9043   5.3662303289e+01   1.4967540093e+01    0.1823574    0.1640198   0.89 0.0007477885    1.160    0.138
        50 -11.6371     25.5394    222.3687   6.9719348362e+01   2.2801498467e+01    0.4685408    0.2746236 -48.35  0.002450357    2.223    0.550
        51 -10.9906     20.7058    220.6439   7.0826381824e+01   2.3628573567e+01    0.1811905    0.1666919  41.87 0.0006506057    1.158    0.136
        52 -12.6444     21.3478    215.6941   7.0421198747e+01   2.4668998118e+01    0.7442966    0.2857329  52.12  0.003296061    2.248    0.555
        53 -11.7077    171.2484    219.7396   3.5731555240e+01   6.1797331011e+00    0.3948158    0.2584369  23.57  0.001292236    1.404    0.288
        54 -10.8362    176.9389    221.9741   3.4973375379e+01   5.1707065490e+00    0.2057755    0.1532448   8.19 0.0003043617    1.172    0.147
        55 -10.5647     33.5030    223.9987   6.7846871967e+01   2.1678551187e+01    0.1798398    0.1217355 -80.63  0.001037133    1.609    0.379
        56 -10.9753    159.7974    222.2765   3.8344311897e+01   7.1194310252e+00     0.400129    0.1757073  40.25  0.001899431    2.539    0.606
        57 -12.0655    125.2372    221.3867   4.5540414368e+01   1.1511420930e+01    0.4688215    0.3105989  11.71  0.001848887    1.521    0.343
        58 -10.9773     48.2279    220.8793   6.3982675888e+01   2.0838351594e+01    0.3623503    0.1300859  44.31  0.001528245    2.319    0.569
        59 -10.6210     41.8380    220.6500   6.5564208930e+01   2.1561506825e+01    0.2009174    0.1725298 -63.15 0.0006785247    1.358    0.263
        60 -11.0285    192.2122    219.0165   3.1744354363e+01   3.9087028787e+00    0.2920629    0.2039556   8.60  0.001952562    1.293    0.227
        61 -10.2255     91.2343    218.7175   5.3138283865e+01   1.6289576079e+01    0.3525187    0.1600159 -53.30   0.00161971    2.395    0.582
        62 -11.7438     36.0456    229.8816   6.7573604961e+01   2.0173501748e+01    0.4078491    0.2406679 -80.03  0.002262498    1.884    0.469
        63 -11.9696    140.1953    207.4474   4.0304764753e+01   1.2172882803e+01    0.5225846    0.3182883 -68.46  0.002494738    2.636    0.621
        64 -11.0290    142.3233    214.6858   4.0888635636e+01   1.0574993013e+01    0.2462142     0.202928  70.12 0.0009752065    1.795    0.443
        65  -9.2711    216.6963    216.7338   2.7263173163e+01   1.6428593712e+00     0.109294   0.06754245  -9.14 0.0001649868    1.526    0.345
        66 -11.0577    108.5326    215.1182   4.8572325236e+01   1.4831041633e+01    0.2422185    0.2302384  20.92 0.0006132011    1.088    0.081
        67 -10.6553     84.7464    214.3225   5.4241305377e+01   1.8005493701e+01    0.4925835    0.2038461  51.34  0.001897241    3.009    0.668
        68 -10.8792     29.8261    215.4480   6.8260757210e+01   2.3921367200e+01    0.2652866    0.1981425 -29.21   0.00151045    1.795    0.443
        69  -9.6882     33.3411    212.2938   6.7166340003e+01   2.4286355571e+01    0.2021266    0.1535988  32.98  0.000871418    1.178    0.151
        70 -11.4535    127.6054    214.5751   4.4105556435e+01   1.2479839225e+01    0.2555035    0.2021458  44.53  0.001372369    1.368    0.269
        71 -10.9448    156.6234    213.4537   3.7713660620e+01   8.9901550147e+00    0.2505186    0.2143654 -71.64 0.0006285016    1.694    0.410
        72 -10.9888    120.6065    213.9176   4.5606050927e+01   1.3508987254e+01    0.2273696    0.1623688  17.05 0.0007915929    1.326    0.246
        73 -10.6187     40.0993    212.4494   6.5434067991e+01   2.3562360264e+01    0.2345248    0.1757413  80.71   0.00056989    1.370    0.270
        74 -10.3197     72.7017    208.9001   5.6699657378e+01   2.0659362223e+01    0.2045005     0.175643  45.11 0.0004396523    1.061    0.057
        75 -11.2548    174.0000    223.0027   3.5677845975e+01   5.3459091495e+00    0.2370202    0.1464884 -40.11 0.0003424742    1.612    0.379
        76 -10.9863    162.1364    208.7678   3.5894408313e+01   9.1041701666e+00    0.2729712    0.2084697  48.63  0.001103608    1.714    0.416
        77 -10.0789     96.8504    208.0473   5.0510606862e+01   1.7788099725e+01    0.2242024    0.1735747 -55.55 0.0006720854    1.423    0.297
        78 -10.1742     26.4264    208.8124   6.8742830183e+01   2.5758308078e+01    0.2417869    0.1214154 -88.96  0.001140951    2.137    0.532
        79 -10.3650    180.5236    207.9685   3.2198969651e+01   6.9688180127e+00    0.1840317     0.147987  10.44  0.001189906    1.138    0.121
        80 -11.4025     35.8307    205.8758   6.6084420476e+01   2.5509359697e+01    0.3929747    0.3289575  -4.21  0.002341924    1.448    0.310
        81  -9.9069    103.4802    205.9151   4.8610212283e+01   1.7363598331e+01    0.1856913    0.1346691 -59.90 0.0007484771    1.540    0.351
        82 -11.7640    145.9056    202.7120   3.8355828579e+01   1.2294420050e+01    0.4283768    0.2284452 -38.86  0.002123672    1.927    0.481
        83 -10.3313     17.0567    204.8033   7.0973273345e+01   2.7554367857e+01    0.3240628    0.1335475  49.10  0.001456913    2.021    0.505
        84  -9.8308    172.4080    201.1923   3.2683800824e+01   9.0960420451e+00    0.1600853    0.1142959 -51.68 0.0007218745    1.646    0.393
        85 -11.6027     91.7103    198.5771   5.0611330468e+01   2.0509217293e+01    0.5758216    0.2630941 -50.87  0.002093595    2.330    0.571
        86 -11.5576     84.9752    198.7275   5.2370764670e+01   2.1368566545e+01    0.4420994    0.3452609 -59.00  0.002378928    1.390    0.281
        87 -11.8536    145.9925    214.8116   4.0124333446e+01   1.0087785770e+01    0.3630514    0.2586712 -44.93  0.002177168    1.488    0.328
        88 -10.8602     16.9929    198.7718   7.0677423510e+01   2.8987568491e+01     0.208835    0.1767461 -79.81 0.0006052279    1.257    0.205
        89 -10.4910    176.3667    197.8755   3.1388820314e+01   9.1526159914e+00    0.1691521    0.1517968  13.78  0.001148788    1.181    0.154
        90 -11.2804     36.5335    196.7590   6.5226477268e+01   2.7593837885e+01     0.425943    0.2157442  56.63 0.0006642212    1.927    0.481
        91  -9.8236     21.2253    204.0309   6.9833833925e+01   2.7358645754e+01    0.1863353    0.1619339 -13.95 0.0007168068    1.443    0.307
        92 -11.1081    122.8079    196.2696   4.2602300475e+01   1.6720132605e+01    0.3114991    0.2242202  46.24  0.001173059    1.479    0.324
        93 -11.1234    192.5680    193.8968   2.7747674072e+01   7.7674687301e+00    0.2347833    0.2192238  35.16 0.0003923348    1.418    0.295
        94 -12.2875     23.3162    194.4484   6.8704365413e+01   2.9455666693e+01      0.52187    0.2617404  62.93  0.002046558    1.955    0.489
        95 -11.1354    133.0839    191.5473   3.9478401426e+01   1.6224059625e+01    0.3508375    0.2552162 -13.05  0.001868182    1.582    0.368
        96 -10.0601    160.4870    192.5405   3.3670133090e+01   1.2191951903e+01      0.12836    0.1130921  -6.19 0.0001590536    1.006    0.006
        97  -9.8015     52.5977    192.5123   6.0415314074e+01   2.6854473732e+01    0.2035857    0.1512291  45.91 7.065255e-05    1.205    0.170
        98  -9.9597     50.2987    190.3227   6.0845326969e+01   2.7650952111e+01     0.193051    0.1414108  57.70 0.0003625289    1.297    0.229
        99 -10.6820    153.3794    188.2484   3.4447682156e+01   1.3977331119e+01    0.1801877    0.1231778 -56.08 0.0009554736    1.697    0.411
       100 -10.4214    110.1517    187.7985   4.4414949600e+01   2.0313042597e+01    0.2132922    0.1846916  56.83 0.0007826806    1.252    0.201
       101 -11.3097     20.4955    197.8993   6.9682725613e+01   2.8881962564e+01    0.2740724    0.2305742  46.76 0.0008647351    1.053    0.051
       102 -12.5726      3.6848    184.1776   7.3642344785e+01   3.3652467530e+01    0.5965378     0.404126  41.46  0.002657551    1.293    0.226
       103 -12.8768      2.0067    174.9758   7.3723111126e+01   3.6098734694e+01    0.9062241    0.2686928 -77.67   0.00333999    3.092    0.677
       104 -10.9495    128.1118    185.8420   3.9727395955e+01   1.8109903225e+01    0.2079492     0.190625  55.92  0.001240071    1.228    0.186
       105 -10.0603    163.9652    184.9880   3.1696213593e+01   1.3090660654e+01    0.1851814    0.1622121  80.03 0.0006146924    1.655    0.396
       106 -10.9631     25.6297    184.1273   6.7362022343e+01   3.1791428287e+01    0.3222585    0.1537766  60.42  0.001381398    2.096    0.523
       107 -10.0432    181.9564    184.2691   2.8064630445e+01   1.0741629346e+01    0.1680651    0.1438798  -2.20 0.0002411472    1.080    0.074
       108  -9.9111    105.4344    183.4706   4.4958571929e+01   2.1956123844e+01    0.1388387    0.1317958  30.34 7.471549e-05    1.016    0.015
       109 -10.6949     94.8923    180.7461   4.7318496262e+01   2.4112382752e+01    0.3480806    0.2074085 -55.25  0.001619726    1.739    0.425
       110 -10.4181    116.8432    177.8401   4.1166613053e+01   2.1506775350e+01    0.2914572    0.1814517  42.68  0.001114633    1.606    0.377
       111 -11.1970    136.7941    176.0735   3.6057522381e+01   1.8834612970e+01    0.4679644     0.331423 -89.88   0.00135705    2.438    0.590
       112 -13.1415    127.3030    173.4323   3.7845136624e+01   2.0857847556e+01    0.5087125    0.3413266 -38.76 0.0004800915    1.551    0.355
       113  -9.8380     62.7260    177.0091   5.5832207051e+01   2.9437535338e+01    0.2023172    0.1540531  -2.42 0.0007982423    1.627    0.385
       114 -10.5607    106.9519    175.5485   4.3322357393e+01   2.3522482800e+01    0.2469056    0.2153356 -71.77 0.0005617549    1.254    0.203
       115 -10.7251     31.5852    175.6540   6.4947009197e+01   3.3366505614e+01     0.333658    0.1797357  66.96  0.001461956    1.959    0.489
       116  -9.8321    168.6462    174.3386   2.8891823787e+01   1.4382427204e+01    0.1257864    0.1055572  83.84 0.0007042611    1.803    0.445
       117 -10.9895     91.4611    170.3063   4.6665380203e+01   2.7088315504e+01    0.3570793    0.2580036 -60.96   0.00104989    1.439    0.305
       118 -10.7891     81.0612    172.9850   5.0000563827e+01   2.7954284732e+01    0.3187747    0.2094889  17.90 0.0008466393    1.697    0.411
       119 -13.4664     17.6011    169.4167   6.8715877906e+01   3.6303079992e+01    0.6993582    0.5145594  49.31  0.003732926    1.222    0.182
       120 -10.7094    142.4437    172.2586   3.4091844864e+01   1.8749117202e+01    0.3440609    0.1763586  44.03  0.001513525    2.107    0.525
       121  -9.9945    190.8017    171.5764   2.4222650818e+01   1.1712098747e+01    0.1518716    0.1186216  44.28 0.0004211971    1.563    0.360
       122  -9.4130    208.6744    170.3112   2.0970514484e+01   9.5163801918e+00    0.1088631   0.09332278 -65.68 0.0004071118    1.659    0.397
       123 -10.9302    152.9733    170.3166   3.1414258306e+01   1.7509971433e+01    0.1873456    0.1719997   3.06 0.0007000369    1.054    0.051
       124 -10.9759    201.8227    166.4949   2.1410200908e+01   1.1051271778e+01    0.2081983    0.1484815 -36.55 0.0002978423    1.208    0.172
       125 -10.9350    171.3575    166.1971   2.6870643984e+01   1.5489628094e+01     0.298392    0.2097469  60.59  0.001532747    2.131    0.531
       126 -10.2686     64.9380    165.9276   5.3742268474e+01   3.1959901668e+01     0.215004    0.1983981  56.04 0.0003082286    1.016    0.016
       127 -10.7415    121.6020    167.9511   3.8286730569e+01   2.2953355905e+01    0.3896007    0.1878509  36.58  0.001623445    2.013    0.503
       128  -9.9746    110.3554    165.2826   4.0702750325e+01   2.5351805424e+01    0.1484072    0.1123737 -10.47 0.0002459962    1.664    0.399
       129 -11.4915     24.9450    160.6389   6.5718099878e+01   3.7963903198e+01     0.420984    0.2302182 -49.21  0.001663186    2.063    0.515
       130 -11.1427     12.6855    161.4962   6.9709876269e+01   3.8804592263e+01    0.3098511    0.1687049  62.03 0.0008515902    1.758    0.431
       131 -12.5528      5.7545    159.8348   7.1811320956e+01   3.9774982027e+01    0.4557722    0.3221748  79.27  0.002439782    1.289    0.224
       132 -11.2888    170.1304    160.1504   2.5974764557e+01   1.6810134726e+01    0.3205955    0.2097214 -40.41  0.001615145    1.407    0.289
       133 -12.0289    129.2690    169.6801   3.6711176014e+01   2.1357392945e+01    0.3979032    0.3130198  75.68 0.0002459175    1.719    0.418
       134 -10.2767     13.5329    154.5188   6.8944012574e+01   4.0605726252e+01    0.1424142    0.1259831  70.48 0.0008094612    1.006    0.006
       135  -9.6293    134.2661    153.3333   3.2448115092e+01   2.4078590593e+01     0.144495    0.1087569 -19.78 0.0002517464    1.583    0.368
       136 -10.6725     81.7195    152.9709   4.6659389845e+01   3.2866852932e+01     0.258708    0.2395749 -66.26 0.0007351579    1.095    0.087
       137 -10.5947     84.3447    149.9172   4.5335006277e+01   3.3235249568e+01    0.2678329    0.2512383  16.85 0.0006778339    1.129    0.114
       138  -9.8239    132.2491    156.9866   3.3642944439e+01   2.3624620138e+01    0.1929304     0.119791 -50.43  0.000889686    1.595    0.373
       139  -9.2867    182.7618    161.0033   2.3732028781e+01   1.4723266937e+01     0.161692   0.09811664 -41.60 0.0002566774    1.484    0.326
       140 -10.7151     74.7924    151.0585   4.8463629382e+01   3.4407519558e+01    0.3125955     0.213282  68.50 0.0009739249    1.735    0.424
       141 -11.2194     26.8476    150.6785   6.4161852286e+01   4.0473687365e+01     0.448281    0.2278726 -17.21  0.001571045    3.497    0.714
       142 -12.0308      4.5906    149.7684   7.1593857382e+01   4.2553550544e+01    0.3475844    0.2111994  46.53 0.0009200938    1.521    0.342
       143 -10.2013     44.6586    150.6837   5.8168916443e+01   3.8560473244e+01    0.1536287    0.1102984 -32.76 0.0006139399    1.709    0.415
       144 -10.5197    108.9468    149.0182   3.8079835619e+01   2.9400194240e+01    0.2276178    0.2166951  77.75 0.0005361989    1.081    0.075
       145 -10.0102     96.3209    148.9742   4.1619841871e+01   3.1536105354e+01    0.2080198    0.1906969 -62.82 0.0004024948    1.100    0.091
       146 -10.3021     18.4051    148.0000   6.6783320659e+01   4.1972591568e+01    0.3060367   0.08061573  19.10 0.0009360898    3.946    0.747
       147 -10.5439    102.0062    142.0216   3.8636397698e+01   3.2278175067e+01    0.3020741    0.2033033  89.81  0.001242679    2.174    0.540
       148  -9.9194     54.3095    150.6436   5.4965441611e+01   3.7377150313e+01    0.1645884    0.1048759  63.47 0.0007042811    1.730    0.422
       149 -10.4440     47.4792    141.4803   5.5956801010e+01   4.0721618005e+01    0.2357667    0.1289065  39.34 7.636472e-06    1.734    0.423
       150  -9.9089     59.3169    140.2253   5.1702998610e+01   3.9507098180e+01      0.20528    0.1983403   3.16  0.001018288    1.136    0.120
       151 -10.4024     96.9504    138.0679   3.9305450294e+01   3.4125765879e+01     0.221354      0.21643 -66.43 0.0003371619    1.032    0.031
       152 -10.5729     20.0238    137.9898   6.5276964467e+01   4.4586889487e+01     0.217324    0.2034839 -86.79 0.0005018445    1.057    0.054
       153 -10.6649      1.4917    137.9164   7.1922338337e+01   4.5977064971e+01    0.2150295    0.1266582 -83.88 0.0005876921    1.551    0.355
       154 -11.4823     14.1225    134.0035   6.7043938936e+01   4.6177324477e+01    0.4114752    0.1841712 -58.69  0.001676135    2.124    0.529
       155  -9.4518    114.4631    134.5446   3.3610076079e+01   3.1843830437e+01    0.1483026    0.1460666 -67.33 2.521508e-05    1.010    0.010
       156 -11.4468     19.9733    132.0277   6.4678157684e+01   4.6244826162e+01    0.3012142     0.256327 -73.03 0.0003556738    1.128    0.113
       157 -10.5935     21.5152    128.5891   6.3717294309e+01   4.7066530641e+01    0.2462699     0.180799  32.32 8.665302e-05    1.369    0.270
       158 -10.4934     67.5358    129.5787   4.7005480144e+01   4.1159987071e+01    0.4274404     0.220908  81.68  0.001220297    4.319    0.768
       159 -10.5784     50.2175    130.6198   5.3307157876e+01   4.3343176494e+01    0.2087772    0.1483468  13.26  0.000948039    1.640    0.390
       160 -10.8391     82.5544    127.2368   4.1512862056e+01   3.9339561909e+01    0.2838972    0.2597392  59.34 0.0004551341    1.080    0.074
       161 -10.9468     57.8969    126.4560   4.9807714072e+01   4.3426059133e+01    0.2644961    0.2449177 -50.18  0.000339872    1.128    0.113
       162 -10.9123     54.5360    124.0151   5.0580260765e+01   4.4561791293e+01    0.3971793    0.2188239  71.43  0.001182635    2.684    0.627
       163 -10.5264     35.8663    126.9937   5.8056179613e+01   4.6079653222e+01    0.2199096    0.2056676 -87.41 0.0003424232    1.022    0.022
       164 -10.2818     26.7462    125.4396   6.1329281825e+01   4.7459061686e+01     0.269465    0.1351398  27.69  0.001116528    1.965    0.491
       165  -9.0405    126.6497    123.2963   2.7897833312e+01   3.2116695491e+01    0.1536774    0.1175859  82.63 0.0006496465    1.683    0.406
       166  -9.4326    193.7693    122.0115   1.4027315562e+01   1.9899067192e+01    0.1758377   0.09508621 -41.54 0.0005424126    1.584    0.369
       167  -9.7243    179.2172    121.9746   1.6455978556e+01   2.2442135825e+01    0.1865672    0.1560113 -44.18 0.0003275085    1.060    0.057
       168 -12.1012     14.3714    120.4588   6.5588637708e+01   4.9922917359e+01    0.4562297    0.2505906  39.24  0.002039963    1.782    0.439
       169  -9.8513    105.2385    121.3622   3.3232016644e+01   3.6693347226e+01    0.2180784    0.1391746  49.98 0.0005933173    1.630    0.386
       170 -10.8898     79.7072    119.6752   4.0815039087e+01   4.1770468923e+01    0.3104689    0.1950295 -54.69 0.0006417591    1.569    0.363
       171 -10.9135     82.9252    117.7128   3.9300680185e+01   4.1709856016e+01    0.4368538    0.3726466  54.00  0.002197755    1.174    0.148
       172  -9.7342     95.5635    119.5096   3.5683219093e+01   3.8963749142e+01    0.1554038     0.146934  87.77 1.172177e-05    1.045    0.043
       173  -9.7452     96.5926    116.1909   3.4585192066e+01   3.9583104599e+01    0.2884972    0.1374834 -43.30 0.0004102603    2.312    0.567
       174 -10.2553     38.1051    119.1423   5.5978968884e+01   4.8001462038e+01    0.2324564    0.1948879 -37.65  0.001190553    1.303    0.233
       175 -10.1184     54.6578    116.9884   4.9196349935e+01   4.6449250253e+01    0.2161376    0.1862059 -71.38 0.0003971451    1.135    0.119
       176 -10.4011     28.5126    120.4199   5.9958833698e+01   4.8683101509e+01    0.2680871    0.2516731 -83.64  0.001499154    1.024    0.023
       177 -11.4975     61.7540    109.2655   4.4882338583e+01   4.7451406239e+01    0.4776846    0.4311665  72.84  0.002495598    1.117    0.105
       178 -11.1825     60.4506    114.8173   4.6577725439e+01   4.6179531854e+01    0.2711774    0.2524387  46.28 0.0002196706    1.076    0.071
       179 -10.3720      1.4165    108.8779   6.9762821586e+01   5.3979623178e+01     0.208438    0.1260904 -80.93  0.000417349    1.508    0.337
       180  -9.8507    115.4373    105.4770   2.6460412412e+01   3.8354077283e+01    0.1521881    0.1449522 -73.92 8.609598e-05    1.007    0.007
       181 -10.0055     12.7018    104.6446   6.4423732335e+01   5.4438542435e+01    0.2931933     0.179682 -40.94  0.001205495    1.742    0.426
       182 -10.4704     78.3755    102.1038   3.7071739121e+01   4.6461119620e+01    0.3028285    0.2186805  45.95 0.0007780145    1.383    0.277
       183 -10.6654     56.0024    101.1413   4.5256728460e+01   5.0479644934e+01    0.2231028    0.2113796  70.02 0.0004046351    1.046    0.044
       184  -9.8504     94.3251     98.6544   3.0829781081e+01   4.4229953061e+01    0.1636953    0.1208057  84.00 0.0007050253    1.743    0.426
       185 -10.1449     26.1468     92.7907   5.6433799023e+01   5.6524145474e+01    0.2291984    0.1892772  68.46  0.001202504    1.277    0.217
       186  -9.6441     57.7702     91.6535   4.2183797234e+01   5.2655338548e+01    0.2002553    0.1370252  42.53 0.0002850808    1.461    0.316
       187 -10.1442     73.3256     90.0445   3.5651474885e+01   5.0355128975e+01    0.2172406    0.1989275 -65.00 0.0006392751    1.083    0.077
       188 -11.5396      2.8232     87.1852   6.6807399819e+01   5.9827746634e+01    0.4160092    0.2687281  87.34  0.001554648    1.561    0.359
       189 -10.8189      7.2950     86.6817   6.4517998632e+01   5.9707649820e+01    0.2485349    0.2149881 -44.22 0.0005945365    1.142    0.124
       190 -10.9717     54.8324     85.3384   4.1714579761e+01   5.4720197591e+01    0.4514209    0.4040092 -18.22   0.00238619    1.241    0.194
       191 -10.0899     64.1628     81.8071   3.6818178893e+01   5.4007826953e+01    0.2221608    0.2023824  84.39 0.0004611821    1.146    0.127
       192 -10.4566     11.0283     81.0490   6.1734838285e+01   6.0968042401e+01    0.2839268    0.2335795  -1.52   0.00106356    1.308    0.236
       193  -9.2606    152.4932     79.4499   1.1049278478e+01   3.5604469054e+01    0.1440467    0.1286462 -67.58 4.217891e-05    1.019    0.018
       194 -11.0421     89.0572     78.5382   2.6670176215e+01   4.9881090607e+01    0.3389303    0.2398869 -42.28 0.0008652814    1.479    0.324
       195  -9.6230    105.7618     73.7575   2.0075896182e+01   4.7227010579e+01    0.2458669    0.1144148 -54.13 0.0008866755    2.441    0.590
       196  -9.1617     87.6785     73.3222   2.5460038576e+01   5.1295372026e+01    0.1568067    0.1182159  88.46  0.000383122    1.675    0.403
       197 -11.1271     70.4033     70.8656   3.0876943140e+01   5.5370398259e+01    0.4277335    0.2812266 -30.77  0.001154514    1.942    0.485
       198 -10.0211     54.1459     70.8425   3.7685104359e+01   5.8346829925e+01     0.208678     0.173214 -26.65 0.0008328728    1.348    0.258
       199  -9.9989     47.1362     62.8708   3.8300383972e+01   6.1347347039e+01    0.2047725     0.190049  63.27 0.0002862603    1.140    0.123
       200 -10.8705    114.4454     61.9320   1.4001829598e+01   4.7473440439e+01    0.2892468    0.2013896  58.87 0.0008878384    1.407    0.289
       201 -11.0409     18.4323     59.8390   5.2943788647e+01   6.5797334409e+01    0.2727087    0.2322716 -49.62    0.0010288    1.111    0.100
       202 -11.1520     12.6600     59.8472   5.6423928295e+01   6.6303436883e+01    0.2328626    0.2196125   8.30 0.0002834167    1.096    0.087
       203 -10.7800    219.9461     59.0310   3.5711721246e+02   2.5136255468e+01     0.180098    0.1376785 -52.87            0    1.009    0.009
       204 -10.6057     34.1845     58.9280   4.3636332872e+01   6.4186807441e+01     0.230365    0.2210847 -61.76 0.0006431415    1.079    0.073
       205 -10.7619     23.6629     55.8837   4.8651910277e+01   6.6207173832e+01    0.3600613    0.2914042  34.69  0.002013607    1.271    0.214
       206 -10.1314    110.3351     55.0089   1.2715294468e+01   4.9660547128e+01    0.2051476    0.1812463 -55.47  0.000728643    1.128    0.114
       207 -12.1124    249.8324     51.3180   3.5317102436e+02   2.1069479718e+01    0.4662477    0.1150498 -36.49  0.002048118    2.931    0.659
       208  -9.1336    126.2709     54.7316   9.0022700829e+00   4.5906705738e+01    0.1418847    0.1033782 -74.15 0.0001876223    1.473    0.321
       209  -9.5261    115.7736     53.9806   1.1064727538e+01   4.8539159401e+01    0.1828377    0.1183257 -40.24 0.0004276517    1.574    0.364
       210 -10.4080    109.2870     50.2500   1.1336189329e+01   5.0711723816e+01    0.3076446    0.2193198  52.08  0.001438735    1.405    0.288
       211 -10.5282     30.5184     50.1970   4.2637326364e+01   6.6671935836e+01     0.259526     0.187622  28.98 0.0008651018    1.369    0.269
       212 -11.4335     16.1541     49.7994   5.1394813787e+01   6.8419791889e+01    0.2286608    0.2161342 -43.24  0.000263278    1.053    0.050
       213 -10.6556    178.8066     47.8060   3.5874808849e+02   3.4870070970e+01    0.3787453    0.1702565 -54.60   0.00169018    2.131    0.531
       214 -10.3411     99.0054     48.5056   1.3361284432e+01   5.3452305720e+01    0.2768326    0.1947957 -68.98  0.001314127    1.669    0.401
       215 -10.9061     96.6716     45.3200   1.2817507783e+01   5.4531445764e+01    0.2615821     0.214601 -83.77 0.0008571143    1.290    0.225
       216 -10.9436     38.2565     44.9624   3.6142465818e+01   6.6667499140e+01    0.5438379    0.2662791  51.70  0.002138058    2.725    0.633
       217  -9.6603     46.5088     41.5545   3.0271064689e+01   6.5955668757e+01    0.1380855    0.1300038  19.23 0.0001420176    1.028    0.027
       218  -9.6543    126.0501     39.6908   4.1508553875e+00   4.8273289170e+01    0.1894121    0.1637861  83.66 0.0002086476    1.065    0.061
       219 -11.1672     32.7773     40.2472   3.7296720230e+01   6.8479121146e+01    0.3641943    0.1505175  33.72  0.001475374    2.364    0.577
       220  -9.3129      1.2840     40.2955   5.8931706828e+01   7.1787192196e+01    0.1356952   0.08272673 -36.07 0.0001804215    1.542    0.352
       221 -10.2904     80.5565     36.9691   1.4277332736e+01   5.9646029467e+01     0.435562    0.1925294 -46.04  0.001733802    2.468    0.595
       222 -10.1421     89.3403     33.3113   1.0127636704e+01   5.8129473517e+01    0.1441079    0.1053621  31.42 0.0007045595    1.694    0.410
       223 -10.6735     42.4571     31.9069   2.7873405410e+01   6.8469198704e+01     0.349176     0.133122 -44.71  0.001365918    2.765    0.638
       224 -11.9336     29.4413     31.4163   3.5285642626e+01   7.0724779812e+01    0.5555918    0.2072713  33.20  0.002182019    2.673    0.626
       225 -11.1449     77.5457     30.3335   1.2373902013e+01   6.1344012021e+01    0.2615778     0.228959  82.81 0.0003946454    1.163    0.140
       226 -10.3220      1.3907     29.7454   5.5521892025e+01   7.4165497325e+01    0.1960793    0.1431329 -40.59 0.0002882541    1.236    0.191
       227 -10.7047      5.2309     29.6339   5.2291227579e+01   7.3911368540e+01    0.2703666    0.2172216 -10.20  0.001102875    1.177    0.150
       228  -9.7735    233.3250     29.7183   3.4995002070e+02   2.6469569880e+01    0.1194373   0.06100376 -59.14 0.0003193792    1.596    0.373
       229  -9.7949     61.4839     28.0424   1.7064411961e+01   6.5296264699e+01    0.1901583     0.135926 -38.63 0.0004347314    1.502    0.334
       230 -10.8909     67.7587     26.8287   1.4090377093e+01   6.4089027138e+01    0.2300174    0.1750436 -30.38  0.001190692    1.453    0.312
       231 -11.2229     69.9387     21.4871   1.0759499893e+01   6.4325976678e+01    0.2757877    0.2474099  16.71 0.0006791743    1.249    0.200
       232 -11.0564     36.2262     26.8637   2.8789867029e+01   7.0454590774e+01    0.2467261    0.1765708  30.43 0.0006268438    1.357    0.263
       233  -9.4373    190.2907    249.2530   3.6305393294e+01  -1.5863140166e-01    0.1061476   0.06523055  -4.73 0.0006867487    1.483    0.326
       234  -9.9156      1.3397     25.2000   5.3861472781e+01   7.5151958446e+01     0.161085    0.1156123 -73.63  0.000484023    1.611    0.379
       235 -12.0303    174.2852     22.8716   3.5273907860e+02   3.9079464609e+01    0.2320819    0.1800525 -62.44 0.0002560063    1.055    0.052
       236  -9.9886     19.1939     23.7763   3.8493745703e+01   7.3623502075e+01    0.1771638    0.1685631  27.27 0.0004366242    1.164    0.141
       237  -9.7508     40.0395     22.4745   2.4234918788e+01   7.0498210448e+01    0.1974937    0.1215666  43.56 0.0003473103    1.512    0.339
       238 -10.3347    227.0454     19.9935   3.4830771074e+02   2.8713313727e+01     0.171268    0.1242414 -57.05 0.0003337562    1.007    0.007
       239 -10.8616    203.4304     23.7299   3.5060495021e+02   3.2807482117e+01    0.1983913    0.1627309 -65.34 0.0002886838    1.094    0.086
       240 -10.6781    132.5689     17.2492   3.5566134824e+02   4.9518436992e+01    0.2346613    0.2247784  20.79 0.0004652682    1.339    0.253
       241 -10.6899    114.3185    248.0811   5.1067455663e+01   8.0948214422e+00     0.309073    0.2006134 -49.38  0.001516268    1.791    0.442
       242 -10.8460    116.7324    241.2868   4.9808977384e+01   8.9782131615e+00    0.2825821     0.208927 -71.73  0.001753743    1.877    0.467
       243  -9.5697     54.5238    249.4486   6.4477493467e+01   1.4394128877e+01    0.1233401   0.09566852  38.71  3.83431e-05    1.030    0.029
       244  -9.1939     49.5933    249.7421   6.5609868264e+01   1.4843453452e+01    0.1164321   0.08517761  -4.30 0.0006955353    1.728    0.421
       245 -11.3100     67.7972    246.8276   6.1281415196e+01   1.3486605897e+01    0.3736784    0.2272364  39.35  0.001911676    1.338    0.252
       246 -11.3340     36.2923    246.5425   6.8440796221e+01   1.6780286829e+01    0.3908233    0.1063405  43.76  0.001669139    2.627    0.619
       247  -9.6925     99.8154    246.3903   5.4052810153e+01   1.0020646957e+01    0.1769434    0.1002938  16.35 0.0008696518    1.702    0.413
       248 -11.0144    246.1827    245.4263   2.6886232101e+01  -4.5942396913e+00    0.1640901    0.1006696 -25.26 0.0002654537    1.275    0.216
       249  -9.9593    205.3743    243.7811   3.2992001708e+01  -8.7601416673e-01    0.1468607   0.07892116 -27.69 0.0009442699    1.646    0.392
