#   1 NUMBER                 Running object number                                     
#   2 MAG_AUTO               Kron-like elliptical aperture magnitude                    [mag]
#   3 X_IMAGE                Object position along x                                    [pixel]
#   4 Y_IMAGE                Object position along y                                    [pixel]
#   5 X_WORLD                Barycenter position along world x axis                     [deg]
#   6 Y_WORLD                Barycenter position along world y axis                     [deg]
#   7 A_WORLD                Profile RMS along major axis (world units)                 [deg]
#   8 B_WORLD                Profile RMS along minor axis (world units)                 [deg]
#   9 THETA_WORLD            Position angle (CCW/world-x)                               [deg]
#  10 FWHM_WORLD             FWHM assuming a gaussian core                              [deg]
#  11 ELONGATION             A_IMAGE/B_IMAGE                                           
#  12 ELLIPTICITY            1 - B_IMAGE/A_IMAGE                                       
         1 -13.1174      9.1037      2.8825   5.3609975306e+01   7.2977058682e+01    0.5966768     0.322607  37.46  0.003608932    2.498    0.600
         2 -15.7813     11.3558     23.1895   6.0985329431e+01   6.9798326845e+01     1.705272    0.8663675 -25.52  0.008023577    1.817    0.450
         3 -14.3519     26.9152     12.1569   4.8292328042e+01   6.9900285477e+01    0.8128141     0.482224  -0.87  0.004867919    1.742    0.426
         4 -14.0570    166.5639     29.5735   1.4116624593e+01   3.9970515459e+01    0.9482536    0.5765061  67.26  0.003779218    1.457    0.314
         5 -14.1613    147.8130     29.6110   1.7221510543e+01   4.4453123931e+01     1.195911    0.5907575  66.49  0.004769096    1.882    0.469
         6 -13.5509    188.4857     24.8833   9.9288417618e+00   3.5345197280e+01    0.9446285    0.4148137 -58.15  0.004012774    2.698    0.629
         7 -15.1117     98.5002     11.9783   2.1924124603e+01   5.7632291358e+01     1.456226    0.6905643  54.81  0.007193135    1.760    0.432
         8 -12.1333     60.1736     15.2850   3.5107633270e+01   6.4720105051e+01    0.4368947    0.2419581  24.33  0.002313849    1.874    0.466
         9 -13.3620    215.0436     10.1129   3.8459621105e+00   3.1021200028e+01    0.4459536    0.3050755 -66.89  0.001607515    1.262    0.208
        10 -11.9897    188.4786      9.9894   6.3934418403e+00   3.7003409417e+01    0.3318592    0.2660541  89.75  0.002162331    1.021    0.021
        11 -11.7312     46.6417     13.0089   3.9532433393e+01   6.7152037365e+01    0.2344681    0.1919321  21.30  0.001639973    1.132    0.117
        12 -11.9766    122.9455     10.8550   1.6139407838e+01   5.2293740218e+01    0.2602405    0.2104758 -74.45  0.001000553    1.442    0.307
        13 -13.8737     41.8634      4.4557   3.7685861187e+01   6.8835564305e+01    0.6599253    0.4424151  13.27  0.003364303    1.323    0.244
        14 -11.7026     75.1329     10.0568   2.7759534953e+01   6.2571640143e+01    0.2016772    0.1417781  25.90  0.001232468    1.307    0.235
        15 -11.9148    152.3086      8.6964   1.0568657002e+01   4.5620650774e+01    0.2834706    0.1631654  52.48  0.001507601    1.613    0.380
        16 -12.0878    119.6887      2.8932   1.4183659872e+01   5.3742229222e+01    0.5596442    0.2455627  81.61  0.002071034    3.779    0.735
        17 -11.9655     78.9957      1.9981   2.3318539144e+01   6.2559620279e+01    0.7593645   0.02244845  49.62  0.002199109    5.581    0.821
        18 -11.1531     67.3859      2.9654   2.7291093426e+01   6.4701799127e+01    0.2394716    0.1311587  32.12  0.001330429    1.661    0.398
        19 -10.5796    232.5331      1.5114   7.4676657120e-01   2.8235380599e+01    0.1172623   0.08791852 -76.47 0.0008096324    1.009    0.009
        20 -11.3156     61.6047      1.4645   2.8592602604e+01   6.5888975491e+01    0.3364979    0.1055685  52.74  0.001409277    3.064    0.674
        21 -14.2482     22.3064    180.7258   8.6724337802e+01   3.4014417318e+01     1.033301    0.3528673 -58.40   0.00437917    2.705    0.630
        22 -12.8777    107.8438    247.5159   7.4352785711e+01   8.1969176419e+00    0.6840041    0.4725712  74.24  0.003854437    1.728    0.421
        23 -13.4397     98.8506    238.9049   7.5285259198e+01   1.1202331623e+01     1.178509    0.4515367  40.49  0.005130384    2.148    0.534
        24 -14.3652     92.7331    230.4889   7.5653107986e+01   1.3813866332e+01    0.7119936    0.6441057  67.20  0.004587762    1.080    0.074
        25 -12.3773     50.8653    248.6560   8.6106178727e+01   1.5879041445e+01    0.3622341    0.3132541  79.74   0.00259744    1.179    0.152
        26 -12.2434      2.8969    249.5750   9.5101888337e+01   2.1023978196e+01    0.3536895    0.2189901  61.54  0.001708208    1.202    0.168
        27 -13.7736      9.9176    245.8315   9.3675117967e+01   2.1055688542e+01    0.7755748     0.360173  57.06  0.003518304    1.683    0.406
        28 -15.4315      8.5486    183.2044   9.0154103260e+01   3.4667575531e+01      1.21226     1.039534 -87.94  0.008448838    1.112    0.101
        29 -15.5824     15.6529    175.2596   8.7843789345e+01   3.5919823119e+01     2.321681    0.9807668  61.72   0.01018537    2.667    0.625
        30 -12.6099    164.5854    195.6784   5.4122918511e+01   9.0331239682e+00    0.4511988    0.2900266 -89.07  0.001594415    3.912    0.744
        31 -10.9544     81.0331    193.0000   7.3703256541e+01   2.3869185427e+01     0.228928   0.07625023  34.13 0.0008004331    2.929    0.659
        32 -12.5904     98.6320    186.3626   6.8338549800e+01   2.2690873729e+01    0.4640063    0.3130484 -12.36  0.001924047    2.661    0.624
        33 -12.2432     48.7067    181.3578   8.0300634218e+01   3.1021681396e+01    0.3876316    0.2639031 -49.98  0.002063727    1.632    0.387
        34 -12.3622    198.6327    181.3990   4.4128722417e+01   5.7438846676e+00    0.2789429    0.2783781  74.04  0.001556121    1.174    0.148
        35 -11.4773    200.8544    191.5117   4.5624699401e+01   3.4701880491e+00    0.2692818    0.2305965  23.41  0.001151419    1.129    0.114
        36 -12.0126     84.0000    178.0080   7.0795583774e+01   2.7008965437e+01    0.2377506   0.07994156 -61.39 0.0008056785    2.965    0.663
        37 -12.9777    124.2908    166.7713   5.8360147903e+01   2.2835948611e+01    0.6962767    0.4494223 -73.41  0.002919227    2.044    0.511
        38 -10.7351    101.9840    161.0000   6.3142387534e+01   2.8230845995e+01     0.249811   0.08456528  36.31 0.0008025634    2.943    0.660
        39 -12.1946     24.4827    159.4908   8.4082037568e+01   3.8925192112e+01    0.2245655    0.1552572 -66.07 0.0009988032    1.284    0.221
        40 -12.1763     77.3218    156.8884   6.9198614949e+01   3.3225480125e+01    0.4545437    0.3731344  14.10  0.001510343    1.457    0.314
        41 -13.4003     73.5890    153.2548   6.9631088349e+01   3.4682190599e+01    0.7433497    0.5395772  27.40  0.002801104    1.519    0.341
        42 -12.1521    111.4682    155.7422   5.9574766529e+01   2.7826541854e+01    0.5196055    0.3354378  76.63  0.002035822    2.407    0.585
        43 -11.7245     85.7100    153.0985   6.6177573752e+01   3.2877148376e+01    0.5582383    0.2361721 -42.47  0.001912972    3.008    0.668
        44 -12.1443    212.2075    153.7878   3.5877323978e+01   8.5280393897e+00    0.2366931    0.1622129  -3.02  0.001070341    2.137    0.532
        45 -11.6391    103.4649    149.7897   6.0576911617e+01   3.0708915659e+01    0.3786311    0.2541511 -34.69  0.001375743    1.801    0.445
        46 -12.9342      8.3489    150.1034   8.7392015595e+01   4.2526130016e+01     0.532223    0.3448216  86.99  0.003070287    1.418    0.295
        47 -12.3758     60.7915    147.3312   7.2309050388e+01   3.7933655933e+01    0.3891672    0.2697264 -21.99   0.00183479    2.018    0.505
        48 -11.7427    245.5056    147.5034   2.8866669104e+01   3.7947004551e+00    0.1315045    0.1134978 -33.97 0.0008106616    1.002    0.002
        49 -11.0574     38.4744    145.5205   7.8492627151e+01   4.1005101571e+01    0.1353636    0.1196093 -71.26 0.0001859725    1.036    0.034
        50 -12.3963    246.9906    135.3814   2.6217459209e+01   5.6287190432e+00    0.3178548    0.2255012  86.99  0.001623982    2.297    0.565
        51 -12.4228     45.6181    132.9884   7.4467245359e+01   4.3352274199e+01    0.4099345    0.2668737  28.65  0.002100238    1.685    0.407
        52 -11.5284    137.8021    132.1007   4.7455841276e+01   2.8236939372e+01    0.3056224     0.214636  12.75  0.001251694    2.094    0.522
        53 -11.3709      5.2658    128.8461   8.6037441881e+01   4.7838443282e+01    0.2390626    0.1335037 -35.78  0.001251301    2.086    0.521
        54 -14.5377    106.3089    104.6776   4.9366501308e+01   4.0838092190e+01     1.214204     1.083483 -27.05  0.005480863    1.167    0.143
        55 -13.1529     28.8668    121.8265   7.7891197215e+01   4.7769419051e+01    0.4216365    0.2625869 -51.39  0.002242794    1.443    0.307
        56 -11.9404    181.0132    120.5107   3.4653470448e+01   2.1398607022e+01    0.2291885    0.1486894  50.33 0.0008071761    1.581    0.368
        57 -12.3247      4.7026    119.4102   8.5105291050e+01   5.0120593120e+01    0.4777855    0.2380617   8.64  0.002413469    2.618    0.618
        58 -12.8245     84.7760    115.0119   5.8551275206e+01   4.2349069371e+01    0.8695896    0.3507038  31.50  0.002934722    2.798    0.643
        59 -11.9895     78.6106    110.7731   5.9511357544e+01   4.4346744729e+01    0.3894933    0.3020139  82.00  0.001890853    1.691    0.409
        60 -11.9979     42.4780     90.2516   6.7124392450e+01   5.3907837326e+01     0.269749    0.2260013 -55.13 0.0003872661    1.133    0.118
        61 -13.0281     20.6526     86.0835   7.4355885333e+01   5.6828005341e+01    0.6005185    0.4041178   8.45  0.003493098    1.682    0.405
        62 -12.9946     36.7985     92.9025   6.9805734598e+01   5.3891049644e+01    0.4635773    0.3115192   0.94  0.001458226    1.766    0.434
        63 -13.5150      2.2827     96.9919   8.2897301875e+01   5.5487145674e+01    0.7958191    0.3506638 -70.64   0.00334113    1.927    0.481
        64 -14.3709     18.2098    111.7822   7.9769738433e+01   5.1048158220e+01    0.8659716    0.5655911  -0.11  0.004800278    1.917    0.478
        65 -14.5158     13.7549    103.6016   7.9980893166e+01   5.3289231421e+01    0.9498241     0.523295  26.98  0.004497239    2.058    0.514
        66 -11.5316     62.7702    110.9711   6.4743150116e+01   4.6626805933e+01    0.3414177    0.1743752  47.88  0.001407719    2.366    0.577
        67 -14.5518     22.7842     94.8933   7.5302805258e+01   5.4665195960e+01      1.39909    0.6316578  13.68  0.006398616    2.711    0.631
        68 -10.7008     42.6806    106.6722   7.0618275334e+01   5.0081139991e+01    0.1444554   0.09248069 -33.35 0.0004951322    1.684    0.406
        69 -12.4972    136.2349    102.9913   4.0621814025e+01   3.4954424661e+01    0.5832782    0.2920633  51.67  0.002073377    2.069    0.517
        70 -14.0833    105.0477    122.2681   5.4122727506e+01   3.7050220166e+01     1.415841    0.9987026  48.61  0.006565969    1.468    0.319
        71 -10.9555     64.5087    101.5370   6.1985529992e+01   4.8603171043e+01    0.2349957    0.1769773 -45.47 0.0006094702    1.245    0.197
        72 -11.8708     61.6908     97.7312   6.2035709796e+01   4.9866353494e+01    0.3897526    0.3241393  88.33  0.001670356    1.504    0.335
        73 -11.9208     48.8115    100.3983   6.7160899635e+01   5.0874914340e+01    0.5416212    0.3620185  50.15  0.002742503    1.820    0.450
        74 -11.7168     52.9893     97.4977   6.5029017578e+01   5.1046956686e+01    0.3828549    0.2350654 -28.43  0.001795922    1.908    0.476
        75 -11.9911    163.5953     97.7442   3.2764454046e+01   2.9826712868e+01    0.3037272    0.2735967 -89.08  0.000637521    1.147    0.128
        76 -13.3435    112.3441    116.6627   5.0652698170e+01   3.6951298868e+01    0.6326358      0.36708  29.74  0.002228079    2.033    0.508
        77 -12.7381    137.0437     94.8365   3.8239929070e+01   3.6448483382e+01    0.4869396     0.354103  57.99  0.001674915    1.428    0.300
        78 -12.8209     29.6734     89.4259   7.1677919699e+01   5.5344201757e+01    0.5064386    0.3349237 -87.07  0.002387441    2.056    0.514
        79 -11.9723     49.0379     93.5209   6.5503771028e+01   5.2430301728e+01    0.3597194    0.2756705  79.41  0.001901423    1.796    0.443
        80 -11.8477    121.8158    111.9896   4.6809408850e+01   3.6094874958e+01     0.277815    0.2347255  59.79 0.0007045317    1.249    0.200
        81 -13.0266    188.3052     84.0592   2.4452431865e+01   2.6658241289e+01     0.620903    0.2984743  44.45  0.002204314    2.429    0.588
        82 -13.2883    164.2137     71.4317   2.5746043776e+01   3.4469770952e+01      1.01391    0.5042918  54.36  0.004236028    1.917    0.478
        83 -14.0538    169.2530     76.7353   2.6151788535e+01   3.2372030896e+01     1.257955    0.4549358  50.98  0.004196734    2.675    0.626
        84 -12.2452    158.4578     83.5026   3.0159190347e+01   3.3705907044e+01    0.3817465    0.2481899  58.62 0.0008840658    1.535    0.349
        85 -12.9990    161.0586     80.2007   2.8726580887e+01   3.3692432825e+01    0.5015015    0.3835074  27.10  0.001506581    1.658    0.397
        86 -12.7504     57.0453     65.6057   5.4909252388e+01   5.7332105695e+01    0.4710124     0.310819  30.07  0.002137189    1.528    0.346
        87 -13.1090     62.0754     58.2814   5.0637694540e+01   5.7987919105e+01    0.8952258    0.4442286 -22.33   0.00338831    3.316    0.698
        88 -13.7474     73.9194     73.8226   5.1184302967e+01   5.3175721310e+01     1.371417    0.6783991  16.00  0.004479731    4.156    0.759
        89 -13.0349     87.4526     65.2306   4.3864290233e+01   5.2454760665e+01    0.5262924    0.3774624  -7.48  0.001036624    1.736    0.424
        90 -13.5641     92.3339     57.6819   3.9823178576e+01   5.2849778885e+01     0.520074    0.4855472   8.54  0.002052123    1.032    0.031
        91 -12.9769     54.8565     81.2701   6.0269500144e+01   5.4419587295e+01    0.5750078    0.4103962 -34.90  0.002560785    1.336    0.251
        92 -13.8899     61.2295     75.6903   5.6338856288e+01   5.4727708778e+01    0.7475449     0.468572 -35.13  0.002665757    1.583    0.368
        93 -12.5591    216.2715     80.5689   1.9141573754e+01   2.1019852348e+01    0.3804923    0.2597054 -61.66  0.001981687    1.461    0.315
        94 -12.2921    210.4251     77.5535   1.9317147600e+01   2.2787518602e+01    0.4296622    0.2734667 -73.01  0.002034956    1.900    0.474
        95 -12.9849     51.7996     67.6437   5.7567202970e+01   5.7631903282e+01    0.9504113    0.4985681 -61.83  0.004117488    2.632    0.620
        96 -11.9701    114.0508     79.7818   4.0170399129e+01   4.4434261266e+01    0.4042649    0.3331609 -42.40  0.002110507    1.252    0.201
        97 -12.1906    237.3666     79.7607   1.6113498208e+01   1.6769301822e+01    0.2390349    0.1581581  80.68  0.001281901    1.727    0.421
        98 -12.5002    135.4765     79.3339   3.4335663258e+01   3.9796834155e+01    0.7182357    0.3193945  53.87  0.002686924    2.278    0.561
        99 -11.2940     41.5350     75.9155   6.3919464189e+01   5.7148527463e+01    0.2414363    0.1583016 -57.44  0.001095166    1.518    0.341
       100 -14.9220      6.5828     70.8395   7.6726506913e+01   6.1065689674e+01     1.202086    0.6514399 -55.00  0.004975468    1.459    0.315
       101 -13.7977      4.8928     63.5949   7.5884661351e+01   6.2679749092e+01      0.55651    0.4299555  17.45  0.003665093    1.492    0.330
       102 -11.2140     27.3328     76.2991   6.9613055550e+01   5.8447212106e+01    0.2363011    0.1746336  68.16  0.001277639    1.996    0.499
       103 -13.1120    199.3011     69.8768   1.9210752854e+01   2.6524427481e+01    0.7026779    0.4026567  49.26  0.002625003    1.913    0.477
       104 -12.2647    134.8612     66.3597   3.0740086834e+01   4.2231568865e+01    0.5169877    0.3030235  43.83  0.001773202    1.691    0.409
       105 -11.3275     45.3364     68.3437   6.0325436646e+01   5.8287863796e+01    0.2512723    0.1424863  47.86  0.001170081    2.466    0.594
       106 -12.0262     39.0357     67.9788   6.2752946346e+01   5.9069915200e+01    0.3384362    0.1644476  30.28  0.001633741    2.148    0.534
       107 -11.7908    158.5122     63.9529   2.4862018653e+01   3.7059167685e+01    0.3231907    0.1277417 -43.54  0.001203165    2.604    0.616
       108 -10.8692    100.0147     65.4918   3.9953279065e+01   4.9976302601e+01    0.2200818    0.1346508  43.76 0.0007804493    1.564    0.361
       109 -13.0934     79.0023     60.2807   4.5120770917e+01   5.4869958900e+01    0.5862422    0.4485648 -46.02  0.003229528    1.418    0.295
       110 -13.3355    178.0655     57.8402   1.9653588086e+01   3.3356524196e+01    0.6568331    0.5033601 -60.33  0.002248123    1.314    0.239
       111 -12.1337     38.8051     59.9623   6.0515802835e+01   6.0693797427e+01    0.2487291    0.1897313  81.84  0.001331466    2.342    0.573
       112 -12.1253     34.9401     59.8784   6.2113749904e+01   6.1120589253e+01    0.6973386    0.1338809 -44.74   0.00226723    4.264    0.765
       113 -11.8687     24.8541     59.3161   6.6259251582e+01   6.2182075676e+01    0.3248083    0.2183991 -43.82  0.001922236    1.266    0.210
       114 -14.2931    119.7587     54.6459   3.0946388698e+01   4.7572053633e+01    0.9125974    0.5088522  38.46  0.001911304    1.891    0.471
       115 -13.2524     65.9999     49.2305   4.6065731695e+01   5.8961247053e+01      0.71245    0.5827401 -50.80  0.004236266    1.491    0.330
       116 -11.3344     17.5178     55.3178   6.8363421936e+01   6.3560805495e+01    0.3007484    0.1450662 -55.05  0.001575586    1.835    0.455
       117 -13.4237    103.4117     50.5420   3.4088066136e+01   5.1758605952e+01    0.7009094    0.4034764 -51.79  0.001251974    2.277    0.561
       118 -13.1094     97.9669     49.9801   3.5506038970e+01   5.2973143951e+01    0.5277874    0.3574585 -39.25  0.001696711    1.587    0.370
       119 -12.1718    135.9125     50.1628   2.5683751834e+01   4.4543862386e+01    0.4200611    0.2811591  38.41  0.001675761    1.599    0.375
       120 -11.7661    151.9673     46.7782   2.1362715902e+01   4.1222377822e+01    0.2682935    0.1905574  63.05 0.0006857874    1.293    0.226
       121 -12.5689    158.2231     43.3473   1.9238037693e+01   4.0199072064e+01    0.6017094    0.3741256  44.27  0.002927197    1.731    0.422
       122 -13.2374      6.2726     43.0037   7.0101324054e+01   6.6680626097e+01    0.7834933    0.3302878  18.76  0.004159546    2.485    0.598
       123 -13.2180     28.7572    245.6695   9.0171863117e+01   1.9086005034e+01    0.4516429    0.2715135  75.19    0.0026847    1.443    0.307
       124 -12.3079      2.9342     34.3868   6.9193956003e+01   6.8457351792e+01    0.2194108    0.1732771 -60.67 0.0007756767    1.492    0.330
       125 -12.5026     59.9873    246.4984   8.4124841466e+01   1.5143017995e+01    0.2881062    0.1885689  25.64  0.001650669    1.857    0.461
       126 -14.1072    171.0469    241.9876   6.0357501724e+01  -5.9558994700e-01    0.9081662    0.6031527  26.98  0.005132606    1.339    0.253
       127 -13.1120    204.9991     39.8756   1.1418898381e+01   2.9647704342e+01     1.030693    0.4336593  86.90  0.003393037    4.431    0.774
       128 -12.4619    212.5062     43.0033   1.1223352204e+01   2.7538583853e+01    0.4426215    0.2378305  54.29   0.00191222    2.017    0.504
       129 -13.3175    219.5633     41.4605   1.0076860327e+01   2.6194311687e+01     0.559783    0.3645796  83.17  0.001900109    1.474    0.321
       130 -11.6521    135.0538     39.5088   2.2649914941e+01   4.6234198837e+01       0.4258    0.2303655  67.11  0.001645585    1.937    0.484
       131 -12.1023    109.7144     41.9393   2.9471560717e+01   5.1672107593e+01    0.4121608    0.1812564  52.70  0.001117636    2.080    0.519
       132 -12.6620    113.7958     37.8484   2.7052893393e+01   5.1329363723e+01    0.3888174    0.3255664  35.05  0.001380499    1.145    0.127
       133 -13.7946    122.2153     36.8733   2.4688005063e+01   4.9557948102e+01    0.9235298    0.4552338  37.27  0.002890357    2.390    0.582
       134 -12.6061    131.2992     33.4293   2.1579474503e+01   4.7895171371e+01    0.4409873    0.3606721  29.18  0.001448237    1.345    0.256
       135 -11.8983     40.5529     40.2880   5.3241166800e+01   6.4059633804e+01    0.4359055    0.2233644  28.29  0.002279229    1.915    0.478
       136 -12.6012     33.0288     40.0946   5.6542443807e+01   6.4961335248e+01    0.2975788    0.2228289   0.04  0.000655866    1.219    0.179
       137 -12.5671     75.9769     37.1071   3.8054248254e+01   5.9136558040e+01    0.4260563    0.2538244  34.76  0.001367544    1.563    0.360
       138 -11.6540     71.1391     36.3648   3.9485873096e+01   6.0104002980e+01    0.2640758     0.207205  54.71  0.001285872    1.562    0.360
       139 -12.5977    242.3323     36.1057   6.6817821313e+00   2.2120239644e+01    0.4617505    0.2425369  76.49  0.002081701    1.884    0.469
       140 -12.3299     46.0869     33.6761   4.8353461420e+01   6.4406810257e+01    0.4712867    0.3281946 -11.25  0.002834571    1.404    0.288
       141 -12.2269     37.5501     33.8509   5.2193093450e+01   6.5474868155e+01    0.4969628    0.1918944  18.66  0.001825054    4.190    0.761
       142 -12.7572    147.3779    238.6671   6.4830773337e+01   3.6870154692e+00    0.2363762    0.2132984  88.46 0.0009072915    1.365    0.267
       143 -12.8636     23.5022    216.3854   8.9289321848e+01   2.5757459158e+01    0.7716992    0.3114038  54.68  0.003730904    2.221    0.550
       144 -12.6049    140.0703     21.4055   1.6204697678e+01   4.7229290091e+01    0.6217968    0.2424361  60.31  0.001258009    2.133    0.531
       145 -13.8483     26.3116    226.5221   8.9413026934e+01   2.3280355940e+01    0.7078466    0.3933061 -54.55  0.003909532    2.242    0.554
       146 -11.7961    216.6572     28.4696   7.5870490497e+00   2.8519599313e+01    0.2115652    0.1101761 -37.21  0.001090515    1.961    0.490
       147 -13.4574     57.3013     26.8001   4.0987118090e+01   6.3748964858e+01    0.9287999    0.3056434  38.18  0.003393466    2.826    0.646
       148 -12.1376    120.8798     26.0460   2.1492238824e+01   5.1187445692e+01    0.3922794    0.2691885  70.73  0.001858119    1.503    0.335
       149 -10.4367     88.2615     27.7070   3.0560990859e+01   5.8038900285e+01    0.1137634    0.1021302 -81.98 0.0003131685    1.500    0.333
       150 -11.9441     30.8074     25.2213   5.1954589322e+01   6.7602543460e+01    0.2836002    0.1621346  14.65  0.001621119    1.746    0.427
       151 -12.6361     35.3011     23.3792   4.9075303142e+01   6.7340067156e+01    0.2530532    0.1854229  -6.25 0.0007165947    1.186    0.157
       152 -13.9700     20.8037    223.9767   9.0354970561e+01   2.4404657482e+01    0.5430092    0.4572116 -77.45  0.002339236    1.300    0.231
       153 -11.6087     51.3877     20.3971   4.0738687502e+01   6.5517067968e+01     0.302534    0.1773323  49.28  0.001628406    2.127    0.530
       154 -11.3726     45.9502     20.5086   4.3080628385e+01   6.6310712637e+01    0.2857781    0.1443302  21.08  0.001244265    2.228    0.551
       155 -11.6129     71.0418     16.5871   3.1762331776e+01   6.2651928126e+01    0.2200126    0.1786825 -14.31 0.0006109063    1.286    0.223
       156 -12.8462     57.5667    202.5329   8.0514829003e+01   2.4902884957e+01    0.8577346    0.3480242 -80.65  0.003238841    3.203    0.688
       157 -13.8142     65.6214    223.3661   8.0844649431e+01   1.9180373398e+01    0.8962336    0.5449513  42.48  0.004888019    1.457    0.314
       158 -14.6430     63.0149    213.9887   8.0471257790e+01   2.1587005113e+01    0.9857191    0.5064719  42.22  0.004878379    1.727    0.421
       159 -11.2760    249.5012    225.4695   4.2666370448e+01  -9.2240163033e+00     0.119812   0.09348496  -5.84  0.000171955    1.018    0.017
       160 -12.8000     94.1844    218.1877   7.3855216013e+01   1.6188098003e+01    0.3034071    0.2041093  44.28  0.001614029    1.318    0.241
       161 -12.4070      4.4503    212.5163   9.2949915222e+01   2.8450894407e+01    0.4182682    0.1794928 -68.93  0.002221056    2.106    0.525
       162 -11.0565    136.6089    210.8149   6.3050738492e+01   1.0841619485e+01    0.1880521     0.136574 -70.09 0.0009456414    1.697    0.411
       163 -12.9477     72.1031    206.7478   7.7582417107e+01   2.1974151261e+01    0.3260567    0.2711467  71.21  0.001942053    1.088    0.081
       164 -11.3226    223.9746     21.0021   5.3102727503e+00   2.7843662826e+01    0.1773904    0.1415837  47.50  0.001081414    1.710    0.415
       165 -13.6510     15.4663    198.7850   8.9749242424e+01   3.0474687622e+01     1.056874     0.279595 -56.11  0.003922802    4.175    0.760
       166 -14.1781     40.0900    195.8488   8.3922792376e+01   2.8585615383e+01    0.8069543     0.422141  57.86  0.003975729    1.877    0.467
       167 -14.8951     29.9778    169.2731   8.3704162778e+01   3.6016317440e+01     2.437083     1.309069 -42.61   0.01146442    2.384    0.581
       168 -13.2834     22.4105    166.1963   8.5319906486e+01   3.7485661609e+01    0.3837338    0.2730737  11.79  0.001583626    1.858    0.462
