#   1 NUMBER                 Running object number                                     
#   2 MAG_AUTO               Kron-like elliptical aperture magnitude                    [mag]
#   3 X_IMAGE                Object position along x                                    [pixel]
#   4 Y_IMAGE                Object position along y                                    [pixel]
#   5 X_WORLD                Barycenter position along world x axis                     [deg]
#   6 Y_WORLD                Barycenter position along world y axis                     [deg]
#   7 A_WORLD                Profile RMS along major axis (world units)                 [deg]
#   8 B_WORLD                Profile RMS along minor axis (world units)                 [deg]
#   9 THETA_WORLD            Position angle (CCW/world-x)                               [deg]
#  10 FWHM_WORLD             FWHM assuming a gaussian core                              [deg]
#  11 ELONGATION             A_IMAGE/B_IMAGE                                           
#  12 ELLIPTICITY            1 - B_IMAGE/A_IMAGE                                       
         1 -12.2027     72.6103     19.3658   5.7022723393e+01   6.2241435385e+01     0.363811    0.2700596 -89.97  0.001908373    2.486    0.598
         2 -14.3231    240.7455      8.2335   2.8238374928e+01   2.6122753857e+01     1.007644    0.4980721 -57.56  0.006010051    1.632    0.387
         3 -13.2265    232.5801      2.3240   2.7630953846e+01   2.8361004386e+01    0.4791452    0.2957746  74.66  0.002874966    1.544    0.353
         4 -13.8232    155.3620      2.2887   3.4270751343e+01   4.5279615187e+01     1.168812    0.1914312  71.42  0.003335305    5.602    0.821
         5 -11.3759     49.6130     14.3305   6.3178973632e+01   6.6962616187e+01    0.2521913    0.1856137  26.83 0.0007920498    1.142    0.124
         6 -11.0489     45.6769     12.0707   6.3737819028e+01   6.7861845678e+01    0.2059283    0.1384843  19.66 0.0007893596    1.312    0.238
         7 -11.2673     35.1247     13.7800   6.9309615570e+01   6.9273959623e+01    0.2626786    0.1674434  -0.60  0.001040746    1.554    0.356
         8 -11.1978     32.1797     10.8214   6.9256304598e+01   7.0049956814e+01    0.2119406    0.1493952   6.42 0.0006435747    1.207    0.172
         9 -13.0110    149.8995     12.9880   3.7945145038e+01   4.5590599861e+01    0.3203873    0.2159838  70.17  0.001299027    1.281    0.219
        10 -13.7651    163.4627      8.4170   3.4960054915e+01   4.2843308233e+01    0.7696604    0.4777607  30.25  0.003986244    2.413    0.586
        11 -12.6782     56.2161      9.4700   5.8319751192e+01   6.6336392520e+01    0.3679767    0.2395967  36.07  0.001353968    1.285    0.222
        12 -11.9197     61.9598      8.0233   5.5601338440e+01   6.5424601703e+01    0.2258882    0.1737569 -20.52 0.0009858422    1.419    0.295
        13 -11.7488    115.4306      9.2918   4.2382986853e+01   5.3987455356e+01    0.2146711    0.1283749 -13.79  0.001135235    2.078    0.519
        14 -13.2406     98.7731      9.0613   4.5740542788e+01   5.7762565837e+01    0.3973681    0.2546981  46.83  0.001631343    1.329    0.247
        15 -12.6281    105.0039      5.9852   4.3274510007e+01   5.6631478432e+01    0.2614575    0.2257263  86.76  0.001247631    1.273    0.214
        16 -11.1655     69.3769      9.8208   5.3955118514e+01   6.3839645304e+01    0.1645616    0.1073883  -1.25 0.0007328345    1.693    0.409
        17 -12.5221     85.5685      7.6403   4.8381881938e+01   6.0738912041e+01     0.237823    0.2210377  18.45 0.0001864015    1.151    0.131
        18 -13.1593    124.6746      7.3443   4.0091428435e+01   5.2018888945e+01    0.3171343    0.2763352  65.71  0.001422045    1.025    0.024
        19 -10.8034      2.4432      6.7364   8.3865319280e+01   7.3964187461e+01     0.278375    0.1793588 -56.13  0.001655174    2.718    0.632
        20 -12.0728    213.3500      2.6033   2.8984905145e+01   3.2271800998e+01    0.4751638    0.1609282 -75.31  0.001626665    4.986    0.799
        21 -12.8862    114.0542      2.3777   4.0284571222e+01   5.4865722504e+01    0.4241717    0.2341749  65.69 0.0005618578    1.535    0.349
        22 -11.6525     47.8745      2.2493   5.8012287914e+01   6.8486296294e+01    0.2555887    0.2168951 -41.09  0.001773849    1.688    0.408
        23 -11.9110    205.4946      2.9815   2.9653382121e+01   3.3906109867e+01     0.222933    0.1428724  64.00  0.001357045    1.585    0.369
        24 -14.2537    177.6650      6.6415   3.2961242424e+01   3.9732772024e+01     1.335276    0.6295813 -69.34  0.006173226    2.501    0.600
        25 -12.3369    131.9675      3.0054   3.7571621281e+01   5.0679814235e+01    0.2813899    0.1541001  54.36  0.001475839    1.582    0.368
        26 -12.3954     89.6540      2.4712   4.5317708136e+01   6.0285049163e+01    0.3100476     0.211352  56.24  0.001079381    1.237    0.192
        27 -13.8465     51.5246    186.7450   1.0778204568e+02   2.8767094147e+01     2.026774    0.4171567 -54.20  0.006018682    4.523    0.779
        28 -13.1080     25.8847    188.5628   1.1436011236e+02   3.1169465403e+01     1.014449    0.5214183  44.06  0.005082612    1.864    0.464
        29 -16.6640     19.3180    138.4830   1.1068767251e+02   4.4440806003e+01      6.95187     5.064066  68.92   0.03882412    1.473    0.321
        30 -16.7179    118.4750    227.7422   9.7009993678e+01   9.6856688336e+00     5.234621      3.17014 -68.85   0.02525089    2.106    0.525
        31 -14.3478     36.7182    179.3136   1.1072004928e+02   3.2338476168e+01     1.840706     1.025131  61.66  0.008683416    1.926    0.481
        32 -12.7169     75.8079    127.5521   9.0942759220e+01   4.0688850050e+01    0.4219689    0.3107064  77.07  0.001922352    1.792    0.442
        33 -10.6625    249.6640    127.3304   5.1255880242e+01   7.0316939551e+00    0.1319177   0.09131685 -63.49 0.0002555648    1.731    0.422
        34  99.0000     43.6279    234.7475   1.1429760469e+02   1.8578947512e+01     3.893391     1.495451  43.40   0.01841319    2.136    0.532
        35 -11.7489     61.1898    109.8760   9.1735830406e+01   4.7257067800e+01     0.316238    0.2171302  20.10  0.001514986    1.648    0.393
        36 -10.7893     64.1878     97.5832   8.7600962574e+01   4.9794095325e+01    0.3395339    0.2471466  21.79  0.001598589    1.489    0.328
        37 -11.0145     56.5811     95.9192   8.9911157837e+01   5.1248757209e+01    0.2760699    0.1975718   0.10  0.001146982    1.671    0.402
        38 -14.5348     78.1077    214.6299   1.0462736264e+02   1.8555176089e+01     1.662009    0.8621501  64.13  0.006958792    2.492    0.599
        39 -10.2520    132.4512     92.4799   6.4990223376e+01   3.7897401757e+01     0.151114    0.1494379 -23.58  0.000188354    1.018    0.017
        40 -11.8352     35.1507     82.9239   9.4746568155e+01   5.6792979491e+01    0.1985426    0.1817897 -79.89 0.0009986081    1.303    0.233
        41 -10.6965      7.7831     68.4580   1.0265571521e+02   6.2232619065e+01    0.2355571    0.1435476 -57.91 0.0007181971    1.384    0.277
        42 -11.1991     49.4613     65.3196   8.3728278131e+01   5.8898789807e+01    0.2997814    0.2420976 -31.70  0.001289415    1.114    0.102
        43 -10.9621     99.5875     62.2214   6.4722797411e+01   5.0742390758e+01    0.2842551    0.2300197 -75.17 0.0009562161    1.698    0.411
        44 -10.9446      3.6627     59.5010   1.0233023582e+02   6.4397149936e+01    0.2140875    0.1681263 -10.72 0.0009339935    1.282    0.220
        45 -12.0184    249.0592     56.0718   3.6868449064e+01   1.8485845407e+01    0.3761002    0.1867686 -49.18  0.001940198    1.619    0.382
        46 -10.0788     22.4998     58.4670   9.3308614643e+01   6.3279779410e+01    0.1259288    0.1080184 -30.23 0.0001097795    1.075    0.070
        47  -9.8418     77.6763     55.7124   6.9567126947e+01   5.6174733976e+01     0.142014    0.1021407   6.94 0.0002419346    1.605    0.377
        48 -11.6390    169.2045     49.9634   4.5287666084e+01   3.6590245215e+01    0.2125463    0.1817641  76.80 0.0003236114    1.096    0.088
        49 -10.2128    228.5085     45.4792   3.6683108946e+01   2.4000886096e+01    0.1262951    0.1024551 -66.69 0.0002500188    1.001    0.001
        50 -11.2309     81.6108     42.7789   6.3442098112e+01   5.7483651640e+01     0.364051    0.2424873 -50.81  0.001436205    1.967    0.492
        51 -10.6603     81.7990     38.0026   6.1554917667e+01   5.8128369176e+01    0.2693188    0.1539703  25.75  0.001103858    2.065    0.516
        52 -13.4718     60.6346    224.5298   1.0971326514e+02   1.8694480899e+01    0.8138363    0.2970707 -67.81  0.003393071    2.767    0.639
        53  -9.9536     95.9944     38.2900   5.7343549345e+01   5.5168477916e+01    0.1825618    0.1577919  39.28 0.0003922384    1.052    0.049
        54  -9.6169    161.6964     36.7110   4.2861567108e+01   4.0152247440e+01     0.130649   0.09918739  38.18 0.0002552846    1.567    0.362
        55 -11.8247    119.7634     34.8535   5.0123767949e+01   5.0307915636e+01    0.2599092     0.209807  39.37 0.0002556664    1.210    0.174
        56 -10.7436    139.6640     32.9286   4.5479490071e+01   4.5867378502e+01    0.2533867    0.1666823  53.51  0.001324077    1.399    0.285
        57 -10.2133     51.2127     33.1674   7.0932806206e+01   6.4259800981e+01    0.1564437    0.1461582  20.02 0.0004425567    1.293    0.227
        58 -10.5705     17.7072     31.7143   8.6285425589e+01   6.8719891228e+01    0.1410187    0.1284179  -8.18 0.0004070839    1.307    0.235
        59 -14.3090     74.9671    232.6581   1.0736363209e+02   1.5025411220e+01     1.548858      0.52243 -67.63  0.006038005    3.330    0.700
        60 -10.9462    144.6394     29.9076   4.3689566907e+01   4.5042017413e+01    0.1754254    0.1657341 -65.73 0.0003637187    1.120    0.108
        61 -10.9464     67.1980     29.4289   6.3114548818e+01   6.2060207802e+01    0.2774538    0.1785807 -15.52  0.001009672    1.682    0.405
        62  -9.7740    103.9980     28.7317   5.1722503112e+01   5.4618968861e+01    0.1665317    0.1055878  54.62  0.000322378    1.417    0.294
        63 -10.2714    160.4932     27.0955   4.0389610339e+01   4.1596570074e+01    0.1765337    0.1297552 -33.72 0.0004589279    1.495    0.331
        64 -10.5679     46.9081     26.9615   7.0093652185e+01   6.5809514867e+01    0.1835456     0.152679   4.76 0.0003264418    1.030    0.029
        65 -11.4792     63.0069     25.9913   6.3197362823e+01   6.3258693001e+01    0.3136367    0.1556834  36.89  0.001117802    1.843    0.457
        66 -10.9998     32.7093     25.8905   7.6153372694e+01   6.7965807437e+01    0.2100295    0.1443724  11.34 0.0007157868    1.318    0.241
        67 -11.6249    250.3656     23.7659   3.0515321655e+01   2.2486119588e+01    0.2282143    0.1165715 -47.49 0.0004942165    1.560    0.359
        68 -11.6931    142.4860     22.2818   4.1775870016e+01   4.6404496558e+01    0.2296057    0.1800309  59.37 0.0003241847    1.154    0.134
        69 -10.4975     98.8617     22.5561   5.0751034015e+01   5.6442408426e+01    0.2013274    0.1137949  54.65  0.001013479    1.555    0.357
        70 -10.8680     38.1332     22.1609   7.1874450255e+01   6.7761229100e+01    0.1929683    0.1369768  -0.77 0.0007901874    1.279    0.218
        71 -11.4210    109.4890     19.9344   4.7289956971e+01   5.4344301566e+01    0.3142457    0.1315126 -25.04  0.001365075    2.743    0.635
        72 -10.8403     91.6631    247.7082   1.0534458176e+02   9.6436695004e+00    0.4027603    0.1520372  46.81  0.001722833    2.397    0.583
        73 -11.6847    102.0678     18.9999   4.8654314412e+01   5.6104669596e+01    0.2024354    0.1735002  43.09  0.000646265    1.032    0.031
        74 -10.1937    117.2892     18.3383   4.5090746935e+01   5.2720718977e+01    0.1338952   0.08882932  33.39 0.0004055213    1.639    0.390
        75 -12.1358     89.5998    242.8466   1.0526320064e+02   1.0893231241e+01    0.2348479    0.1997927  63.27 0.0003733571    1.105    0.095
        76 -10.7249     80.1895    247.5956   1.0775739776e+02   1.1250497110e+01    0.1914155    0.1233729  46.37  0.001017467    1.311    0.237
        77 -11.3587     20.0872     16.3366   7.8231076153e+01   7.0863550176e+01    0.1972967    0.1482468 -25.45 0.0003773854    1.254    0.203
        78 -14.2028    103.1995    243.9724   1.0245827903e+02   8.7280969550e+00     1.090474    0.7905792 -50.19  0.006391277    1.597    0.374
        79 -11.7338    113.0413     14.6814   4.4700285299e+01   5.4049324457e+01    0.1876897    0.1466978  55.46 0.0004767192    1.098    0.090
        80 -11.5791     84.7514     15.6530   5.1823973622e+01   6.0174166164e+01     0.345174     0.114857  59.07   0.00131998    3.069    0.674
        81 -10.9694     54.2956    219.3442   1.1062705024e+02   2.0660662907e+01     0.162147    0.1188653  60.84 0.0002602802    1.221    0.181
        82 -15.2309     93.8611    226.3718   1.0241626794e+02   1.3689287063e+01     1.803674     1.461009 -66.69   0.01064873    1.323    0.244
        83 -12.3681    145.9622    202.6920   8.6753582076e+01   1.0450427615e+01    0.2761839    0.2159704 -35.40 0.0005925721    1.333    0.250
        84 -15.8172     42.3124    215.6299   1.1297633002e+02   2.2956793719e+01     2.304515     1.654032  26.70   0.01337912    1.602    0.376
        85 -11.3748     66.1201    250.4484   1.1094568238e+02   1.2553315481e+01    0.1837017     0.122301  46.25  0.001099515    1.251    0.200
        86  -9.8361     10.4943    200.3192   1.1888120552e+02   2.9815689311e+01    0.2653589   0.07561605  36.32  0.001126163    2.972    0.664
        87 -12.8141     77.8148    139.7260   9.2902422838e+01   3.7261551753e+01    0.6812499    0.2633583  49.91  0.002103549    3.630    0.725
        88 -11.5930     15.9666    197.7187   1.1745899842e+02   2.9924539640e+01    0.3558142    0.2526905  51.80  0.002173108    1.324    0.245
        89 -10.5406     10.7869    196.0240   1.1851181067e+02   3.0799695322e+01    0.2156085    0.1702009 -35.89  0.001339865    1.732    0.423
        90 -10.6080     41.4771    198.6335   1.1156653880e+02   2.7045772744e+01     0.129843    0.1141493  74.85 3.017661e-05    1.043    0.042
        91 -10.3106      6.5096    197.3034   1.1956287864e+02   3.0873600473e+01     0.143869   0.06350882  59.83 0.0006703148    2.173    0.540
        92  -9.9921     18.4816    193.5182   1.1654918474e+02   3.0689084433e+01     0.131953    0.1033053  77.02 0.0008087155    1.085    0.078
        93 -13.6859    249.1573    186.1261   6.2935595034e+01  -2.8262497216e+00     0.887527    0.1628876 -40.48  0.002774195    4.578    0.782
        94  99.0000      7.5153    186.9727   1.1860496236e+02   3.3242102360e+01    0.3202258    0.2343331  73.16  0.001988966    1.185    0.156
        95 -16.3926     82.0573    186.7719   9.9919615922e+01   2.4603349944e+01     4.155562     2.560787  60.61    0.0186301    1.860    0.462
        96 -11.1494     13.5211    176.5020   1.1631811435e+02   3.5286970049e+01    0.2313229    0.1354409  56.79 -4.292867e-06    1.681    0.405
        97 -12.7564     12.7696    180.8316   1.1687070335e+02   3.4285925248e+01    0.4213779    0.3694222  18.95  0.002766337    1.445    0.308
        98 -11.5635      7.6839    176.6538   1.1776990130e+02   3.5735105464e+01    0.1957902    0.1740533  84.52  0.001107733    1.118    0.106
        99 -11.3475    243.5407    180.0157   6.2692931873e+01  -1.0369478588e+00    0.2015134    0.1069535 -37.16  0.001006742    1.578    0.366
       100  -9.9372      1.2930    191.2058   1.2032811163e+02   3.2743592595e+01    0.1018233     0.086757 -52.19 0.0003168026    1.435    0.303
       101 -10.3378      2.3705    173.9210   1.1885419806e+02   3.6818046955e+01    0.1683484    0.1263849 -81.44 0.0003610956    1.097    0.088
