#   1 NUMBER                 Running object number                                     
#   2 MAG_AUTO               Kron-like elliptical aperture magnitude                    [mag]
#   3 X_IMAGE                Object position along x                                    [pixel]
#   4 Y_IMAGE                Object position along y                                    [pixel]
#   5 X_WORLD                Barycenter position along world x axis                     [deg]
#   6 Y_WORLD                Barycenter position along world y axis                     [deg]
#   7 A_WORLD                Profile RMS along major axis (world units)                 [deg]
#   8 B_WORLD                Profile RMS along minor axis (world units)                 [deg]
#   9 THETA_WORLD            Position angle (CCW/world-x)                               [deg]
#  10 FWHM_WORLD             FWHM assuming a gaussian core                              [deg]
#  11 ELONGATION             A_IMAGE/B_IMAGE                                           
#  12 ELLIPTICITY            1 - B_IMAGE/A_IMAGE                                       
         1 -12.3711     75.0637     51.6241   9.3097248784e+01   5.7124766086e+01      1.43413     0.911908 -58.60  0.007048156    1.732    0.422
         2 -12.3168     60.5078     45.3609   9.6073772296e+01   6.0571231632e+01    0.9927331    0.4579152 -47.59  0.004549319    1.866    0.464
         3 -12.1717    131.8734     14.3354   6.2144456729e+01   5.1055513918e+01     1.638467    0.6706338  64.74  0.006107213    2.555    0.609
         4 -13.4620    118.5090     40.7146   7.5818307119e+01   5.0609696363e+01     1.184397    0.9659037  43.30  0.003023342    1.254    0.203
         5 -10.7523    138.5515     32.3685   6.7830520752e+01   4.7076959472e+01    0.7116495    0.6437786 -41.60  0.003302176    1.131    0.116
         6 -11.0895    138.3088     21.7138   6.3778734268e+01   4.8552547316e+01     1.105492    0.3169397  47.34  0.003419545    3.470    0.712
         7  -9.4636    147.3723     16.3199   5.9951919980e+01   4.6861963591e+01     0.556807    0.4900152  15.93  0.003027012    1.165    0.142
         8 -11.4749    154.8765     23.8974   6.1432145685e+01   4.4002122391e+01    0.9418458    0.6230797  25.78  0.004191369    1.804    0.446
         9 -11.6897    145.9829     48.0670   7.1920701923e+01   4.2857487800e+01       1.2364    0.4527218 -26.85  0.003889306    3.183    0.686
        10 -11.5159    178.6850     21.1830   5.6629959328e+01   3.7994595450e+01    0.7421417    0.3725851  41.45  0.002815904    2.272    0.560
        11 -12.4033    104.8232     12.8673   6.7759632464e+01   5.7690278362e+01     0.648411    0.4293506 -35.84  0.003271118    1.530    0.346
        12 -12.7205    113.4077     24.8483   7.0774434680e+01   5.4176125247e+01    0.8465371      0.43806  55.39  0.001476768    1.977    0.494
        13 -12.3823    106.0072     20.1098   7.0685301321e+01   5.6498882787e+01      0.35109    0.2626322 -24.62 0.0003738916    1.280    0.219
        14 -10.7185    189.3119     28.8013   5.7603224760e+01   3.4251304255e+01    0.6334142    0.3509309 -22.26  0.002668369    1.857    0.461
        15 -11.1529      5.2143      8.9888   1.0723207863e+02   7.3265260386e+01    0.9195418    0.3379197 -62.10  0.004294036    2.797    0.642
        16 -11.2638      3.6766      1.7470   1.0491629046e+02   7.4693631667e+01    0.3988263     0.182218  10.86  0.002220805    2.888    0.654
        17 -12.4619     19.0473     22.5964   1.0535118174e+02   6.9664635516e+01    0.7956918    0.6088574  32.91  0.005503674    1.665    0.399
        18 -10.4205      9.5202     22.0150   1.0986038001e+02   7.0470902847e+01    0.3614922     0.149047 -52.33  0.001726118    1.729    0.422
        19 -11.5259     26.2344     27.5073   1.0377109817e+02   6.8085012472e+01    0.5234857     0.284561 -52.08  0.002062105    1.469    0.319
        20 -12.2197     22.2275     11.3124   9.8985488475e+01   7.1502261833e+01    0.6771522    0.4608673 -42.89  0.004454837    1.170    0.145
        21 -12.4747     16.3549     12.9515   1.0281556900e+02   7.1718581903e+01    0.5431908    0.4117014 -53.49   0.00378747    1.258    0.205
        22 -11.4031    198.8666     28.3175   5.6141658747e+01   3.1782476329e+01    0.6621382    0.4290642 -10.10   0.00217004    1.780    0.438
        23  -8.9928     87.1225      7.2512   7.0036238814e+01   6.2182923255e+01    0.6140702    0.3370949  51.83  0.002986673    1.857    0.461
        24 -11.1709     90.9638     20.7717   7.5310134277e+01   5.9614533788e+01     0.659813    0.4849358 -22.44  0.003572736    1.277    0.217
        25 -11.4247     85.8187     14.1862   7.3832055885e+01   6.1567438693e+01    0.5932608    0.3429692 -16.36  0.001982492    1.835    0.455
        26  -9.5608     49.9615      6.5430   8.3172617736e+01   6.8909049190e+01    0.2822327    0.1343998  32.45 0.0005376814    2.415    0.586
        27 -10.8156     47.0543     18.4953   9.0503514648e+01   6.7420233808e+01    0.3891643    0.2854295 -14.61  0.002089042    1.365    0.267
        28  -9.6563     32.2641     12.4009   9.4424580733e+01   7.0280535484e+01    0.2223484    0.1949824  58.01 0.0005856479    1.711    0.416
        29 -10.2964     38.6177     21.7725   9.5752951559e+01   6.7894941486e+01    0.3964343    0.1679911 -42.40  0.001522132    1.936    0.484
        30 -11.8936     35.9717     17.8719   9.5228251359e+01   6.8902779031e+01    0.6859987    0.2677656 -36.15   0.00243667    2.448    0.592
        31 -12.0684     48.4830     12.8998   8.7149428088e+01   6.8150179185e+01    0.7079998    0.3694441  36.19  0.003361903    2.147    0.534
        32 -11.9406     68.5846     18.1243   8.1636676315e+01   6.4198038700e+01    0.5940967    0.5803044  27.52  0.003946768    1.259    0.206
        33 -12.5662    238.4043     15.7466   4.8224854884e+01   2.3153877580e+01     1.005641    0.8490663  70.24  0.004426985    1.250    0.200
        34 -11.0514    165.0901     17.6186   5.7448379139e+01   4.2036847002e+01    0.4916461    0.3028432  32.20  0.001416996    1.899    0.473
        35 -11.5711    245.8972      7.5354   4.5452441305e+01   2.2214253834e+01    0.5054147    0.3705826 -12.56  0.001871988    1.492    0.330
        36 -11.1651    242.8313      3.8637   4.4730129601e+01   2.3307829359e+01    0.5955025    0.2332241  73.20  0.002480563    2.589    0.614
        37 -11.5146    205.3891      2.4506   4.7481971373e+01   3.2842265619e+01    0.5603169    0.3373943  74.52  0.001086718    1.628    0.386
        38 -10.1488    191.7050     16.5288   5.3351792706e+01   3.5035366454e+01    0.3896465    0.2955503  11.72  0.001930939    1.556    0.358
        39 -11.6480    192.5005      7.2034   5.0285813181e+01   3.5788982030e+01    0.7868056    0.5091007  18.22  0.003398319    1.983    0.496
        40  -9.9726    225.9910     16.0283   4.9441985876e+01   2.6182661864e+01    0.3801836    0.1766402 -32.67  0.001631892    1.910    0.476
        41 -12.0943    124.7810     27.7373   6.9150131513e+01   5.1103236909e+01     0.709188    0.6407943  22.16  0.002094265    1.094    0.086
        42 -11.4563    211.5623      9.9626   4.9112382741e+01   3.0498479110e+01    0.5191287    0.3482113  12.28  0.001665058    1.939    0.484
        43 -10.0433    168.8434     10.1272   5.4243756706e+01   4.1835001439e+01    0.3317816    0.2295911  39.75  0.001338991    1.518    0.341
        44  -9.5965    162.7906      5.9458   5.3614018164e+01   4.3868682342e+01    0.2465867    0.2048817 -23.48 0.0004719817    1.233    0.189
        45 -10.4903     65.9364     10.1243   7.8636864227e+01   6.5829426354e+01    0.4776461     0.202789  45.99  0.001935104    2.521    0.603
        46 -10.0337     62.8823      6.6397   7.7960330771e+01   6.6832532617e+01    0.3515725    0.2370437   2.88  0.001934103    1.621    0.383
        47  -9.5933    184.9641      7.4344   5.1233585755e+01   3.7779194640e+01    0.2792805    0.1797888 -41.82 0.0006836637    1.540    0.351
        48 -10.0660    151.8851      7.5190   5.5837786274e+01   4.6612598379e+01    0.5052027    0.2382134  60.84  0.001322043    1.948    0.487
        49 -10.5893     77.3886      5.3023   7.2100567900e+01   6.4361660643e+01    0.5616106    0.2686439 -32.23  0.002633722    1.950    0.487
        50 -10.3020     70.9727      3.9451   7.3555692198e+01   6.5742053886e+01    0.4381821    0.2547053  15.84  0.002092717    2.158    0.537
        51 -10.0085      1.3009      7.2551   1.0876064815e+02   7.3826934261e+01    0.1858281   0.07423976 -55.19  0.000242334    1.830    0.454
        52 -10.7712     41.6709      4.2801   8.5653137468e+01   7.0423726380e+01    0.4685769    0.2446906 -15.68  0.002028124    2.530    0.605
        53 -11.1113    218.7296      2.9639   4.6416296204e+01   2.9348097041e+01    0.3858368    0.3082683 -41.84  0.001022931    1.175    0.149
        54 -11.4465    223.9576      1.7662   4.5637107408e+01   2.8139034100e+01    0.8441948    0.3908211 -78.44  0.003212781    2.735    0.634
        55  -9.2514    115.5558      6.2586   6.2183991795e+01   5.5938860594e+01    0.2090497     0.135876 -16.29 0.0007235092    1.543    0.352
        56  -9.5821    117.2231      2.4140   6.0108501400e+01   5.5922649957e+01    0.3119892    0.1593742  52.28   0.00121472    1.796    0.443
        57 -10.8353    105.3486      1.6374   6.2416203371e+01   5.8805539408e+01    0.4972938    0.3509771  88.50  0.001827134    1.980    0.495
        58 -10.6352    111.1123      1.7336   6.1130957791e+01   5.7450139409e+01    0.5287198    0.2219692  60.40   0.00216796    2.295    0.564
        59 -10.4604    175.3621      5.0790   5.1625745419e+01   4.0582169238e+01    0.5279445    0.2894905  85.31   0.00221215    2.067    0.516
        60  -9.7914    169.7621      3.1813   5.1686420518e+01   4.2262403103e+01    0.3179496    0.1919999 -61.85  0.001396484    1.943    0.485
        61 -10.3535    142.4436      3.2388   5.5720136479e+01   4.9496852918e+01    0.3773597    0.3015624  57.79  0.001810244    1.190    0.160
        62 -11.8991    133.6861      2.5762   5.6966379767e+01   5.1812853109e+01    0.4239006    0.2784125  56.88 0.0007675126    1.426    0.299
        63  -9.3327     55.1353      3.8865   7.9528703754e+01   6.8484815927e+01    0.1734514    0.1506234 -22.31 0.0003529986    1.172    0.147
        64  -9.4376    157.5009      2.5253   5.3121472075e+01   4.5599066632e+01    0.2666394    0.2061113  22.65  0.001372506    1.396    0.284
        65  -9.3554    161.9075      1.2494   5.2040611246e+01   4.4539893297e+01    0.3684939    0.1250836  76.17  0.001173978    3.427    0.708
        66 -10.3473     12.9724      2.0330   9.9521992285e+01   7.3949664492e+01    0.2364819    0.1618675  -2.67  0.001046899    1.602    0.376
        67  -9.5716    122.9753      1.3870   5.8480590008e+01   5.4612670202e+01    0.3656789     0.130179  64.67  0.001333756    2.754    0.637
        68  -9.5140     82.0297      1.3543   6.8568064391e+01   6.3898363895e+01    0.1808954    0.1199878  50.55 0.0003722422    1.544    0.352
        69  -9.5558    108.4189    145.9798   1.0666619717e+02   3.1221651505e+01    0.2216973    0.1657957  60.73  0.001240694    1.278    0.217
        70 -10.5978     33.0810    144.2622   1.2376295545e+02   4.1749263144e+01    0.2562538    0.1836462  73.03 0.0008098536    1.178    0.151
        71  -8.8475    114.2566    143.9807   1.0499660088e+02   3.0630450972e+01    0.1711822    0.1134807 -58.45 0.0008804745    1.534    0.348
        72  -9.0537    104.5044    142.4877   1.0696787385e+02   3.2603989385e+01    0.1341747    0.1201581  79.53 8.610949e-05    1.001    0.001
        73 -10.0786    133.3744    140.3960   1.0003336916e+02   2.7868423014e+01    0.2804058    0.2562281 -15.24   0.00108592    1.331    0.249
        74 -12.1560     29.8592    132.9904   1.2340240017e+02   4.4497593686e+01    0.6450645    0.3690793 -77.99  0.000461359    1.434    0.302
        75 -11.0070     21.0094    134.5107   1.2563916434e+02   4.4975451852e+01    0.2381749    0.2231892  40.91 0.0007045877    1.440    0.306
        76 -10.3843     80.7606    135.9574   1.1149527041e+02   3.7721425233e+01     0.438905    0.3188552   6.82  0.002222302    2.497    0.600
        77 -10.8665     46.5156    134.7850   1.1960586717e+02   4.2384502172e+01    0.4174713    0.2956357  87.57    0.0026272    1.221    0.181
        78 -10.9504     72.0482    133.8616   1.1328308060e+02   3.9414319039e+01    0.5169385    0.3850405  -3.15   0.00270723    2.488    0.598
        79  -9.9368     93.3919    135.2330   1.0834006654e+02   3.5954898648e+01    0.1886156    0.1189452 -73.27 0.0005596222    1.661    0.398
        80  -9.9028     62.2670    131.6117   1.1534899069e+02   4.1205347594e+01    0.3273123    0.1939655 -46.75  0.001697414    2.064    0.515
        81  -9.4242    104.0293    131.1751   1.0505905042e+02   3.5079531335e+01    0.1907029    0.1849573 -32.68 0.0005757512    1.247    0.198
        82 -10.4838     92.6841    129.2015   1.0745485729e+02   3.7375579054e+01     0.339236    0.2462974  80.35  0.001361962    1.492    0.330
        83 -10.8571     10.7870    127.1100   1.2741508570e+02   4.7413149972e+01    0.4417692    0.1619246 -59.82  0.001478878    2.500    0.600
        84  -8.9678    216.5330    135.4270   8.2348516912e+01   1.1743352428e+01    0.1386816    0.1237529  13.74 6.654528e-05    1.030    0.030
        85 -11.1465     24.0103    136.9867   1.2516409880e+02   4.4174546668e+01    0.3039925    0.2483529 -77.00 0.0005691718    1.215    0.177
        86 -10.4163     18.4541    124.8847   1.2536156464e+02   4.7286057027e+01    0.3039838    0.1452537 -65.91  0.001300213    1.750    0.429
        87 -10.9398     55.3031    123.2343   1.1588664536e+02   4.3934901988e+01    0.6226786    0.3089141  33.65  0.001970741    2.320    0.569
        88 -10.3741     45.8555    120.2779   1.1790110288e+02   4.5684096514e+01    0.3362733    0.2064592  78.85    0.0013641    1.695    0.410
        89  -9.5359      2.1911    125.6326   1.2934277163e+02   4.8356506746e+01    0.2277456    0.1178419 -84.58  0.001400384    1.474    0.322
        90 -10.4585    239.6778    123.1445   7.5734198323e+01   8.7995764812e+00    0.5258322    0.1631908 -25.57  0.001701921    3.806    0.737
        91  -9.8077     80.2497    125.1684   1.0984028066e+02   4.0170163674e+01      0.37535    0.1721903  46.81  0.001487037    2.199    0.545
        92  -9.2281     84.3706    123.2800   1.0846372978e+02   3.9973217106e+01    0.2120516    0.1709874  10.87 0.0009135481    1.820    0.451
        93 -11.6913    104.7666    121.7794   1.0304982913e+02   3.6977731032e+01    0.4756481    0.4089682  76.58  0.001447521    1.142    0.124
        94  -8.9730     40.5280    122.0237   1.1950540887e+02   4.5861543019e+01    0.1726081    0.1015135 -74.05 0.0003120053    1.428    0.300
        95 -10.7976     33.3331    119.5359   1.2104120531e+02   4.7139637240e+01    0.3545684    0.2575938 -77.73  0.001551141    1.121    0.108
        96  -9.9487      4.1433    121.1324   1.2853148374e+02   4.9190446150e+01    0.2557977    0.2110007 -69.70   0.00196376    1.300    0.231
        97  -9.5487      7.0242    114.7545   1.2727855712e+02   5.0379164009e+01    0.3146365    0.1804153 -88.08  0.001156603    1.379    0.275
        98 -11.3553      2.4783    112.1083   1.2820643763e+02   5.1264306067e+01    0.3162675    0.1801545 -78.86 0.0008540336    1.322    0.244
        99 -12.0455      3.9717    105.1347   1.2719255492e+02   5.2699053152e+01    0.3868356    0.2990388  89.84 0.0008775254    1.061    0.057
       100  -9.2873    221.4784    120.5072   7.8080551832e+01   1.2933547146e+01    0.1395193    0.1305183  -2.72 0.0001482663    1.044    0.042
       101  -9.2500    148.3879    119.7832   9.2265204250e+01   2.8942052449e+01    0.2047863    0.1382414 -33.69 0.0004209294    1.667    0.400
       102  -9.2259     72.8485    119.8436   1.1081350959e+02   4.2421046501e+01    0.1898257    0.1698052 -50.46 0.0007085372    1.281    0.219
       103  -8.7430     81.5122    117.4384   1.0812508647e+02   4.1706658649e+01    0.1337463    0.1195045 -82.73 0.0002395809    1.020    0.019
       104  -9.8518    113.7878    115.9773   9.9580946769e+01   3.6609528415e+01    0.2305012    0.2027602  49.97 0.0003934229    1.163    0.140
       105  -9.7056     88.1570    114.6239   1.0584489997e+02   4.1312776108e+01    0.3794208    0.1983637  56.38  0.000722839    2.235    0.553
       106 -10.7001     85.8474    104.6241   1.0438712446e+02   4.3915223209e+01    0.5154979    0.3563727 -22.30  0.002281965    2.376    0.579
       107 -10.0318     90.0502    104.5229   1.0321997829e+02   4.3264054579e+01    0.4180269    0.3388583   5.73  0.002197183    1.767    0.434
       108  -9.5631     83.5233    111.4762   1.0644029299e+02   4.2738608029e+01    0.2317208    0.2065147 -86.53 0.0006275676    1.034    0.033
       109 -11.1147     78.8926    108.3906   1.0706874994e+02   4.4132098188e+01    0.4873633    0.3691216  44.06  0.001951671    1.419    0.295
       110  -9.8632     36.7606    114.6920   1.1952867717e+02   4.7892908938e+01    0.2181893     0.148127 -80.79  0.001272849    1.227    0.185
       111 -11.5701     48.6191    102.5081   1.1442084065e+02   4.9415186574e+01      1.02272    0.4514809 -43.80 0.0007055494    2.954    0.662
       112 -12.2340     52.7721     74.4876   1.0742900911e+02   5.5321189562e+01     1.236195    0.2488075 -56.41  0.002150472    3.775    0.735
       113 -10.0820     46.8564     74.3562   1.0936379146e+02   5.6029758767e+01    0.5007561    0.1905962 -63.06  0.001224368    2.344    0.573
       114 -11.9685     35.5005     92.6563   1.1659434715e+02   5.3028571435e+01     1.572391    0.9184427 -87.13  0.006774633    1.779    0.438
       115 -12.0021      9.5622     96.8082   1.2478755327e+02   5.4182451027e+01      1.07835    0.5156267  79.47  0.005578294    2.254    0.556
       116 -11.9861      7.3237     88.7869   1.2449856438e+02   5.6122225619e+01    0.4659669    0.4091276  79.07  0.001540091    1.221    0.181
       117 -11.4664     19.3199    105.0139   1.2301648069e+02   5.1629222025e+01    0.5398069    0.1918337 -59.15  0.001429973    2.316    0.568
       118 -11.2886     23.9434     99.4177   1.2100794136e+02   5.2517596849e+01    0.4693486    0.2272797 -75.38  0.001709951    1.703    0.413
       119 -11.8676     20.7552     95.2751   1.2136706636e+02   5.3712973118e+01    0.6152141    0.4177986   3.20  0.003755962    2.271    0.560
       120 -12.5813     17.8908     90.4837   1.2155628905e+02   5.5016080095e+01    0.6883286    0.3936599 -33.39  0.002980422    2.497    0.600
       121 -10.7702     37.5124     86.0013   1.1480543926e+02   5.4354676681e+01    0.3404614    0.2358501  71.01  0.001716574    1.633    0.388
       122 -11.4931     43.4406     85.3182   1.1281629110e+02   5.3909864241e+01    0.5158418     0.390155  34.82  0.002234624    1.571    0.364
       123 -11.9676     22.1403    114.1756   1.2332021042e+02   4.9347027773e+01    0.8879215    0.4106834  10.83  0.003868617    4.614    0.783
       124 -12.3858     25.4878    107.6875   1.2165501682e+02   5.0518044215e+01    0.9974514    0.5611055 -28.55  0.004865674    3.333    0.700
       125  -9.3395    126.8183    113.8595   9.5905928160e+01   3.4559171761e+01    0.2153405    0.2019707  -4.45 0.0009026024    1.243    0.196
       126 -10.7095    107.5945    112.0587   1.0027324490e+02   3.8587056989e+01    0.6033591    0.3418719 -72.66  0.002427891    2.527    0.604
       127 -11.0725    101.7466    109.8759   1.0129524564e+02   4.0102333238e+01    0.4807027    0.4569645  54.50  0.002878124    1.133    0.118
       128 -10.4203     67.0453    111.9784   1.1096454262e+02   4.4990691179e+01    0.4653841    0.2560103 -69.04  0.002175248    1.708    0.415
       129 -11.2640    170.9408    110.1014   8.5029721946e+01   2.5852083932e+01    0.6316469    0.3976791  40.53   0.00194433    1.642    0.391
       130  -9.8602     94.2185    111.6623   1.0364865597e+02   4.0990168142e+01     0.285934    0.2457843 -88.41  0.001651643    1.133    0.118
       131  -9.7827     49.1270    112.0839   1.1583602809e+02   4.7173952246e+01    0.2042552    0.1739159  66.47 0.0009101566    1.196    0.164
       132 -10.0764    120.0361    109.2010   9.6478000578e+01   3.6869625849e+01    0.2518765    0.2048104 -50.34 0.0006234736    1.211    0.174
       133  -9.9821    130.1905    108.8518   9.3899962068e+01   3.4922432393e+01    0.2663653    0.2515523  81.17  0.001499114    1.047    0.045
       134 -10.7481    157.7798    106.2755   8.6874606231e+01   2.9522788237e+01    0.3977607    0.3046701  -7.28  0.001503875    1.718    0.418
       135 -10.9903    143.1920    106.1492   9.0142933515e+01   3.2748655715e+01     0.376805    0.3130902  69.37   0.00113557    1.303    0.232
       136 -11.9113    145.8931    100.3960   8.8031279338e+01   3.3302851945e+01    0.5683048    0.4852642 -13.83  0.001922532    1.360    0.264
       137  -9.1660     82.1091    102.7110   1.0500326313e+02   4.4927249824e+01    0.1818976    0.1700972 -75.13 0.0005088571    1.068    0.064
       138  -9.9481     57.7363    102.4000   1.1180364646e+02   4.8369191670e+01    0.3290456    0.1683473 -71.78  0.001551052    1.914    0.478
       139 -10.0472     57.2289     97.5483   1.1103350412e+02   4.9541035649e+01    0.2723397     0.197046 -87.45 0.0008726857    1.406    0.289
       140 -10.0480    121.0442    100.9586   9.4208494833e+01   3.8414709480e+01    0.2913746    0.2091242  10.18  0.001270181    2.269    0.559
       141 -10.6828     58.7574     78.3722   1.0641583249e+02   5.3711777315e+01    0.2883298    0.2497256 -88.40 0.0008725712    1.198    0.165
       142  -9.4754     66.6455     74.4426   1.0287951309e+02   5.3540082194e+01    0.3570333    0.2370917  89.16  0.001690221    2.223    0.550
       143  -9.4664     67.5116     87.9961   1.0595289729e+02   5.0381131449e+01    0.2612541    0.1758029 -41.33 0.0009506631    1.596    0.374
       144 -10.5660     77.9771     96.9681   1.0490673180e+02   4.6848922647e+01    0.5197201    0.1853276 -60.10  0.001620411    2.787    0.641
       145  -9.7214     60.7387     83.5736   1.0701600821e+02   5.2284331637e+01    0.2280187    0.2019942  87.59 0.0006107402    1.162    0.139
       146 -11.1139     80.7252     92.5071   1.0309086615e+02   4.7435537192e+01    0.6811443    0.4042975  50.03  0.003303707    1.862    0.463
       147 -11.1553     89.3025     90.1863   1.0005106139e+02   4.6577899294e+01    0.4438639    0.2809969 -46.57 0.0008324826    1.514    0.339
       148 -10.1837     92.9942     85.6339   9.7813097142e+01   4.6953095081e+01     0.273713    0.2275663  55.98 0.0003989968    1.295    0.228
       149 -11.0748     79.7668     83.0587   1.0103933130e+02   4.9693122873e+01    0.5876693    0.4905493  85.50  0.002606404    1.332    0.249
       150 -10.8337     66.6441     81.9470   1.0478656613e+02   5.1864902103e+01    0.4044096    0.3323435  33.40  0.002403291    1.420    0.296
       151 -11.3298     73.2620     77.8902   1.0168816900e+02   5.1826164891e+01    0.6114207    0.4539792 -28.51  0.003266972    1.628    0.386
       152 -11.1285     67.6664     96.5353   1.0778663800e+02   4.8421090285e+01    0.5503884    0.3569695 -45.54  0.002509116    1.599    0.375
       153  -9.1765     61.3206    101.6287   1.1063744097e+02   4.8096289554e+01    0.1397837   0.09212583  80.57 0.0007033658    1.801    0.445
       154  -9.5540    210.1286     97.6799   7.4370341660e+01   1.8946917920e+01    0.2701919    0.1981574 -40.20  0.001331908    1.361    0.265
       155  -9.5608    140.6462     96.3478   8.8184803944e+01   3.5257934323e+01    0.3346692    0.2321768  24.20  0.001463507    1.947    0.486
       156 -10.4723    137.4967     93.8559   8.8263660511e+01   3.6443748058e+01     0.368122    0.2866508  18.91 0.0007965327    1.642    0.391
       157 -10.7873    119.9120     85.3688   9.0322110515e+01   4.1902299084e+01    0.4368617    0.2707048  45.59  0.001926138    1.683    0.406
       158 -10.3198    117.5064     92.9687   9.3043405140e+01   4.0803968462e+01    0.4928779      0.31963  40.30  0.001594295    1.665    0.399
       159 -10.6666    121.9823     89.0242   9.0808458988e+01   4.0720723805e+01    0.4044931    0.3239484  43.93  0.001629192    1.306    0.234
       160 -10.5610    126.1422     93.1712   9.0880845317e+01   3.9002338671e+01    0.3589854    0.3384145  66.26  0.001089963    1.081    0.075
       161 -10.6282    122.3340     93.6833   9.1986950109e+01   3.9680713410e+01    0.3452236    0.2271395 -54.99 0.0009045015    1.549    0.354
       162  -9.6861    160.6345     93.6094   8.2884812402e+01   3.1266237774e+01    0.3669346    0.2420575  76.70  0.001490907    2.219    0.549
       163 -10.7074    152.6895     91.8871   8.4171042659e+01   3.3426955010e+01    0.4003587    0.3612792  61.97  0.001960556    1.140    0.123
       164 -11.6902    102.0706     90.2780   9.6477688910e+01   4.4329504677e+01    0.4531519    0.4057112 -16.93 0.0005492404    1.312    0.238
       165  -9.3470    211.8210     87.9465   7.1521525852e+01   2.0067165923e+01    0.2458579    0.1661898   5.82 0.0009208649    1.974    0.493
       166 -10.3634    183.7535     85.8999   7.5987700965e+01   2.7134104215e+01    0.6668167     0.232402 -43.08  0.002148342    2.964    0.663
       167  -9.7937    104.9911     76.7934   9.1895551099e+01   4.6654791129e+01    0.5780502    0.3630657 -28.81  0.002528977    1.986    0.497
       168 -10.9174    113.5747     83.3051   9.1419338383e+01   4.3614451424e+01    0.7436854     0.307808 -37.58  0.002599771    2.787    0.641
       169 -11.2689    109.2482     80.5180   9.1797857444e+01   4.5051286523e+01    0.5301028    0.3652235 -48.61  0.001072468    1.376    0.273
       170  -8.9657    135.2762     86.3694   8.6712142308e+01   3.8424665027e+01    0.1529456    0.1199919  -4.92 0.0007006821    1.682    0.405
       171 -10.4230    165.6208     83.3376   7.8912753623e+01   3.1969278947e+01    0.4500254    0.3548627 -59.97  0.001934888    1.423    0.297
       172 -11.4351    143.0575     84.1084   8.4185409507e+01   3.7124883294e+01    0.3946659    0.3702294  19.10 0.0009142337    1.137    0.121
       173 -10.7317    127.1843     82.8938   8.7730494889e+01   4.0878903670e+01    0.4472321    0.3215879 -52.07  0.001227472    1.396    0.284
       174 -10.1952    126.9564     76.9682   8.6026949691e+01   4.2110680908e+01    0.2327912    0.2186512  52.94 0.0003031048    1.103    0.093
       175  -9.8289     24.0196     74.0367   1.1696594044e+02   5.8266922511e+01    0.2142068    0.1403029 -68.59 0.0005079963    1.212    0.175
       176  -9.5584     20.1680     71.6238   1.1782687314e+02   5.9107180368e+01    0.2212372    0.1239445  16.33  0.001239038    2.458    0.593
       177 -11.7775     13.7435     74.8173   1.2053145325e+02   5.8842955689e+01    0.4567088    0.3654078 -64.91  0.002202114    1.101    0.092
       178 -11.6315     14.2597     66.3926   1.1892447056e+02   6.0695799385e+01    0.3053392    0.1981992 -74.08 0.0004526887    1.253    0.202
       179 -11.7903      1.9596     71.3910   1.2393594846e+02   6.0312867272e+01    0.6258231    0.1338285 -70.42  0.002519655    3.135    0.681
       180 -12.2127      6.8393     62.6729   1.2090699756e+02   6.1980459369e+01    0.7022225    0.4503883 -34.33  0.004492814    1.807    0.447
       181  -9.3431    170.2425     77.7053   7.6304942927e+01   3.1841977885e+01    0.2385754    0.1995895  83.23 0.0008538417    1.387    0.279
       182 -10.2211     98.1184     63.1104   8.9625978897e+01   5.0773357065e+01    0.4243233     0.300136   1.42  0.001908613    2.185    0.542
       183 -10.2530    143.2617    249.3992   1.1334873535e+02   8.5831150637e+00    0.2083769      0.10414  43.23  0.001329197    1.470    0.320
       184 -10.7924     93.5111     76.5690   9.5149975090e+01   4.8822055484e+01    0.5141184    0.3409976  28.03   0.00162885    1.923    0.480
       185 -11.6819     85.2569     73.7296   9.6815028398e+01   5.0849082960e+01    0.7096239    0.6409601  77.29  0.004164577    1.224    0.183
       186 -10.8346     78.6706     67.2701   9.6974738062e+01   5.3306457468e+01    0.5261002    0.4379401  70.85  0.002267872    1.441    0.306
       187 -11.1020     91.4754     62.6924   9.1505399594e+01   5.2086291586e+01    0.4081419    0.3560815  63.02  0.001042724    1.309    0.236
       188 -11.4681     89.4296     57.5839   9.0442835005e+01   5.3485298239e+01     0.562106    0.4513012  62.76  0.002233645    1.503    0.335
       189  -9.6875     33.0815     77.3154   1.1457333732e+02   5.6750113126e+01    0.2019742     0.139835 -57.91 0.0003797021    1.211    0.174
       190  -9.7818    134.6201     77.3915   8.4228551129e+01   4.0333873155e+01    0.3369643    0.1928723  57.54  0.001175472    1.949    0.487
       191 -12.0884    186.5024     70.7262   7.1094884819e+01   2.8969295801e+01    0.9423847     0.684821 -32.04  0.003277453    1.340    0.254
       192  -9.7947    184.3216     61.5052   6.8716126384e+01   3.0981061123e+01    0.3295505    0.2435232 -30.58  0.001556464    1.323    0.244
       193  -9.0053    208.3129     74.3030   6.8369080395e+01   2.2998253901e+01    0.1535108    0.1137631  19.77 0.0003733726    1.614    0.380
       194 -11.8596     40.7247     70.2375   1.1048628321e+02   5.7608455552e+01    0.5498623    0.2528486 -60.98  0.001918375    1.780    0.438
       195 -11.3409     32.7958     71.8435   1.1355792402e+02   5.8013458637e+01    0.4793904      0.27823  33.07  0.002562411    2.052    0.513
       196  -9.1497    230.0117     73.4924   6.4845308749e+01   1.7925202128e+01     0.200054    0.1269965 -81.98 0.0008102347    2.570    0.611
       197  -9.5223    151.9221     73.5097   7.8961877389e+01   3.7039406990e+01    0.3606265    0.1364612  46.79  0.001203051    2.721    0.633
       198  -9.8214    128.5001     64.4598   8.1675643362e+01   4.4175658034e+01     0.414228    0.2486375 -43.49  0.001685112    1.620    0.383
       199  -9.9989    123.3124     73.0176   8.5755879822e+01   4.3679288629e+01     0.278737    0.2266511  55.20   0.00035155    1.298    0.230
       200 -11.8163    122.6194     68.4455   8.4492113507e+01   4.4721391336e+01    0.8689045    0.3795745  46.59  0.002524737    2.382    0.580
       201 -10.1125    161.8827     70.5257   7.5871772885e+01   3.5146913579e+01    0.3625303    0.2993796  86.14    0.0014702    1.427    0.299
       202 -10.6060    171.6328     67.2493   7.2868973496e+01   3.3275856503e+01     0.639711    0.3805015 -49.67  0.002633486    1.850    0.459
       203 -11.4627    219.7305     66.5090   6.4434570501e+01   2.1363470543e+01    0.6873061     0.365129  59.08  0.002469463    1.969    0.492
       204  -9.5713    208.3912     68.1104   6.6611835849e+01   2.3908628770e+01    0.2605842    0.2010643  43.64 0.0008057656    1.355    0.262
       205  -9.5520     21.4714     65.3444   1.1617050745e+02   6.0417152846e+01    0.2643215    0.1717882  86.11  0.001308576    1.745    0.427
       206  -8.6166     25.5918     65.4607   1.1472653661e+02   6.0067421612e+01    0.2286938    0.1476707 -33.17 0.0008780414    1.822    0.451
       207  -9.7882    192.5061     65.8071   6.8571566457e+01   2.8233422402e+01    0.2934282    0.2309243 -71.00 0.0008142214    1.512    0.339
       208 -11.0382     58.1565     61.5821   1.0215960689e+02   5.7500579134e+01    0.4498798    0.3503224 -71.03  0.001733123    1.345    0.257
       209  -9.8826     52.0109     47.6284   1.0005245893e+02   6.1237512999e+01    0.3223252    0.1816737 -38.47  0.001284625    1.697    0.411
       210 -10.9560     21.7104     46.5779   1.1174442204e+02   6.4519200092e+01    0.5797157    0.2846914 -36.26  0.002707336    2.233    0.552
       211 -10.5699     27.2870     47.3695   1.0969848402e+02   6.3895032648e+01    0.4549147    0.2424875 -22.01  0.001086232    2.893    0.654
       212 -11.0070     34.4949     42.2821   1.0524402821e+02   6.4307276580e+01    0.6416075    0.3069507 -43.50  0.002189911    1.815    0.449
       213 -11.8146     25.3174     55.7967   1.1264897976e+02   6.2231016154e+01    0.8631115     0.686675  14.70  0.005835182    1.596    0.373
       214 -12.3139     43.8179     46.9066   1.0297855082e+02   6.2360020272e+01    0.7693244    0.5891909 -73.08  0.001699682    1.475    0.322
       215 -12.6491     49.7761     60.4084   1.0479182717e+02   5.8792385581e+01    0.6370589    0.4861672  70.33  0.001511803    1.700    0.412
       216 -10.5037     33.5270     58.2515   1.1016256973e+02   6.0975039012e+01    0.3658598    0.2024091 -34.28  0.000615194    2.139    0.533
       217 -11.4840     39.9998     55.5314   1.0701844820e+02   6.0932595908e+01    0.4973328    0.3672506  75.27  0.002895236    1.822    0.451
       218  -9.3842    175.2292    246.5855   1.0796912458e+02   4.2125690765e+00    0.1584542   0.07706174  37.11 0.0006678358    1.637    0.389
       219 -11.0061     60.6822     36.1957   9.2567294739e+01   6.2331705917e+01    0.3784891    0.2063968 -42.69  0.001052208    1.586    0.369
       220  -9.5043    198.2004     63.0316   6.6789805423e+01   2.7217072707e+01    0.3029113    0.1927014 -47.76  0.001108376    1.645    0.392
       221 -10.2599    105.9282     63.2826   8.7394643571e+01   4.9218010661e+01    0.3689582    0.2802241 -63.43  0.001832852    1.512    0.338
       222 -10.0527    105.7201     57.5767   8.5525305466e+01   5.0368872589e+01    0.5923107    0.1911114 -48.19  0.001845491    3.458    0.711
       223 -10.9081    159.3140     61.7410   7.3643665098e+01   3.7285965984e+01    0.6989948    0.4716407   9.69   0.00284105    2.184    0.542
       224 -11.0790    157.3920     54.8755   7.1800568944e+01   3.8901217287e+01    0.5668826     0.364506 -37.82  0.002506038    1.514    0.340
       225 -11.2359    155.1335     49.6571   7.0515115179e+01   4.0305707533e+01    0.4912322    0.3467006  -5.89 0.0004779387    1.749    0.428
       226  -9.4433    199.0429    244.5114   1.0397291579e+02   9.0024411812e-01     0.172298    0.0797774  42.15  0.001036815    1.606    0.378
       227 -10.5613    113.1726     60.9033   8.4555082730e+01   4.8193415461e+01    0.4566058    0.2758305 -38.64  0.001381427    1.580    0.367
       228 -11.5197    120.2707     57.1998   8.1362714205e+01   4.7356347083e+01     1.082825    0.7218143  77.03  0.004549639    2.296    0.564
       229 -11.1462    113.3872     49.7466   8.0575483650e+01   5.0208072325e+01    0.5191858    0.3143101  31.28  0.002067714    2.071    0.517
       230 -10.6440    127.3146    241.6846   1.1516772117e+02   1.1880721985e+01    0.1568697    0.1067529  53.62 0.0004116208    1.130    0.115
       231  -9.0308     68.3268    240.3292   1.2457212361e+02   2.0007959458e+01   0.08326103   0.07739512  34.63 0.0007050778    1.705    0.413
       232 -10.6853    149.2667    237.9864   1.1120012973e+02   9.1285541391e+00    0.3212438    0.1119296  38.07  0.001366602    2.594    0.615
       233 -10.7124    198.0469    232.5704   1.0259571206e+02   2.3117656114e+00    0.2540668    0.2182236  87.54  0.001890142    1.865    0.464
       234 -11.3507    147.5898     31.7064   6.5693312402e+01   4.4878741140e+01    0.2852441    0.2822927  60.98 0.0005450606    1.039    0.038
       235  -9.4616     15.0487    233.9782   1.3250583383e+02   2.6861877599e+01    0.1463041    0.1004239  68.46  0.001276428    1.080    0.074
       236 -10.4941    144.4070     25.3030   6.3934709283e+01   4.6543694948e+01     0.571304    0.3232186  69.05  0.002392337    1.959    0.490
       237 -10.8795    136.6274     56.4468   7.6974859192e+01   4.3737354090e+01    0.7642228    0.5814379 -22.04  0.003389437    1.386    0.279
       238 -10.3955    242.2941    231.3091   9.5520380295e+01  -4.1607489989e+00    0.2160194    0.1621325  66.78  0.001364487    2.841    0.648
       239  -9.5586    147.4011     60.6322   7.5876127383e+01   4.0417532201e+01    0.3603256    0.1530311  59.55  0.001234386    2.680    0.627
       240  -8.8124    219.6522     57.2783   6.1868060538e+01   2.2679114681e+01    0.1519473     0.108706 -63.63 0.0003491349    1.637    0.389
       241  -9.2041      1.8446     56.1847   1.2162323823e+02   6.3676666021e+01    0.1499916    0.1050032 -50.26 0.0005132979    1.307    0.235
       242  -9.5418    188.0167     55.1402   6.6116984443e+01   3.1000922481e+01    0.3242503    0.1930191  56.31  0.001386057    1.684    0.406
       243 -10.0059     66.9480     54.7299   9.6955858393e+01   5.7737963072e+01    0.2579264    0.1810191 -57.28 0.0006942325    1.380    0.275
       244  -8.7291    173.2796     54.2933   6.8475974491e+01   3.4934465868e+01      0.15308    0.1179659  20.49 0.0002232311    1.530    0.347
       245  -9.8392    249.0204     53.0350   5.7017818660e+01   1.6268318682e+01    0.3063706    0.1883668 -56.74  0.001271499    1.850    0.459
       246 -10.0054    244.6014     50.7927   5.6935222412e+01   1.7564454570e+01    0.2857757    0.2020308 -32.91 0.0009904616    1.264    0.209
       247 -10.8367    240.3869     50.1786   5.7261046781e+01   1.8624576688e+01    0.3383464    0.3328372  35.24 0.0007981655    1.107    0.097
       248 -11.2111    201.8167     47.0883   6.1469032210e+01   2.8587044285e+01    0.6819665    0.4984863 -44.24  0.003308252    1.344    0.256
       249 -10.6539    186.3336     15.2676   5.3625899109e+01   3.6606110331e+01     0.308714    0.2612689  66.39 0.0005287198    1.163    0.140
       250 -11.0449    174.1843     48.0973   6.6306509764e+01   3.5635589516e+01    0.6382213    0.4370233  66.76  0.002436519    1.546    0.353
       251  -9.9309    176.5081     43.6796   6.4453494869e+01   3.5668471482e+01    0.3683398    0.2852174 -75.47  0.001490624    1.521    0.343
       252 -11.3428    176.0664     36.5781   6.2186940866e+01   3.6767463887e+01    0.7805778    0.4647924 -57.37  0.002775459    2.054    0.513
       253  -9.5688     23.5581    231.7826   1.3112373006e+02   2.6363690627e+01    0.1535405   0.08058679  53.14  0.001029443    1.360    0.265
       254 -10.5998    176.5988     29.8674   5.9860300373e+01   3.7501542722e+01    0.5252225    0.2684662  44.37  0.001405494    2.110    0.526
       255 -11.6017    183.4286     24.9116   5.7182878713e+01   3.6288826025e+01     0.691376    0.3387742  49.49  0.002762468    2.067    0.516
       256 -10.2020     12.7895     47.6366   1.1563322178e+02   6.4920809489e+01    0.5326623    0.1702164 -38.47  0.002086282    4.060    0.754
       257  -9.9817     18.2659     41.5242   1.1181403312e+02   6.5856515195e+01     0.332945    0.2140983 -30.34  0.001989456    1.684    0.406
       258  -9.4232     91.0408     48.2830   8.6637360380e+01   5.4994565062e+01    0.2666094    0.1683288 -51.50  0.001257541    1.658    0.397
       259  -9.8670      2.2251     48.6806   1.2009952550e+02   6.5294006675e+01    0.2227107    0.1703708 -62.73 0.0009503565    1.041    0.039
       260  -9.6888      4.5218     44.0459   1.1820993579e+02   6.6177350227e+01    0.3910876    0.2158993 -32.70  0.002017582    2.015    0.504
       261  -9.9523     10.9481     33.6889   1.1282942976e+02   6.8001240574e+01    0.3000169    0.1395108 -63.83 0.0006241229    1.739    0.425
       262 -11.1527      4.1890     35.8936   1.1645262110e+02   6.7930395186e+01    0.3164665    0.2075044 -63.21 0.0003737925    1.163    0.140
       263  -9.8812      6.5037     30.7582   1.1403947154e+02   6.8876725314e+01    0.5729584    0.2218319 -26.62  0.002436386    4.103    0.756
       264  -9.8476    195.1584     46.7570   6.2375939686e+01   3.0356930600e+01    0.5792443    0.2904843 -89.83  0.001740301    4.158    0.759
       265 -10.2501    233.8034     45.2637   5.6709300669e+01   2.0815669509e+01    0.3440211    0.2417376  73.06  0.001489389    1.569    0.363
       266 -11.2151    140.0959     43.8445   7.1732299423e+01   4.4983372406e+01      1.13506    0.6172571  25.34  0.003842645    3.073    0.675
       267 -10.3588    101.0684     43.6034   8.1798791134e+01   5.3886567920e+01    0.3560251    0.2610981 -66.67 0.0009680918    1.858    0.462
       268 -10.9898     94.2631     41.5443   8.3067050992e+01   5.5608846059e+01    0.5575662    0.3313188  46.19  0.002341188    1.801    0.445
       269  -9.7952    162.6437     43.9003   6.7054986593e+01   3.9255979099e+01    0.3290631    0.2340205  71.97  0.001503068    1.557    0.358
       270 -11.5482    156.1566     41.6986   6.7563065697e+01   4.1256316749e+01    0.4421468     0.395607 -34.20 0.0009443352    1.105    0.095
       271 -10.7800    153.2581     36.2339   6.6207271766e+01   4.2791394585e+01    0.3164446    0.2817639 -85.18 0.0004074944    1.237    0.191
       272 -10.5783    189.0725     41.7028   6.1748215371e+01   3.2642891894e+01    0.5166799    0.2228465 -23.09 0.0007677885    2.497    0.599
       273  -8.9702     86.6849     31.2723   8.1292112343e+01   5.8829838387e+01    0.5520706    0.2503828 -33.31  0.002312168    2.096    0.523
       274 -10.8176     81.2442     39.6329   8.6529506271e+01   5.8376717413e+01    0.5478843    0.3889234  43.24  0.002422195    1.550    0.355
       275 -10.6439     77.4684     34.4742   8.5735578108e+01   5.9962487024e+01    0.4117824     0.295829  48.32  0.001428079    1.601    0.376
       276 -10.6027     82.0245     31.4781   8.2921443981e+01   5.9665492838e+01    0.4621246    0.2965845 -54.43  0.002221859    1.946    0.486
       277 -10.0985    231.6084     39.2373   5.5310929033e+01   2.2102291848e+01    0.3284443    0.2158848 -33.75  0.001329068    1.382    0.277
       278 -10.8543     23.1442     37.1289   1.0843107796e+02   6.6402172504e+01    0.3502621    0.2456499  55.55  0.001537739    2.010    0.502
       279  -9.2604    217.8355     38.6240   5.6786632819e+01   2.5602995972e+01    0.2033749    0.1381855  86.56 0.0009136337    1.713    0.416
       280  -9.8919    206.7415     37.0869   5.7768898835e+01   2.8637231533e+01    0.2725343    0.2355875 -65.74 0.0007303705    1.188    0.158
       281  -9.5668    133.5814     37.2891   7.0803604476e+01   4.7588359069e+01    0.3927937    0.2655857 -73.48  0.001650552    2.229    0.551
       282 -10.6055    240.7094     32.2194   5.2420395936e+01   2.0750724277e+01    0.6198257    0.3893545 -34.54  0.003093391    1.416    0.294
       283  -9.6944    247.3772    231.2517   9.4749701297e+01  -4.8796586407e+00    0.1216568   0.09349014 -22.11    0.0004545    1.584    0.369
       284 -12.1012    105.6657     33.0548   7.6276859119e+01   5.4682550300e+01    0.6213402    0.3829858   7.74  0.001444778    2.574    0.611
       285  -9.4226      9.8686    227.5013   1.3305732019e+02   2.8387107156e+01    0.1290991   0.07086618  47.65 0.0006121076    1.491    0.330
       286  -9.8319    234.5099    222.5170   9.5405687700e+01  -2.1966150527e+00    0.1117182   0.08378586  25.16 -1.383351e-05    1.016    0.015
       287  -9.4832    248.5792     33.3123   5.1925933213e+01   1.8770282424e+01      0.27486    0.1112777 -31.27  0.001129258    2.085    0.520
       288 -11.1331    159.9615     30.0065   6.2719319982e+01   4.1890905785e+01    0.6258318    0.2966468 -32.59 0.0004718051    2.018    0.505
       289 -11.3042    163.9653     27.6472   6.1180085361e+01   4.1137980719e+01    0.5653242    0.2956661 -23.63 0.0003913502    1.958    0.489
       290 -10.1887     68.6656     32.7278   8.8157005821e+01   6.1747041412e+01    0.4290277     0.301637  27.77  0.002355816    1.608    0.378
       291  -9.3375      9.8387    217.8268   1.3270668602e+02   2.9973367811e+01    0.1424936    0.0754322  66.81 0.0007263022    1.315    0.239
       292 -10.0754    182.1977     32.4201   5.9831298673e+01   3.5687647488e+01       0.2883    0.2277658  23.00 0.0007076798    1.438    0.305
       293  -9.5301     59.6016     24.4854   8.8047415185e+01   6.4606911110e+01     0.331735    0.1654318 -43.22 0.0007775157    1.811    0.448
       294  -9.6656     62.0654     21.4594   8.5695340563e+01   6.4736219739e+01    0.2194797    0.1706266 -22.61 0.0004293829    1.141    0.124
       295 -11.6702     56.2742     31.0415   9.2201355803e+01   6.3924770831e+01     0.434601    0.3081106  25.15 0.0002078215    1.619    0.382
       296 -11.5308     47.0682     30.7158   9.5826897117e+01   6.5212189548e+01    0.5714912    0.3072776  24.06  0.002482088    2.397    0.583
       297  -9.4378     36.1059     31.4222   1.0079562597e+02   6.6343527243e+01     0.211011    0.1543904  89.25  0.001160452    2.302    0.566
       298  -9.6378    165.4282    212.6026   1.0538745206e+02   9.9577446958e+00    0.2221436    0.1201895  60.21  0.001124434    2.374    0.579
       299  -9.4161    152.7931    207.7851   1.0697647490e+02   1.2715085338e+01    0.1619926    0.1235614  62.06 0.0007810685    1.322    0.244
       300  -8.5018     61.3311    207.2828   1.2344638589e+02   2.6223289594e+01   0.08769341   0.08577488  38.48 0.0005106886    1.611    0.379
       301  -9.7766    238.6394    204.2976   9.1891290539e+01  -9.8737382047e-01    0.2271329     0.132701 -16.65  0.001369025    1.872    0.466
       302 -11.1064     31.0257     29.4123   1.0229455260e+02   6.7257174469e+01    0.4255605    0.1863893 -49.17  0.001252821    1.788    0.441
       303 -10.9009      5.0736    202.5968   1.3289185151e+02   3.3013214102e+01    0.4946813   0.09416956 -68.96  0.002274393    4.532    0.779
       304 -10.5916    245.6224    200.9059   9.0236122435e+01  -1.7258207097e+00    0.2025749    0.1274274  29.31 0.0006290115    1.295    0.228
       305 -10.0535    233.8725    197.3650   9.1490085401e+01   5.1738593732e-01    0.2597854    0.1568599 -23.84  0.001340147    1.777    0.437
       306  -9.6373    211.0615     30.1047   5.5133364407e+01   2.8385987825e+01    0.2546523    0.2385565 -52.53 0.0008571326    1.022    0.021
       307  -9.6019    221.3708     29.5252   5.3749943470e+01   2.5822422267e+01    0.2621503    0.2067098 -41.27  0.000610828    1.186    0.157
       308 -10.2177     98.5008     28.2083   7.6318377974e+01   5.6956847980e+01    0.4849967    0.2991765 -51.56  0.001464654    2.009    0.502
       309 -10.1387    230.4675     27.6486   5.2231425926e+01   2.3770747772e+01    0.4083757     0.230474 -35.76   0.00164532    1.589    0.371
       310 -12.2403      4.7699    184.6505   1.3219096325e+02   3.6281613638e+01    0.6837906    0.3509155  74.93  0.004707733    1.469    0.319
       311 -10.1196    250.5354     26.0696   4.9861705712e+01   1.9146866773e+01    0.3436818      0.12087 -25.93  0.001004565    2.557    0.609
       312 -10.7833    214.5060     23.5071   5.2782902352e+01   2.8272890873e+01    0.4969573    0.3461367  -3.35  0.002011971    1.705    0.413
       313  -9.3628    169.1867     23.7850   5.8964229098e+01   4.0226814061e+01    0.2133558     0.171158  31.23  0.001063748    1.337    0.252
       314 -10.3722     16.6659    192.3204   1.3043914756e+02   3.3790657272e+01    0.1754276    0.1475306  77.15 0.0002418818    1.302    0.232
       315  -9.8309    169.7654    191.4130   1.0154913601e+02   1.2253899826e+01    0.3259952    0.1599548  34.48  0.001132627    2.094    0.523
       316  -9.6656    239.4714    184.9328   8.8424672525e+01   9.9305424251e-01    0.2143282    0.1295389  23.14 0.0009044328    1.570    0.363
       317  -9.8176    250.0813    179.7828   8.5814990547e+01  -1.7953957267e-01    0.2611854    0.1573686 -18.00  0.001529364    1.649    0.394
       318  -9.6054    212.4743    181.2779   9.2240471531e+01   6.0856048055e+00    0.3078747    0.1299055  24.13 0.0008985795    6.016    0.834
       319  -9.2473     28.2916    176.0110   1.2732135431e+02   3.5738976197e+01    0.1590646    0.1126565  82.01  0.001085734    1.082    0.076
       320  -8.9796    230.4390    175.4919   8.8159403699e+01   3.6506556587e+00    0.1254858    0.1040331  16.99 5.820264e-05    1.012    0.011
       321  -8.8079    224.6520    175.6740   8.9153942241e+01   4.6459297272e+00    0.1345551   0.08501319  16.00 0.0007049512    1.752    0.429
       322  -9.1541     57.2813    174.9988   1.2149730188e+02   3.2713511317e+01    0.1596172    0.1235677  81.52 0.0004337951    1.060    0.056
       323 -10.0135    242.1812     22.1096   4.9582493549e+01   2.1553664529e+01    0.2326708    0.1988913  78.66 0.0007866832    1.232    0.189
       324  -9.3918    223.3901     22.1821   5.1437903252e+01   2.6160676380e+01    0.2205596    0.1698428  87.15  0.000678058    1.358    0.264
       325  -9.8592    247.4984    174.0015   8.5137765365e+01   9.0076130274e-01    0.3831739    0.1280906  30.81  0.001311793    4.423    0.774
       326 -10.3628     74.0177     19.5212   8.0332734376e+01   6.3035309906e+01    0.2662685    0.2230477  18.04   0.00114264    1.204    0.169
       327  -9.8892     39.4304    173.7508   1.2496787630e+02   3.5018310064e+01    0.1883933    0.1223131 -73.07 0.0007452241    1.458    0.314
       328 -10.5506     35.9866    170.4544   1.2539789744e+02   3.6040266831e+01    0.3206469    0.1533096  87.15  0.001778754    1.988    0.497
       329  -8.8566      1.4610     20.5732   1.1346446684e+02   7.1226573228e+01    0.1130693   0.08347704 -51.77 0.0002456033    1.009    0.009
       330 -10.1811      8.8366    155.9226   1.2990355123e+02   4.1524239007e+01    0.2195648    0.1466629 -73.34  0.001576999    1.402    0.287
       331  -9.7734    211.1705     18.9591   5.1813971579e+01   2.9645007552e+01    0.2092345    0.1990931 -52.52 0.0004032449    1.016    0.015
       332  -9.7550    206.5328     18.3258   5.2143695217e+01   3.0921886603e+01    0.3674602    0.1953393 -54.69  0.001527633    2.066    0.516
       333 -11.7598      9.8111    166.1980   1.3031356737e+02   3.9386238071e+01    0.4835436      0.31202 -87.29  0.002746821    1.226    0.184
       334 -10.7847     13.9421    158.0213   1.2898741074e+02   4.0666151506e+01    0.4018896    0.1687724 -77.33  0.001968086    1.932    0.482
       335  -9.2119    197.9923    167.7294   9.2310501585e+01   1.0612106338e+01    0.1857887    0.1553545  33.27 0.0006948888    1.058    0.055
       336  -9.8784     51.7097    172.9649   1.2243643723e+02   3.3784109596e+01    0.2175481    0.1299503  84.11  0.001326525    1.525    0.344
       337 -10.1922     18.9203    165.2392   1.2844904218e+02   3.8767731558e+01    0.2058467    0.1935442  64.68  0.001662469    1.449    0.310
       338  -9.9600    188.9405    164.0299   9.3274642730e+01   1.2889663891e+01    0.2808617    0.1941823 -23.26  0.001078318    1.692    0.409
       339  -8.6393     55.2844     17.3277   8.6453889970e+01   6.6451591247e+01    0.1299562   0.08847521 -11.24 0.0007006507    1.607    0.378
       340  -9.9481    220.1532     12.6389   4.9045383333e+01   2.8016162536e+01    0.3589879    0.1420241  62.92  0.001255362    2.413    0.586
       341 -10.3202    206.5991    162.6871   8.9798096780e+01   9.7129624423e+00    0.4580593    0.2821865  36.75  0.001945879    1.496    0.331
       342 -10.2902     80.9267     19.2213   7.7812433297e+01   6.1809721497e+01    0.3663313    0.2182193  48.80 0.0008601649    1.820    0.450
       343 -10.2190     28.1975    162.8363   1.2639567775e+02   3.8366889172e+01    0.3011437    0.1334556 -73.39  0.001706336    1.927    0.481
       344  -9.5246     79.8491    160.5117   1.1517622269e+02   3.2657307485e+01    0.2193912    0.1527746  80.59  0.001299094    1.384    0.277
       345 -10.2945    246.5038    158.4805   8.2266749481e+01   2.9098620483e+00    0.2566501    0.1155663 -28.67  0.001215264    2.179    0.541
       346  -9.0516    223.7629    156.9494   8.5672111689e+01   7.2633642041e+00    0.1674068    0.1056187 -27.50 0.0008796627    1.618    0.382
       347 -10.5767    105.1615    154.4294   1.0876654721e+02   3.0036412614e+01    0.3986168    0.3533131 -81.90  0.002534162    1.109    0.098
       348 -11.5637     12.8439    139.3712   1.2791287791e+02   4.4626226942e+01    0.6551936    0.2852897  74.28  0.003448072    2.244    0.554
       349 -10.0010     14.4488    133.5617   1.2708656095e+02   4.5733770043e+01    0.2640903    0.1281047  65.86  0.001486726    1.959    0.490
       350 -12.0810     22.7801    149.2022   1.2648183629e+02   4.1693090400e+01    0.5628913    0.3586399 -56.14  0.003320529    1.837    0.456
       351 -10.7752     15.6636    147.9074   1.2792727109e+02   4.2596695499e+01    0.3403712    0.2067606  59.83  0.001219869    1.441    0.306
       352 -10.2510     31.5323    154.3047   1.2500856343e+02   3.9787377024e+01    0.3640896    0.1867879  61.66  0.001720807    1.767    0.434
       353 -10.5830     30.8301    149.5449   1.2474903237e+02   4.0853124812e+01    0.3332252    0.1792827  73.61  0.001096717    1.721    0.419
       354 -10.3029     70.9819    151.5027   1.1598858651e+02   3.5755497180e+01    0.2496861    0.2086782  51.96  0.001451701    1.243    0.195
       355  -9.1222     42.1806    148.5913   1.2213789635e+02   3.9877983993e+01    0.2196874     0.114149  34.45  0.001216259    2.158    0.537
       356 -10.0040     47.9724    151.8375   1.2117964946e+02   3.8545815202e+01    0.2634887    0.2212705  44.82  0.001042039    1.381    0.276
       357 -11.0304     47.4650    146.4974   1.2072460198e+02   3.9738312805e+01    0.4039194     0.285753 -85.16  0.002606869    1.190    0.159
       358 -10.1482      3.3669    152.6896   1.3083749629e+02   4.2618512723e+01    0.2512438    0.1292917  71.16   0.00160291    1.581    0.368
       359 -11.2751      3.7725    147.4037   1.3044019983e+02   4.3666992080e+01    0.4091962    0.2850465  40.51  0.002119691    1.615    0.381
       360 -11.5481      3.8885    141.9348   1.3007384596e+02   4.4789622853e+01    0.3439506    0.2702798  47.40   0.00168709    1.438    0.304
       361 -11.5506      3.8875    136.6792   1.2972841730e+02   4.5889647076e+01    0.2195417    0.1537659 -89.48 0.0002439551    1.067    0.062
       362  -9.9097    214.6390    151.3567   8.6099564398e+01   9.7930083775e+00    0.2453895    0.2146721  67.22 0.0009004782    1.449    0.310
       363 -11.2683     62.4408    149.9506   1.1772328659e+02   3.7202313225e+01    0.4543389    0.3488619  69.69  0.002526674    1.142    0.124
       364  -9.5735     85.4024    150.2038   1.1255286529e+02   3.3990565463e+01    0.1807163    0.1120643 -78.63 0.0009481083    1.676    0.403
       365 -10.0783     56.0088    149.0175   1.1906824942e+02   3.8199004308e+01    0.1902863    0.1526343  82.43 0.0003459393    1.017    0.017
       366  -9.4542    239.8407    146.8089   8.0920977962e+01   5.5935410964e+00    0.2025136     0.157945  14.54 0.0006314691    1.189    0.159
       367 -10.8419    249.7283    142.9478   7.8549851153e+01   4.2571860173e+00    0.5563613    0.2317233 -29.68  0.002485301    2.273    0.560
