#   1 NUMBER                 Running object number                                     
#   2 MAG_AUTO               Kron-like elliptical aperture magnitude                    [mag]
#   3 X_IMAGE                Object position along x                                    [pixel]
#   4 Y_IMAGE                Object position along y                                    [pixel]
#   5 X_WORLD                Barycenter position along world x axis                     [deg]
#   6 Y_WORLD                Barycenter position along world y axis                     [deg]
#   7 A_WORLD                Profile RMS along major axis (world units)                 [deg]
#   8 B_WORLD                Profile RMS along minor axis (world units)                 [deg]
#   9 THETA_WORLD            Position angle (CCW/world-x)                               [deg]
#  10 FWHM_WORLD             FWHM assuming a gaussian core                              [deg]
#  11 ELONGATION             A_IMAGE/B_IMAGE                                           
#  12 ELLIPTICITY            1 - B_IMAGE/A_IMAGE                                       
         1 -10.3932    170.3106     32.3577   7.1996725852e+01   3.8622673037e+01    0.4426769    0.3450087  13.28  0.001114207    1.581    0.368
         2  -9.2614    232.3749     13.5682   5.9609406257e+01   2.5564379038e+01    0.3156342      0.20622 -27.47  0.001303842    1.634    0.388
         3 -11.0775    181.8100      7.9778   6.3166123788e+01   3.8385099899e+01    0.7642627    0.5545495  60.38  0.004256754    1.298    0.230
         4 -10.3708    181.0921      3.6770   6.2019691532e+01   3.8968623015e+01    0.8049359     0.325256  63.19  0.003471926    2.125    0.530
         5  -8.2187     76.5084      3.0120   8.1294998256e+01   6.3576521132e+01    0.1769664   0.09282553  10.44 0.0004816949    2.403    0.584
         6 -10.5676    124.8306    231.9243   1.2762388472e+02   1.0790453900e+01    0.1437602     0.120565  61.71 0.0009623774    1.109    0.098
         7 -15.6759    189.7236    222.6935   1.1399836981e+02   1.5918994800e+00     4.373386     3.475609 -33.79   0.02818699    1.434    0.302
         8 -12.1821    125.2830    226.4847   1.2687036726e+02   1.1645138564e+01    0.5821126    0.3479121  13.25  0.002329431    4.160    0.760
         9 -13.1004    120.1919    232.7888   1.2860671366e+02   1.1371347897e+01    0.3934692    0.2734546  73.87  0.002367566    1.646    0.392
        10 -12.0136    115.5522    229.4425   1.2909852438e+02   1.2666511009e+01     0.349509    0.1746368 -62.64  0.001807587    2.393    0.582
        11 -12.7204    122.7333    248.9572   1.2995155897e+02   8.3554636900e+00    0.4150802    0.2094475  41.48  0.002338184    1.597    0.374
        12 -12.3987    126.5017    246.4902   1.2899938559e+02   8.1682259281e+00    0.2286254    0.1601922  42.96 0.0005035403    1.167    0.143
        13 -13.3491    121.4869    243.5046   1.2958382040e+02   9.4060610656e+00    0.2954459    0.2456877 -12.72  0.001974248    1.827    0.453
        14 -13.6010    123.7377    239.1281   1.2867593106e+02   9.7679930752e+00    0.4564308    0.2701038  38.56  0.002657349    1.482    0.325
        15 -16.0433     63.1553    134.6703   1.2763784892e+02   4.0601361451e+01     8.528891     5.069858  34.16   0.04127987    1.877    0.467
        16  99.0000    129.7352    215.2893   1.2453386567e+02   1.2891098366e+01    0.4630125    0.1550242  53.70  0.001507912    4.310    0.768
        17  -9.5527    135.7121    212.0214   1.2287857294e+02   1.2479178690e+01      0.13505    0.1263867  79.26 0.0002703764    1.137    0.121
        18  99.0000    131.1690    210.5546   1.2358790149e+02   1.3509101763e+01    0.3648717    0.1974766  26.42  0.001116902    2.562    0.610
        19 -11.1864    129.0236    205.3925   1.2328822058e+02   1.4825211672e+01    0.2854126    0.1717489 -57.15  0.001480998    1.865    0.464
        20  -9.4490      1.0000    206.9856   1.4866947267e+02   3.1280078041e+01    0.1567315   0.04779596 -79.62 7.146084e-06    2.711    0.631
        21  -9.7103      4.9353    206.9149   1.4796756237e+02   3.0941822778e+01   0.08548562   0.06069118  82.90 -0.0009232552    1.070    0.065
        22 -10.7896    109.2952    202.4241   1.2696538219e+02   1.8658874668e+01     0.447609    0.2062628 -51.07  0.002054106    2.444    0.591
        23 -13.3411    115.0750    197.7955   1.2510969411e+02   1.8628233620e+01    0.3733608     0.242403  43.29   0.00156961    1.403    0.287
        24 -11.0983    111.2788    195.2883   1.2555981201e+02   1.9755445780e+01    0.1796733    0.1548816  61.83 0.0002092443    1.032    0.031
        25 -11.8666    121.4639    203.4597   1.2457488845e+02   1.6461698880e+01    0.2062199    0.1762629  55.12 0.0001037621    1.028    0.027
        26 -12.2757    118.0385    201.3446   1.2498968544e+02   1.7440026778e+01    0.2299785    0.1986767  69.34 0.0004178082    1.094    0.086
        27 -12.3417     98.0985    201.6976   1.2920727480e+02   2.0572160669e+01    0.2336095    0.1915379 -89.34 0.0006027026    1.200    0.166
        28 -11.3557     99.7261    197.6786   1.2834517794e+02   2.1128262065e+01    0.2328087    0.1537591  48.18 0.0002151347    1.358    0.264
        29 -11.7196    100.3766    194.4954   1.2778188765e+02   2.1674621990e+01    0.3897023    0.2264035  32.36  0.001919905    1.944    0.486
        30 -10.6599      1.6350    201.1820   1.4825887522e+02   3.2365485302e+01    0.2257099    0.1044094 -89.91  0.001352144    1.757    0.431
        31 -10.2056     68.0353    192.2847   1.3441299518e+02   2.6885867375e+01    0.1552504    0.1295611  63.77 0.0001924071    1.089    0.081
        32  -9.7624    116.9139    190.8368   1.2369655982e+02   1.9714653306e+01    0.1428585    0.1276925 -89.48 0.0002503741    1.125    0.111
        33 -11.7262    108.4416    188.9246   1.2525368931e+02   2.1519908419e+01    0.3492879    0.1884045 -55.82  0.001680824    1.945    0.486
        34 -11.1406     83.6221    190.1846   1.3082539553e+02   2.5131125559e+01    0.3648466    0.1558821  38.92  0.001638584    2.251    0.556
        35 -10.0041     17.0316    187.0075   1.4446204030e+02   3.3859855986e+01    0.1348035    0.1045384  76.91 0.0009662578    1.057    0.054
        36 -12.6322     20.3435    183.2540   1.4351771518e+02   3.4336242676e+01    0.3159257    0.1630514 -81.67   0.00182967    1.626    0.385
        37  -9.7715      5.9841    186.2346   1.4658623420e+02   3.5022156979e+01    0.1347122    0.1025104  81.17 0.0002092327    1.046    0.044
        38 -11.3314      1.9261    184.1271   1.4724685130e+02   3.5803899746e+01    0.1655709    0.1200168  89.58 0.0002700741    1.083    0.077
        39 -10.2029     92.9183    181.9082   1.2767319432e+02   2.5489456303e+01    0.1745263    0.1568125  76.63  0.001079286    1.030    0.029
        40  -8.3985    151.8875    181.3746   1.1455866071e+02   1.5330959384e+01     0.235006    0.1513306  35.20  0.001137188    1.543    0.352
        41 -11.3268    109.7792    244.8423   1.3186203240e+02   1.0951247832e+01    0.7370788    0.4513326  58.35  0.004520762    1.474    0.322
        42 -11.5080    114.6014    213.1121   1.2728323573e+02   1.5757404033e+01     1.197074    0.8573203  82.69  0.006900076    1.616    0.381
        43  -9.3390     73.9122    179.3489   1.3158680872e+02   2.8862735045e+01    0.1188802    0.0673916 -74.28 0.0002586478    1.776    0.437
        44  -9.1256     21.4119    178.0534   1.4288946458e+02   3.5347015308e+01    0.1370301   0.09238853 -79.96 0.0001838614    1.236    0.191
        45 -12.9113     89.2712    175.5411   1.2758568847e+02   2.7438150879e+01    0.2641885    0.2445755  78.76 0.0005654066    1.079    0.073
        46  -8.3662     17.8267    173.3259   1.4326393636e+02   3.6707710929e+01    0.1292701    0.1005474 -80.21 0.0003408862    1.160    0.138
        47  -7.0141     38.2661    171.7718   1.3868671557e+02   3.4995901977e+01    0.3071996    0.1096955  55.11 0.0008147076    3.075    0.675
        48  -8.3491     24.8078    172.7361   1.4172259863e+02   3.6173657453e+01    0.1027805   0.07369996 -65.89  0.000199452    1.379    0.275
        49 -14.7766    104.9113    228.9891   1.3107906032e+02   1.4377068112e+01    0.9142104    0.7798835  22.32  0.006150554    1.507    0.337
        50  -9.2099     29.1510    168.2803   1.4036701517e+02   3.6726279401e+01    0.1935007     0.135637  77.62  0.001082957    1.234    0.190
        51  -7.7270    155.4856    168.4873   1.1135160247e+02   1.7169210560e+01    0.1428872    0.1361319  37.96 0.0004085992    1.011    0.011
        52 -11.9483    133.5673    219.0811   1.2428818057e+02   1.1585834830e+01    0.2504732    0.1814534  33.02 0.0009770551    1.371    0.271
        53  -9.7623     21.3948    168.0584   1.4205506000e+02   3.7528749097e+01    0.1751892    0.1383253  67.83 0.0003907637    1.165    0.142
        54  -7.8789      5.9795    166.1033   1.4522526231e+02   3.9302029063e+01    0.1259589   0.09361961  87.49 0.0003106164    1.014    0.014
        55 -11.6580     33.5033    176.1252   1.4015228181e+02   3.4547013473e+01    0.2546498    0.2149286  13.08 0.0005314649    1.738    0.425
        56 -14.5661     50.8680    177.5313   1.3650180632e+02   3.2273652514e+01     0.831549    0.7056723  79.40  0.005588694    1.054    0.051
        57 -11.7874    244.8470    142.6238   8.8540071572e+01   4.1380075964e+00     1.156028    0.6800403 -35.98  0.005796764    1.550    0.355
        58 -11.9777    249.0807    128.7321   8.4799785177e+01   5.5137396344e+00     2.231643    0.7041427 -43.03  0.007820197    3.240    0.691
        59 -10.7461    247.8996    118.3994   8.2646918819e+01   7.3571255106e+00     0.588716    0.2985087 -32.03  0.002620127    1.782    0.439
        60  -9.3152    160.8171    127.8364   1.0122280012e+02   2.4340992191e+01    0.4472501    0.3422199 -88.95  0.001594595    1.812    0.448
        61  -8.8657    229.1899    137.0347   8.9892977448e+01   8.0298596510e+00    0.2666535    0.2132038  16.34 0.0007929837    1.339    0.253
        62  -8.8284    196.6724    107.0966   8.8518677379e+01   2.0230927864e+01     0.256874    0.2145941  44.58 0.0003905375    1.240    0.193
        63  99.0000      8.0943    221.9541   1.4818565277e+02   2.7766913726e+01    0.8669088    0.5356997  71.98  0.006345042    1.188    0.158
        64 -11.0892    139.0372    219.1295   1.2321588873e+02   1.0670477367e+01    0.1782241    0.1520558  43.38 0.0002952527    1.044    0.042
        65 -19.0755     60.9556    227.4243   1.3917984901e+02   2.0826818099e+01     4.929729     3.041311  53.70   0.03176322    1.313    0.238
        66 -10.9672    125.6191    218.7373   1.2581375568e+02   1.2949610314e+01    0.3435969    0.2303399 -25.64  0.001742668    2.582    0.613
        67  -8.1202    148.0170     76.5025   9.0111358524e+01   3.7419526825e+01    0.2207485      0.15169  53.93 0.0003247424    1.476    0.322
        68  -8.5706    241.0685     62.5938   7.0430570503e+01   1.7323116250e+01    0.2369344    0.1836697 -29.97 0.0004212824    1.268    0.211
        69  -8.8227    127.6043     61.2090   9.0168505900e+01   4.4905126489e+01    0.4568209    0.2617251 -59.99  0.001704589    2.763    0.638
        70 -10.5275    149.4692     57.7840   8.3932970024e+01   4.0265933120e+01    0.5993858    0.3038459  41.09  0.001856378    2.195    0.544
        71 -12.2342    160.0562     53.1989   8.0302040355e+01   3.8351747243e+01     1.309328    0.8184195  32.89  0.005609146    1.976    0.494
        72 -12.1249    166.5702     40.0268   7.4985768251e+01   3.8584507573e+01    0.9153531    0.7643521  16.99  0.003893426    1.387    0.279
        73  -9.8393    137.2745    243.5694   1.2669355398e+02   6.9585961229e+00    0.1306734   0.09646987  40.20 0.0002322472    1.140    0.123
        74  -8.6463    137.8508     37.7108   7.9753497489e+01   4.6065235231e+01    0.2415439    0.1930209  -6.37 0.0005722222    1.384    0.277
        75  -9.1718    150.0124     32.1303   7.5429129814e+01   4.3781348735e+01    0.3155467    0.1837807  14.89  0.001230245    2.773    0.639
        76 -10.7999     15.6468    242.9903   1.4795923568e+02   2.3212323555e+01    0.1264863   0.09009166  86.29 0.0007395586    1.225    0.184
        77 -10.8088    116.1118    241.2430   1.3032333235e+02   1.0590036392e+01   0.08431361   0.07278097 -55.68 0.0002357694    1.449    0.310
        78  -9.4355    133.2003    237.5926   1.2673077786e+02   8.5389852587e+00    0.1023786   0.09302029  84.60 0.0001954335    1.237    0.192
