#   1 NUMBER                 Running object number                                     
#   2 MAG_AUTO               Kron-like elliptical aperture magnitude                    [mag]
#   3 X_IMAGE                Object position along x                                    [pixel]
#   4 Y_IMAGE                Object position along y                                    [pixel]
#   5 X_WORLD                Barycenter position along world x axis                     [deg]
#   6 Y_WORLD                Barycenter position along world y axis                     [deg]
#   7 A_WORLD                Profile RMS along major axis (world units)                 [deg]
#   8 B_WORLD                Profile RMS along minor axis (world units)                 [deg]
#   9 THETA_WORLD            Position angle (CCW/world-x)                               [deg]
#  10 FWHM_WORLD             FWHM assuming a gaussian core                              [deg]
#  11 ELONGATION             A_IMAGE/B_IMAGE                                           
#  12 ELLIPTICITY            1 - B_IMAGE/A_IMAGE                                       
         1 -13.3861     24.9369    108.7373   1.2831144601e+02   5.2257711833e+01     2.459835     1.482955 -48.17   0.01167523    1.701    0.412
         2 -12.0151     60.5783     45.3966   9.4657404955e+01   6.3026449537e+01     2.148746    0.5883827 -44.66   0.00669891    3.770    0.735
         3 -12.4094      6.6824     62.2377   1.2986144394e+02   6.5605283916e+01    0.9096519     0.499087 -35.82  0.003620155    1.807    0.447
         4 -12.5010     74.7708     51.0631   9.0830325032e+01   5.9075480086e+01     1.402279    0.8678918 -52.91  0.006206365    1.852    0.460
         5 -11.5660     56.8957     31.4863   9.0007192909e+01   6.6290743227e+01     0.509774    0.4349082  -7.12  0.001303284    1.227    0.185
         6 -12.3455    104.9256     13.3139   6.5117825757e+01   5.7327307293e+01    0.5752412    0.4385569 -34.68  0.003114676    1.437    0.304
         7 -12.1677    124.6732     27.7772   6.6863978003e+01   5.0466127212e+01    0.8564928    0.7339686  38.28  0.003487564    1.302    0.232
         8 -12.8986    116.4036     41.8922   7.3923967635e+01   5.0685377210e+01     1.170505    0.7913631 -82.11  0.005151448    1.919    0.479
         9 -12.8733    120.2378     38.5937   7.1801358985e+01   5.0177661346e+01    0.8734553    0.5754288 -66.49  0.002490934    1.848    0.459
        10 -12.7178    112.9496     24.8673   6.8159410717e+01   5.3914275214e+01    0.9773456    0.4697331  65.17  0.002704781    1.897    0.473
        11 -10.7716    138.5432     32.8625   6.6117400327e+01   4.6164097046e+01    0.6663635    0.5138983 -55.33  0.002266145    1.301    0.231
        12 -11.3346    178.7383     21.0073   5.7111037221e+01   3.7326776736e+01    0.5910194    0.3224127  50.29  0.002383221    2.187    0.543
        13 -12.3602     18.8973     22.6549   1.0928560298e+02   7.3809402726e+01     1.315707    0.6977875  33.52  0.004557292    1.931    0.482
        14 -11.4129     26.2437     27.7954   1.0635050915e+02   7.1941820434e+01      0.52404    0.3467115 -49.31  0.001969918    1.512    0.339
        15 -12.3469     16.8305     13.5197   1.0603831500e+02   7.5787736602e+01    0.6002268    0.5492365 -39.75  0.000641553    1.249    0.199
        16 -11.8952     22.5410     11.5586   1.0010586662e+02   7.5430676177e+01    0.7874026    0.4395441 -38.81  0.004140486    1.763    0.433
        17 -12.2903    162.7140     28.7264   6.1164121223e+01   4.0423229594e+01    0.6152061    0.5146018  28.46 0.0008376316    1.547    0.354
        18 -11.3596    155.0272     23.8501   6.0659869178e+01   4.2969641860e+01    0.8297523    0.5802459  28.05  0.004073632    2.025    0.506
        19 -10.7700    145.1291     24.8284   6.2355326253e+01   4.5430195889e+01    0.6632516    0.4215627  59.98  0.003263003    1.493    0.330
        20 -12.0531    132.0739     14.7338   6.0823817840e+01   4.9992610309e+01     1.853099    0.5864332  72.88   0.00632221    3.024    0.669
        21 -11.1196    139.3881     21.1266   6.1964587683e+01   4.7365700431e+01     1.044449    0.2903143  53.59  0.003429336    3.411    0.707
        22 -11.1119    198.6650     28.6200   5.7244048946e+01   3.1739219202e+01    0.5526284    0.3708454 -20.11  0.002659423    1.794    0.442
        23  -7.3081     87.9355      7.5141   6.6388043315e+01   6.2298157618e+01    0.7011055    0.3297633  63.39  0.002888505    1.830    0.454
        24 -11.2970     90.0222     20.9746   7.2218942385e+01   6.0294790211e+01    0.6685007    0.5323137  59.61  0.003630886    1.134    0.118
        25 -11.3278     85.7244     14.2225   7.0248072056e+01   6.2162411473e+01     0.515541    0.4146318  -7.46  0.002090701    1.442    0.306
        26 -10.0378     32.4144     12.3355   9.3283343265e+01   7.3833393400e+01    0.2444165    0.1993622  58.28 0.0006289998    1.644    0.392
        27 -11.6846     36.0537     17.7782   9.4234067408e+01   7.2361438946e+01    0.6628795    0.3712486 -23.00  0.002343825    2.253    0.556
        28 -12.1523     48.7592     12.9255   8.3862652174e+01   7.0768384017e+01    0.7832035    0.3498115  46.80  0.003461665    2.027    0.507
        29 -12.3191    239.0988     15.9830   5.1430807327e+01   2.4618560989e+01    0.7038385    0.4195071  70.78  0.004377821    1.857    0.461
        30 -10.6818    232.5972      7.2649   4.9903878545e+01   2.6801933365e+01    0.3355081    0.2084204  82.92  0.001205608    1.619    0.382
        31 -10.9532    218.6858      3.1053   4.9685272671e+01   3.0075054467e+01    0.2891194    0.2149093 -44.22  0.001169319    1.205    0.170
        32 -11.2289    225.4083      2.3547   4.9182813542e+01   2.8747078663e+01    0.5895573    0.2611244 -83.40  0.002743294    2.237    0.553
        33 -11.2594    165.1232     17.6863   5.7565018892e+01   4.1077905861e+01    0.4133964    0.2953996  41.16  0.001339613    1.767    0.434
        34 -11.8653    244.8356      6.6819   4.9204843271e+01   2.4482877724e+01       0.7291    0.3665352 -59.79  0.003230094    1.601    0.375
        35 -11.9191     68.7985     18.3729   7.7995924106e+01   6.5730889178e+01    0.6333883    0.4872778  48.03  0.003256753    1.169    0.144
        36 -10.6662    193.2504     17.5890   5.4881298369e+01   3.4239616405e+01    0.5362871    0.2873762 -77.64  0.001016311    1.891    0.471
        37 -10.5494    186.5602     15.1406   5.4794050839e+01   3.6079519607e+01    0.2815232     0.237682  63.76 0.0007317048    1.332    0.249
        38 -11.4996    192.5189      7.6157   5.2357664003e+01   3.5448774710e+01    0.5650547    0.4202081  27.41  0.002383233    2.027    0.507
        39  -9.6689    194.4206      1.4762   5.0661447172e+01   3.5602693001e+01    0.1822332    0.1000378 -80.78 0.0005189201    1.661    0.398
        40  -9.6448    141.5825     12.2630   5.8629697764e+01   4.7731385093e+01    0.2492163    0.2194016  50.12  0.000634038    1.267    0.211
        41  -9.9823    225.9093     15.5968   5.2102060929e+01   2.7290231951e+01    0.3316116    0.1597221 -36.36  0.001120519    1.731    0.422
        42 -10.0973     63.3306      6.2656   7.3317783814e+01   6.8418059518e+01    0.2977813    0.2492106  12.48  0.001479822    1.255    0.203
        43 -10.0866     62.0000     11.9828   7.7173621555e+01   6.8073605998e+01    0.4132745    0.1686472 -24.47  0.001021343    2.941    0.660
        44 -10.6372     66.0141     10.1622   7.4557823012e+01   6.7372477505e+01    0.6434068    0.2311593  58.86  0.002450833    2.586    0.613
        45 -11.2549      3.1840      1.7827   1.1199441526e+02   7.9262949803e+01    0.4303602    0.1969329  11.10  0.002128161    2.280    0.561
        46 -10.2939      5.0186      9.9450   1.1490738773e+02   7.7575027572e+01    0.3953219    0.2406725 -38.50  0.001645252    1.440    0.306
        47  -9.0469      5.4209      5.4921   1.1194076754e+02   7.8394622530e+01    0.1956444    0.1585612 -31.59  0.001307021    1.113    0.102
        48 -11.3568    211.7854      9.8322   5.1635835333e+01   3.0880468471e+01    0.4142539    0.3078491   0.38  0.001614762    2.042    0.510
        49  -9.9398    168.9212      9.9899   5.4915476047e+01   4.0922045907e+01    0.2890539     0.182866  57.25  0.001291947    1.678    0.404
        50  -9.1257    163.0042      9.9964   5.5482006989e+01   4.2411934422e+01    0.1965567    0.1757582  66.77 0.0005661451    1.222    0.182
        51  -9.5261    162.7488      5.9360   5.4287224285e+01   4.2869514476e+01    0.2213457     0.175605 -45.00 0.0004916993    1.254    0.202
        52  -8.6915    116.5354     10.0472   6.1554210225e+01   5.4587956284e+01    0.1762008    0.1417811 -24.46 0.0002851013    1.420    0.296
        53  -9.7499    185.1828      7.4297   5.2843107403e+01   3.7198427589e+01    0.3023532    0.1599391 -47.79  0.001186508    1.641    0.391
        54 -10.2258    151.8386      7.5022   5.5853332355e+01   4.5516707945e+01     0.486529    0.2070921  71.09  0.001284495    2.049    0.512
        55  -9.8070      1.2961      7.3001   1.1729822329e+02   7.8349342571e+01    0.1932028   0.09398692 -54.95 0.0002354678    1.867    0.464
        56 -10.9724     75.0879      4.4234   6.8320356379e+01   6.5801224663e+01    0.6686257    0.4463501  77.49  0.003422288    1.605    0.377
        57 -10.7083     41.3522      4.6541   8.2488509639e+01   7.3309100823e+01    0.4278972    0.2558206   3.34  0.001682855    2.362    0.577
        58 -10.3431    175.3181      5.0096   5.2943618323e+01   3.9821806803e+01    0.3969436    0.2179364  88.93   0.00180936    1.678    0.404
        59 -11.3794    205.0606      2.5961   5.0305837617e+01   3.3081721956e+01    0.4096736    0.2806045  88.50  0.001070334    1.343    0.256
        60  -9.8564    115.8058      2.2666   5.8569790211e+01   5.5480199639e+01    0.4943537    0.2545915  77.96  0.002239281    1.764    0.433
        61 -10.5503    106.1900      1.7366   5.9912110499e+01   5.8067122784e+01    0.7948863    0.3221726  80.26  0.003022211    2.597    0.615
        62 -10.3797    142.5542      3.1911   5.5446322586e+01   4.8329181407e+01    0.3584605    0.2687916  80.84  0.001971803    1.160    0.138
        63 -11.8684    133.5366      2.5746   5.6274660065e+01   5.0754861581e+01    0.4367813    0.2486407  73.18 0.0007481815    1.518    0.341
        64  -8.9713     55.1451      4.1168   7.5301316012e+01   7.0493621613e+01    0.1604306    0.1502748  82.64 0.0003943849    1.264    0.209
        65  -9.3347    157.5023      2.5103   5.3727739071e+01   4.4519464126e+01    0.2322745    0.2044363  69.75  0.001440613    1.203    0.169
        66  -8.9480    161.4807      1.0000   5.2917309431e+01   4.3641981032e+01    0.3325035    0.1148804  73.12  0.001338632    2.485    0.598
        67 -10.3317     12.9211      2.0563   1.0203039827e+02   7.8244093332e+01    0.2734596    0.1890051  15.62 0.0009026831    1.335    0.251
        68  -9.5457    122.7569      1.3731   5.7218740573e+01   5.3710343399e+01    0.4116009    0.1185126  74.34  0.001399447    3.081    0.675
        69 -10.7539     82.1185      1.3319   6.4753170056e+01   6.4328288929e+01    0.2390087    0.1122632  65.95 0.0003657343    1.847    0.459
        70 -11.4207     62.9341    150.0054   1.2053229374e+02   3.7008976060e+01    0.5334911    0.4383853  22.56  0.001674532    1.286    0.222
        71 -10.0744    143.0631    249.5023   1.1321935319e+02   5.4604575516e+00    0.1863116    0.1419561  36.77  0.001275649    1.273    0.214
        72  -9.7190    234.5962    150.2014   8.0135931649e+01   7.4643263240e+00    0.1791929   0.09765334 -25.69  0.000956368    1.702    0.412
        73  -9.7174    239.8188    146.8113   7.8731279264e+01   7.1870315601e+00    0.1799963    0.1404299 -10.52  0.000744188    1.169    0.145
        74 -10.8633    249.4369    142.5192   7.6593237209e+01   6.4143383618e+00    0.5134542    0.1974311 -35.13  0.002523166    2.122    0.529
        75 -10.6227     33.1147    144.2817   1.2953628764e+02   4.2071676699e+01    0.3174693    0.2464348  55.02  0.000783816    1.195    0.163
        76 -10.1829    104.5691    142.2189   1.0636543326e+02   3.2209510974e+01    0.2587699     0.243112  27.73 0.0002825228    1.071    0.067
        77 -10.2197    133.4792    140.2751   9.8022920127e+01   2.7159437659e+01     0.367635     0.301295  10.58  0.001170444    1.391    0.281
        78 -12.0086     29.7922    132.8040   1.2943231879e+02   4.5409362363e+01    0.8411006    0.5291503 -78.91  0.003779494    1.529    0.346
        79 -10.8917     21.1532    134.3922   1.3261589521e+02   4.5765916873e+01     0.318882    0.2517595  23.31 0.0006211134    1.346    0.257
        80  -8.7558    186.4747    139.4872   8.6042858339e+01   1.7106981035e+01    0.1373694    0.1257462 -11.62 0.0008099691    1.014    0.014
        81 -10.2278     47.4433    135.1600   1.2355391227e+02   4.2871759962e+01    0.5376431    0.1758938 -64.34  0.001699311    2.816    0.645
        82  -9.3368     44.0424    132.9990   1.2443875311e+02   4.3845477806e+01    0.2815095    0.1714682  49.61 0.0006857064    1.610    0.379
        83  -9.2800     40.9510    138.0081   1.2617150710e+02   4.2878743407e+01    0.2467343    0.1503462  59.54  0.001124508    1.691    0.409
        84 -11.3717     24.1915    136.8326   1.3179847726e+02   4.4864339926e+01    0.4199809    0.3068759 -55.25 0.0003385352    1.436    0.304
        85 -10.9195     71.9845    134.3236   1.1504910883e+02   3.9699377730e+01    0.5850302    0.4217698 -25.51   0.00213117    1.846    0.458
        86 -10.5243     80.4653    136.1919   1.1260803631e+02   3.7874012219e+01    0.5572752    0.3816938  -1.08  0.001937368    2.215    0.549
        87  -9.0382    216.6220    135.2077   7.9900159185e+01   1.2514890226e+01    0.1803122    0.1082197 -26.96 0.0005397923    1.596    0.373
        88 -10.1899     93.3525    135.1597   1.0832184879e+02   3.5930607700e+01    0.2535372     0.211024  78.73 0.0006148871    1.333    0.250
        89 -10.7613     92.9198    129.2926   1.0724472485e+02   3.7450331022e+01     0.474748    0.3550084 -79.66  0.001688698    1.582    0.368
        90  -9.3817     87.3050    135.3161   1.1025020906e+02   3.6947151622e+01    0.1533066     0.121014 -18.37 0.0006874217    1.625    0.385
        91  -9.5774    107.5132    146.1384   1.0629103078e+02   3.0752394466e+01    0.2490933    0.2112056  13.55 0.0009904082    1.302    0.232
        92  -9.7904     62.2896    131.7124   1.1787813924e+02   4.1816640920e+01    0.4734617    0.2314636 -43.88  0.001440122    2.481    0.597
        93  -8.9277    103.6658    130.7361   1.0424086083e+02   3.5111751221e+01    0.1526912    0.1228342  -0.66 0.0002083592    1.581    0.368
        94 -10.9733     10.7853    126.9888   1.3562708389e+02   4.8493141661e+01    0.5407894    0.2226003 -58.77  0.001539057    2.307    0.566
        95  -9.5480     78.7748    128.4482   1.1167083417e+02   4.0114110764e+01    0.3985207    0.1912464 -51.18  0.001525864    2.143    0.533
        96  -9.2133     81.6911    125.6920   1.1013842617e+02   4.0322775467e+01    0.4126595    0.2735912  45.82  0.001441128    1.466    0.318
        97  -9.5521     84.6364    122.8104   1.0854789041e+02   4.0538927824e+01    0.3102279    0.2032225  32.82 0.0008436525    1.526    0.345
        98  -9.2388     41.9012    126.4736   1.2428451020e+02   4.5820752666e+01    0.2244453    0.1850767 -81.18 0.0004930699    1.176    0.150
        99  -9.1534     22.8186    126.8332   1.3127915957e+02   4.7619280947e+01    0.1940144    0.1438626  57.72 0.0003551508    1.298    0.230
       100 -10.4425     18.4775    124.8028   1.3265464240e+02   4.8510195965e+01    0.4524941    0.1930039 -68.54  0.001490553    2.101    0.524
       101  -8.6859    223.5770    126.5287   7.7042315761e+01   1.2685301728e+01    0.1266813     0.108004 -32.10 0.0001222349    1.059    0.056
       102 -10.7313     55.7473    123.3539   1.1874935469e+02   4.4919584261e+01    0.5349872    0.3948948   2.28  0.001481694    1.713    0.416
       103  -9.3716     50.1817    122.5981   1.2065357233e+02   4.5851330514e+01    0.3468178    0.2040373  -0.72  0.001068811    2.683    0.627
       104 -10.4217     45.8496    120.3205   1.2188737529e+02   4.6993362274e+01    0.4327869    0.2662287  54.63  0.001196744    1.716    0.417
       105 -11.6983     50.5642    100.0106   1.1624046582e+02   5.1764507765e+01     1.593992     1.042424 -25.71  0.002485029    2.021    0.505
       106 -11.4329     66.1890     97.6163   1.0938765601e+02   5.0057669628e+01     1.760681      0.98879 -18.26  0.005353754    4.199    0.762
       107  -8.3751     35.2568     92.2652   1.2120245293e+02   5.5641198885e+01     1.491851    0.8152892  64.97  0.005905319    2.507    0.601
       108 -12.2864     41.2453     85.7741   1.1710918595e+02   5.6649797355e+01     1.339164    0.5638714  24.33  0.005069423    2.516    0.603
       109 -10.5739     17.8442    100.9351   1.3021952647e+02   5.4899764036e+01    0.3173805    0.2569589 -24.95 0.0008684566    1.378    0.274
       110 -11.5209      9.8068     97.5088   1.3324703963e+02   5.6332820369e+01    0.7491819    0.5704163  80.75  0.004192027    1.279    0.218
       111 -11.8591      7.2939     88.6300   1.3334778234e+02   5.8802772823e+01    0.6605883    0.5045635  29.34  0.002159365    1.402    0.287
       112  -9.4125    175.0432    246.4959   1.0654149508e+02   1.8964500099e+00    0.1833378   0.08945085  29.03 0.0008349256    1.615    0.381
       113 -11.7381     18.8575    106.1278   1.3045328895e+02   5.3444199190e+01    0.2431969    0.2307776 -54.23 0.0002619255    1.098    0.089
       114 -11.9010     21.9568     95.0973   1.2761496226e+02   5.6133541873e+01    0.7744803    0.3837377   4.64  0.003162786    2.567    0.610
       115 -12.2128     18.3332     90.2458   1.2850771981e+02   5.7691671710e+01    0.4762409     0.350527 -43.65 0.0004893542    1.363    0.266
       116 -11.4383      2.4014    112.2782   1.3760906553e+02   5.2845741456e+01    0.7150707    0.3734657  66.49  0.002911302    1.928    0.481
       117 -11.9531      3.8323    105.5694   1.3652075430e+02   5.4533094695e+01    0.5282313    0.3994764  79.34  0.001017076    1.239    0.193
       118 -11.6298    104.7354    121.8577   1.0191895413e+02   3.7023835039e+01     0.510262    0.4818602  61.24  0.001511584    1.042    0.041
       119 -10.8947     33.2919    119.6349   1.2652184058e+02   4.8566418891e+01    0.3469243    0.2972583  79.95 0.0004571903    1.121    0.108
       120  -9.1760    221.2026    120.4012   7.6106859949e+01   1.4023448877e+01    0.1604767    0.1254653  66.07 0.0007571933    1.669    0.401
       121  -9.2267    148.3978    119.7713   8.9625217996e+01   2.8430243979e+01    0.2138659    0.1421553 -32.65 0.0005963451    1.651    0.394
       122  -9.3648     72.8005    119.8725   1.1197848154e+02   4.3286178350e+01    0.2331015    0.2073023 -24.58  0.000657348    1.280    0.219
       123  -9.5268    185.3269    119.3308   8.1785977187e+01   2.0876213912e+01    0.1440062    0.1082234   2.94 0.0007051166    1.709    0.415
       124  -9.8980     81.1571    116.5738   1.0835639551e+02   4.2718157844e+01    0.5635352    0.3364192 -88.50   0.00160818    2.852    0.649
       125 -11.2897     79.7317    108.3455   1.0694793268e+02   4.5038943938e+01    0.6627318    0.5401745  45.25  0.002418137    1.197    0.164
       126 -10.5145     85.9150    104.3453   1.0377935384e+02   4.4897527607e+01     0.672813    0.4475924 -11.82  0.002198042    2.634    0.620
       127 -10.0410     90.0405    104.5031   1.0239787187e+02   4.4070648204e+01    0.4763603    0.3459814   9.52  0.001621734    1.907    0.476
       128  -9.4216    113.2011    116.1141   9.8009104060e+01   3.6664450205e+01    0.2345552    0.2162795  -2.66 0.0004876885    1.209    0.173
       129 -10.1969     67.0681    112.0358   1.1238935207e+02   4.6222402596e+01    0.5749114    0.3501621 -72.77  0.002408782    1.874    0.466
       130  -9.6603     35.9639    113.8810   1.2465922355e+02   4.9828247630e+01     0.441187    0.1994309  60.59  0.001558384    2.992    0.666
       131 -10.5848    107.8466    112.3114   9.8659217108e+01   3.8648339497e+01    0.7131808    0.4906443 -83.43  0.002377283    2.160    0.537
       132 -10.8396    102.0050    109.4866   9.9752215991e+01   4.0503691795e+01    0.5178016    0.3829528  30.50  0.002361288    1.440    0.306
       133 -10.1148    103.1370    106.0966   9.8520821156e+01   4.1069162976e+01     0.387153    0.2587267  42.88 0.0003830492    1.453    0.312
       134  -9.4901     82.2423    102.5729   1.0462287097e+02   4.6018835579e+01    0.2209185    0.2007894  32.47 0.0004354408    1.112    0.101
       135 -11.2372    170.8064    110.0767   8.2378934262e+01   2.5533512387e+01    0.5863632    0.4337962  27.96  0.002640539    1.600    0.375
       136  -9.4471     94.1151    111.9340   1.0290309642e+02   4.1479766848e+01    0.3526675    0.2344379  77.57  0.001370179    2.284    0.562
       137  -9.6856     48.8293    112.0656   1.1932701476e+02   4.8815621738e+01     0.261681    0.2130284  38.14   0.00105899    1.219    0.180
       138 -10.1805    130.4019    109.2113   9.1464139843e+01   3.4531649299e+01    0.3162222    0.2870135 -48.61   0.00163402    1.122    0.108
       139  -9.9660    120.1009    109.2982   9.4297274824e+01   3.6753005953e+01    0.2646649    0.2168884 -33.18 0.0005667161    1.335    0.251
       140 -11.0280    158.0126    106.2348   8.4079455735e+01   2.9031573862e+01    0.5115211    0.3512421  23.94  0.002249964    1.963    0.491
       141 -10.8153    143.3135    106.1634   8.7417080326e+01   3.2309889238e+01    0.3778358    0.3323006   5.42  0.001145101    1.321    0.243
       142 -11.7452    146.0836    100.2218   8.5193637129e+01   3.2879264999e+01    0.5286969    0.4698212  33.32  0.001741203    1.193    0.162
       143  -9.8470    120.9159    101.0681   9.1876430678e+01   3.8387235638e+01    0.2533146    0.1999469   0.47  0.001134302    1.728    0.421
       144  -9.4949     66.5642     74.4548   1.0271270601e+02   5.5654914942e+01    0.4637695    0.2852397  66.44  0.001391597    2.584    0.613
       145 -10.9764     90.2474     88.9220   9.8033894968e+01   4.7726632445e+01    0.8721652    0.5257776 -25.15   0.00316736    2.688    0.628
       146 -10.0846     60.5050     83.4123   1.0796813269e+02   5.4530445552e+01    0.3434038    0.2877545  23.38  0.000844785    1.238    0.192
       147 -12.6407     53.0596     74.2330   1.0861786406e+02   5.7936333388e+01    0.6998936    0.5249565 -86.32   0.00108495    1.692    0.409
       148 -10.8570     46.9169     74.4261   1.1154880547e+02   5.8778447498e+01    0.4042492    0.2137403 -58.83            0    1.861    0.463
       149 -10.8259     66.9065     81.9592   1.0486314103e+02   5.3813953598e+01    0.7622983    0.5078586 -49.74  0.003479528    1.505    0.336
       150 -11.9551     78.0376     96.9997   1.0470289536e+02   4.8163114482e+01    0.3946066    0.3017585 -66.43            0    1.400    0.285
       151 -11.2089     82.0833     93.0457   1.0213756165e+02   4.8369634601e+01    0.8874092     0.417386  47.85  0.003236647    2.232    0.552
       152 -10.5751     80.3668     83.3717   9.9965163961e+01   5.0993176393e+01    0.6281822    0.5500231  70.90  0.003193125    1.238    0.193
       153 -11.2703     73.3078     78.1349   1.0109679833e+02   5.3563978552e+01     1.101719    0.6730252 -30.18   0.00441764    2.189    0.543
       154  -9.9569    210.8220     97.5020   7.2575824718e+01   1.9470453761e+01    0.3134685    0.2694305  11.37  0.001893861    1.381    0.276
       155  -9.4251    140.3110     96.3345   8.5512979432e+01   3.4974596495e+01    0.3906785    0.2039407  38.74  0.001480049    2.202    0.546
       156 -10.1554    139.0885     93.0587   8.4902104724e+01   3.5911053703e+01    0.4586191    0.3030956  67.17 0.0008077255    1.804    0.446
       157  -9.5971    160.5834     93.8526   8.0315011802e+01   3.0788916644e+01    0.3881485    0.2495055  71.88  0.001661125    2.010    0.503
       158 -10.5787    152.7210     91.6838   8.1391948780e+01   3.3004422779e+01    0.5802602    0.4065875  66.17  0.002665414    1.584    0.369
       159 -10.6673    120.4898     80.9956   8.6171047076e+01   4.2706015628e+01    0.4081911    0.2571225  72.92  0.001373891    2.222    0.550
       160 -10.1868    117.4675     93.0530   9.0607988496e+01   4.0894024747e+01    0.5697518    0.2890579  38.92  0.001511608    2.135    0.532
       161 -10.6067    119.8824     85.3605   8.7664761628e+01   4.1958668065e+01    0.4826749    0.2947227  50.57  0.001473281    1.600    0.375
       162 -10.4491    121.9298     88.9383   8.8158842326e+01   4.0741681245e+01    0.4930745    0.3439046  35.80  0.002178958    1.575    0.365
       163 -10.3837    126.2360     93.2679   8.8239569331e+01   3.8846065481e+01    0.3987567    0.3347036  46.47  0.001042687    1.176    0.150
       164 -10.2585    122.4928     93.5197   8.9329132092e+01   3.9651594098e+01    0.3145943    0.2285555 -34.01 0.0007669073    1.525    0.344
       165 -12.2245    101.9869     90.1324   9.4455195117e+01   4.4972922796e+01    0.4671713    0.4182489   6.05 0.0004250493    1.289    0.224
       166  -9.2282    211.7693     88.2126   7.0306890452e+01   2.0711848919e+01    0.1734705    0.1507782  -5.71  0.000512398    1.332    0.249
       167 -10.3154    183.9185     86.0552   7.3963061238e+01   2.6895924582e+01    0.5859317    0.2398344 -41.09  0.002305008    2.240    0.554
       168  -9.2529    102.6626     80.6777   9.1361278693e+01   4.6894793309e+01    0.2475437     0.160658 -41.39 0.0006172228    1.620    0.383
       169 -10.1311    104.4254     76.5136   8.9475820992e+01   4.7373744709e+01    0.4109713    0.3870432  62.55  0.001682141    1.031    0.030
       170 -11.0815    113.5863     84.0500   8.9066755119e+01   4.3691979615e+01    0.7135375    0.3959505 -37.23  0.002190937    2.005    0.501
       171 -10.9450    109.3640     80.5611   8.9244199651e+01   4.5395247427e+01    0.4195153    0.3661635  11.96 0.0005919394    1.356    0.262
       172 -11.3323    143.1606     83.8331   8.1321323267e+01   3.6739370605e+01     0.398698    0.3270765 -61.03  0.001039821    1.271    0.213
       173 -10.3884    127.3878     83.1588   8.4979780017e+01   4.0636293011e+01    0.4233592    0.2932192 -38.61  0.001583197    1.511    0.338
       174 -10.0391    232.8204     77.8415   6.5402253294e+01   1.8183706672e+01    0.3005273     0.184255 -31.13  0.001126612    1.480    0.324
       175  -9.3513      9.0149     76.3083   1.3088887030e+02   6.1912951154e+01    0.1805712    0.1643016 -56.53 0.0002575288    1.032    0.031
       176 -11.7250     14.1028     74.8062   1.2805724826e+02   6.2000500682e+01    0.5336776     0.421908 -62.64  0.002301108    1.149    0.130
       177 -10.4764     14.3761     67.0057   1.2646941590e+02   6.3969581881e+01    0.3587251    0.2702056 -62.87  0.000915238    1.209    0.173
       178 -10.4271     23.1439     37.2187   1.1261425322e+02   7.0324961233e+01     0.562503    0.3478062  55.22  0.001828994    2.386    0.581
       179 -11.6208     22.8959     47.3800   1.1641114656e+02   6.8065420138e+01       1.0036     0.495353   8.47  0.004049839    2.449    0.592
       180 -12.5540     43.6393     46.7619   1.0387998075e+02   6.5643416989e+01     1.335042    0.7400346  49.10  0.003423208    2.214    0.548
       181 -12.4269     49.6980     60.2979   1.0575428971e+02   6.1730463244e+01    0.7706059    0.4725531  52.28  0.001368064    1.990    0.498
       182 -11.8276     25.4754     55.7390   1.1742922256e+02   6.5850977467e+01      1.05151    0.7245947   8.01  0.005486014    1.553    0.356
       183 -10.9723     33.1222     58.6759   1.1396140163e+02   6.4339904032e+01    0.4926856    0.2846993 -17.14 0.0009326767    2.400    0.583
       184 -11.4209     39.9938     55.7832   1.0924134328e+02   6.4161087678e+01    0.5666537    0.4083398  62.56  0.002772694    1.850    0.460
       185  -9.1397    156.6616    246.3192   1.1010162432e+02   4.1974159615e+00    0.1129649   0.08001812  46.12  0.000704959    1.709    0.415
       186 -11.1232     60.6749     36.4120   9.0580839725e+01   6.4684812493e+01    0.3655155    0.2517053 -31.68 0.0009523965    1.557    0.358
       187 -11.9784      1.9113     71.3074   1.3383572053e+02   6.3518723290e+01    0.7965881     0.183164 -74.21  0.002667912    3.569    0.720
       188  -9.8427    199.0688    244.5283   1.0184067206e+02  -6.9822428688e-01    0.1722688   0.08682248  27.96  0.001037655    1.613    0.380
       189 -11.5038     48.2136     30.6502   9.4066213987e+01   6.8064073904e+01    0.8835421    0.3228927  34.48  0.003155829    3.030    0.670
       190  -9.3446    170.3895     77.8242   7.4125124930e+01   3.1344304140e+01     0.242189    0.1972094  80.19 0.0007175048    1.304    0.233
       191 -10.4878    127.4958    241.4966   1.1554050436e+02   8.6753802248e+00    0.2441052    0.1553516 -44.34  0.001469812    1.937    0.484
       192 -10.1812     93.7529     76.4424   9.2952753947e+01   4.9778548358e+01      0.64646    0.3472076  36.54  0.002352237    2.026    0.506
       193 -11.7080     85.4370     73.3700   9.4892397013e+01   5.2225923891e+01    0.8587337    0.5579265  52.16  0.003696785    1.582    0.368
       194  -8.8175    163.6786    243.3486   1.0833756860e+02   3.7288068278e+00    0.1103093   0.08307003  47.56 0.0007048968    1.741    0.425
       195 -10.0013    134.9298     77.4691   8.1373461655e+01   3.9923782578e+01    0.4363518    0.1883718  59.33   0.00149891    2.578    0.612
       196  -9.6202    126.9933     76.9402   8.3187550948e+01   4.1949142314e+01    0.2333061    0.2223174  76.62 0.0003142932    1.012    0.011
       197 -12.0365    186.6028     70.6205   6.9570041750e+01   2.8768392403e+01    0.8334766    0.5744411 -39.09  0.003106254    1.356    0.262
       198  -9.8379    184.2874     61.2709   6.7449515865e+01   3.0717407044e+01    0.2845921    0.2444611 -47.94  0.001106274    1.091    0.084
       199 -10.4368    165.8765     83.4930   7.6489355706e+01   3.1427084223e+01     0.411321    0.3268026 -58.15  0.001709873    1.276    0.216
       200 -12.2084     40.8309     69.9085   1.1323267368e+02   6.0694543735e+01    0.5681449    0.3264507 -58.33  0.001389398    1.682    0.405
       201 -11.3062     32.5127     71.9780   1.1799432968e+02   6.1152516106e+01     0.636754    0.3018961  24.83  0.002330116    2.152    0.535
       202  -9.4669    151.7140     73.4692   7.6456512112e+01   3.6554695314e+01     0.356447    0.1204205  48.18  0.001143844    3.117    0.679
       203 -10.0182    128.4994     64.8631   7.8974665871e+01   4.3819587391e+01    0.5617814    0.3646614 -29.54  0.001893699    1.772    0.436
       204 -10.2821    123.3262     72.9478   8.2888775217e+01   4.3604572807e+01    0.4318328    0.3313036 -75.27 0.0003886021    1.563    0.360
       205 -11.2116    123.5101     68.5000   8.1409699055e+01   4.4396230983e+01     0.426482      0.35884 -67.62  0.001036359    1.268    0.211
       206 -10.6688    120.3037     68.6840   8.2312232027e+01   4.5149053215e+01      0.30907    0.2778194  73.33 0.0006247739    1.098    0.089
       207 -10.8579     79.1145     67.4556   9.5264320892e+01   5.4819154124e+01    0.5550049    0.4200591  60.87  0.002193931    1.477    0.323
       208  -9.9022    162.0104     70.6541   7.3649669346e+01   3.4533696314e+01    0.3371621    0.2442045  88.06   0.00112185    1.609    0.379
       209 -10.6565    171.6492     66.8108   7.0892023416e+01   3.2843276429e+01    0.6106898    0.2867956 -48.18  0.002465648    2.135    0.532
       210 -11.2932    219.7542     66.5254   6.4297641989e+01   2.2271627715e+01    0.5888947    0.3194064  59.64  0.002620922    2.049    0.512
       211  -8.8093    111.5899     67.2582   8.4255603924e+01   4.7537351616e+01    0.1617625     0.119222  84.74  0.000695221    1.737    0.424
       212  -9.8911     21.3071     65.2839   1.2229912900e+02   6.3889260605e+01    0.3705187    0.2242493  59.67  0.001268633    2.139    0.532
       213  -9.0533     25.8378     65.1983   1.1980019953e+02   6.3511914229e+01    0.2161996    0.1729923  -7.24 0.0003096765    1.325    0.245
       214  -9.6673    192.4830     65.7904   6.7483505493e+01   2.8175244761e+01    0.2653845    0.1899212 -68.24 0.0007764437    1.479    0.324
       215  -9.6847     33.2222     77.6274   1.1900916117e+02   5.9648256146e+01    0.2352807    0.1990025 -52.34  0.001270997    1.124    0.111
       216  -9.5061     53.5705     65.9702   1.0578873840e+02   5.9820045495e+01    0.3062047    0.1774432  49.31  0.001236132    1.976    0.494
       217 -10.2923    106.3111     63.6825   8.4582694320e+01   4.9488274310e+01    0.3953235    0.3470286   5.33  0.002001614    1.359    0.264
       218 -10.6020    101.8796     57.1014   8.3577834284e+01   5.1780189962e+01    0.5619648     0.381903 -53.83  0.001998362    1.643    0.392
       219  -9.8783     98.5615     61.9729   8.6392014148e+01   5.1651471302e+01    0.4220074    0.3566429   8.93  0.002090011    1.439    0.305
       220  -9.9500     84.4387     62.2843   9.1394818017e+01   5.4779266090e+01    0.4326842    0.2584409 -37.11  0.001831863    1.836    0.455
       221 -11.2346     91.3341     62.5990   8.9037086091e+01   5.3190176640e+01    0.5694418    0.4503115  61.62  0.001155166    1.319    0.242
       222 -10.5065     91.4844     57.5169   8.7114605472e+01   5.4146879081e+01     0.361548    0.2872683  49.36 0.0009941186    1.201    0.167
       223 -10.7963     87.5994     56.7936   8.8201489458e+01   5.5168805653e+01    0.5371087    0.2771381 -40.26  0.001779722    2.047    0.512
       224  -9.6856    198.1130     62.8628   6.5994183808e+01   2.7352109623e+01    0.2878363    0.1851484 -80.61  0.001182745    1.893    0.472
       225 -10.7608    159.6016     61.6332   7.1482172320e+01   3.6588741779e+01    0.5098842    0.3968474  19.98   0.00249641    1.770    0.435
       226 -11.1317    157.6708     55.0970   6.9884983995e+01   3.8086692720e+01    0.5579269     0.336215 -38.24  0.002372446    1.634    0.388
       227 -11.3127    155.1358     49.5942   6.8654883043e+01   3.9550455778e+01    0.4374804    0.2851051 -22.21  0.000500216    1.868    0.465
       228 -10.6236    149.4174    237.4444   1.1045863389e+02   6.4177643847e+00    0.3556493    0.1823452  32.80  0.001953345    1.555    0.357
       229  -8.7759    199.3256    235.2995   1.0050387294e+02   4.1932279601e-01    0.1177688   0.07054288   2.16 0.0007027674    1.633    0.388
       230 -11.1600    123.7305     57.4886   7.7686783466e+01   4.6303429393e+01    0.8145481    0.5749084  18.52   0.00348603    2.131    0.531
       231 -11.1391    117.7142     56.0398   7.8708749063e+01   4.8067429254e+01    0.9216592    0.6335019  19.05  0.003840796    2.239    0.553
       232 -11.5100    113.0888     49.7259   7.7660338594e+01   5.0295881772e+01    0.7133911    0.6103551  64.02  0.003662939    1.105    0.095
       233 -10.6788    197.9520    231.9252   1.0026740319e+02   1.0162350054e+00    0.3566321    0.1601205  25.29  0.001924175    1.940    0.484
       234  -9.7092     15.1009    233.7065   1.3989806130e+02   2.3329785297e+01    0.1971498    0.1561281  86.79  0.001058898    1.365    0.267
       235 -12.0024    105.8279     32.8819   7.3070931232e+01   5.4714341971e+01     0.577846    0.3483272  29.50  0.001805619    2.313    0.568
       236  -9.5679     23.3749    231.7963   1.3800434169e+02   2.2912907942e+01     0.209482    0.1169693  41.55 0.0007144324    1.323    0.244
       237 -12.3059    105.9958     20.1162   6.7764896455e+01   5.6301402761e+01    0.2869551    0.2665133 -14.22 0.0003695481    1.228    0.186
       238  -9.3892    147.4176     60.6255   7.3467985493e+01   3.9788406380e+01    0.3681956    0.1454525  64.19   0.00125496    2.773    0.639
       239  -9.1349    132.0384     45.4998   7.1689141031e+01   4.6095921167e+01    0.2274209    0.1380588  59.61 0.0004978578    1.542    0.351
       240  -9.7906    247.4570    231.1194   9.1893062803e+01  -4.3830465365e+00    0.1484186   0.08179856 -25.80 0.0006956464    1.570    0.363
       241 -10.8990    140.0796     43.5042   6.9416025791e+01   4.4303266769e+01    0.7367146     0.467677  38.79  0.002427505    1.950    0.487
       242 -10.8308    136.4505     56.3721   7.4385101178e+01   4.3259176886e+01    0.6424943    0.4766394  13.40  0.002656884    1.988    0.497
       243 -10.2403    133.7694     49.8514   7.2800704280e+01   4.4984242001e+01    0.5008246    0.2780715 -62.72  0.001420305    2.440    0.590
       244 -11.2931    146.0282     45.9755   6.9121006719e+01   4.2407311094e+01    0.6959901    0.3820733 -25.73  0.002714987    2.162    0.537
       245  -9.3712      2.1068     56.1358   1.3146751828e+02   6.7316843521e+01    0.1988602    0.1488378 -39.22 0.0005682876    1.241    0.194
       246  -9.6944    187.8727     55.2014   6.5350489500e+01   3.0768874293e+01    0.2902466    0.1718477  58.57   0.00141373    1.756    0.431
       247  -9.8813     66.9478     54.5854   9.5527307003e+01   5.9960216507e+01     0.309972    0.2197717 -58.63 0.0009486948    1.637    0.389
       248  -9.6317    210.6047     52.8789   6.2071995408e+01   2.6029407401e+01    0.2079417    0.1740771  60.83 0.0007234957    1.361    0.265
       249 -11.2553    201.6272     46.7768   6.1535957236e+01   2.8797986750e+01    0.7059256    0.3956006 -52.05  0.003540649    1.631    0.387
       250 -10.1301    244.5168     50.9722   5.8500178603e+01   1.9553615548e+01     0.245739    0.1570105 -39.41 0.0009789782    1.262    0.208
       251 -10.9298    240.2629     50.3736   5.8718932439e+01   2.0415454964e+01    0.3043824    0.2518231 -54.12 0.0006597056    1.049    0.047
       252  -9.3166     54.9351     51.1331   9.9743928103e+01   6.2887335219e+01    0.1965458    0.1589979   9.99  0.000717579    1.340    0.254
       253 -10.9457    174.2611     48.1101   6.5264049098e+01   3.5006175133e+01    0.5944707    0.3903507  78.79  0.002544147    1.565    0.361
       254  -9.8353    175.8259     43.1877   6.3666282370e+01   3.5301640229e+01    0.3435283    0.2278365 -76.95  0.001198727    1.608    0.378
       255  -9.2453    227.6701     49.6527   5.9646259449e+01   2.2935439994e+01    0.1165282   0.09579895  15.30 0.0007049555    1.760    0.432
       256 -10.2725    145.3333     52.1629   7.1226370424e+01   4.1658399835e+01    0.4071561     0.313207  48.81  0.001537959    1.365    0.267
       257  -9.9994     90.8878     47.7892   8.3547624450e+01   5.6066821049e+01    0.3238803     0.257546 -49.02 0.0009838466    1.351    0.260
       258 -10.1618     13.7143     46.7051   1.2209002826e+02   6.8982215452e+01    0.4964848    0.1961942 -30.39  0.001866148    3.154    0.683
       259 -10.1520     17.9053     41.7654   1.1780428291e+02   6.9804661521e+01    0.4369208    0.2389931 -29.53  0.002063449    1.959    0.490
       260  -9.6424      2.2969     48.7785   1.2999654860e+02   6.9105199704e+01    0.2399063    0.2226747 -10.61 0.0009965374    1.140    0.123
       261  -9.0626      4.2800     44.0686   1.2767910261e+02   7.0149930627e+01    0.5306783    0.3150336 -34.68  0.001818329    1.575    0.365
       262  -9.4097    209.4230     47.1782   6.0815866993e+01   2.7036448633e+01    0.2015724    0.1435112  84.15 0.0007529017    1.462    0.316
       263  -9.7928    195.1162     46.7334   6.2250365956e+01   3.0271283798e+01      0.45351    0.2109275 -81.70  0.001613016    3.699    0.730
       264  -9.9268    234.3899     45.5408   5.8151530226e+01   2.2133222499e+01    0.2698515    0.1452053 -63.57 0.0009107513    1.916    0.478
       265 -10.5226    162.6581     44.0717   6.5779578125e+01   3.8441521658e+01    0.2778357    0.2328911  80.89 0.0009155046    1.131    0.116
       266  -9.4967    101.4890     44.5144   7.8913566566e+01   5.4053052779e+01    0.2672824    0.2007371 -80.68 0.0009304847    1.682    0.406
       267 -11.0398     94.9262     41.3218   7.9616096701e+01   5.6183205167e+01    0.7691087     0.323299  55.84  0.002855831    2.254    0.556
       268 -11.5144    156.0112     41.9191   6.6153085234e+01   4.0422834876e+01    0.3861034    0.3688157 -56.76  0.001003592    1.122    0.108
       269 -10.9260    153.2938     36.2622   6.4814909247e+01   4.1881915576e+01    0.3433089    0.2586206 -69.07 0.0005504982    1.316    0.240
       270 -10.8174    189.2574     41.4563   6.1542740875e+01   3.2321970304e+01    0.4616824    0.2652837 -24.47  0.001009884    1.991    0.498
       271  -9.9055     86.9815     29.2109   7.6911561010e+01   5.9954663437e+01    0.4540189    0.2389189 -15.73  0.001719012    2.952    0.661
       272 -10.9951     80.8523     39.7623   8.3722130397e+01   5.9773577275e+01    0.6802229    0.3839283  51.88  0.002842511    1.674    0.403
       273 -10.8749     77.6089     34.3231   8.2496458217e+01   6.1402645615e+01    0.4461657    0.2721872  50.90  0.001002032    1.523    0.343
       274 -10.1207     81.7403     31.1136   7.9531393394e+01   6.0935773417e+01    0.4201418    0.2977013 -59.14  0.002018281    1.785    0.440
       275 -10.1536    231.6797     39.3931   5.7011324572e+01   2.3414325736e+01    0.2964933    0.1601796 -50.75 0.0007739092    1.534    0.348
       276  -9.1866    217.8120     38.8196   5.8028271785e+01   2.6308934841e+01    0.1854473    0.1224925 -59.06 0.0005964143    1.337    0.252
       277 -11.4218    176.0727     36.0820   6.1634500398e+01   3.6173797752e+01    0.6521106    0.3954573 -64.93  0.002472804    1.698    0.411
       278 -10.7572    189.3063     28.3871   5.8070904726e+01   3.3938171583e+01    0.5218374    0.2773368 -24.02  0.002449051    2.156    0.536
       279 -10.1662    242.1550    231.0114   9.2691751082e+01  -3.8322183839e+00    0.2017989    0.1596909  25.57  0.001594042    1.630    0.387
       280 -10.7469    176.7818     29.9050   5.9810751051e+01   3.6768499832e+01    0.4157571     0.226672  54.85  0.001292668    1.972    0.493
       281 -11.6850    183.0208     25.2442   5.7851752242e+01   3.5805228109e+01    0.5863758    0.3350449  59.78  0.002935156    1.814    0.449
       282  -9.7921    206.8171     37.1681   5.8626145794e+01   2.8877328876e+01     0.222454     0.180319 -58.68 0.0006644779    1.040    0.038
       283  -9.6031    133.2829     37.0380   6.8518336956e+01   4.6986223454e+01    0.4401082    0.2490992 -70.21  0.001733491    2.424    0.587
       284 -10.0985      5.0752     35.7962   1.2499601116e+02   7.2042910867e+01    0.4594026    0.2647352   8.28  0.002433496    1.798    0.444
       285  -8.8912      6.7673     30.6558   1.2213586939e+02   7.3112620172e+01    0.5405811    0.2384622 -10.87   0.00191456    2.788    0.641
       286  -9.1948      9.7295    227.6367   1.4088256672e+02   2.5000296470e+01    0.1004076   0.08583264 -46.52 0.0004956483    1.655    0.396
       287  -9.7111    234.1081    222.9283   9.2743901762e+01  -2.0554725774e+00    0.1800184    0.1024884  -0.61 0.0008663503    1.685    0.407
       288  -9.2756      9.8309    217.8186   1.4054811070e+02   2.6965900863e+01    0.1752727    0.1034532  54.28  0.000660988    1.307    0.235
       289 -10.3680    165.4809    212.6545   1.0369825478e+02   8.0508137325e+00    0.2423886    0.1659248  47.22  0.000970919    1.767    0.434
       290  -9.8227    248.4929     33.2906   5.4503705613e+01   2.0931531661e+01    0.2560464    0.1538524 -42.84  0.001607936    1.281    0.219
       291 -11.1613    240.0461     32.1164   5.4813919842e+01   2.2647931533e+01    0.3932926    0.3479992  49.66  0.002830144    1.530    0.346
       292  -9.6898    152.9316    207.9401   1.0563542658e+02   1.0636252904e+01    0.1940344    0.1497085  53.78 0.0008317231    1.651    0.394
       293 -10.8602    147.7795     31.5104   6.4147537772e+01   4.3922636118e+01    0.2914857    0.2499674 -64.02  0.000659595    1.118    0.105
       294  -9.0395     61.1482    207.1479   1.2746768747e+02   2.3794396874e+01    0.1877103    0.1263014  51.09 0.0004403766    1.288    0.224
       295  -9.0204    243.3173    206.3178   8.8696065468e+01  -1.1003600347e+00    0.1146521   0.06691995  -3.40 0.0003782767    1.655    0.396
       296 -10.7198      4.2747    204.7619   1.4143328594e+02   3.0180670500e+01    0.2892999    0.1487543 -70.30  0.001576375    2.118    0.528
       297  -9.9465    238.8078    204.2409   8.9057079670e+01  -3.3244305947e-01    0.2326496    0.1240826 -22.36  0.001416746    1.661    0.398
       298  -9.3505    145.9134     16.6607   5.9538121267e+01   4.6139800301e+01    0.4382207    0.2544267  66.22  0.001689719    1.558    0.358
       299 -10.4835     68.7526     32.7678   8.5273771038e+01   6.3625885172e+01    0.4931162    0.2922269  51.42  0.002273167    1.625    0.384
       300  -9.3742    216.4215     32.4265   5.6642652088e+01   2.7376023219e+01     0.209863    0.1509494   6.73 0.0009687183    2.300    0.565
       301 -10.4895    245.6151    200.8977   8.7468175081e+01  -7.0359218784e-01    0.1847067    0.1239289   9.17  0.000640111    1.312    0.238
       302 -10.8687     58.1105     61.8399   1.0223768297e+02   6.0016305981e+01    0.5997693    0.4856191  74.29  0.002981695    1.570    0.363
       303 -10.0896    182.3803     32.1419   5.9806410609e+01   3.5135620049e+01    0.2197662    0.1780639  67.63 0.0006201805    1.278    0.217
       304  -9.8558    230.7939     27.9991   5.4549362304e+01   2.4929496411e+01    0.3581392     0.133419 -34.49  0.001703217    2.184    0.542
       305  -9.4156    221.4281     29.5972   5.5588461543e+01   2.6656312943e+01    0.2154907    0.1339306 -38.57 0.0006806626    1.390    0.280
       306  -9.1985    210.8206     29.8395   5.6488434235e+01   2.8885946217e+01    0.1869085    0.1226242 -59.92 0.0005918519    1.331    0.249
       307 -11.5331     98.5070     27.2229   7.2641591044e+01   5.7353517690e+01    0.3868145    0.2842811 -48.35 0.0005230628    1.493    0.330
       308  -9.7039    250.5634     26.5584   5.2988882643e+01   2.1311437498e+01    0.2314504   0.08940136 -33.45 0.0006433374    2.093    0.522
       309  -8.7160     41.6181     27.1458   9.6016835804e+01   6.9828369144e+01    0.1635246    0.1210738 -25.30 0.0003138783    1.399    0.285
       310 -10.5979    214.3238     23.7099   5.4748049733e+01   2.8834947408e+01    0.3628031    0.2824909 -29.95  0.001968234    1.376    0.273
       311  -9.2739    169.5089     23.7254   5.8861536184e+01   3.9300179610e+01    0.2519738     0.148334  62.69  0.001238618    1.658    0.397
       312  -8.5226    207.3162    201.3319   9.3832094515e+01   3.9651963361e+00    0.1261081   0.07872935  -2.17 0.0007046802    1.686    0.407
       313  -9.8459     80.7476     19.1356   7.4163183219e+01   6.2812499237e+01    0.3593788    0.2088715  54.47 0.0007328737    1.523    0.343
       314  -8.6969      1.3206    200.2958   1.4201116547e+02   3.1383658365e+01    0.1067632   0.09016375 -41.38 0.0003843942    1.615    0.381
       315 -10.2406    234.4613    196.9375   8.8537718398e+01   1.1025735998e+00    0.3383987      0.21544  -0.59  0.001687311    1.485    0.327
       316 -10.3996     47.0549     19.1146   8.8465911662e+01   7.0200033059e+01    0.3187202    0.2734796 -10.96  0.001223514    1.172    0.147
       317 -12.2761      4.7183    184.5013   1.4063425447e+02   3.4652839089e+01    0.7166113    0.4723915  64.97  0.004276838    1.268    0.212
       318 -10.1983     38.7382     21.6858   9.4797312324e+01   7.1261888363e+01    0.3194759     0.212771 -28.37  0.001140931    1.575    0.365
       319 -10.0059    169.7098    191.4906   9.9431731126e+01   1.0886745951e+01    0.3381222    0.1644435  25.75  0.001147891    2.150    0.535
       320  -9.8993    239.8638    184.6650   8.5615666163e+01   2.0278519858e+00    0.1966505    0.1268514 -18.47 0.0006463028    1.310    0.237
       321  -9.6555     74.3116     19.6882   7.6629419368e+01   6.4281134802e+01    0.2521922    0.1672398  62.69 0.0008260275    1.501    0.334
       322 -10.2508    213.2425    182.2436   8.9512255662e+01   5.8902518141e+00    0.2582778    0.2193266  43.31  0.001718365    1.555    0.357
       323  -9.5334    250.2363    179.7548   8.3230553114e+01   1.3870640221e+00    0.2052464    0.1145187 -31.79  0.001278623    1.513    0.339
       324  -9.6361    100.9758    175.9822   1.1328584045e+02   2.5019570270e+01    0.2035377    0.1815214  39.17            0    1.006    0.005
       325  -9.3212     28.2992    175.9987   1.3375012420e+02   3.4587367516e+01    0.1913621    0.1606487  74.66  0.001161008    1.095    0.087
       326  -9.0065    230.4455    175.4940   8.5463550423e+01   4.4804227869e+00    0.1195582   0.09492583 -10.60  8.92864e-05    1.012    0.012
       327 -11.1084     31.1784     28.3037   1.0320883564e+02   7.1199678996e+01    0.5203889    0.3945996  51.84  0.001917168    1.675    0.403
       328  -9.9968     51.9021    173.4085   1.2675758922e+02   3.2616131686e+01    0.3416535    0.1875921  82.31  0.001430874    2.185    0.542
       329  -9.7838    247.3469    173.9901   8.2641677940e+01   2.4846333169e+00     0.310434    0.1357691  20.40  0.001347907    3.804    0.737
       330 -10.3516    211.3280     18.7672   5.3790914072e+01   3.0033008304e+01    0.2148629    0.1857842 -87.21 0.0002579075    1.182    0.154
       331  -9.8459    206.4225     18.2775   5.4028416059e+01   3.1165846063e+01    0.4082505     0.161658 -64.87  0.001694544    2.798    0.643
       332  -9.0391     92.5126    174.4994   1.1536470919e+02   2.6685061206e+01    0.1458738    0.1306753  42.94 0.0001407631    1.001    0.001
       333  -9.8226     39.5143    173.5006   1.3034754505e+02   3.4026584553e+01     0.253342    0.1700231 -73.44 0.0007818245    1.524    0.344
       334 -10.5217     35.6115    170.3129   1.3120654931e+02   3.5223622585e+01    0.4597245    0.2365396  72.53  0.002038156    2.119    0.528
       335  -8.5722    170.6490    172.2568   9.5814233105e+01   1.4067989842e+01     0.127214    0.1054973  60.77 0.0003823683    1.603    0.376
       336 -11.9216      9.8906    166.3817   1.3842011324e+02   3.8545306255e+01    0.6490003    0.4318955 -77.77  0.002842349    1.461    0.315
       337 -10.8716     13.9645    157.9036   1.3673970115e+02   4.0316848366e+01     0.456338    0.2248752 -86.22  0.002133311    1.935    0.483
       338  -9.4464    223.4304     22.3368   5.3781907861e+01   2.7066901261e+01    0.2156549    0.1359586  88.25  0.000653418    1.583    0.368
       339  -9.0818    201.4034    169.1838   8.9218018283e+01   9.6206784493e+00    0.1791696    0.1522629 -20.60 0.0005448739    1.105    0.095
       340  -9.0428    197.9861    167.9862   8.9616619940e+01   1.0345332592e+01    0.1633593    0.1556718 -42.04 0.0005533473    1.330    0.248
       341  -9.1314     57.2876    174.9811   1.2537280282e+02   3.1567758705e+01     0.187788    0.1720127  65.80  0.000405516    1.064    0.060
       342  -9.6560    219.5783     12.6873   5.1824857281e+01   2.8915134062e+01    0.2858059    0.1349742  74.65  0.001496115    2.123    0.529
       343  -9.9348     40.3227    163.9376   1.2923079953e+02   3.6291938939e+01    0.5642213    0.1729499 -73.19  0.001976869    3.290    0.696
       344 -10.0828     18.9546    165.0534   1.3570279724e+02   3.8123518601e+01    0.3114079    0.2564503  21.26   0.00187144    1.329    0.248
       345  -9.9873    188.9305    164.0757   9.0573817202e+01   1.2447305585e+01    0.3024608    0.1788921 -28.89  0.001040579    1.721    0.419
       346 -10.4299     28.3816    162.4341   1.3270222546e+02   3.7906440263e+01    0.5446754    0.2001508 -79.06  0.002117577    2.748    0.636
       347  -9.7925    204.9818    163.0013   8.7401670787e+01   1.0037789076e+01    0.3313571    0.2188667  47.57   0.00182247    1.820    0.451
       348  -9.6624    208.2261    160.9555   8.6439223175e+01   9.8503792796e+00    0.4993555    0.1849957 -49.22  0.001735815    4.321    0.769
       349  -9.4189     79.3862    160.1836   1.1698112481e+02   3.2081645731e+01    0.2095146    0.1393109 -83.94 0.0009491001    1.808    0.447
       350 -10.2354    246.4987    158.5189   7.9979573217e+01   4.6460096749e+00    0.2491624   0.09494723 -34.72  0.001218232    2.190    0.543
       351 -10.4985    105.0462    154.5317   1.0857911948e+02   2.9233189538e+01    0.4527481    0.3833644 -58.48  0.002378284    1.265    0.210
       352 -10.1629      8.9255    155.9770   1.3815317578e+02   4.1186208777e+01    0.2765794    0.1750607 -72.71  0.001485628    1.533    0.348
       353  -8.8420    223.7030    156.6778   8.3044742448e+01   8.1324435446e+00    0.1259237   0.08503746  -4.92 0.0007021454    1.621    0.383
       354 -10.8272     31.4863    152.8408   1.3091004087e+02   4.0026922927e+01    0.5659124    0.3504432  82.61  0.002770849    1.631    0.387
       355 -11.5288     15.2700    147.7762   1.3566451313e+02   4.2773954119e+01    0.7275661    0.3484835  52.34  0.002433151    1.931    0.482
       356 -11.9249     12.7373    138.5248   1.3582876896e+02   4.5348399435e+01     2.230873    0.7450638  76.03  0.007231434    3.940    0.746
       357 -11.0861     21.2820    150.6967   1.3396600614e+02   4.1528213435e+01    0.2748562    0.2144987  64.18 0.0003923974    1.150    0.131
       358 -11.5080     23.7186    148.6555   1.3302077883e+02   4.1836104873e+01    0.3277068    0.2632833 -46.74 0.0007099686    1.429    0.300
       359 -10.2380      3.1707    152.6089   1.3972789001e+02   4.2431115472e+01    0.3857539    0.1988954  69.59  0.001885709    1.776    0.437
       360 -11.1720      3.7104    147.2791   1.3929738003e+02   4.3733193634e+01    0.5454511    0.3219627  26.00  0.002044135    1.702    0.412
       361 -11.6008      3.9083    142.1383   1.3896260880e+02   4.5023843750e+01    0.4721429    0.3571934  11.99  0.002751732    1.516    0.340
       362 -12.0198      3.9499    137.0049   1.3866122566e+02   4.6333954591e+01    0.2671503     0.223207 -76.35 0.0003164008    1.163    0.140
       363 -10.1811     72.0186    152.2847   1.1801698431e+02   3.5134888865e+01     0.536144    0.2593144  43.12  0.002176916    1.908    0.476
       364  -9.9015     47.9482    151.8710   1.2555969105e+02   3.8467368335e+01     0.349285    0.2730728  25.57  0.001071629    1.318    0.241
       365 -11.2479     47.7182    146.8475   1.2501687310e+02   3.9788075146e+01    0.5336593    0.3724783 -83.88   0.00177722    1.459    0.315
       366 -10.4327    214.7673    150.8905   8.3366076882e+01   1.0383276622e+01    0.3170396    0.1769334 -39.16  0.001338969    1.663    0.399
