#   1 NUMBER                 Running object number                                     
#   2 MAG_AUTO               Kron-like elliptical aperture magnitude                    [mag]
#   3 X_IMAGE                Object position along x                                    [pixel]
#   4 Y_IMAGE                Object position along y                                    [pixel]
#   5 X_WORLD                Barycenter position along world x axis                     [deg]
#   6 Y_WORLD                Barycenter position along world y axis                     [deg]
#   7 A_WORLD                Profile RMS along major axis (world units)                 [deg]
#   8 B_WORLD                Profile RMS along minor axis (world units)                 [deg]
#   9 THETA_WORLD            Position angle (CCW/world-x)                               [deg]
#  10 FWHM_WORLD             FWHM assuming a gaussian core                              [deg]
#  11 ELONGATION             A_IMAGE/B_IMAGE                                           
#  12 ELLIPTICITY            1 - B_IMAGE/A_IMAGE                                       
         1 -12.8874    197.7353     33.0481   6.1907486581e+01   3.1445492175e+01     1.167212    0.8671482  34.74  0.005884474    1.456    0.313
         2 -13.7058    212.7393     14.9710   5.4854802575e+01   2.9616540458e+01     1.403719    0.9753557  28.32  0.007159017    1.738    0.425
         3 -11.3700      2.3128      4.9274   1.1758744928e+02   7.4341548243e+01    0.6413858    0.1231598 -58.43  0.002436053    3.770    0.735
         4 -11.2030    121.6606    244.6979   1.2281645245e+02   1.1784064882e+01     0.431883    0.2645988  60.27  0.002274503    1.805    0.446
         5 -10.8721    185.0158    250.3678   1.1217571262e+02   2.1781601348e+00    0.3862909    0.1079519  37.62  0.001770556    2.610    0.617
         6 -10.7066    169.5651    248.8339   1.1469512547e+02   4.5376226676e+00     0.272876    0.1620652  19.26 0.0007893865    1.789    0.441
         7 -11.2312    149.9780    248.5926   1.1813974882e+02   7.3374505049e+00    0.2748194    0.2324701 -81.21    0.0021204    1.762    0.433
         8 -12.4964    133.8776    248.6754   1.2101658051e+02   9.5710130802e+00     1.287905    0.2287033  38.38  0.004750945    4.084    0.755
         9 -12.2425    124.8137    240.4445   1.2182928680e+02   1.1944259761e+01     0.708357    0.2948257  33.77  0.003721659    2.071    0.517
        10 -10.9940    115.0600    250.3156   1.2450945373e+02   1.1897627312e+01     0.540749    0.2582642  33.97  0.001690274    1.759    0.432
        11 -11.7188    109.1522    246.0331   1.2518089233e+02   1.3274888148e+01    0.3814882    0.3259694  70.34 0.0008130817    1.292    0.226
        12 -10.9783     99.0877    247.5291   1.2709233523e+02   1.4370125865e+01    0.3324514    0.2125102  67.12  0.001871335    1.684    0.406
        13 -10.1536    102.5559    247.5041   1.2647772121e+02   1.3927619230e+01    0.1883909    0.1579369  51.59 0.0009323425    1.145    0.127
        14 -11.2851     87.9190    248.5778   1.2913122780e+02   1.5623196821e+01    0.4720684    0.2058214  45.25 0.0007118503    1.654    0.395
        15 -10.2063     81.8517    246.9787   1.3007241683e+02   1.6599355955e+01    0.2568003    0.1782695 -87.81  0.001746697    1.670    0.401
        16  -9.2271     62.5263    250.4666   1.3360322813e+02   1.8340693483e+01    0.1619401    0.0845791  29.10 0.0009513135    2.142    0.533
        17 -11.1725     60.5426    245.7070   1.3366253550e+02   1.9275514854e+01    0.3770637    0.2512545  50.52  0.001605444    1.088    0.081
        18 -10.2823     67.3430    243.8884   1.3238428925e+02   1.8778866578e+01    0.2974412    0.1430347  33.37  0.001838596    1.935    0.483
        19 -13.4171     10.5554    208.8042   1.4059083205e+02   3.0332109985e+01     1.816919    0.6326586 -64.53   0.01014192    3.139    0.681
        20 -13.1131     28.8001    246.8514   1.3898341486e+02   2.2413086800e+01    0.9738694    0.5136806  42.28   0.00642225    1.463    0.316
        21 -13.3032     40.0683    243.2601   1.3698329271e+02   2.1843480788e+01     1.061688    0.6036768  60.45   0.00672459    1.342    0.255
        22 -13.1951     13.7108    239.6957   1.4114935661e+02   2.4922112967e+01     0.837947    0.5183758  72.25  0.001798694    1.268    0.211
        23 -12.7860      5.4773    248.0826   1.4268581111e+02   2.4354468525e+01    0.7972816    0.4875666  43.30   0.00677345    1.372    0.271
        24 -12.3370      1.5074    240.7793   1.4310674859e+02   2.5806484389e+01    0.4828713    0.1175793 -75.69 0.0004135339    3.880    0.742
        25 -12.7984     32.1700    227.3347   1.3757652053e+02   2.5184237713e+01    0.4297132    0.2735231 -70.35  0.002106509    1.782    0.439
        26 -14.0492     38.7202    218.5330   1.3596329013e+02   2.6013379293e+01     1.205787    0.8339811  32.41   0.00890957    1.559    0.359
        27 -12.8600      3.1838    186.7815   1.4109989588e+02   3.4943075596e+01      1.49488    0.4200445 -79.36  0.007477019    3.049    0.672
        28  -9.8459     73.3580    247.2368   1.3156111233e+02   1.7575296801e+01    0.1859437    0.1282763  76.69  0.001425783    1.470    0.320
        29  -9.9623     73.7942    243.2736   1.3122213168e+02   1.8118459543e+01     0.218611    0.1363239  45.31  0.001385163    1.196    0.164
        30 -11.6954    176.5833    242.4672   1.1267665603e+02   4.2835171121e+00    0.3316156    0.2227077  47.07  0.001531458    1.524    0.344
        31 -10.2465    132.1850    223.3976   1.1860969359e+02   1.3367397813e+01    0.2117237    0.1727348 -63.27 0.0008900516    1.578    0.366
        32 -12.0264    135.8154    241.1579   1.1989476851e+02   1.0306760864e+01     0.384728    0.2955419  22.78  0.001835456    1.334    0.250
        33 -11.7515    135.3358    236.2289   1.1945462967e+02   1.1054040088e+01    0.3799397    0.2961605   8.15  0.001394325    1.598    0.374
        34 -11.1929    134.6600    231.3720   1.1904573418e+02   1.1837984728e+01    0.3050349    0.2340729  -9.47  0.001022197    1.845    0.458
        35 -10.5064     91.5441    225.5609   1.2661878397e+02   1.8683808752e+01    0.3543801    0.1326161  45.23  0.001409974    2.058    0.514
        36 -11.5737    112.9108    230.9293   1.2308883390e+02   1.4978163850e+01    0.4184373    0.2954188  34.99  0.001627229    1.231    0.188
        37 -11.6666     98.8493    232.8252   1.2589206340e+02   1.6583975682e+01    0.9013317    0.3733976 -78.44  0.003690454    5.502    0.818
        38 -10.3137     85.1405    235.0688   1.2859938024e+02   1.7996635241e+01    0.3193043    0.1616117  59.03  0.001910866    1.915    0.478
        39 -10.9403     84.6649    229.5801   1.2824850816e+02   1.8920076613e+01    0.2048454     0.184531 -57.80  0.001636164    1.475    0.322
        40 -11.5931    104.8957    227.7452   1.2429105994e+02   1.6563126512e+01    0.4340228    0.3002132  55.24  0.002683819    1.276    0.216
        41 -10.8014     98.4048    223.5435   1.2512859156e+02   1.8103227009e+01    0.3648965    0.2256356  38.12  0.001382203    1.342    0.255
        42 -10.8968     96.9813    239.5718   1.2681510228e+02   1.5804793150e+01     0.268446    0.2225213 -26.80  0.001186999    1.851    0.460
        43 -10.9324     91.1721    241.8368   1.2804390182e+02   1.6208515322e+01    0.3586443     0.192081  54.72  0.001570665    1.610    0.379
        44 -10.8351     89.9634    238.0786   1.2796275470e+02   1.6927275627e+01    0.2169488    0.1877367  68.37 0.0007735251    1.209    0.173
        45 -12.0195    143.5801    242.3821   1.1861382968e+02   9.0428381986e+00    0.4317518    0.3323653  11.28  0.003092065    1.521    0.343
        46 -10.6631    142.2064    221.6639   1.1646891346e+02   1.2134998639e+01     0.328617    0.1900407  31.89  0.001031269    1.496    0.331
        47 -10.9905    135.9938    224.6010   1.1801772507e+02   1.2627596524e+01    0.3473675    0.2384818 -51.98  0.000962798    1.861    0.463
        48 -11.5662    244.9010    240.9434   1.0077659422e+02  -5.0964869660e+00    0.2348407    0.1548954 -30.98  0.001661614    2.044    0.511
        49 -11.0458    166.3595    242.0427   1.1445563537e+02   5.8137206422e+00    0.2915371    0.1275967  38.88  0.001611916    1.698    0.411
        50  -9.7108     53.7947    240.6002   1.3452443068e+02   2.0805667401e+01    0.1627751    0.1219801  87.01 0.0006526756    1.369    0.269
        51 -11.0126    116.8329    238.1498   1.2306548829e+02   1.3370983191e+01    0.3336847    0.2323195 -28.07  0.001858233    2.338    0.572
        52 -10.9553    105.5088    237.4333   1.2507633873e+02   1.5005319775e+01     0.270967     0.239454 -14.65  0.002101313    1.615    0.381
        53  -9.1780     61.5688    238.9426   1.3307953694e+02   2.0200168756e+01    0.1691514    0.1139729  39.63 0.0007550264    1.310    0.236
        54 -10.5711     84.4991    240.8184   1.2915686866e+02   1.7195089072e+01    0.3069652    0.2192915  64.85  0.002314093    1.288    0.224
        55 -12.0384    123.4365    233.4755   1.2137483576e+02   1.3134157954e+01     0.644631    0.2491801  41.60   0.00333996    1.946    0.486
        56  -9.2731    216.2986    243.3303   1.0586705194e+02  -1.4623851514e+00    0.1146095   0.06612119  13.91 0.0002623599    1.642    0.391
        57 -10.2923    250.0217    230.3573   9.8335221255e+01  -4.7987273732e+00    0.1894614    0.1083937 -34.79  0.001187263    2.405    0.584
        58 -10.5321    156.7038    231.8907   1.1498208857e+02   8.5321824140e+00     0.214512    0.1826454  13.51 0.0004797234    1.240    0.194
        59 -11.2820    242.9604    246.9346   1.0196639170e+02  -5.3804278006e+00    0.3521143    0.1204654  29.85  0.001832465    2.295    0.564
        60  -9.6485     54.9801    235.7513   1.3403999348e+02   2.1438452271e+01    0.2462709    0.1274312  51.80 0.0009984486    1.447    0.309
        61  -9.2835     77.2368    220.9589   1.2894514053e+02   2.1255492095e+01    0.2092379    0.1283854  64.58 0.0004431732    1.557    0.358
        62  -9.8855     80.7002    226.6988   1.2875441005e+02   1.9879994480e+01    0.2600353      0.20288 -32.33  0.001402128    2.045    0.511
        63  -9.6577     78.6984    224.6970   1.2896932461e+02   2.0455269402e+01    0.1763662    0.1599806 -44.42  0.000788083    1.542    0.351
        64  -9.5904    142.0451    227.0480   1.1715151222e+02   1.1377391674e+01    0.1802387    0.1231896  59.05 0.0006995925    1.695    0.410
        65 -10.4524    117.0326    224.5065   1.2164949621e+02   1.5384829862e+01    0.2732087    0.1949717  31.16 0.0004310665    1.308    0.236
        66  -9.3255     64.9064    224.6788   1.3153956113e+02   2.2114601397e+01    0.1572975    0.1399542 -74.49  0.000963705    1.400    0.285
        67  -9.3591    159.8214    223.7647   1.1336274984e+02   9.1667780214e+00    0.1999396    0.1171319   8.77 0.0009610124    2.855    0.650
        68 -10.8650    246.0058    219.7332   9.7298927626e+01  -3.2272380084e+00    0.2962035    0.1250755 -19.63  0.001532115    2.640    0.621
        69 -10.3280     70.1745    218.4597   1.3009187927e+02   2.2537524845e+01    0.4305927    0.2417436  81.47  0.002592925    2.074    0.518
        70  -8.9080     89.0087    218.5292   1.2647585303e+02   2.0166702869e+01    0.1677323     0.091536  39.64 0.0004549108    1.491    0.329
        71  -9.0999     62.4655    218.0182   1.3152225725e+02   2.3521295166e+01    0.1207494   0.08665029 -42.70 0.0004195455    2.141    0.533
        72  -8.8125    118.5129    217.5627   1.2060761270e+02   1.6262901235e+01    0.1186021    0.0951076  40.66 0.0001295889    1.047    0.045
        73 -10.3303    137.3148    214.4805   1.1653028110e+02   1.3956638206e+01    0.2215053    0.1800594  76.75  0.001134562    1.574    0.365
        74  -8.4781    159.7993    213.9674   1.1204433792e+02   1.0552140595e+01    0.1341204   0.09836242 -40.66 0.0004879767    1.682    0.405
        75  -9.4829     88.1669    212.8904   1.2612070982e+02   2.1230299323e+01    0.2069091    0.1423899  83.63 0.0009555942    1.640    0.390
        76  -9.7504    101.9895    211.6058   1.2324198729e+02   1.9583298799e+01    0.2764042    0.1118915  49.71  0.001323696    2.261    0.558
        77  -9.1836    106.8448    209.8947   1.2208342127e+02   1.9191431688e+01    0.1688069    0.1518116  22.29 0.0006284414    1.279    0.218
        78 -10.2400     91.8599    204.7479   1.2458093393e+02   2.2156424409e+01    0.5024197    0.2083738  35.76  0.001951009    2.117    0.528
        79  -9.6559    112.5444    208.1980   1.2074015544e+02   1.8660493557e+01    0.2052288    0.1692719  28.61 0.0007151832    1.242    0.195
        80 -12.2455     18.7272    216.8511   1.3946353406e+02   2.8219241023e+01    0.8359472    0.5517944  -4.56  0.002060191    3.658    0.727
        81  -9.2737     74.6231    208.2449   1.2838953749e+02   2.3769078322e+01    0.2288702    0.1135765  37.60  0.001295821    1.726    0.421
        82 -10.8932    246.6915    206.4731   9.4967820679e+01  -1.9619130794e+00    0.4513018    0.1838163  22.89  0.002060169    2.697    0.629
        83 -10.2630    250.1668    200.9138   9.3424309591e+01  -1.8743834784e+00      0.28896    0.1323765 -11.14  0.001380141    2.672    0.626
        84  -9.0546     32.8576    207.0652   1.3641803456e+02   2.8612928485e+01    0.1314324    0.1194924 -53.58 0.0004081948    1.558    0.358
        85  -8.8328    125.6492    205.8783   1.1779235101e+02   1.7103657721e+01    0.1504788    0.1146844 -77.23 0.0005499799    1.705    0.414
        86  -8.3877    148.6683    205.6653   1.1309059784e+02   1.3555901216e+01    0.1255063   0.08955102   9.40 0.0007052202    1.731    0.422
        87  -8.6639     74.7239    203.6826   1.2796740292e+02   2.4573182055e+01    0.2450541    0.1419737  20.71 0.0009365049    2.442    0.591
        88  -9.4531    103.3806    203.0090   1.2202722691e+02   2.0866998062e+01    0.3148825      0.16707  46.09    0.0013689    1.581    0.368
        89  -9.6224     84.2851    201.4786   1.2580635574e+02   2.3749071531e+01    0.3209641    0.2104205 -36.87  0.001830315    2.394    0.582
        90  -8.9411     85.7287    195.6690   1.2491615197e+02   2.4621253625e+01    0.1744858    0.1338842  45.99 0.0002581318    1.120    0.107
        91  -8.8650     64.5422    201.9350   1.2987627031e+02   2.6128350554e+01    0.1493204    0.1038642 -78.51 0.0003494198    1.492    0.330
        92 -10.4486    183.2096    200.3033   1.0541826201e+02   8.7311497559e+00     0.207162    0.1750233  30.09 0.0002805117    1.128    0.114
        93  -8.6168    127.7785    199.9217   1.1658572944e+02   1.7772665166e+01    0.1384916    0.1038184 -51.75  0.000498216    1.591    0.371
        94  -9.4916     44.7902    199.3087   1.3363405303e+02   2.8820185975e+01     0.285027    0.2052737  19.96  0.001925798    1.838    0.456
        95  -9.0039    119.3402    199.2347   1.1825671263e+02   1.9182208409e+01    0.1975306    0.1200859  61.42 0.0006559677    1.959    0.489
        96 -11.7274     58.7600    194.8783   1.3047415402e+02   2.8114801576e+01    0.4620709    0.3673481 -16.64  0.002161752    2.045    0.511
        97 -10.0214     28.7847    196.8943   1.3663148727e+02   3.0864963628e+01    0.3115493    0.2671769 -27.21  0.002387332    1.825    0.452
        98  -8.9751    145.1583    198.1018   1.1272882184e+02   1.5320397583e+01    0.1593028     0.136931  59.10 0.0003402934    1.290    0.225
        99 -10.4211    102.7938    196.1297   1.2135998733e+02   2.2174088831e+01    0.2769113    0.2209194  -5.32  0.000470251    1.813    0.448
       100  -9.7772     96.6007    195.9457   1.2264958421e+02   2.3085636447e+01    0.2874052    0.1493425  41.03 0.0008823805    1.617    0.381
       101  -9.0013    134.2652    197.6852   1.1493145084e+02   1.7133233654e+01    0.1196976    0.0901339  64.17 0.0003015751    1.546    0.353
       102 -11.2679     41.6606    205.9079   1.3467529994e+02   2.7937137234e+01    0.4735759    0.1556841  44.37  0.002171063    2.266    0.559
       103 -10.4464    249.2773    193.9952   9.2337693602e+01  -9.9390789551e-01    0.3132118     0.162766  26.89  0.001745351    1.643    0.391
       104  -9.1660    112.9814    190.4441   1.1847677376e+02   2.1701613156e+01    0.3863979    0.2612008 -45.76  0.002233312    1.779    0.438
       105  -8.6677     72.5281    193.0043   1.2743486614e+02   2.6821617892e+01    0.1492987    0.1095611 -73.93 0.0003257242    1.433    0.302
       106  -9.4862     25.7523    192.5900   1.3698461994e+02   3.1954549710e+01    0.2083283    0.1326654  67.68 0.0008591284    1.280    0.219
       107  -9.6424    191.5003    191.4457   1.0232254292e+02   8.5992317566e+00    0.2240208    0.1812146  21.17 0.0005832737    1.008    0.008
       108  -8.8676     38.6069    192.1865   1.3439289204e+02   3.0795744017e+01     0.151632   0.09610697 -83.50 0.0003498431    1.489    0.328
       109  -9.4057     40.5397    188.3439   1.3373483107e+02   3.1337587145e+01     0.226425    0.1575976  89.81 0.0007953724    1.314    0.239
       110  -9.7522     15.7651    191.8349   1.3889589403e+02   3.2979103730e+01    0.1948519    0.1100233  82.27 0.0006554085    1.511    0.338
       111 -11.0812     22.4393    200.6345   1.3804776380e+02   3.0760352342e+01    0.3771541    0.1856437  83.54  0.002193705    1.874    0.466
       112  -9.4808     31.6711    189.8356   1.3564277932e+02   3.1924558229e+01    0.3163026    0.0990255  38.60  0.001606865    2.516    0.603
       113 -10.0297    250.1473    187.8443   9.1068322514e+01  -4.3979753745e-01    0.2812971    0.1476523 -11.27  0.001484295    1.970    0.492
       114  -9.2542     77.0865    188.6346   1.2603094726e+02   2.7077466248e+01    0.1785315    0.1427614  76.48  0.000364812    1.191    0.160
       115 -11.4719     65.9676    186.9053   1.2825462821e+02   2.8794834219e+01    0.2480845    0.2272389 -63.62 0.0005068605    1.311    0.237
       116  -8.6733     65.7536    181.9966   1.2783108042e+02   2.9783162749e+01    0.1558682    0.1017797  89.44 0.0002225117    1.591    0.371
       117 -10.7666     83.7368    186.8130   1.2439593826e+02   2.6556721985e+01    0.2057547    0.1742091  56.28 0.0002134813    1.011    0.011
       118  -9.6292     28.7270    184.5420   1.3591381176e+02   3.3224058353e+01    0.2318331    0.1923901  -4.23 0.0009819991    1.854    0.461
       119  -9.3681     24.1590    184.0971   1.3682084413e+02   3.3726803772e+01    0.1907574    0.1337665  45.24 0.0006201824    1.315    0.239
       120  -9.2028    140.2447    183.1122   1.1150986361e+02   1.8658627091e+01     0.169887    0.1584209  43.97 0.0003085199    1.103    0.094
       121 -10.8351    127.8089    182.6736   1.1415857748e+02   2.0787715824e+01     0.213614    0.1964675  50.61 0.0002694136    1.082    0.076
       122  -8.9620     36.4943    182.9301   1.3419648982e+02   3.2797877669e+01     0.163091   0.09701379 -77.95  0.001026816    1.583    0.368
       123 -13.0901    247.5771    100.6274   7.2827390045e+01   1.1075731714e+01       2.0833    0.8533114 -17.72  0.007496429    3.149    0.682
       124 -11.7665    245.6202    163.8743   8.7185756764e+01   3.1148089165e+00    0.5928372    0.2792643 -39.09  0.002766459    2.560    0.609
       125 -12.1632    246.7839    158.3596   8.5867120405e+01   3.6103890817e+00     1.192673     0.860291 -62.63   0.00559833    3.456    0.711
       126 -11.8033    248.4204    112.9325   7.5606144912e+01   9.2632714423e+00     1.050027    0.5731491   1.59  0.004352544    2.661    0.624
       127 -11.9441    247.6492    142.3335   8.2342055337e+01   5.5115831602e+00    0.6256765    0.4568671  21.47  0.003672434    1.254    0.203
       128 -12.8167    248.5611    133.6860   8.0302506228e+01   6.4798492895e+00     1.344039    0.6076183 -29.48  0.006165537    2.008    0.502
       129 -10.2849     86.1942    180.2336   1.2310490763e+02   2.7503593482e+01    0.2329543    0.1750918  59.30 0.0003021787    1.224    0.183
       130  -8.8244     47.7590    179.6704   1.3154712862e+02   3.2290931664e+01    0.1572815   0.08787636  43.63 0.0008821107    1.570    0.363
       131  -8.1907     92.6841    178.2719   1.2140541692e+02   2.6986542416e+01    0.1284264   0.08473705  61.48 0.0001657194    1.559    0.359
       132  -8.7984     12.5073    178.4861   1.3888842860e+02   3.5810993759e+01    0.1057154   0.08424908  76.48 -4.891198e-05    1.059    0.056
       133  -8.6294    125.9608    177.0750   1.1372259137e+02   2.2116640657e+01    0.1513255    0.1397958  45.52 0.0003373889    1.052    0.049
       134 -10.6342    103.0544    176.0779   1.1876266303e+02   2.5904867242e+01    0.1996823    0.1782176  44.07  0.001286186    1.063    0.060
       135 -10.8246    107.6713    172.7411   1.1723656820e+02   2.5856335886e+01    0.2362623    0.2136369  65.24 0.0003716503    1.081    0.075
       136 -11.3583     65.3600    175.8716   1.2730733478e+02   3.1056375236e+01    0.2454177    0.2020363  42.12 0.0003900431    1.203    0.169
       137 -10.8872     62.9176    172.5197   1.2751740201e+02   3.2031253304e+01    0.2406112    0.2006567  38.33  0.000436772    1.247    0.198
       138 -10.3588     18.9075    172.8328   1.3725293671e+02   3.6407964180e+01    0.3574385     0.169212  69.07  0.001783466    1.954    0.488
       139 -11.0247     14.1327    167.0260   1.3793568328e+02   3.7969364603e+01     0.268997    0.2298499  59.16  0.001819639    1.185    0.156
       140 -10.6557     11.9703    173.4695   1.3874280139e+02   3.6843981034e+01    0.2856279    0.1488196 -61.29  0.001758137    2.053    0.513
       141 -11.3171      3.7296    172.8662   1.4041027175e+02   3.7588049574e+01    0.3141505    0.1892682  66.04 0.0009254394    1.334    0.250
       142 -11.9179     57.4444    208.6260   1.3180443092e+02   2.5739383619e+01     1.298188    0.3824142  40.79  0.006321319    2.513    0.602
       143 -10.8906     45.9827    172.2614   1.3131517287e+02   3.3977594066e+01    0.3461249     0.211569 -54.93 0.0003303103    1.864    0.464
       144 -10.8009     43.5364    168.9790   1.3158305334e+02   3.4906798530e+01    0.6368822    0.1979121 -57.54  0.002772764    3.283    0.695
       145 -10.2802     28.1168    171.5227   1.3519503526e+02   3.5871376971e+01    0.2836677    0.2146241 -61.21  0.001167181    1.488    0.328
       146 -11.4214      6.9670    167.1320   1.3946820565e+02   3.8494079307e+01    0.2719114    0.1690952 -87.60   0.00116568    1.336    0.252
       147 -11.5988     84.0842    166.2787   1.2186863893e+02   3.0606976209e+01    0.5246942    0.4237761  29.07   0.00323664    1.332    0.249
       148  -8.5503    134.1563    167.5809   1.1033099816e+02   2.2516039600e+01     0.175709    0.1204052  28.54 0.0002850023    1.462    0.316
       149 -10.6727     76.1561    174.9023   1.2475729723e+02   2.9901858757e+01    0.2406285    0.1995833  59.82 0.0004066671    1.059    0.056
       150  -8.1830    100.2725    163.6467   1.1764702997e+02   2.8809418570e+01    0.1337265   0.09537349  72.46  0.000285587    1.638    0.389
       151  -8.2136     58.2898    162.6530   1.2756177008e+02   3.4627382552e+01    0.1294517   0.07996521  68.06 0.0006030824    1.660    0.398
       152 -12.9535     12.4180    153.7722   1.3752735566e+02   4.0843754894e+01    0.7932677    0.2661383 -68.76  0.003594097    2.499    0.600
       153 -11.7972     10.9844    150.4624   1.3765035802e+02   4.1647717482e+01    0.3733421    0.2559445 -28.28  0.002383062    2.233    0.552
       154  -9.7969     89.8217    159.9960   1.1963849185e+02   3.1108886756e+01    0.1834231    0.1736307 -19.42 0.0003945949    1.259    0.206
       155  -8.6296     91.2462    172.3779   1.2098238761e+02   2.8362130561e+01    0.1195877   0.09578076 -31.48 0.0001883246    1.640    0.390
       156 -10.9226     31.7440    155.6453   1.3317897399e+02   3.8854062610e+01    0.3244922    0.2075328 -54.42  0.001525843    1.736    0.424
       157 -10.1299     16.1754    158.2018   1.3695456380e+02   3.9628045898e+01    0.1579423    0.1330705 -84.55 0.0005307011    1.160    0.138
       158  -9.6987     84.8304    155.1695   1.2017765261e+02   3.2839215816e+01    0.1888013    0.1594331  64.41 0.0002553608    1.126    0.112
       159 -11.4973     23.5241    154.4671   1.3501322323e+02   3.9821520835e+01    0.4338763    0.2227734  55.84  0.002492867    1.801    0.445
       160  -9.2594     23.5366    149.4890   1.3463225188e+02   4.0886820110e+01     0.182155    0.1151003  22.19 0.0007749568    1.924    0.480
       161  -8.5572    228.3534    155.2710   8.8398051439e+01   7.2103925334e+00    0.1739137    0.1155898 -33.54  0.000496515    1.592    0.372
       162 -10.4222     89.9158    153.3041   1.1863789884e+02   3.2511742348e+01    0.2232272    0.1948847  80.48 0.0002449321    1.136    0.120
       163  -9.0641    113.6739    151.0924   1.1235629190e+02   2.9265564992e+01    0.2711142    0.1304623 -62.25  0.001099926    2.597    0.615
       164 -10.4999     96.8353    150.9556   1.1653844966e+02   3.1983181602e+01    0.3027215    0.2359164 -56.59 0.0007681723    1.333    0.250
       165  -9.1829     55.4702    150.4706   1.2689931886e+02   3.7571969283e+01    0.1249227    0.1067823  76.08 0.0002431737    1.045    0.043
       166 -12.0746     68.4344    144.4679   1.2283817494e+02   3.7355806865e+01    0.6160504    0.4176354  74.44  0.002249141    1.629    0.386
       167 -13.2131      3.0201    142.8127   1.3904791628e+02   4.3814729485e+01     1.428756    0.2113312 -68.81  0.005431094    4.232    0.764
       168 -11.9042      8.8991    143.1911   1.3767931899e+02   4.3346491574e+01    0.3714219    0.2599877  36.70  0.002578946    1.534    0.348
       169 -11.9331      2.6149    132.1706   1.3850578432e+02   4.6135536978e+01    0.4832095    0.2331473 -68.57  0.002390149    1.745    0.427
       170 -12.0154      2.1875    124.1204   1.3808742514e+02   4.7928040072e+01    0.6955386    0.1583734 -83.17  0.002518131    4.183    0.761
       171  -9.0473    104.5939    153.2847   1.1497890558e+02   3.0285250270e+01    0.2346409    0.1453125  48.39 0.0003624065    1.565    0.361
       172 -10.1889    249.7087    117.9214   7.6564185178e+01   8.3549825114e+00    0.4131201    0.2409654  -2.37  0.001589775    2.046    0.511
       173  -8.7620     52.8075    146.3862   1.2709798190e+02   3.8766675787e+01    0.1522216    0.1195548  16.91 0.0002892905    1.583    0.368
       174 -10.4426     32.8708    140.9359   1.3158936683e+02   4.1958254571e+01    0.2771587    0.1653107  81.38   0.00126684    1.647    0.393
       175  -8.4515    104.9780    142.9698   1.1311260000e+02   3.2410509524e+01    0.1573316    0.1509281  59.51 0.0003138405    1.008    0.008
       176  -9.7292    133.2390    140.7636   1.0554539483e+02   2.7929409449e+01    0.3185077    0.2618579 -59.95  0.001183553    1.370    0.270
       177 -12.0186     17.4869    139.7771   1.3535085008e+02   4.3474045916e+01    0.4804793    0.2088114  52.41  0.002514482    2.230    0.552
       178  -9.5019     41.0834    147.6506   1.3018544999e+02   3.9705160490e+01    0.1648616    0.1412571  53.64 0.0006229532    1.165    0.142
       179  -8.8456    107.7133    182.5669   1.1859076088e+02   2.3957400444e+01    0.1688111     0.105845  46.42 0.0003754643    1.410    0.291
       180  -8.8513     50.8347    138.1373   1.2662313199e+02   4.0823186560e+01    0.1594215    0.1416006 -45.74 0.0004188139    1.295    0.228
       181  -9.6905    109.0959    136.1776   1.1078075711e+02   3.3189617129e+01    0.3551818    0.2524486  -4.03  0.001430466    2.155    0.536
       182  -9.3076     46.3103    136.9995   1.2768171155e+02   4.1553772582e+01    0.2049052   0.05653013 -50.93 0.0007025576    4.122    0.757
       183  -9.1020     37.1529    140.1974   1.3042196000e+02   4.1731577823e+01    0.1728669    0.1224337  70.16 0.0006951371    1.338    0.253
       184 -10.7092     44.9637    130.3940   1.2724310353e+02   4.3190315602e+01    0.3690753    0.1804937  54.14  0.001655998    2.238    0.553
       185 -10.9455     60.2221    136.6461   1.2392999571e+02   4.0107050851e+01    0.2793565    0.2220633  82.25  0.001693606    1.227    0.185
       186 -10.2578     59.5760    128.2413   1.2291107901e+02   4.2099665559e+01     0.303582    0.2031192  59.77  0.001642132    1.596    0.373
       187  -8.9726     75.2339    129.1989   1.1869239003e+02   3.9911019248e+01     0.225163    0.1393245  68.30   0.00104628    2.085    0.520
       188 -10.5669     66.8488    128.7054   1.2095043296e+02   4.1113692049e+01    0.2933423    0.2674876 -52.35   0.00184664    1.155    0.134
       189 -10.0416    209.8997    125.8433   8.5221844328e+01   1.5070346842e+01    0.2637284    0.2126258 -26.18 0.0004861031    1.222    0.181
       190 -10.2431     23.3164    126.8880   1.3273011622e+02   4.5904559095e+01    0.2016325    0.1284458  81.61  0.001194033    1.474    0.322
       191  -8.9107     48.1905    126.3974   1.2583537207e+02   4.3778262102e+01    0.1728353    0.1075668  44.86 0.0004361983    1.633    0.388
       192  -9.8148     29.5260    126.5489   1.3101467501e+02   4.5484350063e+01    0.1210803    0.1020523 -89.81 4.775506e-05    1.018    0.018
       193 -11.6797     22.4060    121.4052   1.3243748256e+02   4.7219624969e+01    0.3025739    0.2312173 -18.36  0.001939817    1.768    0.435
       194  -8.8065     56.3486    120.2952   1.2262866189e+02   4.4307720626e+01    0.1306205   0.09529815 -33.00 0.0007032689    1.676    0.403
       195  -9.6627    231.8248    116.5889   7.9113004964e+01   1.1996312992e+01    0.1758956    0.1365725  57.05 0.0006634157    1.598    0.374
       196 -11.7266     11.0513    115.6947   1.3504946175e+02   4.9293889600e+01    0.2399056    0.2025902 -51.49 0.0009188274    1.309    0.236
       197 -11.8811      9.5525    112.3327   1.3517146190e+02   5.0148345886e+01    0.2886458    0.2188208 -15.42   0.00124407    1.770    0.435
       198 -10.1126    167.9110    113.0357   9.0781747016e+01   2.6252742086e+01    0.3198335    0.2858094 -84.14 0.0009048847    1.450    0.310
       199 -11.1003     15.1568    105.3036   1.3285195162e+02   5.1417769883e+01    0.3050844     0.164389 -64.50 0.0009659856    1.525    0.344
       200 -12.3497    248.2176    173.0131   8.8567911930e+01   1.5795397994e+00    0.8377506     0.378551 -31.19  0.004163533    2.179    0.541
       201  -9.0816     59.8211    104.5745   1.1889311488e+02   4.7586073378e+01    0.1743772    0.1207108  46.22 0.0004290716    1.556    0.357
       202  -8.8513    203.5022    111.5155   8.2939119085e+01   1.8682277591e+01    0.1513382    0.1328481   6.58 2.342767e-05    1.051    0.048
       203  -8.3782     71.9618    100.0190   1.1411892779e+02   4.7107618550e+01    0.1566569    0.1521572 -60.19 0.0003558247    1.041    0.039
       204  -9.9038     17.0253     99.0276   1.3157322750e+02   5.2753991274e+01    0.1804873    0.1488197 -76.30  0.001224422    1.005    0.005
       205 -10.8760    249.5480    151.0438   8.3890255121e+01   4.0669878702e+00    0.4324802    0.2841713 -25.95  0.002316779    1.426    0.299
       206  -8.4513    184.5410     77.4943   7.7424706374e+01   2.8550952966e+01    0.1549296     0.143989   7.74 8.762528e-05    1.029    0.028
       207 -12.0391    199.7386    246.9989   1.0919796066e+02   4.7109200752e-01    0.5445659    0.2561975  32.18   0.00322959    1.572    0.364
       208 -10.7872    193.0069    247.4091   1.1041536253e+02   1.3750425104e+00    0.3253744    0.1941256 -13.29   0.00203373    2.235    0.553
       209  -9.9612     16.3525     25.6546   1.1692848142e+02   6.9407571397e+01    0.1864751    0.1402887  28.39 0.0007881098    1.648    0.393
