#   1 NUMBER                 Running object number                                     
#   2 MAG_AUTO               Kron-like elliptical aperture magnitude                    [mag]
#   3 X_IMAGE                Object position along x                                    [pixel]
#   4 Y_IMAGE                Object position along y                                    [pixel]
#   5 X_WORLD                Barycenter position along world x axis                     [deg]
#   6 Y_WORLD                Barycenter position along world y axis                     [deg]
#   7 A_WORLD                Profile RMS along major axis (world units)                 [deg]
#   8 B_WORLD                Profile RMS along minor axis (world units)                 [deg]
#   9 THETA_WORLD            Position angle (CCW/world-x)                               [deg]
#  10 FWHM_WORLD             FWHM assuming a gaussian core                              [deg]
#  11 ELONGATION             A_IMAGE/B_IMAGE                                           
#  12 ELLIPTICITY            1 - B_IMAGE/A_IMAGE                                       
         1 -11.8408    205.6583     36.9671   4.1117467148e+01   2.9546628437e+01    0.9222362    0.8732868   8.01  0.005882075    1.374    0.272
         2 -11.2895    221.1999     21.6691   3.5946381600e+01   2.7917793489e+01    0.6950045     0.539197 -68.65  0.003128549    1.084    0.078
         3  -9.6361    243.8427      2.2105   3.0166125088e+01   2.5284817787e+01    0.5367443    0.1948359  79.31  0.002593083    2.626    0.619
         4  -7.4866     74.4562    237.4525   1.1218066353e+02   1.4988425040e+01    0.1253063    0.1019587  59.97 8.808728e-05    1.005    0.005
         5 -14.2745     36.3591    238.2413   1.1980372889e+02   1.9645172741e+01     1.039575    0.8313953 -81.39  0.003437294    1.302    0.232
         6 -13.9672     40.1344    247.3216   1.1969276388e+02   1.7428144383e+01     1.206417    0.5530946  36.24  0.002558305    2.021    0.505
         7 -14.1728      2.1642    204.6723   1.2444199087e+02   3.0173206685e+01     2.557547    0.2649846 -71.97  0.008333051    5.393    0.815
         8 -15.1774     15.7652    216.5575   1.2242319514e+02   2.6344071301e+01     1.805418    0.6868227  64.54  0.008401488    2.592    0.614
         9 -14.0258     23.5338    238.7487   1.2225555140e+02   2.0971425364e+01    0.4027181    0.3630612 -82.92  0.002272393    1.386    0.279
        10 -14.9255     20.4771    248.3195   1.2334042647e+02   1.9438592650e+01    0.5814306    0.4377627  28.30  0.004131705    1.739    0.425
        11 -15.9711      7.4015    223.7835   1.2445244659e+02   2.5639129456e+01      2.43423     1.725181  16.51   0.01591891    2.143    0.533
        12  -8.8342     89.8779    233.5060   1.0858000065e+02   1.3591255896e+01    0.1950583    0.1107595  38.92  0.001018798    1.548    0.354
        13  -9.2882    119.9169    230.9058   1.0187765815e+02   9.5352546546e+00    0.2587236    0.1639367  43.75  0.001099166    1.369    0.269
        14  -9.1721    112.7445    230.1045   1.0331316137e+02   1.0812635076e+01    0.2695078    0.1805846  69.36  0.001409608    1.800    0.445
        15  -9.8541     60.2737    225.8523   1.1403353544e+02   1.9250388667e+01    0.4303395    0.2786009  50.99  0.002121044    1.316    0.240
        16  -9.3050    112.5942    224.0522   1.0256558869e+02   1.2030502371e+01    0.4313837    0.2244625  32.45  0.001085807    1.887    0.470
        17 -10.1473    222.4548    220.9711   7.9287139061e+01  -4.9524567110e+00    0.2234757    0.1842872   9.58 9.570624e-05    1.075    0.070
        18  -7.9618    178.6906    222.7033   8.8185229914e+01   1.5100013051e+00    0.1338321   0.09508586   3.00 0.0002694108    1.594    0.372
        19  -8.7123    134.9668    221.5800   9.7322286044e+01   8.9057624686e+00     0.312092    0.2121763 -14.69   0.00148216    2.296    0.565
        20  -9.4716     60.9627    219.9121   1.1333252835e+02   2.0418710333e+01     0.330402     0.242355 -59.40  0.001086832    1.535    0.349
        21  -9.0574    190.8803    221.0618   8.5425526148e+01  -1.6652239647e-01    0.1965431    0.1695325  10.67 0.0003928472    1.014    0.013
        22  -8.1299     77.9656    221.4440   1.0982065627e+02   1.7774816744e+01    0.1929566    0.1145694  39.07 0.0003659579    1.539    0.350
        23  -9.8615    135.6831    232.7382   9.8762207730e+01   6.6900673493e+00    0.5376599    0.2320334  25.28  0.001973693    3.355    0.702
        24  -7.7825    112.4913    216.9873   1.0164086126e+02   1.3481505390e+01    0.1915846    0.1344338 -60.18 0.0004852586    1.562    0.360
        25  -8.0157     98.9673    214.4405   1.0433720645e+02   1.6146810490e+01    0.1885028    0.1719338  83.54 0.0005421028    1.102    0.093
        26  -8.4076    153.8153    214.1532   9.2048332301e+01   7.1780775603e+00    0.1967817    0.1565588  10.72  0.001082058    1.354    0.262
        27  -7.3770    202.3027    213.2918   8.1786906022e+01  -6.9658310024e-01    0.1337908   0.09240578   0.97 0.0001986432    1.570    0.363
        28  -8.9914     75.0372    212.5051   1.0948128103e+02   2.0111981019e+01    0.3377543    0.2867992  27.82  0.001240397    1.366    0.268
        29  -9.3720    189.3813    210.5503   8.3894465677e+01   1.8542506209e+00    0.3150341    0.2482267  66.87  0.001683841    1.954    0.488
        30  -7.4439     95.4731    212.0107   1.0481309320e+02   1.7205877681e+01    0.1705098    0.1102322 -35.97  0.000495604    2.225    0.550
        31 -16.8886      7.5159    239.4780   1.2521035317e+02   2.2472233666e+01     1.595219    0.8507663  49.64   0.01034737    1.499    0.333
        32  -7.6786    101.4856    211.0438   1.0331861060e+02   1.6479693940e+01    0.1843954    0.1334883 -63.86 0.0003568831    1.472    0.320
        33  -7.7481    201.9839    226.4991   8.4149404168e+01  -2.7597663435e+00    0.1617222    0.1056336  53.83 0.0005789327    2.320    0.569
        34  -8.2101    118.4607    208.7288   9.9112692344e+01   1.4231182109e+01    0.2469946    0.2104287 -12.85 0.0003135187    1.467    0.318
        35  -9.9788    123.9461    205.9479   9.7434206122e+01   1.3900701210e+01    0.2252754    0.1927574  66.58  0.001271819    1.219    0.179
        36  -8.6582    119.0280    205.0251   9.8425963853e+01   1.4922300136e+01    0.3798175    0.2137994  29.06  0.001690391    1.926    0.481
        37  -8.4631    115.6244    203.4710   9.8979281946e+01   1.5823778496e+01     0.220938    0.1971536  87.44 8.295034e-05    1.176    0.150
        38  -9.4690     54.9624    206.8369   1.1336757060e+02   2.4063598275e+01    0.2871754    0.1711605 -81.49 0.0008842149    1.649    0.394
        39  -8.7540    159.1339    206.7128   8.9637084860e+01   7.6910562745e+00     0.248763    0.1972978 -35.33 0.0006674998    1.345    0.257
        40  -8.0638    128.2173    206.4309   9.6530402199e+01   1.3076799046e+01     0.265476    0.1754748  73.64  0.001188044    2.229    0.551
        41 -15.1183     13.3894    232.9363   1.2381508344e+02   2.3187085835e+01    0.8426451    0.2717952  33.04  0.004051536    3.007    0.667
        42  -8.8382     61.9304    201.7064   1.1125368719e+02   2.4323713399e+01    0.3925475    0.2022536  65.42  0.001757929    2.224    0.550
        43  -8.6590    193.9993    199.4164   8.0911441663e+01   3.0394330848e+00    0.3520719    0.2676561  -5.88  0.001920482    1.374    0.272
        44  -8.1647    109.0172    198.0585   9.9710783763e+01   1.8106448590e+01    0.2042766    0.1872433  56.64            0    1.008    0.008
        45  -8.1994     78.9563    198.0197   1.0684365836e+02   2.2803248614e+01    0.2011853    0.1832734  69.28  0.001219036    1.045    0.043
        46  -7.9814     90.0115    196.6404   1.0403165359e+02   2.1463792755e+01    0.1973182    0.1629983  44.84 0.0006597767    1.159    0.137
        47  -7.4104     97.9474    195.7056   1.0200020995e+02   2.0433941330e+01    0.1960927    0.1665284  46.17 0.0003359064    1.117    0.105
        48  -7.8652     83.2547    193.3930   1.0520790202e+02   2.3238461643e+01     0.237338    0.1584873  83.56 0.0007407669    1.728    0.421
        49  -7.0706    115.2772    191.6906   9.7213705999e+01   1.8479448157e+01    0.1439554    0.1080063  72.59 0.0001695919    1.556    0.357
        50  -8.9400     75.1488    189.4031   1.0663826894e+02   2.5362945231e+01    0.4322361    0.2204294 -48.96  0.001888405    2.238    0.553
        51  -7.8893     63.9571    191.0049   1.0954861342e+02   2.6539497165e+01     0.199055    0.1723965  72.80 0.0003114896    1.026    0.025
        52  -7.7335    139.3291    190.3053   9.1251882001e+01   1.4549335998e+01    0.1470121    0.1141094  -3.79 0.0007036608    1.654    0.395
        53  -9.3006     90.8125    189.3327   1.0279883800e+02   2.3030532889e+01    0.2508279     0.237488  86.81 0.0002722749    1.065    0.061
        54  -7.7250     67.5460    190.0900   1.0857205891e+02   2.6268575039e+01     0.195141    0.1264473 -73.10  0.000516445    1.500    0.333
        55  -9.1369     18.4753    187.0153   1.1979019088e+02   3.2675881977e+01    0.3680193    0.1648191 -70.48  0.001840937    1.906    0.475
        56  -9.2545     80.6248    187.1169   1.0498565814e+02   2.5104261001e+01    0.3033866    0.2331077  27.36  0.000478029    1.470    0.319
        57  -8.8804    188.3132    185.2642   7.9358286709e+01   6.6355310708e+00    0.2316435    0.2205584 -17.57 0.0003241927    1.109    0.098
        58  -8.2800     78.2187    182.4737   1.0493016663e+02   2.6568255326e+01    0.2368373    0.1836362 -72.98 0.0004064695    1.250    0.200
        59  -8.3254    147.5136    180.4291   8.7496827757e+01   1.5175884472e+01    0.1471767    0.1406121  33.69  0.000300038    1.019    0.018
        60  -9.7018     44.4910    179.2728   1.1291789378e+02   3.1787651826e+01    0.3868446    0.2878688 -34.45  0.001055355    1.832    0.454
        61  -8.7779     38.3277    178.2664   1.1431879894e+02   3.2727487925e+01    0.1924057    0.1521886 -84.08 0.0004869789    1.096    0.088
        62  -7.4556     90.6558    180.3332   1.0148146569e+02   2.5185164835e+01    0.1560942    0.1040243  69.48  0.000705024    1.761    0.432
        63  -9.7563     68.4131    173.5899   1.0616254894e+02   3.0132005137e+01    0.3267948    0.2830749   6.79 0.0008060132    1.473    0.321
        64  -7.7459    109.2358    179.2057   9.6613241740e+01   2.2385284857e+01    0.2071716    0.1648857  71.86 0.0006635378    1.375    0.273
        65 -10.3961     62.7988    179.4126   1.0838275928e+02   2.9471847124e+01    0.4962143    0.4747374  86.66  0.002254262    1.133    0.117
        66  -7.5805     76.5306    176.4904   1.0449444103e+02   2.8264373346e+01    0.1413864    0.1302272  86.26 2.950779e-05    1.024    0.023
        67  -7.7619     53.4261    174.5358   1.1012643106e+02   3.1869703396e+01    0.1360015    0.1196852 -87.38 -4.313307e-07    1.033    0.032
        68 -10.1646     18.0930    171.9422   1.1861669315e+02   3.6273501277e+01    0.5186581    0.2446939  65.97  0.002419028    2.285    0.562
        69  -9.4210    175.4568    172.3932   7.9509218425e+01   1.1555805245e+01    0.3052022    0.2873008  44.51 0.0006783426    1.139    0.122
        70  -7.3625    117.4913    173.4327   9.3507818954e+01   2.2291124990e+01    0.1473843    0.1431079  54.54 0.0001327247    1.024    0.023
        71  -7.4593     90.1254    173.1406   1.0047232159e+02   2.7005635896e+01    0.2011323    0.1898517 -35.99 0.0003136304    1.201    0.168
        72  -7.6330    124.3326    172.7216   9.1655183741e+01   2.1216655094e+01    0.1531129    0.1150063  69.60 0.0003630793    1.605    0.377
        73  -7.2261     48.3017    172.3016   1.1115298235e+02   3.3040985038e+01    0.1302962   0.09910404 -42.14 0.0007003619    1.588    0.370
        74  -7.9748     37.4052    169.7732   1.1362411544e+02   3.4896449510e+01    0.3440756    0.1047449 -67.01  0.001306066    2.748    0.636
        75  -9.2107     24.9790    169.6227   1.1671894755e+02   3.6195186695e+01    0.3196315    0.1819114 -49.53  0.001635908    1.975    0.494
        76  -8.3892     24.6713    165.7869   1.1641370944e+02   3.7158257777e+01    0.2543718    0.1711213 -66.76  0.001118445    1.324    0.244
        77  -7.9859     75.2525    170.0247   1.0385851344e+02   3.0038249024e+01    0.1960264    0.1738832 -78.47 0.0003137621    1.060    0.057
        78  -9.2486     43.7012    169.1943   1.1195297828e+02   3.4341669302e+01    0.2349001    0.2021265  82.69 0.0002771037    1.040    0.038
        79  -8.0526     42.4778    164.9281   1.1175274663e+02   3.5535541268e+01     0.345862     0.178662 -45.81  0.001544825    2.301    0.565
        80  -7.8454    111.6779    168.3307   9.4048263509e+01   2.4536591529e+01     0.157705     0.115223  74.60 0.0003329314    1.697    0.411
        81  -8.9312     89.3975    165.6060   9.9404269904e+01   2.8968185944e+01    0.3673621    0.2015046  56.45  0.001491364    2.156    0.536
        82  -8.3079     85.1684    165.1966   1.0046093783e+02   2.9737465122e+01    0.2035407    0.1613217  68.45 0.0003834589    1.314    0.239
        83  -7.7345    106.9923    163.9767   9.4454782766e+01   2.6411949689e+01    0.1784055    0.1694366  58.10 0.0009664534    1.040    0.039
        84  -8.8456     77.8416    164.0258   1.0222775474e+02   3.1145684212e+01     0.229575    0.2053328  48.54 0.0003470399    1.142    0.125
        85  -8.5239     57.8786    162.9590   1.0742063308e+02   3.4179239817e+01    0.2871147    0.1895956 -60.69 0.0009446967    1.410    0.291
        86  -7.8634     53.3747    162.8215   1.0860445166e+02   3.4779534466e+01    0.4537676    0.1533047  46.45  0.001639229    3.128    0.680
        87  -8.6545     19.1111    163.1708   1.1755348522e+02   3.8303440847e+01    0.2216825     0.176343 -54.96 0.0005076751    1.355    0.262
        88  -8.0537     99.2094    163.0657   9.6343998096e+01   2.7976936507e+01    0.2424814    0.1801722 -41.88 0.0005416709    1.469    0.319
        89  -8.7589     95.9912    163.2575   9.7235850429e+01   2.8470410170e+01    0.2703593    0.1780537  35.34 0.0003170157    1.565    0.361
        90  -9.8324     65.5548    160.1172   1.0492872035e+02   3.3877868145e+01    0.3436944    0.2540343 -40.40 0.0008591768    1.568    0.362
        91  -8.4372     28.2179    162.0037   1.1511434330e+02   3.7747555862e+01    0.2152372    0.1497261  77.00  0.001206305    1.371    0.271
        92  -9.7953     84.0189    158.4207   9.9608719116e+01   3.1603287842e+01    0.3875813    0.3150576  40.54  0.000615795    1.264    0.209
        93  -9.0882     87.7017    155.0194   9.7987594521e+01   3.1871024716e+01      0.34121    0.2629638  66.91  0.001689243    1.417    0.294
        94  -7.5789    172.1084    158.9235   7.7382570803e+01   1.5001272439e+01    0.2054136    0.1726698 -11.81 0.0003906362    1.287    0.223
        95  -7.4316    103.7202    159.3533   9.4446158738e+01   2.8110943247e+01    0.1560286    0.1160345  80.84 0.0006926768    1.653    0.395
        96  -8.0113     34.7050    158.8792   1.1306339018e+02   3.7874313975e+01    0.2325207    0.1181074 -38.20  0.000842545    2.886    0.654
        97  -7.3802    126.5841    158.4657   8.8262405581e+01   2.4133271175e+01    0.1506916    0.1489006 -66.46 1.731921e-05    1.015    0.015
        98  -8.0735     23.3740    157.5519   1.1589103469e+02   3.9299290895e+01    0.2433795    0.1252551  76.01  0.001105532    2.214    0.548
        99  -8.3433     52.0354    156.8293   1.0812786574e+02   3.6447918552e+01    0.3350568    0.2373357 -10.52  0.001283267    2.155    0.536
       100  -7.5812     31.4070    156.1685   1.1361774883e+02   3.8881332164e+01     0.179779    0.1104257 -87.47 8.067374e-05    1.553    0.356
       101  -7.4124     34.6399    154.8002   1.1258566692e+02   3.8898445566e+01    0.1922931      0.11171 -82.93 0.0004666685    1.644    0.392
       102  -9.1857      8.8198    154.9630   1.1938872256e+02   4.1143392947e+01     0.191108    0.1627859  70.16 0.0002573041    1.173    0.148
       103  -9.2179      2.8496    153.3161   1.2075920751e+02   4.1975439167e+01    0.3448315    0.1148182 -68.06  0.001447192    2.273    0.560
       104  -7.1927     98.7107    153.2935   9.4631843881e+01   3.0470866007e+01    0.1516478    0.1155944  75.97 0.0001798285    1.548    0.354
       105  -8.8396     80.4002    151.6471   9.9404841189e+01   3.3863782437e+01    0.2588311    0.2336482 -10.94 0.0007935318    1.320    0.243
       106 -11.0662     68.5440    145.0919   1.0160633224e+02   3.7265849532e+01    0.8480409    0.5800781  81.97  0.003054919    1.782    0.439
       107  -8.3788     15.5338    151.7359   1.1733787467e+02   4.1405127335e+01     0.234373    0.1601816  -4.35  0.001293888    2.163    0.538
       108  -7.5655     56.5233    151.5290   1.0609835595e+02   3.7232276990e+01    0.1420024    0.1265971 -82.67 6.028538e-05    1.014    0.014
       109  -8.6998    111.4828    149.9181   9.0466944173e+01   2.9024838728e+01    0.2673074      0.22128  41.28 0.0003725591    1.222    0.182
       110 -10.5911      5.8481    145.4960   1.1928153283e+02   4.3661753091e+01    0.5816643    0.4849742  85.55  0.003690407    1.097    0.089
       111  -9.9867      7.2499    141.3125   1.1849668501e+02   4.4585782250e+01    0.3617693    0.2247263 -74.11  0.002072179    1.290    0.225
       112  -7.6033    126.7837    147.3605   8.5835773035e+01   2.6723000343e+01    0.2067978    0.1478522  29.73 0.0002778543    1.533    0.348
       113  -9.0916     15.5797    145.0325   1.1662008183e+02   4.3052991455e+01    0.3788128    0.1772808 -58.30    0.0012013    1.843    0.457
       114  -9.4302     86.1155    144.1508   9.6368520421e+01   3.4853891911e+01    0.3557411    0.2885712 -54.60  0.001821331    1.184    0.155
       115  -7.0709     31.6846    146.3509   1.1233098990e+02   4.1309467221e+01    0.1426585   0.09027456  71.32 0.0007046859    1.731    0.422
       116  -8.2941    133.7065    145.0183   8.3511438312e+01   2.5896370332e+01    0.2293998    0.2031388 -46.73 0.0007214537    1.120    0.107
       117  -7.4519    118.5909    145.4115   8.7582641759e+01   2.8780210147e+01    0.1520737    0.1488153 -77.92 8.516097e-05    1.009    0.009
       118  -8.7408    247.5043    144.3633   5.9882842862e+01   3.5533278867e+00     0.213373    0.1284729  44.61  0.001098358    1.935    0.483
       119  -8.6194     98.4439    143.3919   9.2706738829e+01   3.2973954523e+01      0.30288    0.2641273  73.14 0.0001123856    1.223    0.182
       120  -9.2150    243.0148    141.5782   6.0000838315e+01   4.7932566843e+00    0.2739679    0.1693558  25.05  0.001315406    2.198    0.545
       121  -7.0377    152.2754    139.6849   7.7624562799e+01   2.3275645921e+01    0.1543977    0.1254221 -84.80 0.0002807821    1.564    0.361
       122  -8.7900     83.3714    138.1068   9.5954578681e+01   3.6814588489e+01    0.2989691    0.2105775  71.67            0    1.800    0.445
       123  -7.8372     25.3500    138.5422   1.1311707597e+02   4.3852928407e+01    0.2524552    0.1338598  78.04  0.001049581    2.352    0.575
       124  -8.2399    187.7232    138.1523   6.9290207171e+01   1.6097395602e+01    0.2158364     0.198934 -57.21 0.0006062712    1.143    0.125
       125  -8.6411    131.0339    137.3965   8.2448697539e+01   2.8222868055e+01    0.2655306    0.2196911 -57.39 0.0002188852    1.229    0.186
       126  -9.2738    109.8826    137.7316   8.8263502781e+01   3.2295747857e+01     0.263372    0.2426947 -58.96 0.0002305629    1.061    0.057
       127  -9.5052     13.0107    136.5684   1.1639323080e+02   4.5340277993e+01    0.3970794    0.2021349 -50.50  0.001271385    1.893    0.472
       128  -8.6972     62.4252    136.1191   1.0179057743e+02   4.0384372302e+01    0.3502808    0.2010919 -47.96  0.001141035    1.709    0.415
       129 -14.3509     30.1014    247.7570   1.2157257188e+02   1.8495349575e+01    0.6969372    0.3581673  85.35  0.004058081    1.855    0.461
       130  -9.7444      9.4962    131.7191   1.1684384389e+02   4.6785421133e+01    0.3546628    0.1983744 -71.83  0.001090629    1.434    0.303
       131  -7.6578     72.2420    131.8130   9.8000039912e+01   4.0103978073e+01    0.2528976    0.1500118  72.40 0.0009492938    2.758    0.637
       132  -8.7825    245.3627    130.2031   5.7210479765e+01   6.3250610375e+00    0.2113745    0.2094621 -44.56  0.001232401    1.184    0.155
       133  -7.4637    250.3034    129.3250   5.6287396841e+01   5.6065754620e+00    0.1321356   0.09730653  -9.01 0.0007031996    1.641    0.391
       134  -6.9714     75.3259    129.6842   9.6626088782e+01   4.0182953647e+01    0.1528924    0.1131667  74.83 0.0007043963    1.671    0.401
       135  -8.4916    109.9237    132.0596   8.6952868907e+01   3.3667551775e+01     0.254028    0.1930006 -15.79 0.0009657944    1.729    0.422
       136  -8.0660    125.1590    127.1592   8.1552053031e+01   3.1825099029e+01    0.2212571    0.1904941  84.82 0.0007297645    1.349    0.259
       137  -7.3100     96.5277    128.5008   8.9996773432e+01   3.6998468032e+01    0.1538942    0.1466146 -45.93 0.0008097379    1.038    0.037
       138  -8.4964     13.0031    122.6529   1.1470613999e+02   4.8776780053e+01    0.3630611    0.1291289 -50.77  0.001540318    2.474    0.596
       139  -7.6544     30.7934    123.6292   1.0935675274e+02   4.7104764644e+01    0.1816636    0.1186737  39.80 0.0005946153    1.711    0.416
       140  -8.0573    132.0222    121.2318   7.8222266226e+01   3.1763775943e+01     0.203678    0.1329686  42.76 0.0003582767    1.560    0.359
       141 -10.5207     84.3875    231.6760   1.0954016317e+02   1.4749573629e+01    0.4685961    0.3413825 -83.10  0.001405925    1.458    0.314
       142  -8.4108     64.3197    120.9818   9.8231638002e+01   4.3953477226e+01    0.2069843    0.1719836 -60.37 0.0004569897    1.104    0.095
       143  -7.3063    104.4369    120.4741   8.5749303011e+01   3.7504388179e+01    0.1549039     0.148626 -66.52 0.0001305222    1.045    0.043
       144  -8.4961      6.1197    119.1621   1.1636150120e+02   5.0081440627e+01    0.2477074    0.1129545 -64.72  0.001221372    1.680    0.405
       145  -9.4125    247.5496    115.7545   5.3783514670e+01   8.3779044875e+00    0.2969383    0.2490981 -74.90  0.001778508    1.406    0.289
       146  -7.7274     65.9982    116.4786   9.6722705664e+01   4.4844125273e+01    0.1990244      0.14632  31.43 -2.130372e-05    1.481    0.325
       147  -7.5149    135.4175    112.1893   7.4965116251e+01   3.3065160858e+01    0.2205188    0.1498389 -54.93 0.0004602515    1.565    0.361
       148  -7.0057     59.6570    111.3308   9.7660977132e+01   4.6978576955e+01      0.14781    0.1095512  74.20  0.000705097    1.751    0.429
       149  -8.1335     50.4479    110.2747   1.0050992378e+02   4.8387907614e+01    0.2190158    0.1898586  17.42 0.0002948781    1.300    0.231
       150  -9.7589    248.8355    108.3767   5.2014094835e+01   9.3739875875e+00    0.3761558    0.2680528 -11.07  0.001964701    1.892    0.471
       151  -6.9318    196.4612    107.4349   6.0143526386e+01   2.0252444798e+01    0.1502567    0.1382251 -58.50 0.0002831061    1.066    0.062
       152  -8.1950      8.3620    106.2135   1.1392433075e+02   5.3092740436e+01    0.1880962    0.1031831 -80.28 0.0007347633    1.720    0.419
       153  -8.0126     69.5113    103.4973   9.2509379121e+01   4.7509329203e+01    0.1474151    0.1346976 -41.85 -0.0001223708    1.016    0.016
       154  -7.6976      2.5034    103.5163   1.1547926369e+02   5.4069709002e+01    0.1258081    0.1009944 -69.43 -4.813481e-05    1.036    0.035
       155  -8.4713     99.2438     96.4621   8.0927486607e+01   4.4077387248e+01    0.2652698    0.2417045  53.41  0.001124892    1.182    0.154
       156  -7.7988     68.5226     96.9882   9.1177492476e+01   4.9197859390e+01    0.1966266     0.128571 -80.74 0.0008071224    2.400    0.583
       157  -7.1474     26.2579     94.2954   1.0565330432e+02   5.4696704465e+01    0.1338997    0.0826517 -41.32 0.0001935773    1.498    0.333
       158  -8.1744     43.0263     92.9587   9.9242352007e+01   5.3416432246e+01    0.2010271    0.1791745 -51.46 0.0003519817    1.049    0.046
       159  -8.1618     95.2859     89.8065   8.0235989057e+01   4.6299290982e+01    0.3589323    0.1899153  49.91  0.000508519    2.186    0.543
       160  -7.2554     75.7109     88.3096   8.6299815128e+01   5.0073564924e+01    0.1393663    0.1169399  86.83 0.0002815714    1.579    0.367
       161  -8.2260     38.5971     82.8286   9.8425686293e+01   5.6239507996e+01    0.2090912    0.1803547  12.31 7.397204e-05    1.274    0.215
       162  -7.3970     81.2720     77.9640   8.1257366380e+01   5.1376567541e+01    0.2712927    0.1587676  -1.39 0.0009047178    3.677    0.728
       163  -8.3167     23.0780     69.7580   1.0129641544e+02   6.0585656078e+01    0.2203408    0.1521143 -42.98 0.0002070854    1.193    0.162
       164  -7.1944     88.4926     60.4680   7.2968651486e+01   5.3458046988e+01     0.142045    0.1332957   2.39 9.017509e-05    1.035    0.034
       165  -7.1311     49.3493     60.7332   8.7657797619e+01   5.9752275623e+01    0.1213759    0.1061592  64.42 0.0006555835    1.618    0.382
       166  -7.0236      3.7292     56.6146   1.0635381041e+02   6.4677592460e+01    0.1340734   0.06289806 -40.94 0.0006992338    1.707    0.414
       167  -7.0474    113.7211     54.7423   6.3337660820e+01   4.9144495106e+01    0.1407589    0.1076028  20.13 0.0002156811    1.470    0.320
       168  -7.6133     54.1410     46.8146   8.0698521333e+01   6.1711678935e+01    0.1734551    0.1329507  -5.03 0.0002310721    1.252    0.201
       169 -10.9591    197.3685     43.1990   4.3689908148e+01   3.0659860522e+01    0.4005977    0.3927221  21.51  0.001608127    1.253    0.202
       170  -8.1690    203.7914    244.4447   8.6735030619e+01  -5.6924021754e+00    0.1713639    0.1532555 -12.50 0.0003965516    1.270    0.212
       171  -8.5893    242.2472    239.0106   7.8810501548e+01  -1.0134099146e+01    0.1616771    0.1225807  -3.63 0.0004220677    1.049    0.047
       172  -7.1606     31.2481     41.7128   8.8876944220e+01   6.5503314409e+01    0.1032648   0.09725784 -59.40            0    1.470    0.320
       173 -10.2062    214.3846     28.6340   3.8184912706e+01   2.8602736041e+01    0.4051079    0.3047657  41.42  0.001229583    1.788    0.441
       174  -6.9591     19.3063     40.2871   9.4102304698e+01   6.6903908379e+01    0.1261964   0.07434063 -24.66 0.0002300816    1.569    0.362
       175  -8.1446    231.0643     24.9282   3.5788312288e+01   2.5375144745e+01     0.183985    0.1571254 -72.40  0.000450862    1.080    0.074
       176  -7.5424    243.0376     19.4842   3.3675197161e+01   2.3509815964e+01    0.1593719    0.1050391  81.75 0.0003443514    1.439    0.305
