#   1 NUMBER                 Running object number                                     
#   2 MAG_AUTO               Kron-like elliptical aperture magnitude                    [mag]
#   3 X_IMAGE                Object position along x                                    [pixel]
#   4 Y_IMAGE                Object position along y                                    [pixel]
#   5 X_WORLD                Barycenter position along world x axis                     [deg]
#   6 Y_WORLD                Barycenter position along world y axis                     [deg]
#   7 A_WORLD                Profile RMS along major axis (world units)                 [deg]
#   8 B_WORLD                Profile RMS along minor axis (world units)                 [deg]
#   9 THETA_WORLD            Position angle (CCW/world-x)                               [deg]
#  10 FWHM_WORLD             FWHM assuming a gaussian core                              [deg]
#  11 ELONGATION             A_IMAGE/B_IMAGE                                           
#  12 ELLIPTICITY            1 - B_IMAGE/A_IMAGE                                       
         1 -14.5130    153.1192     58.4154   8.3598169126e+01   3.9417919017e+01     1.269496     1.136244  35.08  0.001019519    1.148    0.129
         2 -14.9289    164.6480     43.8887   7.7044562681e+01   3.8729419947e+01     1.288549     1.098118 -13.30   0.00396545    1.375    0.273
         3 -14.9630    179.3791     11.0349   6.5618322035e+01   3.8997403780e+01     1.519128     1.065525  76.84  0.005642398    1.257    0.204
         4 -13.4416    125.1384    241.4366   1.2970658220e+02   7.5088062593e+00    0.5335616    0.1835928 -54.69  0.002229636    3.329    0.700
         5 -20.2210     65.3588    180.7135   1.3425843359e+02   2.9697724037e+01     17.37207     6.191224 -65.65   0.07001522    2.595    0.615
         6 -11.6746    169.0553    201.3461   1.1466105032e+02   7.0150269433e+00    0.2667997    0.2125011 -59.26   0.00110629    1.420    0.296
         7 -11.2779    138.7222    200.3551   1.2096768560e+02   1.3051743942e+01    0.3671023    0.2479162  70.67  0.001190573    1.793    0.442
         8 -11.2848    141.5583    198.7360   1.2008161683e+02   1.2849547989e+01    0.2995367    0.2464866 -84.24 0.0007386587    1.337    0.252
         9 -10.0795    163.2014    250.6314   1.2366161434e+02  -5.6107521303e-01    0.1753972     0.100899  35.71 0.0003509938    1.575    0.365
        10 -14.0413    180.4781    193.5310   1.1081308215e+02   6.2773348951e+00     1.062386    0.5998127  33.85   0.00464145    1.867    0.464
        11 -15.1791    164.2512    187.5131   1.1312390574e+02   1.0710397094e+01      1.40463      1.01552 -50.35  0.006994147    1.469    0.319
        12 -13.2941    169.2827    182.1034   1.1098301862e+02   1.0796184914e+01    0.5006529    0.4313526  11.34  0.001627124    1.334    0.250
        13 -12.8500    172.5341    188.6947   1.1156669880e+02   8.8074846683e+00    0.4551128    0.3898326 -37.26   0.00101896    1.252    0.201
        14 -13.7875    175.5579    186.0761   1.1041299911e+02   8.7194469410e+00    0.8337398    0.5279289 -78.73  0.003132926    3.125    0.680
        15 -11.1164    138.9207    250.1596   1.2818557358e+02   3.6583684341e+00    0.2458997    0.2280937  33.43  0.001692842    1.251    0.201
        16 -13.4357    193.6521    166.4700   1.0255550998e+02   8.8876775407e+00     1.206549    0.5042687 -54.11  0.001741769    3.383    0.704
        17 -13.5456    204.4997    176.4743   1.0245433119e+02   4.7195629375e+00     1.002295    0.6353303 -59.54   0.00380884    2.141    0.533
        18 -13.0525    203.5294    166.1019   1.0045345949e+02   6.8969242005e+00    0.6551908    0.5269571 -21.02  0.001938778    1.339    0.253
        19 -12.4435    153.2884    186.1469   1.1526509886e+02   1.3189781687e+01    0.3398047    0.2703672 -83.34 0.0009071664    1.495    0.331
        20 -11.3539    134.2950    244.4122   1.2833021364e+02   5.4266465749e+00    0.2988115    0.1903511 -36.99  0.001455511    2.345    0.573
        21 -11.7906    150.6327    180.5005   1.1478598772e+02   1.4919411991e+01    0.2789324    0.1830942 -54.85 0.0007727233    1.612    0.380
        22 -11.8403    189.8404    156.1295   1.0109136754e+02   1.1780855143e+01    0.5843105     0.556111  -7.68  0.003177744    1.084    0.077
        23 -10.3454     11.8315    173.9256   1.4503988816e+02   3.7262057385e+01    0.1652911    0.1194374 -68.43 0.0002887548    1.279    0.218
        24 -11.3650    138.7047    242.8515   1.2728172032e+02   4.9424419222e+00     0.380974    0.2336689 -59.27  0.002087352    1.936    0.483
        25 -11.3969     34.7792    169.7537   1.3971888134e+02   3.5963295963e+01    0.3155416    0.2415921 -20.15  0.001318193    2.146    0.534
        26 -12.0983    177.0132    169.4850   1.0673187655e+02   1.1785486419e+01    0.2952973    0.2125637 -60.54  0.001153674    1.606    0.377
        27 -11.4892    230.1302    167.1329   9.5533060259e+01   1.3672318629e+00     0.456092    0.1648368 -50.78  0.001378926    4.306    0.768
        28 -11.0294    121.9289    198.5766   1.2432611932e+02   1.6536933990e+01     0.238095    0.1970226 -63.54  0.000425905    1.258    0.205
        29 -11.2643     25.2444    165.1680   1.4131971121e+02   3.7981457044e+01    0.2015302    0.1825431 -54.85 0.0008007974    1.373    0.272
        30 -10.7840    107.6762    250.7309   1.3407254668e+02   8.7214755300e+00    0.1426797    0.0884432  49.49 0.0001881945    1.311    0.237
        31 -16.0862    100.6355    243.1041   1.3454383950e+02   1.1226335556e+01    0.9338999    0.8478699 -60.87  0.005816076    1.434    0.302
        32 -14.5752    143.7338    143.5030   1.0865917160e+02   2.4558478866e+01     1.249837    0.6974657 -65.01  0.004574821    2.473    0.596
        33 -14.2429    135.6255    127.7002   1.0694188281e+02   2.9857053357e+01     1.848438    0.4304081 -49.42  0.004712583    4.521    0.779
        34 -11.4301     22.9660    155.4178   1.4074996579e+02   4.0418594568e+01    0.3795762    0.1874993 -65.79  0.002043086    1.614    0.380
        35 -12.3928    134.7031    109.5318   1.0257435897e+02   3.4065880429e+01     1.340425    0.1760392 -45.00  0.002650735    7.524    0.867
        36 -11.6689    174.3265    148.3500   1.0268571227e+02   1.6804469070e+01    0.4345388    0.3010677 -61.34  0.001516942    1.679    0.404
        37 -10.3623    151.1494    241.6796   1.2472148694e+02   2.9854023583e+00    0.1750582    0.1402489  41.54 0.0005588071    1.105    0.095
        38 -12.4691     21.6308    237.8556   1.4802949949e+02   2.2980618743e+01    0.2063696    0.1494098  85.16 0.0008015478    1.118    0.106
        39 -11.8394    131.0689    235.0669   1.2773307225e+02   7.6499077751e+00    0.2161381     0.173464 -71.31 0.0006381251    1.391    0.281
        40 -10.3991      1.6050    140.0490   1.4401185882e+02   4.5593670669e+01     0.158991    0.1093695 -74.74 0.0004294784    1.091    0.084
        41 -15.1141    132.6308    145.3445   1.1178114119e+02   2.6459978101e+01      1.54351    0.9958704 -59.90  0.004484852    1.645    0.392
        42 -10.7464      7.0998    138.6872   1.4256798794e+02   4.5512875960e+01    0.2058014    0.1704035 -44.96  0.001477738    1.418    0.295
        43  -9.7680     11.3702    138.2435   1.4149140445e+02   4.5296614898e+01    0.1119375   0.07707837 -44.63 0.0003594545    1.619    0.382
        44  -9.9479    145.1698    234.9370   1.2494299901e+02   5.2062380393e+00    0.1437074   0.09872365 -56.71            0    1.692    0.409
        45 -12.5534    160.4841    128.0897   1.0102494238e+02   2.4277882852e+01    0.5057834    0.3314861 -53.78  0.001723825    1.599    0.375
        46 -10.5968     13.6398    232.1322   1.4898349672e+02   2.4948031582e+01    0.1689902   0.08078329 -81.40 0.0005112696    1.714    0.417
        47 -11.0232    167.5619    112.5492   9.5486878754e+01   2.5928432624e+01    0.3563901      0.23936 -82.43  0.001360368    2.375    0.579
        48 -13.5656    118.8056    110.2455   1.0692449101e+02   3.7246515020e+01    0.6759359     0.448392  74.94  0.002706907    2.388    0.581
        49 -11.7914     16.9867    225.1151   1.4798379950e+02   2.5969632817e+01    0.2018026    0.1212294 -75.79 0.0007333559    1.461    0.316
        50 -10.8219    205.3531    110.2564   8.7135919718e+01   1.7432221886e+01    0.3148955    0.2122713  48.22 0.0009296627    1.541    0.351
        51 -10.2133    218.2807    219.6379   1.0812407036e+02  -5.2733976843e+00    0.1187615    0.1055057  89.97 0.0003956619    1.675    0.403
        52 -11.0907    206.6552    209.3231   1.0848096398e+02  -1.5548048431e+00    0.1314058    0.1085232  77.07 0.0007050225    1.735    0.424
        53  -9.5859    143.2852    209.2884   1.2145701090e+02   1.0381585519e+01    0.1289956      0.10996   6.39 0.0001794876    1.531    0.347
        54 -13.8902     11.2748    206.1924   1.4769715340e+02   3.0394030725e+01    0.4631906    0.3559326  34.13  0.002370229    1.771    0.435
        55 -10.6791    145.0177     81.2735   9.2160854180e+01   3.7429880573e+01    0.2162888    0.1964154  53.16 0.0004561185    1.085    0.078
        56 -10.8759     16.3127    201.7139   1.4645118202e+02   3.0831744947e+01    0.1180652   0.09088251 -87.82 0.0004070456    1.124    0.111
        57 -10.5060    133.5636    248.8819   1.2903458291e+02   4.7802513287e+00    0.1480152    0.1225416 -70.85  0.000319858    1.395    0.283
        58 -10.2196    160.3210    247.7328   1.2380479234e+02   3.9409680061e-01    0.2580899    0.1657471  17.53 0.0008408932    2.329    0.571
        59 -13.1088    168.7335     35.8587   7.4022829224e+01   3.8785262316e+01    0.4152815    0.3963422   4.33 0.0009685318    1.205    0.170
        60  -9.8403     17.3916     61.2374   1.2612528287e+02   6.1432148301e+01    0.1173924   0.06952802 -26.91 0.0006918444    1.653    0.395
        61 -11.3401     13.5261     59.8121   1.2717933335e+02   6.1969503860e+01    0.1814822    0.1678805 -43.25 0.0004025658    1.243    0.195
        62 -10.3288    140.4998     32.4857   7.8321084397e+01   4.6054830784e+01    0.2209212     0.129437  70.52 0.0005350853    1.921    0.479
