#   1 NUMBER                 Running object number                                     
#   2 MAG_AUTO               Kron-like elliptical aperture magnitude                    [mag]
#   3 X_IMAGE                Object position along x                                    [pixel]
#   4 Y_IMAGE                Object position along y                                    [pixel]
#   5 X_WORLD                Barycenter position along world x axis                     [deg]
#   6 Y_WORLD                Barycenter position along world y axis                     [deg]
#   7 A_WORLD                Profile RMS along major axis (world units)                 [deg]
#   8 B_WORLD                Profile RMS along minor axis (world units)                 [deg]
#   9 THETA_WORLD            Position angle (CCW/world-x)                               [deg]
#  10 FWHM_WORLD             FWHM assuming a gaussian core                              [deg]
#  11 ELONGATION             A_IMAGE/B_IMAGE                                           
#  12 ELLIPTICITY            1 - B_IMAGE/A_IMAGE                                       
         1 -12.9934     68.4818    145.4326   1.2789232809e+02   3.7860373944e+01     3.671009     1.584677  63.10  0.004948315    4.525    0.779
         2 -13.6347    190.9249     27.8049   6.7417109663e+01   3.3455258921e+01       2.1898      1.54281  13.64   0.01058006    2.071    0.517
         3 -13.4935    201.7847     13.0914   6.2188518513e+01   3.2334307324e+01     1.397753     1.088766  36.08  0.007876217    1.601    0.375
         4 -12.8513      6.1355      9.5193   1.1626523193e+02   7.2801437149e+01     1.406478     0.534336 -41.26  0.007727134    2.023    0.506
         5  -8.9296    231.6791     15.0619   5.9820712696e+01   2.4837188011e+01    0.2886022    0.1663253 -28.22  0.001485665    1.883    0.469
         6  -9.4912    164.7969     11.8343   6.6340795835e+01   4.1973647170e+01    0.1917814     0.151898 -68.64 0.0004530745    1.324    0.245
         7 -12.6368     29.2628    250.0706   1.4615219164e+02   2.1239950763e+01    0.8368972    0.2544217  37.17  0.001627114    3.033    0.670
         8 -12.9756    176.6763    248.3953   1.1939515695e+02   4.5675270830e-02     1.671378    0.3795717  39.83  0.006111538    3.493    0.714
         9 -11.1255     54.4208    229.8618   1.4046246787e+02   2.1821958180e+01    0.3364065    0.2315954  86.53  0.001289345    1.326    0.246
        10 -13.4230     10.2324    207.7033   1.4721497282e+02   3.1023733379e+01     1.226951    0.8798261  17.78  0.006137717    2.237    0.553
        11 -12.6680     47.5353    231.6535   1.4186091588e+02   2.2355129463e+01     1.357592    0.5175328 -69.77   0.00716759    2.636    0.621
        12 -12.4625     35.7374    229.2155   1.4383574785e+02   2.4214212518e+01    0.6134095    0.4978895 -66.24  0.001561597    1.604    0.376
        13 -12.1880     53.5292    217.0616   1.3961938873e+02   2.4362380370e+01     0.383252    0.3808403 -58.04  0.001322319    1.516    0.340
        14 -14.2514     62.4691    206.0413   1.3685079848e+02   2.5376777315e+01     3.986035     1.397393  55.61   0.01665898    2.907    0.656
        15  -9.9671    140.4808    230.1978   1.2383939371e+02   8.7459820306e+00    0.2511663    0.1515495  43.52  0.001176895    1.335    0.251
        16  -8.8795    166.8127    211.9465   1.1594668377e+02   7.1475122138e+00    0.3364407    0.2177151 -76.26   0.00136995    3.077    0.675
        17  -9.5341     38.7866    213.4608   1.4219114545e+02   2.6864182134e+01    0.2335573    0.1604969  51.27 0.0009088655    1.268    0.212
        18 -10.0212    169.0112    207.7590   1.1482899810e+02   7.4406920246e+00    0.1996294    0.1866984  -0.61 0.0003996994    1.179    0.152
        19 -10.2482    192.5431    194.7732   1.0787043667e+02   5.2265588782e+00    0.8852769      0.44585 -61.29  0.002687759    6.139    0.837
        20 -15.6224     12.4612    241.5178   1.4850170951e+02   2.4527962357e+01      4.05075     1.488047 -67.39   0.01423974    2.848    0.649
        21  -8.6108     15.2471    193.9832   1.4543819623e+02   3.3286253320e+01    0.1523612    0.1124453  80.32 0.0003193454    1.037    0.036
        22  -9.2516    104.1291    239.1212   1.3192624636e+02   1.3127221946e+01    0.1912039    0.1476385  67.57  0.000395909    1.189    0.159
        23 -10.1285     72.1051    181.1554   1.3203675206e+02   2.9266566093e+01    0.3578032    0.2730484 -75.22  0.001527813    1.268    0.211
        24 -11.2298     75.6678    186.3581   1.3187037999e+02   2.7629444731e+01    0.4063511    0.2671552 -47.65  0.002177813    1.926    0.481
        25 -11.0084     79.6267    180.4935   1.3022528323e+02   2.8309789251e+01    0.2734192     0.249044 -50.09 0.0008959317    1.357    0.263
        26  -8.7660     60.0865    227.6073   1.3922431272e+02   2.1506850347e+01    0.3352363      0.12458  58.67  0.001534891    2.646    0.622
        27  -8.6502    201.5163    184.0119   1.0409199718e+02   5.2812706844e+00    0.1825147    0.1209885 -63.37  0.000810451    2.607    0.616
        28  -8.4196     63.2972    231.4034   1.3892892746e+02   2.0380429016e+01    0.1723194   0.07997496  50.34 0.0009440623    1.687    0.407
        29 -10.8384     44.5960    168.2936   1.3690553139e+02   3.5686276426e+01    0.4472035    0.2202445  89.28  0.001740099    2.326    0.570
        30 -10.0643     45.6652    173.3177   1.3719811079e+02   3.4445539938e+01     0.206445    0.1530668  73.38  0.001166065    1.181    0.153
        31 -11.2302     42.1189    172.6816   1.3794409851e+02   3.4999053611e+01    0.4859259    0.2537451 -88.42  0.001862197    1.957    0.489
        32 -12.4048     57.3542    129.5399   1.2831388386e+02   4.3068310712e+01     1.736303    0.6041169 -74.17  0.004918308    5.350    0.813
        33 -11.6718    156.6020    245.8773   1.2278316452e+02   3.6543443879e+00    0.5597098    0.3483063  23.67  0.003127938    1.866    0.464
        34  -8.9919    229.9605    166.4791   9.5274474456e+01   2.7022386164e+00    0.1724697     0.121978  70.61 0.0008085976    2.435    0.589
        35  -8.6338     11.6248    157.2945   1.4352766170e+02   4.1421237987e+01    0.1252329   0.06844954  65.00 0.0007024423    1.740    0.425
        36 -11.5012    157.1268    227.6847   1.2023298986e+02   6.3161257940e+00    0.7155283    0.2829473  34.30  0.002968749    2.566    0.610
        37  -9.1883    115.9871    152.0447   1.1680430069e+02   2.8466099831e+01     0.209655    0.1988455  66.32            0    1.027    0.026
        38  -9.9158     48.4686    151.6738   1.3398169385e+02   3.9000648350e+01    0.3115025    0.1235684 -58.96  0.001376038    2.278    0.561
        39 -10.9241    167.6105    223.8280   1.1762007449e+02   5.1087775650e+00    0.3266425    0.2529518   5.83  0.001944836    1.571    0.364
        40  -8.8634     98.9534    151.5039   1.2100588757e+02   3.1670582938e+01    0.2186422    0.1358408  42.33  0.000516316    1.568    0.362
        41 -10.8082     40.2557    145.6350   1.3530640944e+02   4.1323851644e+01    0.4754993    0.2657205 -82.57  0.002282133    1.753    0.429
        42  -9.4131    104.4966    146.5170   1.1864953072e+02   3.1824960569e+01    0.2924678    0.2502823  83.89 0.0008845094    1.194    0.162
        43  -9.3823    106.2952    143.3785   1.1756965234e+02   3.2211098246e+01    0.3142285    0.2453649 -30.27   0.00105036    1.610    0.379
        44 -11.5757     93.4947    145.7973   1.2137070184e+02   3.3906719107e+01    0.2768819     0.270173 -23.37 0.0004782006    1.196    0.164
        45 -10.5871     54.5208    145.6598   1.3159990292e+02   3.9656597393e+01     0.261113    0.2086486 -53.13  0.001134474    1.332    0.249
        46  -8.4206    181.3354    144.9447   1.0005243067e+02   1.6308052249e+01    0.1980554    0.1872824 -18.26 0.0002617897    1.084    0.077
        47  -8.3185    132.5636    139.7829   1.1012606195e+02   2.7884009489e+01    0.2175651    0.1450821 -63.36 0.0009500874    1.752    0.429
        48 -10.2886    227.6668    138.4291   8.9662421934e+01   7.6069966783e+00    0.2397497    0.2347737  35.10 0.0007225229    1.130    0.115
        49  -9.8708    113.7663    135.1845   1.1392141564e+02   3.2662507570e+01    0.5057074     0.254164 -53.08  0.002042109    2.027    0.507
        50 -10.0461    101.1856    130.6197   1.1629948953e+02   3.6050924655e+01    0.2724872    0.2412741 -13.55 0.0004107332    1.378    0.274
        51 -10.4003     44.3980    129.9244   1.3201392090e+02   4.4519315109e+01    0.2816395    0.2424955 -16.07  0.001752302    1.506    0.336
        52 -10.0206     41.3045    126.2287   1.3232244434e+02   4.5719143749e+01    0.3230226    0.1710869  49.12  0.001600934    2.054    0.513
        53  -9.4431    119.1315    126.7370   1.1062093038e+02   3.3498031068e+01    0.3044826     0.203889 -22.70  0.001248517    2.256    0.557
        54  -9.0964    109.2688    121.9679   1.1216254374e+02   3.6508655539e+01    0.2287711    0.2062179  42.52 0.0003367186    1.124    0.110
        55  -9.4946    245.8806    119.9356   8.2556214949e+01   6.8918246245e+00     0.207624    0.1938861  36.81 0.0002940209    1.152    0.132
        56 -11.5375     87.7182    169.2483   1.2673601257e+02   2.9536424891e+01    0.6237904    0.5555812  38.73  0.001889645    1.240    0.194
        57 -12.7127     75.6390    166.0755   1.2919596130e+02   3.2094401016e+01    0.5789841    0.3934239 -36.11  0.001280179    2.139    0.533
        58  -8.8849    167.5127    112.9729   9.5355478686e+01   2.5654057711e+01    0.3004342    0.2216989  74.10  0.001051567    1.685    0.407
        59  -8.8636     11.1112    110.9595   1.3889574519e+02   5.1881641640e+01    0.1673481    0.1656244  57.15 0.0004575168    1.251    0.201
        60 -11.4952     92.9668    162.5364   1.2440674566e+02   3.0188200318e+01    0.9980255    0.7224514 -82.99  0.001458482    1.486    0.327
        61  -8.4982    163.1641     79.0704   8.7033643106e+01   3.3067552473e+01    0.2092985    0.1792272 -74.90  0.000377801    1.298    0.229
        62  -8.7511    184.3309     75.5369   8.1814447498e+01   2.8324805212e+01    0.2478313    0.1725025 -46.42 0.0005708082    1.461    0.316
        63  -9.6647    240.0873     63.9531   7.0407861768e+01   1.6621876429e+01    0.2085321    0.1871248  83.58 0.0003548061    1.138    0.121
        64  -8.3511    126.0910     61.1688   9.0230058842e+01   4.5252923539e+01    0.1883185    0.1729382 -83.86 0.0003140115    1.232    0.188
        65 -11.1897    182.3732     34.4356   7.0480529013e+01   3.4859576943e+01    0.5551363    0.4375623  52.26 0.0009611887    1.269    0.212
        66  -8.3935    121.4626    248.0060   1.2960545297e+02   8.9792147730e+00    0.1439932    0.1175035 -73.49 0.0005156428    1.497    0.332
        67  -8.9678    110.1237    224.3684   1.2913258942e+02   1.4763083278e+01    0.2190773    0.1744007  89.43 0.0007529729    1.359    0.264
        68 -10.4796    173.9130    221.8178   1.1608458078e+02   4.3223674327e+00    0.2160774    0.2001728  73.67  0.001431227    1.336    0.252
        69 -10.3798    136.9437     38.2622   7.9904107169e+01   4.6092271582e+01    0.2348831    0.2183694 -23.00 0.0002650635    1.151    0.132
        70  -9.1488     89.5299    245.0659   1.3523375688e+02   1.4302346607e+01    0.1612596    0.1239594  61.75  0.000478765    1.057    0.054
        71  -8.8069     62.5327    250.6906   1.4053532491e+02   1.7081998660e+01    0.1695002   0.07747779  44.38 0.0002379458    1.695    0.410
