#   1 NUMBER                 Running object number                                     
#   2 MAG_AUTO               Kron-like elliptical aperture magnitude                    [mag]
#   3 X_IMAGE                Object position along x                                    [pixel]
#   4 Y_IMAGE                Object position along y                                    [pixel]
#   5 X_WORLD                Barycenter position along world x axis                     [deg]
#   6 Y_WORLD                Barycenter position along world y axis                     [deg]
#   7 A_WORLD                Profile RMS along major axis (world units)                 [deg]
#   8 B_WORLD                Profile RMS along minor axis (world units)                 [deg]
#   9 THETA_WORLD            Position angle (CCW/world-x)                               [deg]
#  10 FWHM_WORLD             FWHM assuming a gaussian core                              [deg]
#  11 ELONGATION             A_IMAGE/B_IMAGE                                           
#  12 ELLIPTICITY            1 - B_IMAGE/A_IMAGE                                       
         1 -14.9783      2.8387     79.9501   1.2593862993e+02   5.9141530879e+01     13.58889     2.061271 -64.62   0.02543998   14.970    0.933
         2 -13.1824    201.9640     34.7498   6.0271538893e+01   3.1122311364e+01     1.132657     1.023719 -89.85  0.007058604    1.166    0.142
         3 -13.6503    218.9612     16.8042   5.4829341204e+01   2.9645990494e+01      1.02191    0.8011467  51.77  0.006888474    1.691    0.409
         4 -12.8613      2.9857     13.6269   1.0587218802e+02   7.0511065393e+01     1.271186    0.2503289 -42.85  0.005260918    4.512    0.778
         5 -11.4005    139.0258    248.5459   1.1813207681e+02   1.7861972413e+00    0.4054677     0.278903 -80.31  0.002055105    2.114    0.527
         6 -11.5120    244.0865    249.6287   9.7421506521e+01  -1.3953256262e+01    0.3556416     0.277296  33.52  0.002403045    1.534    0.348
         7 -12.9182     32.2346    246.9977   1.3969063956e+02   1.7729587901e+01      1.71907    0.5949534  35.73  0.007831065    2.872    0.652
         8 -13.4202     10.1951    207.2130   1.4085422310e+02   2.8936297409e+01    0.9631441    0.8418697 -72.68  0.003114081    1.280    0.219
         9 -13.0474      5.8434    227.8034   1.4324457527e+02   2.4738195002e+01     1.446257     0.493806  47.56  0.007064915    2.525    0.604
        10 -12.6805     11.8519    238.5706   1.4286102854e+02   2.1803986148e+01     1.004872    0.4549665  56.10  0.005157633    1.919    0.479
        11 -11.9509      5.1507    249.2083   1.4473041950e+02   2.0283576788e+01    0.9931806    0.4562034  86.82  0.004262219    1.938    0.484
        12 -11.0755     12.0420    246.7606   1.4336737545e+02   2.0063661503e+01    0.4437965    0.2413584  81.35 0.0005606833    1.574    0.365
        13 -10.1500    105.7577    240.9685   1.2416603523e+02   8.6688543754e+00    0.1658285    0.1122722 -61.71  0.000528786    1.579    0.367
        14  -9.3377     56.4817    240.0211   1.3435566573e+02   1.6144332005e+01    0.1887992    0.1144183 -75.46  0.001028948    1.587    0.370
        15 -12.0481    174.3363    249.2710   1.1087827495e+02  -4.0083519001e+00    0.7467691    0.1636076  37.76  0.002383375    4.082    0.755
        16 -12.8090     25.1254    224.1189   1.3922509038e+02   2.3529203603e+01    0.3487087    0.3099481 -70.33 0.0007845812    1.334    0.250
        17 -14.8458     31.0119    216.8908   1.3738511134e+02   2.4509369873e+01     6.478127      2.92061  43.94   0.02837531    2.082    0.520
        18  -9.9973    150.2885    229.0015   1.1271497126e+02   3.7501892260e+00    0.1937911    0.1880756 -26.56  0.001173773    1.088    0.081
        19 -10.4127    125.3692    250.1988   1.2123575756e+02   3.6729628052e+00    0.2634982   0.09711193  35.50   0.00102836    2.575    0.612
        20  -9.9453    226.4316    201.8439   9.2038346737e+01  -3.7002508851e+00    0.2844568    0.2078298 -61.90  0.001486381    1.909    0.476
        21  -9.7040    192.6994    194.3174   9.7235300811e+01   3.3918428477e+00    0.5028993    0.2615177 -66.43  0.001454585    5.223    0.809
        22 -11.5809     54.4378    192.4007   1.2943013430e+02   2.7507164929e+01    0.3373021    0.2540022 -43.94 0.0005402105    1.566    0.361
        23  -8.0874    181.6727    192.3139   9.9172855211e+01   5.7988491676e+00    0.1445499    0.1183845  84.78 0.0004947039    1.670    0.401
        24 -11.9654      5.5205    184.5836   1.3990363868e+02   3.4667597504e+01    0.7171325    0.3367229  75.93  0.001695005    2.425    0.588
        25 -11.7928     61.2552    184.7327   1.2672080450e+02   2.8504898640e+01    0.3088768    0.2557915 -46.81 0.0004263848    1.338    0.252
        26 -10.8595     72.4582    172.8589   1.2203842138e+02   2.9914927769e+01    0.2789003    0.2335594 -59.49 0.0004164829    1.135    0.119
        27 -13.1689     58.6646    170.2871   1.2522287739e+02   3.2489066868e+01    0.5707799    0.2898232 -44.98  0.001892293    2.202    0.546
        28 -11.8040     80.5445    164.4227   1.1843768446e+02   3.0835100483e+01    0.6396415    0.5864196 -54.39  0.003549183    1.095    0.086
        29 -10.9366     25.1271    164.3190   1.3304005613e+02   3.7821534989e+01     0.301768    0.1770217 -67.77  0.001573665    1.408    0.290
        30 -10.2484     23.0273    156.4943   1.3256709718e+02   3.9954648276e+01    0.1737781    0.1322255  30.39 0.0006605553    1.563    0.360
        31 -10.0273     94.4099    149.4762   1.1173644047e+02   3.2344603808e+01     0.316364    0.2958378  55.54 0.0008134305    1.116    0.104
        32 -11.9913     82.7349    148.1576   1.1471361525e+02   3.4599064127e+01      0.32796     0.247657 -46.97 0.0006046626    1.281    0.219
        33 -12.2928     67.6765    143.8159   1.1812155202e+02   3.7949216130e+01     0.730518     0.522927  71.80  0.002781089    1.770    0.435
        34 -13.4713     41.3505    206.8999   1.3416455224e+02   2.5633241192e+01     1.510373      1.11322  80.85 0.0008820707    1.218    0.179
        35  -9.1308     97.9398    145.3820   1.0988875561e+02   3.2751523651e+01    0.2069272    0.1945127  28.74 0.0005120164    1.142    0.124
        36  -9.4936    107.4977    135.3463   1.0498571656e+02   3.3472996299e+01    0.3516214    0.2416784 -18.82  0.001448733    2.107    0.525
        37 -10.6119     57.5008    133.4779   1.1905203113e+02   4.1892536054e+01    0.3475927     0.139563 -68.12  0.001161835    3.204    0.688
        38 -10.1512     94.3272    132.2585   1.0797328550e+02   3.6594677078e+01    0.2688666    0.2342563 -28.72 0.0006927549    1.208    0.172
        39  -9.1432    105.1748    122.5096   1.0255392745e+02   3.6943860953e+01    0.2057657    0.1524519  38.33 0.0004150379    1.404    0.288
        40 -10.1151     53.4942    118.4691   1.1714871245e+02   4.6024176736e+01     0.261458    0.1321254 -68.99  0.001038998    2.452    0.592
        41  -9.6366    167.5831    112.4362   8.4431321295e+01   2.6001081356e+01    0.3230338    0.2236404 -73.74  0.001003178    1.889    0.471
        42  -9.2270    203.7392    111.3962   7.7188514156e+01   1.8284276114e+01    0.1987543    0.1362568  43.05 0.0009505616    1.700    0.412
        43  -9.8259    160.2984     78.9953   7.7480049540e+01   3.4018713073e+01    0.2044673     0.191815 -60.60 0.0008843507    1.074    0.068
        44  -9.0588    184.5298     77.4810   7.2596033807e+01   2.8724272470e+01    0.1406497    0.1300766 -84.04 4.104905e-05    1.033    0.032
        45 -11.0498     12.5064     61.2007   1.1765948666e+02   6.2210366606e+01    0.2468744    0.1614018 -36.69  0.001182909    1.209    0.173
        46 -11.0521    100.8785    245.8530   1.2582039767e+02   8.4254840827e+00    0.1952025    0.1849508  21.70  0.001234537    1.257    0.204
        47 -10.1073     89.8379    245.7990   1.2812246273e+02   1.0132943735e+01    0.1923874    0.1351058  64.18 0.0008438777    1.367    0.269
        48 -11.0459     22.0203     27.8527   1.0268183629e+02   6.6840519519e+01    0.4938391    0.1975929  42.91  0.002059937    4.799    0.792
