#   1 NUMBER                 Running object number                                     
#   2 MAG_AUTO               Kron-like elliptical aperture magnitude                    [mag]
#   3 X_IMAGE                Object position along x                                    [pixel]
#   4 Y_IMAGE                Object position along y                                    [pixel]
#   5 X_WORLD                Barycenter position along world x axis                     [deg]
#   6 Y_WORLD                Barycenter position along world y axis                     [deg]
#   7 A_WORLD                Profile RMS along major axis (world units)                 [deg]
#   8 B_WORLD                Profile RMS along minor axis (world units)                 [deg]
#   9 THETA_WORLD            Position angle (CCW/world-x)                               [deg]
#  10 FWHM_WORLD             FWHM assuming a gaussian core                              [deg]
#  11 ELONGATION             A_IMAGE/B_IMAGE                                           
#  12 ELLIPTICITY            1 - B_IMAGE/A_IMAGE                                       
         1 -15.0432    179.4077     77.1343   6.0380703760e+01   2.9814143089e+01      8.64589     4.786586 -62.04   0.03062126    2.860    0.650
         2 -11.4011    226.9531     16.9226   3.7741665783e+01   2.6816367514e+01    0.5960512    0.4556676  29.53  0.001871029    1.854    0.461
         3 -12.6538    233.5935      9.1610   3.5403431769e+01   2.6175733061e+01    0.8174637    0.5151519 -26.06  0.001126877    1.776    0.437
         4 -12.7490    230.4940     27.5044   3.9894225302e+01   2.4778626867e+01      1.29996     0.670817 -79.18  0.004439305    2.429    0.588
         5 -13.2254    248.9978      5.0666   3.3391228056e+01   2.3286022971e+01      2.49456    0.5890366 -26.21  0.008000846    5.822    0.828
         6 -13.5687    248.7038     61.0425   4.5779910581e+01   1.6332088892e+01     2.711088    0.4807666 -38.51  0.008544804    3.936    0.746
         7 -15.0899    236.3826     69.7647   4.9319364500e+01   1.7673727491e+01     6.965733     1.823682 -41.75   0.02345924    3.209    0.688
         8 -15.0185    218.6242     74.6145   5.2988272485e+01   2.0884856452e+01     10.19485     2.841281 -47.88   0.02823432    4.614    0.783
         9 -10.8439    144.8781     27.6722   5.1729004740e+01   4.5722404665e+01    0.5175822     0.275258 -27.59  0.001555069    1.988    0.497
        10 -14.2458    246.4236     37.6334   4.0689748580e+01   2.0007595611e+01     6.097807    0.3306889  55.91   0.01389619   10.252    0.902
        11 -12.1026    131.3650     20.3579   5.1865652218e+01   4.9859114649e+01    0.7102119     0.391063 -25.34  0.001658492    1.940    0.484
        12 -10.7512    206.1960     20.3229   4.0627088363e+01   3.1290696915e+01    0.6378914     0.354766 -70.48  0.001631266    2.078    0.519
        13 -11.3797    215.3705     15.0359   3.8366233569e+01   2.9698990792e+01    0.3726832    0.3236047 -50.04 0.0006006879    1.143    0.125
        14  -8.3067    164.5760     16.2470   4.4732140620e+01   4.2028915006e+01    0.1762662    0.1342662  -1.26 0.0008846835    1.597    0.374
        15  -9.7119    115.9700     12.5041   5.2228913898e+01   5.4318276161e+01    0.3272591    0.2199035  56.19  0.001004794    1.344    0.256
        16 -11.5543    120.3370      8.8866   4.9912098864e+01   5.3623765224e+01    0.5320764    0.4371497 -28.18  0.001915386    1.355    0.262
        17 -10.5508    208.4277      9.9048   3.7765968664e+01   3.1880403926e+01     0.239849    0.1969666 -35.87  0.000659644    1.291    0.226
        18  -9.8048    184.3837      5.4004   3.9058678802e+01   3.8146030751e+01    0.4425119    0.2847481  84.60  0.002021848    1.480    0.324
        19  -8.4754    172.0016      2.3670   3.9619306709e+01   4.1479749132e+01    0.1845313    0.1488274  85.29 0.0005002908    1.136    0.120
        20  -9.4241    143.0373      1.7572   4.3330680203e+01   4.8716941233e+01    0.1966082    0.1701806  60.45 0.0007259931    1.011    0.011
        21 -10.3520    224.2449      8.7688   3.6074370404e+01   2.8318419571e+01    0.4148922     0.183502 -28.59  0.001888838    2.346    0.574
        22  -7.9286    188.5431    182.4969   8.4332770507e+01   7.6575579787e+00    0.1422288    0.1295095   9.67 4.048179e-05    1.021    0.021
        23  -9.3073    106.5640    250.6517   1.1149068896e+02   9.2130865793e+00    0.2083298   0.09122595  39.67 0.0002875825    1.858    0.462
        24 -10.3269    222.3940    177.0025   7.6468336180e+01   2.4798700026e+00     0.409366    0.3171596  -1.60  0.002295658    1.231    0.188
        25 -10.0281    228.7359    176.0355   7.5085059466e+01   1.5361887715e+00    0.3387994    0.2582648  59.40  0.001111485    1.961    0.490
        26  -9.8152    228.3154    172.3454   7.4395013532e+01   2.2080583233e+00    0.2068509    0.1733238  18.58  0.001210178    1.148    0.129
        27  -8.8410    197.0307    177.0802   8.1478271401e+01   7.0586086240e+00      0.21051    0.1935062   6.83  0.000319402    1.054    0.051
        28 -10.6802    236.2328    174.8309   7.3471987021e+01   4.5203090098e-01    0.4141707    0.3015334  46.65  0.001811799    1.668    0.400
        29 -10.8567    231.0423    167.9188   7.2963594795e+01   2.4547801778e+00    0.4233375    0.2445947 -42.08  0.002034481    1.795    0.443
        30 -10.1601     62.7146    170.0119   1.1161108269e+02   3.1822264106e+01    0.2268738    0.1787752  41.76            0    1.327    0.247
        31 -11.0832    242.9893    165.4204   7.0313602937e+01   7.9910503457e-01    0.3534045    0.2524135 -36.14  0.001966264    1.360    0.265
        32 -11.0925     66.7373    145.5405   1.0699574716e+02   3.7188759540e+01     1.936962     1.139035  16.55    0.0085968    2.480    0.597
        33 -12.9154     35.8714    161.8742   1.1715750904e+02   3.6819312274e+01    0.7734361    0.6669739 -41.42   0.00229327    1.438    0.305
        34  -8.4594    209.4660    165.5065   7.6536734888e+01   6.7931131263e+00    0.2426142    0.1360814  53.47  0.001017958    2.337    0.572
        35 -12.3888    198.3393     76.5527   5.6748608167e+01   2.5325495344e+01     1.393001    0.6776962  39.41  0.004033605    2.691    0.628
        36  -9.1120    136.0187    242.4033   1.0491216215e+02   6.1657793281e+00    0.2818579    0.1449979  54.28  0.001387954    2.140    0.533
        37 -10.0891    192.3694    152.5712   7.7152604283e+01   1.2525282217e+01    0.4451982    0.2727409 -61.85  0.001724825    2.683    0.627
        38  -9.8276    133.5042    144.4119   8.8964869764e+01   2.6285483204e+01     1.166081    0.2607976 -53.27  0.002543329    6.525    0.847
        39  -8.5301    173.6644    149.6698   8.0545821510e+01   1.6937939727e+01    0.1609265    0.1186415   1.01 5.150324e-05    1.730    0.422
        40  -8.9667    232.4960    241.0012   8.6418297081e+01  -8.2786751171e+00    0.1652768   0.08555216  -8.64  0.000810182    2.508    0.601
        41  -8.3500    222.7198    145.5492   6.9581664716e+01   7.7850614756e+00    0.1750567    0.1421283  54.36 0.0009251303    1.490    0.329
        42 -10.4543    179.9782    144.6377   7.7982389686e+01   1.6641244611e+01    0.3454954    0.2257302 -45.81  0.001539829    1.564    0.361
        43  -8.9584    156.1346    154.1733   8.5590714656e+01   1.9591630930e+01    0.2322782     0.221049  77.97 0.0003714639    1.165    0.142
        44  -9.5458    197.1140    143.7086   7.4130730596e+01   1.3250860266e+01    0.4831838    0.2735236  56.00   0.00157331    2.251    0.556
        45  -8.6748    192.2473    144.2271   7.5258795235e+01   1.4159126414e+01    0.2269987    0.2086647  65.95 0.0003477962    1.289    0.224
        46  -9.0704    158.9467    142.7375   8.2331716249e+01   2.1457917333e+01     0.217554    0.2084568  30.92  0.001151064    1.048    0.046
        47 -10.8107    179.5079    135.5420   7.5920032725e+01   1.8575133953e+01    0.4686709    0.2501212 -55.87  0.001696491    2.564    0.610
        48  -8.3808    248.7024    240.3098   8.3471294458e+01  -1.0382789325e+01   0.09612772   0.08762601  16.03 0.0002762903    1.596    0.373
        49  -8.3233    167.4457    134.5083   7.8380380338e+01   2.1390827246e+01    0.1560573    0.1491055 -11.42 2.558914e-05    1.013    0.013
        50  -9.3203    158.3854    131.2611   7.9707379786e+01   2.4035745598e+01    0.2916586    0.2158813 -72.82 0.0008654324    1.881    0.468
        51 -10.0234    160.6642    128.2490   7.8417028498e+01   2.4183225010e+01    0.3827816    0.3158511 -42.06  0.001744412    1.196    0.164
        52 -12.6576     48.5079    154.8564   1.1317214538e+02   3.7145842427e+01    0.8183978    0.6836152 -75.02   0.00301986    1.061    0.058
        53  -9.0304    136.7409    129.2552   8.4588268592e+01   2.9069495333e+01    0.3721431    0.2757231  36.58  0.001717098    1.391    0.281
        54  -9.5842    135.5970    124.8030   8.3780998643e+01   3.0310336129e+01    0.3661446    0.1540631 -51.20  0.001228293    2.542    0.607
        55 -10.1733    223.8139    128.2501   6.5377887271e+01   1.0611534164e+01    0.2513695    0.2338516 -22.38 0.0009716498    1.053    0.051
        56  -9.0848    219.9479    230.2805   8.6912784340e+01  -5.1103397468e+00    0.2220962    0.1600913 -14.20  0.000787944    1.339    0.253
        57  -9.5010    143.7316    124.4925   8.1615137201e+01   2.8662201920e+01     0.372573     0.253177 -62.67  0.001557258    1.829    0.453
        58  -9.9650    162.9644    120.8460   7.5991900269e+01   2.5237140470e+01    0.2870559    0.2536423 -57.44 0.0003874237    1.213    0.176
        59 -10.0295    168.3730    115.2589   7.3284834820e+01   2.5175780945e+01    0.4548382    0.3223988 -27.12  0.002015198    1.510    0.338
        60 -11.0041    135.2675    108.9258   7.9710012798e+01   3.3908338564e+01     1.076793    0.3999606 -43.04  0.003510559    2.638    0.621
        61 -11.3645    123.8413    105.6199   8.1892128899e+01   3.7059542220e+01    0.9127247    0.5162307 -55.52  0.001702601    2.025    0.506
        62 -10.2366    120.5640     98.2091   8.0723204821e+01   3.9369149291e+01    0.5309868    0.2042673 -50.65  0.001692679    2.913    0.657
        63  -9.0325    142.7354    105.4146   7.6803306932e+01   3.3025731396e+01    0.2264912     0.149871  34.10 0.0008259188    1.653    0.395
        64  -9.6848    149.0909    101.2651   7.4043952486e+01   3.2460729991e+01    0.4727937    0.3655545 -85.07  0.002072117    1.821    0.451
        65  -8.2699     89.9157     98.9764   9.0114310819e+01   4.5011838710e+01     0.169922    0.1576267 -35.74            0    1.007    0.007
        66 -10.7706    160.5205     96.3233   6.9909591076e+01   3.0806468909e+01    0.5778478    0.3612972  36.26  0.002129293    1.780    0.438
        67  -9.5174      4.5105     95.5136   1.1762691491e+02   5.5076137429e+01    0.1234833   0.09605628 -68.17 0.0001205392    1.030    0.029
        68  -9.4198    135.1467     98.0255   7.6684055397e+01   3.6275563453e+01    0.2673903    0.2378379  69.27 0.0007379027    1.278    0.217
        69  -9.9956    143.1434     91.8261   7.2809040808e+01   3.5750307401e+01    0.3346693    0.3198753 -80.08 0.0008680748    1.146    0.127
        70  -9.2447     36.4931    215.4794   1.2179523587e+02   2.4923234538e+01    0.1175329   0.09048794  72.85 0.0008102722    1.011    0.011
        71 -10.3872    208.6971     85.5318   5.7375240432e+01   2.1378788692e+01    0.4724554    0.2580633 -55.53  0.001304893    2.253    0.556
        72 -11.4396    158.8271     86.7586   6.7539438923e+01   3.3060242043e+01    0.3946644    0.2980725 -21.38 0.0006802769    1.453    0.312
        73  -8.4801     19.4871     83.5235   1.1049871243e+02   5.6987774782e+01    0.1272085    0.1034434 -59.16 0.0008096228    1.048    0.045
        74  -8.8591    151.9661     81.6509   6.7614790638e+01   3.5663051487e+01    0.2231004    0.2043747  46.68 0.0006861382    1.101    0.092
        75  -8.8676    218.6460    212.6069   8.4074636746e+01  -2.4399214524e+00    0.2053083    0.1844238  78.08  0.000723004    1.905    0.475
        76 -10.7332    106.6035     78.4603   7.8836211447e+01   4.6392006125e+01    0.4965538    0.3254316  11.33  0.002032358    2.219    0.549
        77  -8.7068    140.4646     78.4585   6.9436590251e+01   3.8982164621e+01    0.1552906    0.1492926   2.94 0.0001711242    1.020    0.020
        78 -10.0718      8.5103     77.9812   1.1340065148e+02   5.8922330914e+01    0.2028972   0.09601113 -64.70  0.001047723    1.636    0.389
        79  -8.9637    206.2795    206.8555   8.5400443003e+01   4.3013968593e-01    0.2090906    0.1641512  36.61 0.0003054044    1.288    0.223
        80 -10.2495    237.8909    205.3322   7.9189402830e+01  -4.3789126722e+00    0.2188999    0.1783176   3.82 0.0002822989    1.043    0.041
        81  -8.9973    105.8704     59.3582   7.2628839182e+01   5.0183008680e+01    0.2613375    0.1924599 -43.25 0.0007020102    1.425    0.298
        82  -8.2157     72.6109     58.4680   8.3437456010e+01   5.6501314717e+01    0.1397339    0.1221358 -22.29 0.0001670965    1.037    0.036
        83 -12.3259    232.0744     37.3676   4.2066381009e+01   2.3187954410e+01    0.3505743    0.2480688 -42.21 0.0004846752    1.286    0.223
        84  -9.1320    165.0058    157.6227   8.4286818215e+01   1.7072906880e+01    0.2753196    0.1634317 -43.57  0.001181151    1.703    0.413
        85  -9.6740    123.9852     52.8076   6.5203140595e+01   4.7302469857e+01    0.2642986    0.2080471 -27.32 0.0007643208    1.282    0.220
        86  -9.7476    173.2267     44.1323   5.1823675765e+01   3.6503202956e+01    0.4979735    0.2401648 -50.50  0.001359776    2.455    0.593
        87  -8.6292    157.1834    149.3782   8.4274541457e+01   2.0402618240e+01    0.3545541    0.2179423  46.37  0.001521101    1.654    0.395
        88 -10.2892    122.7400     37.7192   6.0121318411e+01   4.9821550089e+01    0.2861047    0.2069006 -69.23  0.001331102    2.053    0.513
        89  -9.7617    198.3058     33.6266   4.5070273581e+01   3.1626320171e+01    0.4077201     0.192847 -29.43 0.0008660131    2.177    0.541
        90  -8.9037    158.6192    157.2950   8.5690659471e+01   1.8428170106e+01    0.3852282    0.2489883 -76.05  0.001414398    2.956    0.662
        91  -9.0401    207.5882    201.9783   8.4244113366e+01   9.7902832665e-01    0.2321569    0.1751658  35.11 0.0004531285    1.284    0.221
        92  -9.6690    194.6125    197.7356   8.6031083939e+01   3.8977369900e+00    0.5319952    0.3255668 -65.66  0.002021182    3.958    0.747
        93  -8.3056    224.4648     27.8428   4.0575236050e+01   2.6111235776e+01    0.1796973    0.1231757 -33.21 0.0004451287    1.460    0.315
        94  -9.1313    191.2382    191.6385   8.5562819132e+01   5.5401153800e+00    0.3629709    0.2431735 -70.95  0.001490434    3.242    0.692
        95 -10.1142    179.2881     23.9724   4.4932157238e+01   3.7501591287e+01    0.4795173    0.3795508  81.69  0.002614856    1.218    0.179
        96  -9.4899    205.2554    154.1951   7.4884892036e+01   9.6448324750e+00    0.4276564    0.3162095 -77.68  0.001565162    2.440    0.590
        97  -8.7402    208.1640    197.2236   8.3234463634e+01   1.6419209967e+00    0.1644926    0.1557406  31.57 0.0002966596    1.296    0.229
        98  -7.8888    234.6756    193.2906   7.7465770149e+01  -2.1308370498e+00    0.1112669    0.1080939 -86.35 0.0002998707    1.612    0.380
        99  -8.3906    159.8399     20.2486   4.6694886992e+01   4.2802561778e+01    0.1846306    0.1488417  35.66 0.0004134086    1.313    0.238
       100 -10.1487    150.1558    147.2494   8.5473669718e+01   2.2302414381e+01    0.4353432    0.2982919 -72.94  0.001050298    2.185    0.542
       101 -10.0510    175.7173    192.7213   8.9013165119e+01   8.1467981235e+00    0.2442137    0.2215415   9.89 0.0003618324    1.036    0.034
       102  -8.3061    127.9523    191.9431   9.9427179648e+01   1.6859964157e+01    0.1559043    0.1518373  70.40  0.000320245    1.060    0.057
       103 -10.2995    209.1147    187.0153   8.1060709816e+01   3.1521996414e+00     0.356215    0.2963313  82.75  0.001686224    2.057    0.514
       104  -9.0373     60.5865    185.8117   1.1403067159e+02   2.8450796638e+01    0.1817386    0.1715327  47.75  0.001202047    1.243    0.196
       105 -10.0467    147.2872    143.6106   8.5342538384e+01   2.3687987226e+01    0.2794987    0.2291437 -71.53 0.0006793886    1.458    0.314
       106 -11.8091      3.6492    182.3448   1.2606182580e+02   3.5057999337e+01    0.4971628    0.4040093 -50.87  0.002837434    1.604    0.377
       107  -9.1046    153.5470    151.4937   8.5611361092e+01   2.0690767889e+01    0.2601189    0.2428122 -63.83 0.0005499952    1.158    0.137
       108 -11.9778      4.8777    176.4947   1.2543224210e+02   3.6241145380e+01    0.5030131    0.3642262  70.99   0.00350044    1.175    0.149
       109  -9.1717    220.0148    184.2024   7.8388187968e+01   1.7171448412e+00    0.3034617    0.2249836  80.32  0.001171327    3.204    0.688
