#   1 NUMBER                 Running object number                                     
#   2 MAG_AUTO               Kron-like elliptical aperture magnitude                    [mag]
#   3 X_IMAGE                Object position along x                                    [pixel]
#   4 Y_IMAGE                Object position along y                                    [pixel]
#   5 X_WORLD                Barycenter position along world x axis                     [deg]
#   6 Y_WORLD                Barycenter position along world y axis                     [deg]
#   7 A_WORLD                Profile RMS along major axis (world units)                 [deg]
#   8 B_WORLD                Profile RMS along minor axis (world units)                 [deg]
#   9 THETA_WORLD            Position angle (CCW/world-x)                               [deg]
#  10 FWHM_WORLD             FWHM assuming a gaussian core                              [deg]
#  11 ELONGATION             A_IMAGE/B_IMAGE                                           
#  12 ELLIPTICITY            1 - B_IMAGE/A_IMAGE                                       
         1 -12.9662     42.5050     20.8241   9.7447642122e+01   6.6769523703e+01    0.5409603    0.3656819   4.48  0.003159494    1.849    0.459
         2 -12.1016    216.1378     14.2394   5.3001412916e+01   2.8728344711e+01    0.4731858    0.4297647  71.47  0.001393142    1.108    0.097
         3 -13.8494    185.7831      6.7685   5.4228926426e+01   3.7505772517e+01     1.030777    0.7135116 -61.27  0.004930569    1.625    0.385
         4 -12.0601     43.8033      8.7224   9.1372033822e+01   6.8689760967e+01    0.2922596    0.2751081  -9.25  0.001080863    1.266    0.210
         5 -12.1591     58.2763      8.0522   8.4921623266e+01   6.6750194810e+01    0.4517491    0.2952636  22.27  0.002547414    1.697    0.411
         6  -9.7341    149.3177      8.2752   6.0208590069e+01   4.7072065275e+01    0.1537743    0.1011072  34.35 0.0003192892    1.569    0.363
         7 -10.3922    109.5305      8.5607   6.8705615494e+01   5.6815400486e+01    0.1381209    0.1284651   5.84 0.0002620477    1.050    0.048
         8 -10.6620    165.7637      7.6097   5.7289034057e+01   4.2795077557e+01    0.2010949    0.1394556  81.79 0.0005535201    1.582    0.368
         9 -11.9663    166.3276      2.0609   5.5214803161e+01   4.3167968091e+01    0.5480667    0.2149521  65.42  0.002058442    2.339    0.572
        10 -11.0568     53.4869      1.7346   8.3577693009e+01   6.8393535389e+01    0.2556688    0.1755808  51.59  0.001305254    1.976    0.494
        11 -12.0872    226.5361    220.2085   9.8993192765e+01   4.9001169694e-01    0.2673491    0.1656806  -0.11  0.001705151    1.948    0.487
        12 -10.5084    211.2449    217.9343   1.0107283582e+02   3.1141064691e+00     0.190411      0.15298 -44.97   0.00127099    1.791    0.442
        13 -10.4241    232.6677    210.6945   9.6606267454e+01   4.5957240491e-01    0.1188037   0.06884049  21.10 0.0007038481    1.662    0.398
        14 -10.9433    115.6265    208.9656   1.1610674010e+02   1.9400097011e+01     0.217718    0.1056625 -59.52  0.001252319    2.469    0.595
        15 -10.7080    218.3806    212.1745   9.9088388977e+01   2.5790063050e+00    0.1598675    0.1328029  22.43  0.001190972    1.123    0.109
        16 -10.2028    185.6570    203.5401   1.0321317832e+02   8.9501569862e+00     0.176782    0.1123062 -38.60  0.001088873    1.953    0.488
        17  -9.8625     41.5067    201.5530   1.2838807830e+02   3.0143527310e+01    0.1023091   0.07454267  68.92 0.0002995891    1.021    0.020
        18 -11.5435      4.9315    199.5013   1.3437001792e+02   3.4022534035e+01    0.2447243    0.1142028  54.73 0.0009585815    1.570    0.363
        19 -10.7978    149.3731    198.5797   1.0887096579e+02   1.5679312321e+01    0.2002907    0.1057525 -66.81 0.0009538237    3.295    0.697
        20 -10.7080    112.3895    197.5968   1.1544506369e+02   2.1662933344e+01    0.2027785    0.1001802 -77.22  0.000957931    3.305    0.697
        21 -10.2310    133.1405    195.7132   1.1143420452e+02   1.8746141801e+01    0.1911514    0.1524187 -86.64   0.00113343    1.450    0.310
        22 -12.5895    159.3817    191.3332   1.0605942247e+02   1.5062462930e+01    0.6190962    0.4267966  89.01  0.002988735    2.419    0.587
        23 -11.0792    223.7654    183.3840   9.3545140065e+01   4.8489326909e+00    0.1975529    0.1468412 -37.31 0.0009506288    1.672    0.402
        24 -10.6463    183.2549    183.2767   1.0051012336e+02   1.2037378130e+01    0.2540663    0.1781585 -28.82  0.001521186    1.717    0.418
        25  -9.8651    191.5132    178.0271   9.8157640707e+01   1.1272936420e+01    0.1582661    0.1100577 -67.29   0.00081009    2.533    0.605
        26  -9.8147    137.3313    178.6604   1.0833897372e+02   2.0783324822e+01    0.1277082    0.0876973  72.22 0.0007051725    1.743    0.426
        27 -10.2443    215.1707    193.3622   9.6658898410e+01   5.1742387588e+00    0.2892452   0.07863784 -39.47  0.001125298    4.574    0.781
        28 -10.2654    210.3975    182.3988   9.5616434949e+01   7.3131511390e+00    0.2239587    0.1088006 -17.47  0.000959757    3.353    0.702
        29 -10.3755    193.5137    188.7608   9.9588913928e+01   9.4874547848e+00    0.2713913    0.1732123  71.27  0.001281311    3.058    0.673
        30 -10.5114     34.0000    173.0051   1.2783715484e+02   3.6001958649e+01    0.1668224   0.05083869 -74.55 0.0008042356    2.955    0.662
        31 -10.0437    176.0000    170.9620   9.9772594504e+01   1.5125801581e+01    0.1900145   0.07430144 -41.57 0.0008038104    2.952    0.661
        32  -9.5540    205.6761    170.3206   9.4289558230e+01   9.7132701352e+00    0.1181712    0.1007987  78.51 0.0007046024    1.677    0.404
        33 -11.4811     55.3785    167.4318   1.2321090447e+02   3.4727027053e+01    0.3732902    0.1880063 -85.15  0.002099702    2.021    0.505
        34 -10.2262    167.8290    168.6723   1.0091623517e+02   1.6982717599e+01    0.2580013    0.1493598 -67.40  0.001085062    3.416    0.707
        35 -11.6051    121.0027    167.9507   1.0999615803e+02   2.5345552704e+01     0.369581    0.1205445 -57.48  0.001450183    3.649    0.726
        36 -10.2091    191.5083    165.9997   9.6031884966e+01   1.2955227178e+01     0.184453    0.1286342 -34.95  0.001041196    1.615    0.381
        37 -10.2960    138.5728    164.4243   1.0592450252e+02   2.2972208179e+01    0.3254948    0.1681814 -68.50  0.001345694    3.342    0.701
        38  -9.6696    213.3078    163.6548   9.1715951240e+01   9.1701553573e+00    0.1181027    0.1037522 -88.50 0.0005685947    1.698    0.411
        39 -11.1027     51.2830    159.2711   1.2326899579e+02   3.6774844357e+01    0.3283154    0.1292531  62.79   0.00149355    3.010    0.668
        40 -11.5187     24.7120    159.2734   1.2866150898e+02   3.9510527367e+01    0.1871818    0.1337642 -48.39 0.0008140255    2.013    0.503
        41 -12.0588    105.8283    156.7090   1.1148621370e+02   2.9866444196e+01    0.5577429    0.3198573 -72.38  0.002857505    2.066    0.516
        42 -11.3394    167.2280    156.8408   9.8932008226e+01   1.8973296722e+01    0.2942321    0.2142682 -72.31  0.001443159    1.984    0.496
        43 -10.9835    189.6565    149.9773   9.3314027054e+01   1.5675080387e+01    0.3590838     0.210189 -47.09  0.001740226    2.053    0.513
        44 -10.5867    218.3018    156.0697   8.9378214485e+01   9.2209424312e+00    0.2940474    0.1477774 -37.90  0.001403595    2.214    0.548
        45 -10.7193    118.1411    156.6018   1.0887608532e+02   2.7886672878e+01    0.2043397    0.1502669 -53.09  0.001201646    1.488    0.328
        46 -10.5739     11.9029    148.6302   1.3051565235e+02   4.2700591376e+01    0.1712067     0.115421 -78.88 0.0004893804    1.270    0.213
        47 -11.5875    234.0271    147.7315   8.5039989704e+01   7.2920692993e+00    0.2400147    0.1798623 -17.95  0.001409174    1.320    0.242
        48 -11.1909    106.5902    144.9179   1.0950802775e+02   3.2024259159e+01    0.4396138    0.2331599  82.90   0.00149117    4.716    0.788
        49 -10.5330    148.7432    145.1660   1.0047844833e+02   2.4495257091e+01    0.2260693    0.1461027  84.63 0.0009547896    2.801    0.643
        50 -12.4026     22.9277    150.7259   1.2839594957e+02   4.1343091329e+01    0.2417005    0.1491115 -85.27  0.001662681    1.311    0.237
        51 -10.5802    181.8179    141.4950   9.3085347664e+01   1.8571707585e+01    0.2704122    0.1822508 -57.20  0.001322482    1.975    0.494
        52 -12.2239     98.2287    127.4866   1.0846477688e+02   3.6887196858e+01    0.6426619    0.3291584 -83.15  0.002176777    4.450    0.775
        53 -10.8868     26.4907    119.9878   1.2484939987e+02   4.7329869894e+01    0.1717197   0.07706501  82.05 0.0008106179    2.622    0.619
        54 -11.4404    141.2183    114.4766   9.5709937989e+01   3.1681495474e+01    0.6412609     0.244539 -36.23   0.00213624    3.510    0.715
        55 -11.8100    193.0012    118.2506   8.5771092898e+01   1.9934870732e+01    0.5262547    0.4187957 -68.90  0.002242044    1.707    0.414
        56 -10.2649      2.4760    115.4502   1.3022045991e+02   5.0114377390e+01    0.1082413   0.08044603 -88.98 0.0003059985    1.008    0.008
        57 -10.6911    108.2809    112.9657   1.0320168871e+02   3.8221821527e+01    0.3668302     0.162675 -65.18  0.001283501    3.450    0.710
        58 -10.8383     77.8825    111.7678   1.1066043245e+02   4.3279995422e+01     0.334849     0.165956 -76.00  0.001385276    2.762    0.638
        59 -10.6354    174.1255    111.4056   8.7854866478e+01   2.5229469861e+01    0.2881058     0.210929 -45.99 0.0009337021    1.458    0.314
        60 -12.0037    159.7865    110.4694   9.0642753574e+01   2.8533624210e+01    0.6699705    0.4051742 -60.94   0.00278348    2.332    0.571
        61 -11.4422    121.7569    111.2204   9.9530742891e+01   3.6135712984e+01    0.3532525    0.1663139 -54.75  0.001440256    2.282    0.562
        62 -10.9518     91.6073    110.5817   1.0690385216e+02   4.1487208140e+01    0.3372599    0.1248228 -60.50   0.00126331    2.923    0.658
        63 -11.6681     13.7908    109.7562   1.2694196394e+02   5.0525337715e+01    0.4130092     0.130734 -78.76  0.001869627    2.762    0.638
        64 -12.6474    141.3667    102.3895   9.2778620795e+01   3.3975267188e+01     0.703288    0.4479429 -42.04  0.003294249    1.590    0.371
        65 -12.3782    150.2901    102.2280   9.0695737270e+01   3.2106708478e+01    0.5684365    0.2627714 -51.61   0.00211908    2.583    0.613
        66 -12.2162    127.3526    100.2823   9.5593489306e+01   3.7252140655e+01    0.5474658     0.246479 -51.14  0.002143377    2.335    0.572
        67 -12.6551    170.1087     90.8668   8.3393474809e+01   2.9700125517e+01      0.45319     0.388122  80.45    0.0010638    1.372    0.271
        68 -13.2410    109.9424     99.5396   9.9775514332e+01   4.0714645409e+01      1.13454    0.5571642  61.40  0.004126553    3.263    0.694
        69 -12.0184     44.4015    101.1997   1.1777836321e+02   4.9687703338e+01    0.5141877    0.2716883  83.60  0.002429904    2.551    0.608
        70 -11.8579     42.3108     87.7822   1.1613047791e+02   5.2851986218e+01    0.4061952    0.2413115 -29.00  0.001832511    2.666    0.625
        71 -10.8278     45.4458     81.9846   1.1410578640e+02   5.3807637883e+01    0.2481421   0.09806352 -60.28 0.0006388447    2.055    0.513
        72 -10.8751     81.8373    100.3354   1.0737889996e+02   4.5178908848e+01    0.2078803     0.159459  66.95 0.0007805878    1.416    0.294
        73 -10.8947     34.0125     87.4854   1.1852759716e+02   5.3710438178e+01    0.2701953    0.1339127 -86.53  0.001275222    2.452    0.592
        74 -10.8534    140.5547     82.8124   8.7746461886e+01   3.7883342381e+01    0.3679533    0.1401498 -42.62  0.001289325    2.590    0.614
        75 -11.2883    104.1158     83.2111   9.7203952974e+01   4.5156443274e+01    0.3448357    0.1783316 -57.63  0.001434241    2.155    0.536
        76 -10.8361      9.9458     80.9501   1.2471607371e+02   5.6984607579e+01    0.1744079    0.1326248 -79.53 0.0004388581    1.039    0.037
        77 -11.1822     82.2044     72.9819   1.0073030756e+02   5.0993494804e+01    0.4074871    0.2391768 -76.75   0.00162959    2.999    0.667
        78 -11.1344    223.5358     71.5630   6.8435171277e+01   1.9868170456e+01    0.2721888      0.24429 -53.26 0.0005054732    1.222    0.181
        79 -10.0681    115.6846     72.3574   9.0983599254e+01   4.5137039055e+01    0.1495413    0.1139636 -78.24 0.0007044378    1.748    0.428
        80 -10.6222     51.8081     70.5040   1.0963071295e+02   5.5627275804e+01    0.2451473    0.1561636 -58.86 0.0009276039    1.328    0.247
        81 -10.8348    194.9953     66.9787   7.1799624441e+01   2.7518503115e+01    0.3858584    0.2073874 -37.52  0.001587456    1.824    0.452
        82 -11.1802     28.9735     52.4950   1.1319258373e+02   6.1771742366e+01    0.3189461    0.2051781  -9.17  0.001830689    2.252    0.556
        83 -12.0693     21.0772     52.4586   1.1609444503e+02   6.2401783814e+01    0.5838957     0.280624 -70.09  0.003091842    1.858    0.462
        84 -13.7373     30.8085     59.8931   1.1425992515e+02   6.0027753937e+01     1.043538    0.6299518  32.54  0.005199429    1.994    0.499
        85 -12.2743     40.0845     51.1913   1.0876652460e+02   6.1022046500e+01    0.5936005    0.1464451 -51.77  0.002288181    2.986    0.665
        86 -12.3759    232.6455     61.0875   6.4275528720e+01   1.9084974458e+01     0.403431    0.3155572 -86.56  0.002064564    1.607    0.378
        87 -11.7638      9.8494     58.5271   1.2134037584e+02   6.1841590965e+01    0.3872128    0.1823446  51.42  0.001975839    2.843    0.648
        88 -10.2504    119.6805     57.3282   8.5147767588e+01   4.7153760620e+01    0.1483179    0.1158774 -73.30 0.0007047355    1.685    0.406
        89 -11.8162    149.2904     52.2039   7.6190766966e+01   4.1234386869e+01    0.3999165    0.2566414  57.94 0.0005084596    1.622    0.383
        90 -10.4946     82.2168     47.2111   9.2724812506e+01   5.6197571081e+01    0.1851588    0.1582668 -66.52 0.0007841441    1.359    0.264
        91 -10.7301    157.0426     45.0001   7.2090995397e+01   4.0425905931e+01    0.2776283    0.2114339  54.44 0.0004583787    1.312    0.238
        92 -11.7773     19.4891     59.4819   1.1814208756e+02   6.1006732371e+01    0.2934991    0.1838164 -58.92  0.001254425    1.247    0.198
        93 -11.4250      7.4776     43.2616   1.1925902874e+02   6.5231520826e+01    0.4507102    0.2395506  43.85  0.002666863    2.461    0.594
        94 -11.5143     75.1933     43.3183   9.3682888909e+01   5.8081670944e+01    0.3728413    0.1949204  30.82  0.001683819    2.393    0.582
        95 -11.1404     70.2505     42.1587   9.4971290026e+01   5.9067279933e+01    0.3150356    0.2359569  71.56  0.001667955    2.061    0.515
        96 -12.2983     42.1091     37.6622   1.0390600433e+02   6.3594550008e+01    0.4942808    0.3511011   8.78  0.001111603    1.781    0.438
        97 -11.4835     46.9182     35.8387   1.0138526941e+02   6.3416411588e+01    0.3153958    0.2189777  -4.29 0.0007257176    1.882    0.469
        98 -10.5209     83.5372     38.1496   8.8967807888e+01   5.7651833513e+01    0.2881745    0.1852303  54.65  0.001307915    1.963    0.491
        99 -10.8713     28.8847     36.4801   1.0886218466e+02   6.5124324713e+01    0.1509039    0.1190055  19.59  0.001018672    1.550    0.355
       100 -10.9749    119.8430     34.1678   7.6745945973e+01   5.1016881520e+01    0.3031793    0.2782018  62.34 0.0007649552    1.211    0.174
       101 -10.5149     74.3746     32.7620   8.9971493599e+01   6.0156842169e+01    0.2321637    0.1687002  53.48  0.001073254    1.737    0.424
       102 -11.3295    104.2299     30.2092   7.9429421899e+01   5.5020441278e+01    0.5659208    0.2997735  56.93  0.002093186    2.219    0.549
       103 -11.9975    220.5115    248.2470   1.0371116473e+02  -1.1723008990e+00    0.4189445    0.1863095  45.22  0.002594008    1.790    0.441
       104 -11.0131    239.6817     20.6617   5.2389372921e+01   2.2136124315e+01    0.2399571    0.2367835 -68.81  0.000551588    1.057    0.054
       105 -10.6804    134.1466     17.9314   6.6945860541e+01   4.9857154547e+01    0.2143112    0.1986186 -59.91 0.0004843861    1.221    0.181
       106  -9.9761     88.7998     18.1966   7.8936989771e+01   5.9938632692e+01    0.2194244    0.1467687 -67.15 0.0009510599    2.834    0.647
       107 -12.5146     22.5328    240.2032   1.3325627034e+02   2.6027435524e+01    0.3762609    0.1257825  60.00  0.002472229    2.119    0.528
       108  -9.9230     32.6591    242.2832   1.3187934522e+02   2.4714087892e+01   0.09904702   0.04312832  61.18 0.0004026428    1.632    0.387
       109 -10.7597      7.7664    240.4245   1.3535763500e+02   2.7387862946e+01     0.105919   0.06997716  43.86 0.0005792159    1.584    0.369
       110 -11.1122     12.6583    227.4019   1.3422063195e+02   2.8871012771e+01    0.1605642    0.1140346  71.57 0.0006238623    1.130    0.115
       111 -10.0449    104.4421    225.0221   1.1957117677e+02   1.8611444665e+01    0.1358733   0.09893464 -75.27 0.0008179795    1.592    0.372
       112 -11.2910     95.7099    223.1608   1.2085461922e+02   2.0074729516e+01    0.2712477    0.2043458 -30.51   0.00184116    2.652    0.623
       113 -11.2182    149.5875    221.3026   1.1165360651e+02   1.2490834301e+01    0.3348671    0.2086213 -44.90  0.002214646    2.131    0.531
       114 -10.1405    173.6912    221.5091   1.0766737269e+02   8.6873308104e+00    0.1629893    0.1049396 -43.13  0.001081225    2.034    0.508
