#   1 NUMBER                 Running object number                                     
#   2 MAG_AUTO               Kron-like elliptical aperture magnitude                    [mag]
#   3 X_IMAGE                Object position along x                                    [pixel]
#   4 Y_IMAGE                Object position along y                                    [pixel]
#   5 X_WORLD                Barycenter position along world x axis                     [deg]
#   6 Y_WORLD                Barycenter position along world y axis                     [deg]
#   7 A_WORLD                Profile RMS along major axis (world units)                 [deg]
#   8 B_WORLD                Profile RMS along minor axis (world units)                 [deg]
#   9 THETA_WORLD            Position angle (CCW/world-x)                               [deg]
#  10 FWHM_WORLD             FWHM assuming a gaussian core                              [deg]
#  11 ELONGATION             A_IMAGE/B_IMAGE                                           
#  12 ELLIPTICITY            1 - B_IMAGE/A_IMAGE                                       
         1 -14.1895     27.2843     59.6634   9.3799555316e+01   6.2403783944e+01      1.39204     1.012861  74.47   0.00224273    2.630    0.620
         2 -12.8401     90.6336     18.6472   5.2947809541e+01   5.8782403552e+01    0.2772141     0.239117  52.53 0.0005381907    1.176    0.149
         3 -10.3571    223.4015     16.7009   3.1763867794e+01   2.8327895509e+01    0.2766443     0.194375  -8.79  0.000970608    2.364    0.577
         4 -12.7276    216.6951     13.6852   3.1678977864e+01   3.0090669237e+01    0.3415505    0.3028176 -73.66  0.001139271    1.151    0.131
         5 -11.4050    130.4217     14.7867   4.2592068076e+01   5.0079534338e+01    0.3345288     0.165583  51.20 0.0009220766    1.755    0.430
         6 -12.8313     64.6907     10.6781   5.7699712626e+01   6.4804579240e+01    0.3649623     0.228391  35.75 0.0006614862    1.336    0.252
         7 -12.6657     46.5731     11.5126   6.5223681833e+01   6.7876529578e+01    0.2375997    0.1842009  19.83 0.0003197501    1.070    0.065
         8 -11.3144     36.7123     11.0287   6.9497639787e+01   6.9433342051e+01    0.1956219    0.1457404  24.42 0.0003350223    1.216    0.178
         9 -12.9360    193.6397      9.1091   3.2707747225e+01   3.5674616573e+01    0.3415962    0.2026142  63.96 0.0008527193    1.571    0.363
        10 -10.8181    114.8375      7.1740   4.2940451657e+01   5.4414123466e+01    0.1808702    0.1563691  75.62 0.0003006347    1.176    0.149
        11 -13.2186     55.7479      5.4514   5.8513257448e+01   6.6948061432e+01    0.7164214    0.2881113  49.56  0.002941433    2.306    0.566
        12 -10.1043    127.7747      6.1643   4.0252425520e+01   5.1467622429e+01    0.1791075    0.1271167  45.77 0.0004752396    1.317    0.241
        13 -11.6276    149.4816    222.7320   9.1095877488e+01   6.0599243069e+00    0.3677109    0.2708956 -55.77  0.001993153    1.610    0.379
        14 -12.4235     37.4537    244.5612   1.1784933770e+02   1.7551666776e+01    0.3475731    0.2724198 -52.13  0.002297774    1.694    0.410
        15 -10.9948    183.3294    222.1616   8.3652663957e+01   7.9161718002e-01    0.3194836    0.1236372 -53.07  0.001104412    4.201    0.762
        16 -10.0193     55.5861    223.4651   1.1241603722e+02   1.9800781471e+01    0.1295719    0.1048791  66.96 0.0003360102    1.069    0.064
        17 -10.9242    174.0873    221.2091   8.5453292531e+01   2.4073906261e+00    0.2865291    0.1965061 -45.93  0.001527849    1.629    0.386
        18 -10.2271    107.3437    221.6804   1.0052249471e+02   1.2946827101e+01    0.1443815    0.0964927  62.25 0.0007049587    1.723    0.420
        19 -10.4674     97.5306    221.4488   1.0274703938e+02   1.4479240951e+01    0.1359365     0.119658  52.44  0.000295009    1.030    0.029
        20 -11.9424     22.9403    218.4486   1.1900470183e+02   2.4585124452e+01    0.3035501     0.245858  78.84  0.001215709    1.041    0.039
        21 -12.1552    239.0413    215.5778   7.1575342744e+01  -6.1955877280e+00    0.3661017      0.18808 -42.87  0.001867692    2.129    0.530
        22 -11.2199    234.9592    215.9557   7.2381532507e+01  -5.7110826831e+00    0.2147697     0.156958  37.83  0.001300068    1.684    0.406
        23 -10.2273    227.3135    217.6746   7.4102012116e+01  -4.9381619506e+00      0.10723    0.1049169 -64.92 0.0007041995    1.664    0.399
        24 -10.9531    180.0827    216.7353   8.3398294576e+01   2.2595676037e+00    0.2215336    0.1920449 -47.77  0.001308699    1.396    0.284
        25 -10.6677    177.0187    211.0252   8.3045630101e+01   3.7936652397e+00    0.2077324    0.1761103  72.34  0.001122377    1.759    0.431
        26 -10.3470    192.5095    210.0068   7.9574001662e+01   1.4883402573e+00    0.1734434    0.1239273 -66.99 0.0008101494    2.511    0.602
        27 -10.9066     93.9364    203.6096   1.0121280615e+02   1.8959596357e+01    0.2601203    0.2029132 -77.19 0.0009254923    1.371    0.271
        28 -11.5971      3.8260    197.4970   1.2169296099e+02   3.1038339788e+01    0.2773763    0.2288114 -72.94   0.00126604    1.254    0.203
        29 -11.4478    161.4653    193.4896   8.3287438235e+01   9.8588029538e+00    0.3939194    0.3258966  44.98   0.00210155    1.287    0.223
        30 -10.7268    173.4975    191.5332   8.0189427593e+01   8.1433574546e+00    0.3025998    0.2271805  77.08  0.001370454    2.331    0.571
        31 -10.3017     66.3177    194.6591   1.0681916669e+02   2.5011539795e+01    0.1487897   0.09509855  67.14 0.0005251995    1.712    0.416
        32 -10.1420     33.5898    185.7784   1.1390418173e+02   3.1046847085e+01    0.1862479    0.1115131 -87.82 0.0006364502    1.599    0.375
        33 -10.4894    183.2206    184.2079   7.6601710444e+01   7.8888631912e+00    0.2282315    0.1141073 -52.88 0.0008817301    2.497    0.600
        34 -11.2339     42.4012    184.2012   1.1156049458e+02   3.0483220235e+01    0.1910892    0.1154588 -87.31 0.0005113962    1.656    0.396
        35 -10.8594    147.4892    178.7756   8.3738608331e+01   1.5522799604e+01    0.4031782    0.1514234 -51.09  0.001363276    2.829    0.646
        36 -10.6240    191.6522    177.6770   7.3465443980e+01   7.6789592338e+00    0.3103397    0.1763966 -48.08  0.001365262    1.870    0.465
        37 -10.9583     59.0014    176.0951   1.0629855950e+02   3.0517811437e+01    0.3145503    0.1930969 -79.82 0.0008722893    1.688    0.408
        38 -10.3833    159.4807    175.5044   8.0207780057e+01   1.4014565976e+01    0.2676904     0.146278 -57.90  0.001028678    2.350    0.574
        39 -10.2737    217.6184    176.1511   6.7945798103e+01   3.5086765514e+00    0.2093318    0.1153828 -29.86  0.000954439    1.753    0.430
        40 -11.2117     11.5742    172.7162   1.1811433252e+02   3.6257498291e+01    0.3918689    0.1382406 -64.03  0.001718705    2.319    0.569
        41 -10.9783     44.2337    171.2423   1.0959008850e+02   3.3498750309e+01    0.2234222    0.1053437 -82.89  0.000886597    2.440    0.590
        42 -11.5520     96.8119    164.4221   9.4140875171e+01   2.7941118628e+01    0.5001393    0.2813557  32.92  0.001267475    1.832    0.454
        43 -10.2056    138.3394    164.6639   8.3133561951e+01   2.0437523918e+01    0.1597657    0.1244563  78.05 0.0007051203    1.755    0.430
        44 -10.6926     79.1783    163.0166   9.8797521355e+01   3.1057215183e+01    0.2555913    0.1669349  82.47  0.001082128    2.063    0.515
        45 -12.7527     19.6450    157.9458   1.1464646897e+02   3.9250307719e+01    0.6103169    0.3800046  72.26  0.001764427    1.675    0.403
        46 -12.4789    118.6041    157.9147   8.6894302465e+01   2.5742200274e+01    0.5545318    0.3462428  36.42  0.001401768    1.613    0.380
        47 -11.5861    167.2528    156.1282   7.4233738105e+01   1.6717317122e+01    0.5009246    0.4109828 -83.69  0.002393452    1.670    0.401
        48 -10.9544    218.7124    156.5052   6.3631080033e+01   6.9182959485e+00    0.2722141    0.2027471 -44.00 0.0007234116    1.305    0.234
        49 -10.8231    124.6985    154.0639   8.4435756242e+01   2.5535540386e+01    0.4106821    0.1789172 -52.11  0.001411678    2.315    0.568
        50 -11.1506     26.6973    152.8749   1.1214213730e+02   3.9921284207e+01    0.2102157    0.1848974  -8.11 0.0007095694    1.408    0.290
        51 -11.0317    189.8756    150.0103   6.7866685067e+01   1.3540351473e+01    0.3665874    0.1951239 -60.48  0.001254729    3.214    0.689
        52 -11.3386    108.9937    146.8550   8.7199752934e+01   3.0215054326e+01    0.7085762    0.3357198  61.12  0.001762274    5.630    0.822
        53 -10.7233    250.0368    144.7345   5.5887291690e+01   3.7380137751e+00    0.2015162    0.1854311 -86.47 0.0008309176    1.453    0.312
        54 -10.5585    148.7854    145.1937   7.6180828573e+01   2.2861703586e+01    0.2648613    0.1803398  86.37 0.0009538916    2.822    0.646
        55 -10.7859     89.3120    145.0031   9.2503418768e+01   3.4075213964e+01    0.2215398    0.2026198 -55.52  0.001144139    1.052    0.049
        56 -10.2957     99.6956    144.1287   8.9277934083e+01   3.2547613117e+01    0.2271109    0.1984337  49.78  0.001143688    1.194    0.162
        57 -10.5718    181.8913    141.7814   6.7676803283e+01   1.6819604999e+01     0.295621    0.2007681 -66.42  0.001235748    2.110    0.526
        58 -11.0173     21.4004    139.6532   1.1203933983e+02   4.3734056152e+01    0.3245444    0.2209807  12.41  0.001369907    1.827    0.453
        59 -11.0949     68.9290    136.2263   9.6916791664e+01   3.9415947611e+01    0.3460867    0.2765649  24.04  0.001774645    1.372    0.271
        60 -10.1433      1.3374    136.8002   1.1754074835e+02   4.5832193235e+01    0.1845191     0.089598 -66.06 0.0003810774    1.610    0.379
        61 -10.8359     82.4949    131.0476   9.1612102538e+01   3.8714738151e+01    0.2464812    0.1454883 -56.23  0.001041573    1.617    0.381
        62 -11.6638     97.9687    126.9556   8.5904949957e+01   3.7131556943e+01    0.4873535    0.3405002 -81.84  0.001459238    2.067    0.516
        63 -10.4918    117.3147    125.6485   7.9870829591e+01   3.3802119441e+01    0.1632101    0.1282313  86.64 0.0006792714    1.731    0.422
        64 -10.4840     59.2072    124.7847   9.7725240976e+01   4.3653085395e+01    0.2479048    0.1475629  69.15 0.0009487536    2.766    0.638
        65 -11.4665     43.3501    123.6441   1.0271008604e+02   4.5799992329e+01    0.4364765    0.2441739 -88.74  0.001745668    2.603    0.616
        66 -10.5320    189.1088    124.0130   6.1957293680e+01   1.8939591357e+01    0.2303522     0.217288 -36.97 0.0007965749    1.013    0.013
        67 -10.6528    224.4738    117.5099   5.4059458860e+01   1.3004484403e+01    0.1411714    0.1235059 -41.63 0.0003254255    1.012    0.012
        68 -11.5559    155.1419    116.0337   6.7417811924e+01   2.7967022168e+01    0.4037637    0.2358107  46.44 0.0008384495    1.756    0.431
        69 -12.4298    108.2906    110.7350   7.8651956232e+01   3.9086848004e+01    0.7191698    0.3061329 -49.93  0.001508276    2.362    0.577
        70 -11.4511     92.0473    111.2153   8.3824350263e+01   4.2009051483e+01    0.8286477    0.2870008 -57.41  0.002375005    3.777    0.735
        71 -11.0520     78.9888    112.9247   8.8510997758e+01   4.3789609557e+01      0.45733    0.2774315 -87.05  0.001514876    3.651    0.726
        72 -10.7921    162.9456    113.2985   6.4884530062e+01   2.6810276752e+01    0.3287679    0.2466377  53.02 0.0007625064    1.406    0.289
        73 -12.4800    161.0483    108.1734   6.3978595689e+01   2.8290130162e+01    0.7757858     0.466238  38.07  0.001035618    1.838    0.456
        74 -11.1262     24.6674    113.0411   1.0710115591e+02   5.0212925528e+01    0.2377921    0.1926842 -19.66 0.0007965974    1.365    0.267
        75 -11.3551     13.9023    110.4419   1.1034578884e+02   5.1633339229e+01    0.4173967     0.211358  87.70  0.001769322    2.674    0.626
        76 -12.3596    145.1922    105.3838   6.7013872418e+01   3.2435153633e+01    0.9371581    0.6133242 -89.25  0.003256302    3.130    0.681
        77 -11.7227    148.2302    103.2283   6.5676769555e+01   3.2200372275e+01     0.436271    0.3315477 -69.23  0.001696302    1.648    0.393
        78 -10.9828    133.0579    105.9790   7.0307780387e+01   3.4995233594e+01    0.2386737    0.2335846 -14.73 0.0004750989    1.001    0.001
        79 -10.9172     57.4961    105.7506   9.4124630871e+01   4.8639488066e+01     0.289902    0.2249632  46.38 0.0007666682    1.490    0.329
        80 -12.8625    126.3423     99.3427   7.0270607329e+01   3.7880858905e+01    0.9193459    0.6321633 -30.35  0.002593136    1.579    0.367
        81 -12.0389     63.7862    102.1438   9.1016288624e+01   4.8672924625e+01    0.3976748    0.2574185 -60.41  0.001346471    1.577    0.366
        82 -12.7461    111.5351    101.8451   7.5228640398e+01   4.0455697201e+01    0.6199946    0.4399078  58.53  0.002736427    1.710    0.415
        83 -11.4547     76.9998     97.1287   8.5050943844e+01   4.7871997253e+01    0.2353001    0.2013846 -39.37  0.001239507    1.095    0.087
        84 -11.7691     21.8341     95.1568   1.0484556357e+02   5.4829157227e+01    0.5050787    0.3107745 -35.03  0.001927425    1.570    0.363
        85 -11.3601     45.0484    102.4112   9.7809121661e+01   5.0937893983e+01    0.4164848    0.2247231  70.68  0.001262564    5.248    0.809
        86 -10.5084    188.5326     93.0413   5.4396483213e+01   2.4985371230e+01    0.2215247     0.113539 -57.57 0.0008096356    2.570    0.611
        87 -12.8605    140.2652    109.1593   6.9287070560e+01   3.2727680978e+01    0.8666426    0.6285586  25.86  0.002864536    1.613    0.380
        88 -11.6707     41.0175     91.0066   9.6637297146e+01   5.4110351934e+01    0.2882774     0.227911 -12.73 0.0005302831    1.315    0.240
        89 -10.7333     44.0171     87.2032   9.4524865987e+01   5.4676630631e+01    0.2929605    0.1560411 -41.60 0.0008371155    1.696    0.411
        90 -10.3334    236.0948     91.4503   4.6572338902e+01   1.5226528146e+01    0.1754369    0.1317783  60.90 0.0003565795    1.515    0.340
        91 -11.7440     35.0967     89.5320   9.8563512686e+01   5.5050997243e+01    0.4090551    0.2831272 -78.16  0.002084848    1.782    0.439
        92 -10.0691     79.6697     87.6843   8.1410305443e+01   4.9562310647e+01     0.156152     0.111475 -12.08 0.0003197277    1.681    0.405
        93  -9.7830     74.0400     87.8092   8.3438074636e+01   5.0461552484e+01     0.185267    0.1132685  33.46 0.0003521163    1.692    0.409
        94 -11.4186    140.5108     84.4777   6.2265986348e+01   3.7692396554e+01    0.4613891    0.2609937 -31.08  0.001857387    1.980    0.495
        95 -11.5283    104.3159     82.8563   7.1791823407e+01   4.5966188585e+01    0.5939898    0.3164821 -56.67  0.002200173    2.601    0.616
        96 -12.1000     45.2060     82.4077   9.2786067186e+01   5.5641934191e+01    0.3466324    0.3079309  53.35 0.0005959588    1.420    0.296
        97 -11.6317     87.1734     87.5428   7.8786946474e+01   4.8283423610e+01    0.3815412    0.2469531  64.94  0.001504372    2.647    0.622
        98 -11.1713     24.0200     79.5441   1.0059595413e+02   5.8336318538e+01    0.3511824    0.2374428  82.89  0.001735043    2.352    0.575
        99 -10.7350    249.5025     73.9991   4.1230731003e+01   1.5407359010e+01    0.2015415    0.1055927 -40.85  0.001036173    1.602    0.376
       100 -11.5981     81.9587     72.6128   7.5880584096e+01   5.2317105116e+01    0.3961127    0.2608175 -66.55  0.001467699    2.529    0.605
       101 -11.4067     51.5998     70.0814   8.6595704755e+01   5.7551658855e+01    0.2843558    0.2338354 -85.49  0.001527081    1.851    0.460
       102 -13.3173      9.5991     49.3427   9.9020054276e+01   6.5862026530e+01    0.6109813    0.3055652 -18.37  0.002961152    2.094    0.523
       103 -10.9387     40.7985     51.7202   8.5043679367e+01   6.2556222841e+01    0.2843646    0.1585126 -40.24 0.0007099724    1.601    0.375
       104 -12.8157     36.1875     56.8989   8.8900642360e+01   6.2079332780e+01    0.5602323    0.4494524  -4.68  0.001865402    1.157    0.136
       105 -10.9526    227.4460    249.6562   7.9558674956e+01  -9.5735612369e+00    0.2858429   0.09362797  28.37  0.001243318    2.898    0.655
       106 -11.0997     15.3608     54.1145   9.7656154083e+01   6.4507878910e+01    0.3127924    0.1824593  -9.58   0.00136674    1.801    0.445
       107 -11.7413      8.6822     66.1292   1.0390433327e+02   6.2374230164e+01    0.4008324    0.1737781  15.26  0.001951095    2.577    0.612
       108 -11.5203      2.4499     64.0609   1.0617612323e+02   6.3143927350e+01    0.2905619    0.2197099 -26.40  0.001208538    1.223    0.182
       109 -10.5606    145.0939     63.9315   5.5084230632e+01   4.0237533487e+01    0.2168117    0.1884737 -82.99  0.001147203    1.277    0.217
       110 -11.5082     44.9993     61.5137   8.6577150716e+01   6.0140699707e+01    0.2698823    0.1989032 -11.84  0.000798651    1.315    0.240
       111 -10.5556     46.6865     58.3276   8.4778589733e+01   6.0560650654e+01    0.2318241     0.157132 -53.89 0.0007056321    1.677    0.404
       112 -10.2222     88.6827     59.3210   6.9023045108e+01   5.3534461217e+01    0.1359456      0.11758 -87.20   0.00070422    1.663    0.399
       113 -10.7687    130.2498     58.1648   5.6722001582e+01   4.4676352205e+01    0.2432247    0.1867873  42.09 0.0003730473    1.263    0.208
       114 -10.6117    112.3609     49.3832   5.8371319956e+01   5.0135832106e+01    0.2700989    0.2040134 -79.05 0.0009536106    1.980    0.495
       115 -12.0116     75.5037     43.1937   6.7616066024e+01   5.8679702705e+01    0.3235851    0.2651716  41.39 0.0009546579    1.277    0.217
       116 -12.4626     73.8057     39.3953   6.6733031535e+01   5.9563876039e+01    0.3479618    0.2793956 -34.87  0.001452133    1.372    0.271
       117 -11.0464    144.5582     36.8089   4.6933110720e+01   4.4267185428e+01    0.2542716    0.1792668  62.14 0.0005491003    1.299    0.230
       118 -14.5036     40.3425     38.5952   8.0262152703e+01   6.4954703881e+01    0.5599364    0.4124605 -16.39  0.001562229    1.178    0.151
       119 -11.1408    196.1760     30.3576   3.7509134763e+01   3.2745727627e+01    0.2574114    0.1636212  69.15 0.0004223381    1.467    0.318
       120 -11.8073      1.9238     29.3432   9.6528129823e+01   7.0155545538e+01    0.4095621    0.1379821 -52.78  0.001961184    2.438    0.590
       121 -10.8034    175.8810     25.9140   3.8884905675e+01   3.8013749972e+01    0.2225846    0.1793612 -60.47 0.0004621443    1.222    0.181
       122 -10.3999    113.0672     25.5372   4.9812138131e+01   5.3059332451e+01    0.2066828    0.1197451  57.10 0.0005749247    1.538    0.350
       123 -10.9597    205.1886     21.8414   3.4537841059e+01   3.1705489274e+01    0.1606994    0.1457358  55.81 0.0009747127    1.340    0.254
       124 -10.4198     26.3301     22.0211   8.0061302932e+01   6.9283059379e+01    0.1676977    0.1247414 -17.48 0.0003981609    1.110    0.099
       125 -11.0189     60.9741    248.5244   1.1347158837e+02   1.3953281051e+01    0.2478391    0.2028342   0.75  0.001139799    1.809    0.447
       126 -10.3590    209.7615     19.3650   3.3536668203e+01   3.0971774353e+01    0.1758507   0.09893943  64.58 0.0009549172    1.710    0.415
       127 -10.7579     37.7683     18.4513   7.2628414485e+01   6.8341376566e+01    0.2051682    0.1871604 -27.26   0.00103928    1.520    0.342
       128 -10.9435     25.5193    246.9337   1.2029233020e+02   1.8391798395e+01    0.1606037   0.09849755 -82.58 0.0005258069    1.546    0.353
       129 -10.6117    196.1078     18.5069   3.4680004302e+01   3.4127305196e+01    0.1882915    0.1105881  74.91  0.001015926    1.541    0.351
       130 -12.8274     19.2018    236.6255   1.2089968699e+02   2.1118229439e+01    0.5120276    0.2003269  37.17 0.0005692331    2.207    0.547
       131 -10.3986      2.4017    235.7290   1.2403056057e+02   2.2921126183e+01    0.1987297   0.09733981  47.22 0.0006812114    1.666    0.400
       132 -10.7513     62.3613    233.5537   1.1188302492e+02   1.6798211394e+01    0.2986095     0.115863  31.50  0.001293586    2.546    0.607
       133 -10.0928    109.2978    232.6788   1.0151812431e+02   1.0401954478e+01    0.1348537   0.09371187  62.63 0.0004831104    1.620    0.383
       134 -11.6544    209.8756    237.4979   8.0885182907e+01  -5.5651044798e+00    0.2704453     0.221494  56.08  0.001629501    2.060    0.515
       135 -11.3832    127.1439    230.3405   9.7227816575e+01   8.1312075136e+00    0.3333662    0.1811405 -59.19  0.001483501    2.210    0.547
       136 -11.1586     71.8872    229.3878   1.0942130581e+02   1.6424844737e+01    0.2818709    0.1806459 -58.21  0.001555721    1.711    0.415
       137 -11.3197     35.7328    223.4505   1.1668279454e+02   2.2138041244e+01    0.3036423    0.1670521  87.76  0.001218777    1.808    0.447
