#   1 NUMBER                 Running object number                                     
#   2 MAG_AUTO               Kron-like elliptical aperture magnitude                    [mag]
#   3 X_IMAGE                Object position along x                                    [pixel]
#   4 Y_IMAGE                Object position along y                                    [pixel]
#   5 X_WORLD                Barycenter position along world x axis                     [deg]
#   6 Y_WORLD                Barycenter position along world y axis                     [deg]
#   7 A_WORLD                Profile RMS along major axis (world units)                 [deg]
#   8 B_WORLD                Profile RMS along minor axis (world units)                 [deg]
#   9 THETA_WORLD            Position angle (CCW/world-x)                               [deg]
#  10 FWHM_WORLD             FWHM assuming a gaussian core                              [deg]
#  11 ELONGATION             A_IMAGE/B_IMAGE                                           
#  12 ELLIPTICITY            1 - B_IMAGE/A_IMAGE                                       
         1 -12.0455      6.4955     62.5101   2.9209135619e+02   6.9147249927e+00   0.05590404   0.01210667 -50.30  0.003634401    3.996    0.750
         2 -12.3091     60.6379     46.0341   2.9136951063e+02   6.8094592786e+00   0.08229621   0.02433174 -61.04  0.006011144    3.221    0.690
         3 -11.6285    119.1624     58.4699   2.9076599315e+02   6.3543090082e+00   0.08662386   0.05833962  76.99  0.008640022    2.078    0.519
         4 -10.7081    105.9955     21.2338   2.9070059511e+02   6.8440646533e+00   0.01926028   0.01098744 -60.03  0.001486733    1.728    0.421
         5 -12.5444    112.9282     24.7359   2.9064096750e+02   6.7672954063e+00   0.03953219   0.02261451  17.30  0.003857544    1.864    0.464
         6 -11.4691    178.2128     21.0479   2.8986571967e+02   6.4558807917e+00   0.02448027   0.01469243 -30.52  0.001594743    1.956    0.489
         7 -10.3579     60.7260     25.1113   2.9124644079e+02   7.0443151039e+00   0.02804332    0.0135586 -68.48  0.002466406    2.335    0.572
         8 -11.4375     26.1764     27.7648   2.9166142692e+02   7.2001109785e+00   0.03234776   0.02398262  49.68  0.003218303    1.488    0.328
         9 -11.4100     22.7418     10.9519   2.9160312428e+02   7.4076093453e+00     0.033978   0.02080754  -4.04  0.002523926    2.112    0.527
        10 -12.1308     15.0492     21.7549   2.9175510013e+02   7.3274002216e+00   0.04598733   0.03184231  65.43  0.003614172    1.870    0.465
        11 -11.4976     16.8524     13.7286   2.9168744985e+02   7.4079865264e+00   0.01910296   0.01182298 -50.09 0.0009024361    1.564    0.361
        12 -11.4180     14.2690      9.3870   2.9169202426e+02   7.4706592293e+00   0.02468394   0.01261421  25.26  0.001875307    1.935    0.483
        13 -10.5960    153.0033     25.8264   2.9018458262e+02   6.5385771087e+00   0.02980015   0.01047829 -48.35  0.002339071    2.750    0.636
        14 -10.3106     87.8646      7.6430   2.9083070994e+02   7.0945832383e+00   0.02418507   0.01597689  -4.03  0.001776785    1.831    0.454
        15  -9.6276     83.1816      5.8083   2.9087412392e+02   7.1404376193e+00   0.01094978  0.008212336  22.78 0.0006855298    1.326    0.246
        16 -11.4648     90.7056     20.1907   2.9087117821e+02   6.9382262791e+00   0.02782674   0.02041357 -56.27  0.002593773    1.340    0.253
        17 -11.4853     85.8181     14.7512   2.9089589212e+02   7.0257126136e+00   0.03075521   0.01358354 -48.24   0.00194708    2.201    0.546
        18  -9.3923     32.1828     12.3453   2.9150203727e+02   7.3412646260e+00   0.01615558  0.007269962  41.13 0.0003978293    2.335    0.572
        19 -12.6213     48.5467     13.9721   2.9132226358e+02   7.2350578753e+00   0.03968483   0.03158961 -13.88  0.004608153    1.345    0.256
        20 -11.3068     38.7403     19.5870   2.9146843480e+02   7.2246192399e+00   0.02680092   0.01064944 -65.15  0.001721816    2.697    0.629
        21 -11.5363     35.5656     18.7604   2.9150033004e+02   7.2509667965e+00   0.02371937   0.01189951 -59.54  0.001371166    1.940    0.484
        22 -12.0806     68.8623     18.2149   2.9111212299e+02   7.0780813252e+00   0.03949502   0.02519694  30.36  0.004170831    1.538    0.350
        23 -12.6060    239.4583     15.4991   2.8912718450e+02   6.1861702886e+00   0.03970106   0.02337734  15.18  0.002803887    1.850    0.460
        24 -12.1823    245.4608      6.9111   2.8900773180e+02   6.2499841571e+00   0.03509703   0.02385956  52.31  0.003621115    1.698    0.411
        25 -12.1445    239.7001      7.3944   2.8907691904e+02   6.2758408412e+00   0.03204262   0.01653245  52.01  0.002463689    2.533    0.605
        26 -10.7976    165.2580     17.3529   2.8999357913e+02   6.5675122233e+00   0.01867161   0.01222281 -20.95  0.001187876    1.839    0.456
        27 -11.7194    134.2387     15.2488   2.9033937284e+02   6.7588704289e+00   0.04308888   0.01543141  23.70  0.003351742    2.866    0.651
        28 -11.2067    125.3773     11.2038   2.9041806432e+02   6.8521925073e+00   0.02961611   0.01384976  35.68  0.002688874    2.085    0.520
        29 -11.2720    192.1648      7.8322   2.8962742101e+02   6.5287662200e+00   0.02559279   0.01262412 -47.15  0.001762173    1.997    0.499
        30 -12.1628    104.9254     12.9861   2.9066476270e+02   6.9425456650e+00   0.02466425   0.01852391 -51.03  0.001959784    1.299    0.230
        31 -11.7788     19.8779     22.9204   2.9170603853e+02   7.2883919123e+00   0.02631382   0.01598496 -53.76  0.001237995    1.586    0.369
        32 -10.0434    218.7713     12.6444   2.8934882707e+02   6.3304781018e+00   0.01532616    0.0102378   1.19  0.001237084    1.753    0.430
        33 -11.8284    211.5564      9.7962   2.8941531395e+02   6.4015916500e+00   0.02862097   0.01480153 -42.41  0.001828927    2.020    0.505
        34  -9.5696      4.1586     10.0479   2.9181286180e+02   7.5174316978e+00   0.02692431   0.01117967 -47.04   0.00190046    2.380    0.580
        35 -10.7096     66.3614     10.6202   2.9109669394e+02   7.1769215831e+00   0.02804106   0.01357308  14.98  0.002419381    2.428    0.588
        36 -10.6491     63.1852      6.1277   2.9110718660e+02   7.2445142853e+00    0.0213092   0.01068677 -49.09   0.00153024    1.927    0.481
        37  -9.8097    169.2106      9.8747   2.8990420431e+02   6.6301367450e+00   0.01321758  0.008075651 -13.87  0.001233792    2.176    0.541
        38  -9.8272    150.7981      7.8129   2.9010467035e+02   6.7529159172e+00   0.01299467  0.009526495  15.90 0.0008809452    1.396    0.284
        39 -10.2606      1.3133      7.2765   2.9182963191e+02   7.5638395405e+00   0.01064108  0.005737871 -59.46 0.0002312127    1.812    0.448
        40 -10.6279     71.7232      3.4717   2.9099294852e+02   7.2284122627e+00   0.01871611   0.01648767  40.34  0.002303159    1.175    0.149
        41  -9.9463     77.0070      6.8088   2.9095135145e+02   7.1624524965e+00   0.01485202   0.01049916  52.65  0.001376494    1.620    0.383
        42 -10.6748     77.1552      2.8654   2.9092660006e+02   7.2059752261e+00   0.01488489   0.01204118  -9.34  0.001190045    1.313    0.238
        43  -9.6246    162.6359      5.8356   2.8995644611e+02   6.7110911268e+00   0.01162115   0.00953009 -54.20 0.0005919927    1.203    0.168
        44  -9.7405    162.9565      1.6612   2.8992831335e+02   6.7562450772e+00   0.01628848   0.01009773  63.60  0.000842649    2.265    0.559
        45 -11.1609     40.5856     14.3844   2.9141674128e+02   7.2732053192e+00   0.03073826  0.008916905  28.39  0.002256091    3.155    0.683
        46 -10.8295     42.5075      3.5646   2.9133136968e+02   7.3845162354e+00   0.02326198   0.01231286 -36.18  0.002104235    2.172    0.540
        47 -10.1827    174.9602      4.4962   2.8980637334e+02   6.6594245114e+00   0.01300634    0.0115685  37.29  0.001049305    1.151    0.132
        48 -10.9396    218.6027      3.2502   2.8929574642e+02   6.4368675300e+00   0.01574801   0.01347563 -23.85 0.0008268603    1.188    0.159
        49 -11.3530    223.9791      2.0137   2.8922653456e+02   6.4215761119e+00   0.03226408   0.01361658  38.83   0.00275923    2.383    0.580
        50 -10.1182    141.5330      3.6063   2.9018703886e+02   6.8502690332e+00   0.01229236   0.01169145  69.66  0.001562881    1.139    0.122
        51 -11.9516    133.7692      2.6172   2.9027091559e+02   6.9033410283e+00   0.01688132   0.01335364  13.07 0.0007171035    1.287    0.223
        52  -9.0135     55.6540      4.2531   2.9118333428e+02   7.3061005079e+00  0.006602001  0.004736916  52.43 0.0006858209    1.586    0.370
        53 -10.2313     23.0675      2.5372   2.9155027337e+02   7.5004620615e+00   0.01647202  0.008728418 -40.09  0.001527615    2.026    0.506
        54 -10.4094    205.9160      2.3013   2.8943644787e+02   6.5163335554e+00    0.0212352   0.00895007  37.83  0.001817998    2.349    0.574
        55  -9.5800    157.5582      2.7351   2.8999691315e+02   6.7733933265e+00  0.008702206   0.00639803 -77.91  0.000941671    1.559    0.358
        56 -11.1062    105.9968      1.9419   2.9058782304e+02   7.0608826273e+00   0.03671538  0.008267337  29.15  0.002451196    3.808    0.737
        57 -10.9059      2.8119      1.8637   2.9178073344e+02   7.6166607548e+00   0.02257548   0.01202999  10.79   0.00203078    2.270    0.560
        58 -10.0078    122.6942      1.2954   2.9039111442e+02   6.9780180568e+00   0.01645388  0.006218562  18.75  0.001225224    3.148    0.682
        59 -10.6625     47.6632    134.3708   2.9203360222e+02   5.8847117896e+00   0.01406355   0.01094537 -53.61 0.0008624504    1.258    0.205
        60 -10.9441     72.3361    133.7603   2.9174526545e+02   5.7590129631e+00    0.0208671   0.01213723 -22.17   0.00190402    2.284    0.562
        61  -9.8085     62.5192    133.0050   2.9185417952e+02   5.8202904574e+00   0.01748993  0.006394655 -62.99  0.001372218    2.770    0.639
        62 -10.6505     14.1369    132.5913   2.9241033667e+02   6.0846123737e+00   0.01393987   0.01080049 -89.89  0.001560379    1.549    0.354
        63  -8.9086    106.9785    131.0402   2.9132968949e+02   5.6032118226e+00  0.007612264  0.007198191 -44.54 0.0003952245    1.047    0.045
        64 -10.7701     10.7840    127.0681   2.9241699208e+02   6.1647991886e+00   0.02517448  0.009876782 -45.85  0.001674693    2.590    0.614
        65 -10.0409     78.5351    128.4564   2.9164287027e+02   5.7854094366e+00   0.01142894  0.005259111 -50.29 0.0005771279    2.073    0.518
        66  -9.9719    239.9782    146.7575   2.8988868641e+02   4.7080808824e+00  0.008622078  0.005436334  23.14 0.0008789278    1.588    0.370
        67 -10.5835      2.7984    123.4608   2.9248827514e+02   6.2482135466e+00   0.02297037   0.01613757 -37.76   0.00188484    1.461    0.316
        68 -10.2682     82.3515    124.8222   2.9157767977e+02   5.8058053032e+00   0.01810715  0.009282711 -10.29  0.001349216    3.518    0.716
        69  -9.9838     18.7307    124.6797   2.9231135738e+02   6.1491102187e+00   0.01138868   0.00785571 -48.10 0.0006477914    1.414    0.293
        70 -11.0977     55.3839    123.1406   2.9187919389e+02   5.9697323581e+00   0.02994743   0.01771972  17.84  0.002082114    1.776    0.437
        71 -11.8238    105.0260    120.8163   2.9129268824e+02   5.7288473305e+00   0.02425307   0.02310695 -17.11  0.002453764    1.018    0.018
        72 -11.6345     92.4996    130.3450   2.9149270414e+02   5.6890008506e+00   0.02781735   0.01626008 -55.82  0.002813611    1.650    0.394
        73 -10.3832     45.6399    120.4685   2.9197616118e+02   6.0521631821e+00   0.01336402    0.0119663  52.05  0.001098852    1.200    0.167
        74  -9.5757    221.1945    120.5967   2.8995219631e+02   5.1040008312e+00   0.00893723  0.006182901   7.26 0.0004924095    1.591    0.371
        75  -9.4287    148.4098    119.7792   2.9078618831e+02   5.5065959606e+00  0.009444525  0.005598244 -49.14 0.0005479145    1.638    0.389
        76 -10.4607     34.2260    119.8346   2.9210427426e+02   6.1205726008e+00   0.01314204   0.01032458  26.98 0.0005264588    1.262    0.208
        77  -9.8175    113.9769    116.0174   2.9116145383e+02   5.7346495824e+00  0.009838621   0.00912068 -22.66 0.0003199921    1.058    0.055
        78  99.0000     25.3283     86.6916   2.9201436176e+02   6.5415354277e+00   0.05442345   0.03479947  75.94    0.0051565    2.321    0.569
        79 -11.3019     34.5538     91.7589   2.9193724849e+02   6.4349794519e+00   0.09945118     0.041898 -79.60  0.006097005    5.302    0.811
        80 -11.6439     37.7230     86.0203   2.9186724511e+02   6.4825761592e+00   0.04091904   0.02420216  82.79  0.003320457    2.812    0.644
        81 -11.9091      9.9000     97.8466   2.9225748142e+02   6.4986548597e+00   0.04745194   0.02586717  39.14  0.004603527    1.868    0.465
        82 -12.0322      7.3594     88.7361   2.9223388791e+02   6.6148568716e+00   0.02643807   0.02515337 -28.14  0.001201452    1.020    0.020
        83  -9.8579     32.9406    110.0228   2.9206209076e+02   6.2379746714e+00  0.008607281  0.008191266  14.79            0    1.047    0.045
        84 -11.5128     23.7061     98.6144   2.9210243895e+02   6.4159902975e+00   0.02990364   0.01623547 -53.41  0.001820234    1.758    0.431
        85 -11.1001     18.9213    106.1177   2.9220132566e+02   6.3571535438e+00   0.01180104   0.01103833  19.44 0.0003020381    1.067    0.062
        86 -11.7466     20.3561     95.7165   2.9212429298e+02   6.4665878828e+00   0.02919953   0.01824659   4.87  0.002896329    1.894    0.472
        87 -11.8151     18.4520     90.4351   2.9211558682e+02   6.5362669874e+00   0.01831049   0.01649238 -67.20 0.0005893341    1.153    0.132
        88 -11.9004     28.2207    113.0476   2.9213418495e+02   6.2292325587e+00   0.04026364   0.01987473  15.12  0.003534243    2.348    0.574
        89 -12.6070     25.8700    107.1186   2.9212687717e+02   6.3086156748e+00   0.06387588    0.0325794 -22.24  0.005031237    3.147    0.682
        90 -11.2868     86.1160    105.4124   2.9142123711e+02   6.0041005129e+00   0.01844971   0.01398128  -4.57  0.001605083    1.451    0.311
        91  -9.8752     87.6378    114.3302   2.9145559543e+02   5.8955026754e+00   0.01355337  0.008982645  40.46  0.001433908    1.556    0.357
        92 -11.0783     79.9421    108.6575   2.9151140615e+02   6.0007887908e+00   0.03161041   0.01773558  39.88  0.003099851    1.828    0.453
        93 -10.6467     66.9946    112.2930   2.9168204770e+02   6.0294911993e+00   0.02112726   0.01543206 -77.02  0.002319917    1.557    0.358
        94 -11.5617      3.2746    104.9522   2.9237531036e+02   6.4541319738e+00   0.02259355   0.01803725  18.82  0.001278191    1.253    0.202
        95 -11.7647      2.4350    112.2981   2.9242766959e+02   6.3758941675e+00   0.02655088   0.01749402  43.19 0.0008824645    1.604    0.377
        96 -10.6006      5.4177    108.8212   2.9237302315e+02   6.3990776734e+00   0.01220927   0.01103535 -46.62 0.0005296857    1.086    0.079
        97 -11.0078    103.3132    109.2893   2.9124531411e+02   5.8678516650e+00   0.02415055   0.01775442 -24.50  0.002668101    1.487    0.327
        98 -10.9567    170.7398    110.0089   2.9047173315e+02   5.4959633863e+00   0.02278747   0.01759728   2.51  0.001712132    1.383    0.277
        99  -9.6736    175.4731    106.4945   2.9039665914e+02   5.5099281963e+00   0.01039125  0.006498689 -77.92 0.0007176422    1.965    0.491
       100  -9.9408     49.1799    112.2173   2.9188730891e+02   6.1260769845e+00    0.0113548   0.01076155 -24.62 0.0009775141    1.024    0.024
       101  -9.6165    130.4947    107.9866   2.9092407481e+02   5.7359945184e+00   0.01016642  0.006320099 -61.02 0.0007818759    1.604    0.376
       102 -10.6278    107.7298    112.3062   2.9121191877e+02   5.8100935806e+00   0.01910398   0.01170456  61.43  0.001797302    2.248    0.555
       103 -10.6938    158.2082    105.0857   2.9058749940e+02   5.6190576801e+00   0.01997358  0.009815902 -46.03   0.00166415    2.030    0.507
       104 -10.3179    143.6255    106.0952   2.9076157247e+02   5.6864319126e+00   0.01290484   0.01281304 -73.32  0.001131891    1.063    0.059
       105 -11.2822    146.3189    100.0082   2.9069500047e+02   5.7403949481e+00   0.02361874    0.0161799 -37.77  0.002540833    1.509    0.337
       106 -10.3569     48.3875    102.9519   2.9184256601e+02   6.2346702726e+00   0.01452869  0.009473098  14.03 0.0004062869    1.633    0.388
       107  -9.3715    126.8307    114.1538   2.9100229395e+02   5.6863357354e+00  0.009224807  0.007375743 -25.28 0.0006720282    1.306    0.235
       108 -11.2396     67.5841     97.2982   2.9158796369e+02   6.1951565082e+00   0.02827696   0.01622494 -53.41  0.001717938    1.672    0.402
       109  -9.6293    136.8569    100.0942   2.9080465448e+02   5.7904980620e+00   0.01299811    0.0080309 -10.96  0.001225264    2.127    0.530
       110 -10.4715     57.6550     97.3813   2.9170311629e+02   6.2475992236e+00   0.01633877   0.01283687 -79.52  0.001691287    1.437    0.304
       111 -10.1172    210.9662     97.8532   2.8993717500e+02   5.4151622040e+00   0.01383778   0.01048901 -10.05  0.001542768    1.462    0.316
       112 -10.0429     52.4863     96.8602   2.9175978107e+02   6.2812420869e+00   0.01749472  0.006225068 -61.76  0.001369617    2.762    0.638
       113 -11.3767     89.6892     89.4184   2.9128681104e+02   6.1649135506e+00   0.03137814   0.01509335 -41.88  0.002420483    2.221    0.550
       114  -9.8028     78.0853     96.8258   2.9146394957e+02   6.1439880661e+00   0.01276789  0.008724154 -49.30 0.0006850853    1.424    0.298
       115 -11.4539     82.1900     93.3632   2.9139638516e+02   6.1608792445e+00   0.03280714   0.01450854  32.64  0.002916179    2.157    0.536
       116 -11.5988     80.4922     82.9354   2.9135523571e+02   6.2873949135e+00   0.03909586   0.02879868  82.77   0.00421863    1.734    0.423
       117 -11.3955     65.8508     81.8421   2.9151797386e+02   6.3784722688e+00   0.02228896    0.0159222  22.87  0.001623025    1.395    0.283
       118 -11.7533     71.9542     79.4012   2.9143325450e+02   6.3731178224e+00   0.03462711   0.01863747 -38.56  0.003233458    2.037    0.509
       119  -9.4653    140.4646     96.4786   2.9074194434e+02   5.8117158732e+00   0.01048317  0.008501615 -66.73 0.0007595114    1.280    0.219
       120 -10.0448    138.9657     93.0984   2.9073951732e+02   5.8578443336e+00   0.01208694  0.009373277  -7.00 0.0008020183    1.404    0.288
       121 -11.4713    120.2304     85.4068   2.9091084738e+02   6.0454806915e+00   0.02281718   0.01165814  32.04  0.001725679    1.892    0.471
       122 -11.3156    124.8355     93.6083   2.9090553436e+02   5.9283466262e+00   0.02690464   0.02085741  23.06  0.002691923    1.282    0.220
       123 -10.7440    117.2582     93.0153   2.9098952284e+02   5.9758824611e+00   0.01668667    0.0117916 -10.43  0.001229573    1.645    0.392
       124  -9.9354    104.9760     88.0000   2.9110205201e+02   6.0985336358e+00   0.01439056  0.009277093  32.26  0.001514875    1.528    0.346
       125 -10.5164    101.5029     90.5520   2.9115702328e+02   6.0885242968e+00   0.03231412   0.01674321  59.72  0.002586886    3.143    0.682
       126  -9.6650     98.3295     90.7446   2.9119478205e+02   6.1034523687e+00   0.01132918  0.009034408  53.23 0.0001437211    1.392    0.281
       127 -10.3079    153.2308     91.4899   2.9056557046e+02   5.7989238825e+00   0.01791798   0.01122694  -2.92  0.001736748    2.014    0.504
       128 -10.0124     48.6860     90.5157   2.9176675373e+02   6.3730901361e+00   0.01941901  0.008884092  44.73  0.001652772    2.483    0.597
       129 -11.3311    113.5319     83.3267   2.9097603364e+02   6.1050099761e+00   0.03515214   0.01372269 -55.38  0.002964133    2.362    0.577
       130 -11.1844    108.7367     80.8905   2.9101718143e+02   6.1582760563e+00   0.01559516    0.0146126 -41.35  0.001259209    1.048    0.045
       131  -9.3585     67.5850     88.1713   2.9153480709e+02   6.2978998657e+00   0.00970699   0.00544901 -48.27 0.0009411079    1.735    0.424
       132  -9.7861    212.1862     87.1056   2.8986032474e+02   5.5294212712e+00   0.01006943  0.008256982 -28.56 0.0005401614    1.248    0.199
       133 -10.0805    183.4984     85.0592   2.9017898988e+02   5.7076763576e+00   0.02510816  0.006369744 -62.64  0.001649265    3.968    0.748
       134 -10.3966     44.6237     85.1112   2.9178222802e+02   6.4557552736e+00   0.01410281    0.0125623 -12.45  0.001391738    1.129    0.115
       135 -11.5204    143.2981     83.5945   2.9063407669e+02   5.9413951067e+00   0.02008748   0.01470482 -39.36  0.001421787    1.379    0.275
       136 -10.7281    164.3029     83.0735   2.9038873468e+02   5.8337919590e+00   0.01947607   0.01494959  47.24  0.001842436    1.402    0.287
       137 -10.5056    127.6683     83.7068   2.9081508798e+02   6.0244887631e+00   0.01423034  0.009110251  18.35  0.001188638    1.612    0.380
       138  -9.1093     51.3133     83.3253   2.9169454692e+02   6.4399226050e+00  0.006956321  0.004683872 -28.24  0.000529215    1.664    0.399
       139 -11.5064     52.8861     76.5021   2.9163664448e+02   6.5082775905e+00   0.02303821    0.0181882 -67.76  0.002122045    1.325    0.245
       140 -10.9256     58.2293     78.1360   2.9158442991e+02   6.4611678751e+00   0.01934392   0.01594847  57.52  0.001654931    1.362    0.266
       141 -12.3018     74.7488     50.4969   2.9123246823e+02   6.6833336303e+00   0.04860916   0.03743614 -75.54  0.005539367    1.438    0.305
       142 -10.4603     93.5223     76.2991   2.9116607780e+02   6.2919262445e+00   0.02355037   0.01560008 -10.78  0.002148083    1.849    0.459
       143 -11.9986     85.4496     73.3945   2.9124237216e+02   6.3680884477e+00   0.03528958   0.03122125  65.93  0.003618133    1.264    0.209
       144 -11.4045     78.6502     67.0690   2.9128403299e+02   6.4758752141e+00   0.02782329   0.02111578  55.64   0.00312565    1.508    0.337
       145 -11.8511     13.6778     74.8161   2.9207992223e+02   6.7377097251e+00   0.02682482     0.020267 -48.69  0.002189986    1.291    0.225
       146 -12.0403      2.1644     70.8744   2.9219007995e+02   6.8437818936e+00   0.03850049   0.01139633 -56.27  0.002128543    2.966    0.663
       147 -11.4034     13.4777     66.1480   2.9203180576e+02   6.8363546304e+00   0.01714126   0.01434017  44.44 0.0006985783    1.258    0.205
       148 -10.6036    142.7117    249.4028   2.9160588308e+02   4.0777350565e+00   0.01173551  0.008497309   8.41   0.00106651    1.477    0.323
       149 -11.7610     12.1668     62.2081   2.9202403276e+02   6.8877261305e+00   0.02097893    0.0162085  27.93 0.0007720107    1.283    0.221
       150 -10.3594    104.6223     75.5868   2.9103375212e+02   6.2401354571e+00   0.01475512   0.01174571 -41.32 0.0006862269    1.242    0.195
       151 -10.1994    183.9925     75.2346   2.9011589986e+02   5.8154970202e+00   0.01558974  0.006952194  20.80  0.001323725    2.390    0.582
       152 -11.9086    187.1451     69.8984   2.9004837071e+02   5.8584469524e+00   0.02975431   0.02720753 -87.57  0.002979108    1.198    0.165
       153 -11.4772     40.1616     72.0487   2.9175774118e+02   6.6267602471e+00   0.02703146    0.0163926 -42.15  0.002742976    1.680    0.405
       154 -11.0954     33.0672     71.7733   2.9183812357e+02   6.6679499069e+00   0.02366463    0.0128724  21.32  0.001936401    1.884    0.469
       155  -8.9471    151.3196     73.3572   2.9048176574e+02   6.0132410378e+00   0.00714686   0.00462178 -29.27 0.0007045048    1.759    0.431
       156  -9.6466     61.5346     72.9681   2.9151614052e+02   6.5015638409e+00    0.0125928  0.008042831  40.10 0.0008049486    1.610    0.379
       157  -9.6605     46.4652     72.7471   2.9168896600e+02   6.5850423946e+00   0.01218203  0.006610761 -70.69  0.001120943    2.113    0.527
       158 -11.6542    122.3789     68.1419   2.9078531507e+02   6.2281518265e+00   0.02731761   0.01998019  12.24  0.002188184    1.427    0.299
       159 -10.4386    129.5883     65.4540   2.9068640359e+02   6.2194860724e+00   0.02491086   0.01426361  71.32  0.002065572    3.036    0.671
       160  -9.7600      1.3153     78.2149   2.9224257749e+02   6.7656940396e+00   0.00876728  0.006031229 -72.15 0.0005307976    1.603    0.376
       161 -10.2397    162.0480     70.6315   2.9034208054e+02   5.9859281081e+00   0.01645498   0.01006697  42.46  0.001667833    1.721    0.419
       162 -10.2865    207.4355     68.4273   2.8980588898e+02   5.7651523373e+00   0.01823571  0.009928307   7.78  0.001626282    2.331    0.571
       163 -10.4518    172.1743     67.8559   2.9020906827e+02   5.9623967708e+00   0.01600767   0.01435176  81.77  0.001765895    1.250    0.200
       164 -10.5644     51.3945     46.2061   2.9147735236e+02   6.8572213768e+00   0.02003006   0.01568459  89.05  0.001049678    1.532    0.347
       165 -11.4772     32.8901     42.4970   2.9166965554e+02   6.9983535055e+00   0.03755538   0.02481809  42.96  0.002366081    1.596    0.373
       166 -11.5993     26.1285     55.8759   2.9182576513e+02   6.8841075323e+00   0.05416194    0.0353214  14.04  0.005670309    1.632    0.387
       167  -9.3748    157.3333    247.3344   2.9142555520e+02   4.0222750593e+00  0.007092033  0.004668026 -27.60  0.000705222    1.735    0.424
       168 -10.5828     60.8945     36.8005   2.9131269213e+02   6.9119459489e+00    0.0121674    0.0099549 -44.86 0.0006522515    1.197    0.165
       169 -11.2840     46.1934     58.2103   2.9160743117e+02   6.7501041407e+00   0.02343108   0.02054804 -15.93  0.002372919    1.154    0.134
       170 -11.5817     40.5402     56.0011   2.9165990089e+02   6.8053312190e+00    0.0322554   0.02280478  52.37  0.002695655    1.615    0.381
       171 -11.0780     57.8517     61.4609   2.9149164217e+02   6.6508680289e+00   0.02774674   0.01832484  80.14  0.002594125    2.163    0.538
       172 -11.6690     51.7950     61.6631   2.9156281167e+02   6.6811483464e+00   0.02376433   0.01751301  68.05  0.002573754    1.701    0.412
       173 -11.7225     46.2640     48.9605   2.9155271310e+02   6.8538032102e+00   0.02270194   0.01824859 -16.17  0.001172344    1.321    0.243
       174 -12.3671     41.7416     45.4712   2.9158465386e+02   6.9173565160e+00   0.01728719   0.01492972  23.69 0.0002777656    1.151    0.131
       175 -11.4762    219.4175     66.1490   2.8965450422e+02   5.7258584240e+00   0.02792685   0.01524718  24.30  0.002383878    1.828    0.453
       176 -10.5514     21.0414     65.1947   2.9193882431e+02   6.8065236501e+00   0.01031188  0.009699966  -6.70 0.0006610114    1.041    0.040
       177 -10.3444    204.6414     63.8075   2.8981108089e+02   5.8322180379e+00   0.01291837  0.009162945 -26.05 0.0006609005    1.561    0.359
       178  -9.7830    167.9453     63.0417   2.9022971577e+02   6.0394029909e+00  0.009834387  0.009206112  14.41  0.001043059    1.059    0.055
       179  -9.7186    174.9978    246.2386   2.9121587610e+02   3.9394219888e+00  0.008704011  0.005389717  23.92 0.0007242548    1.609    0.379
       180 -11.1582    113.1555     50.1790   2.9078695187e+02   6.4799687095e+00   0.03634811   0.01935763 -20.68  0.002992178    2.875    0.652
       181 -13.0114    120.4613     39.0926   2.9063783765e+02   6.5652284119e+00   0.04107999   0.02776689  43.08  0.002426579    1.559    0.359
       182 -10.1358     98.5103     62.3511   2.9102712446e+02   6.4219999954e+00   0.01255383   0.01105718  -9.42  0.001535423    1.150    0.131
       183 -11.2940     92.0119     62.3387   2.9110210702e+02   6.4571507556e+00   0.01815443   0.01382385  24.65   0.00123729    1.302    0.232
       184 -10.9612     91.1409     57.8428   2.9108594099e+02   6.5124258257e+00   0.01732369   0.01643985   5.87  0.001305358    1.038    0.037
       185 -10.6079    159.7164     61.5985   2.9031621094e+02   6.1001202840e+00   0.01811396   0.01221689   2.95  0.001674749    1.702    0.413
       186  -9.6054    147.1479     60.5920   2.9045534995e+02   6.1793566245e+00   0.01241677  0.005885144  29.35  0.001122819    2.030    0.507
       187 -11.2599    136.3981     55.7022   2.9055085695e+02   6.2924113013e+00   0.02701841   0.01838563 -55.66  0.002288211    1.434    0.302
       188 -11.6246    145.5220     48.0051   2.9040058122e+02   6.3296869329e+00   0.04513054   0.01592843 -55.55  0.003648775    2.574    0.611
       189  -9.4897     66.2699     73.5887   2.9146504995e+02   6.4691139424e+00   0.01129061  0.007987589 -78.88  0.000678439    1.655    0.396
       190 -10.5724    157.4724     56.5281   2.9031247577e+02   6.1692685289e+00   0.01629443   0.01242204  -4.92 0.0008216845    1.439    0.305
       191 -11.0515    156.6709     53.3238   2.9030300028e+02   6.2096321861e+00   0.02450148   0.01674397  53.87  0.002580657    1.715    0.417
       192  -9.8000      2.1555     56.0844   2.9210414709e+02   7.0102969494e+00   0.01010082  0.008351875 -26.28 0.0006330276    1.239    0.193
       193  -9.9432     67.0587     54.9749   2.9134744268e+02   6.6743335745e+00  0.009710376  0.009508614 -12.09 0.0005519649    1.025    0.024
       194  -9.5670     13.4996     53.9918   2.9196080197e+02   6.9730481614e+00   0.00968321  0.006373993 -62.88 0.0004745337    1.538    0.350
       195 -10.9276     87.5054     56.9644   2.9112281213e+02   6.5418903388e+00   0.02106338   0.01071026 -59.61    0.0010864    1.917    0.478
       196 -11.7668    240.9939     50.4792   2.8931430691e+02   5.7849780644e+00   0.02822836   0.01506918  25.09  0.001432496    1.859    0.462
       197 -10.6756    202.1065     46.9371   2.8974163737e+02   6.0355711569e+00   0.02118261   0.01352181 -59.59  0.002224776    1.550    0.355
       198 -10.9968    173.7613     48.2316   2.9007606767e+02   6.1744649889e+00   0.02167696   0.01345229  32.73  0.001565009    1.584    0.369
       199 -11.0148     27.2599     47.3861   2.9176323725e+02   6.9735676524e+00   0.02161173   0.01261677  -5.71   0.00161733    2.364    0.577
       200 -10.2560     20.7707     47.7247   2.9184023903e+02   7.0045747923e+00   0.01641925    0.0137327 -37.94  0.001967598    1.183    0.155
       201  -9.5980      3.7035     49.0639   2.9204538865e+02   7.0810077596e+00   0.01157649  0.008268822  32.46  0.001277298    1.390    0.281
       202 -10.0844     90.3821     48.0514   2.9103757631e+02   6.6266622165e+00   0.01181634  0.009129968  33.84 0.0003748344    1.297    0.229
       203  -9.8457     14.2575     46.4824   2.9190831539e+02   7.0534849264e+00    0.0156244  0.007915824 -38.43  0.001391344    2.216    0.549
       204  -9.4280    193.0243     45.8321   2.8983988317e+02   6.0971772836e+00   0.01097247  0.006563656  48.80  0.001064759    1.920    0.479
       205 -12.4814    117.6769     43.0649   2.9069319436e+02   6.5355856509e+00   0.04391952   0.01840885  42.93  0.003049608    2.628    0.619
       206 -11.8528    156.2485     41.7998   2.9024052157e+02   6.3414825793e+00   0.02765955   0.01569695  35.11  0.001462813    1.737    0.424
       207 -10.8937    153.5384     36.3062   2.9023968309e+02   6.4178909713e+00   0.01501995    0.0126878  64.79 0.0008110293    1.351    0.260
       208  -9.8937    139.2789     43.7230   2.9044762240e+02   6.4115621172e+00   0.01298025  0.008658133  10.44  0.001352894    1.635    0.388
       209 -10.1043    100.7316     43.6007   2.9089204061e+02   6.6209486695e+00   0.01820631   0.01029708  66.77  0.001518223    2.945    0.660
       210 -11.2230     93.8148     41.2582   2.9095827030e+02   6.6845737515e+00   0.02462937   0.01503595  20.49  0.001721497    1.672    0.402
       211  -9.8194      3.4813     44.4635   2.9202117970e+02   7.1339620421e+00    0.0148152  0.006496858  21.52   0.00054176    2.391    0.582
       212  -9.6306     18.3476     41.7996   2.9183374682e+02   7.0842367881e+00   0.01219329  0.007789158   6.56  0.001222634    1.798    0.444
       213 -11.3367     81.4612     39.3619   2.9108993955e+02   6.7724492565e+00   0.02365691   0.01524542  33.21  0.001859494    1.532    0.347
       214 -10.8684     77.5499     34.4752   2.9110661929e+02   6.8484707434e+00   0.01993433   0.01244958  20.82  0.001395221    1.626    0.385
       215 -10.8226     82.0762     31.5623   2.9103730763e+02   6.8568550532e+00   0.01986283   0.01658482  46.93  0.002371434    1.275    0.216
       216 -10.7767    231.4946     39.2565   2.8935803267e+02   5.9625787771e+00   0.01576532   0.01214061  78.91  0.001749948    1.610    0.379
       217 -10.7900    176.7474     37.4185   2.8997839332e+02   6.2798513008e+00   0.01778276   0.01043654 -57.90  0.001793564    1.660    0.398
       218 -10.6318     23.0517     36.6753   2.9174949488e+02   7.1166502795e+00   0.02469759   0.01285854  43.21  0.002148574    2.071    0.517
       219  -9.7038     17.9441     34.4464   2.9179557561e+02   7.1691238332e+00  0.009908712  0.008363036  52.12 0.0004556617    1.291    0.225
       220  -9.9775    206.7162     37.1397   2.8963117930e+02   6.1206923753e+00   0.01224553   0.01067679  51.90 0.0008451309    1.238    0.192
       221  -9.4210    189.4453     38.0150   2.8983542904e+02   6.2044099988e+00  0.009642541  0.006190687 -58.24 0.0003695967    1.529    0.346
       222 -10.0365    133.6591     37.5414   2.9047638040e+02   6.5114190802e+00   0.01669924  0.009259372  52.94  0.001515764    2.304    0.566
       223 -10.5307      5.3825     36.0461   2.9195017822e+02   7.2184763936e+00   0.01988978   0.01233904  41.01  0.002044141    1.673    0.402
       224  -7.6667      6.7635     30.7743   2.9190350009e+02   7.2703787813e+00   0.02728699   0.01122302  24.96  0.002303394    2.412    0.585
       225 -10.0580    199.2083    244.4238   2.9092674815e+02   3.8293042484e+00  0.009635145  0.005657117  36.91 0.0009542655    1.703    0.413
       226 -11.4450    105.6828     33.0016   2.9077295301e+02   6.7134469178e+00   0.02838878   0.01331554 -36.84  0.001335537    2.588    0.614
       227 -11.5579    128.2008    241.8004   2.9172884438e+02   4.2414736189e+00   0.02225821   0.01982071 -23.59  0.002754543    1.121    0.108
       228 -10.5171    189.2753     27.7680   2.8977743768e+02   6.3204751628e+00   0.01935774   0.01220504 -45.55  0.001426386    1.570    0.363
       229  -9.9805    172.6394     33.3896   2.9000222010e+02   6.3473628064e+00   0.01184629   0.01027293  31.74 0.0007641992    1.160    0.138
       230 -10.4379    175.6581     29.5158   2.8994473522e+02   6.3745604121e+00   0.01650422   0.01070589 -44.62 0.0009387388    1.532    0.347
       231 -11.6471    182.6815     25.1276   2.8983804115e+02   6.3858485086e+00   0.02713295   0.01589912   6.96   0.00221818    2.072    0.517
       232 -10.4922    150.5052    237.9648   2.9144975194e+02   4.1645645731e+00   0.01017198  0.006341696 -61.65  0.001038632    1.607    0.378
       233 -11.8897     70.3767     32.4993   2.9117799456e+02   6.9093053504e+00   0.02070462    0.0139573  16.31 -0.001426871    1.539    0.350
       234 -10.0064    160.4058     33.1881   2.9014219818e+02   6.4158070672e+00   0.01608644   0.01079329 -84.24 0.0006986502    1.899    0.473
       235 -11.3085    164.0366     27.8754   2.9006922882e+02   6.4558791448e+00   0.01923333   0.01487958   0.04  0.001726856    1.390    0.281
       236 -11.0230    241.0237     30.7637   2.8919855129e+02   6.0062717987e+00   0.02405445   0.01246769 -47.42  0.002276947    1.894    0.472
       237  -9.2693     15.4943    233.5143   2.9297934470e+02   4.9401094573e+00  0.006544286  0.006113598 -23.01 0.0008100512    1.047    0.045
       238 -11.7776     47.6243     30.6272   2.9143009696e+02   7.0527270854e+00   0.03533932   0.01659274  18.44  0.002635742    2.346    0.574
       239 -10.7340     57.1759     30.7583   2.9132043136e+02   6.9999034180e+00   0.01870876   0.01391358  11.00  0.001376832    1.404    0.288
       240 -10.8242    198.2374     28.6566   2.8967928852e+02   6.2619450420e+00   0.02011636   0.01439935 -24.36  0.001497004    1.554    0.356
       241 -10.3598    199.5176     24.9607   2.8964289632e+02   6.2965305367e+00   0.01307743   0.01017664 -23.09 0.0006404499    1.372    0.271
       242  -9.7966    247.3201    231.3191   2.9029717855e+02   3.7170708956e+00  0.006951295  0.004702237 -27.35 0.0007042872    1.665    0.399
       243  -9.2459     23.4720    231.5412   2.9287599200e+02   4.9196036934e+00  0.006406062  0.006224209 -13.22  0.000278476    1.012    0.011
       244  -9.2893    190.0060    229.9944   2.9094873757e+02   4.0413662646e+00  0.007765902  0.007486259 -21.89 0.0004476414    1.006    0.006
       245  -9.1837    247.3239    227.3023   2.9027374630e+02   3.7622401784e+00  0.006872403  0.004730175 -25.95 0.0003098176    1.636    0.389
       246  -9.6031      9.0400    227.3019   2.9301781411e+02   5.0446884218e+00  0.009156237  0.008129477  16.33 0.0003112424    1.119    0.106
       247  -9.1001    230.5583     30.5453   2.8931782367e+02   6.0655063166e+00  0.006334404  0.006254832   2.94 4.113467e-05    1.040    0.038
       248 -10.0951    134.1157     25.0468   2.9039808000e+02   6.6494149179e+00    0.0161151    0.0106796  81.45  0.001571777    2.146    0.534
       249 -11.9173    125.3140     27.1053   2.9051175471e+02   6.6738079366e+00   0.02934724   0.02341994  16.65   0.00197527    1.260    0.206
       250  -9.4881    131.4744     28.3796   2.9044806142e+02   6.6262166835e+00   0.01010865  0.007763287 -50.90  0.001152451    1.272    0.214
       251  -9.7637    100.1152     30.1554   2.9082065166e+02   6.7754710072e+00   0.01050639  0.008486994 -25.45  0.001084463    1.286    0.222
       252  -9.3911    158.3244     20.3003   2.9009084488e+02   6.5719039733e+00   0.01542203  0.006910593  11.43  0.001115304    3.102    0.678
       253  -9.7427    167.5160    221.5128   2.9115830558e+02   4.2581412333e+00  0.006499824  0.006167551 -21.08 0.0001212259    1.023    0.023
       254  -9.8783    156.8281     25.1513   2.9013648812e+02   6.5254815572e+00   0.01242249  0.009210551  15.38 0.0005558908    1.381    0.276
       255 -10.5880    250.3535     24.8096   2.8905623967e+02   6.0224877345e+00   0.01139874  0.008065412 -66.81 0.0007751965    1.480    0.324
       256 -11.0514    214.8466     23.5973   2.8945819807e+02   6.2287567628e+00   0.02086922    0.0146312 -56.41  0.001896493    1.398    0.285
       257 -10.4585    143.9411     24.7741   2.9028304152e+02   6.5993921125e+00   0.02156958   0.00667384  37.98  0.001593298    3.140    0.682
       258 -10.8604    140.7914     20.5015   2.9029442380e+02   6.6644331117e+00   0.02294772   0.01328651   4.67  0.002131169    2.179    0.541
       259  -9.8231      9.9716    217.7173   2.9295164809e+02   5.1477146416e+00  0.009009092  0.008561696   7.52 0.0005578669    1.039    0.038
       260  -9.1946    165.6872    212.3343   2.9112599828e+02   4.3713489312e+00  0.006757478  0.004899587  61.75 0.0007045338    1.683    0.406
       261  -9.2235    152.5116    207.5419   2.9124987246e+02   4.4963445741e+00  0.006391312    0.0062558  -3.01 0.0001086485    1.027    0.026
       262  -9.9723     80.8222     19.3610   2.9098056247e+02   7.0008015540e+00   0.01300681  0.009502718  15.31 0.0009423898    1.405    0.288
       263 -10.2894    238.9882    204.7463   2.9023822143e+02   4.0610513721e+00   0.01195873  0.008652967 -82.97   0.00128073    1.661    0.398
       264 -10.1013      4.4918    204.5796   2.9293882580e+02   5.3251164548e+00   0.01366791  0.006204491 -60.91  0.001205273    2.156    0.536
       265 -10.4222    245.4839    200.9489   2.9014138791e+02   4.0686686664e+00  0.009833021  0.006361501 -62.20 0.0006181048    1.558    0.358
       266 -10.2911    234.1132    196.7654   2.9024779621e+02   4.1771938727e+00   0.01551965  0.009809835 -46.60  0.001401335    1.555    0.357
       267 -10.4691     17.1156    192.6220   2.9272402073e+02   5.3922546784e+00   0.01186705   0.01093827  -4.58 0.0004509946    1.074    0.069
       268  -9.4766    223.0625     22.4797   2.8935696802e+02   6.1967528585e+00   0.01055022  0.009051395  62.96 0.0006351615    1.313    0.238
       269 -10.2945    220.8239     19.0881   2.8936290637e+02   6.2469850918e+00   0.01116081  0.009192366   7.30            0    1.245    0.197
       270 -10.1357    206.4679     21.8037   2.8954428309e+02   6.2943272319e+00   0.01453802  0.008821726 -32.95 0.0009008924    1.867    0.464
       271 -12.2328      5.3738    185.2362   2.9281668728e+02   5.5383836535e+00   0.03845697   0.03044245  66.58  0.004399661    1.499    0.333
       272 -11.3476    246.6308     20.1231   2.8907165925e+02   6.0953168615e+00   0.01326868   0.01138342 -28.97 0.0009685932    1.172    0.147
       273  -9.3702    169.2013    191.6140   2.9096499513e+02   4.5856931233e+00  0.009007801  0.006143868   7.51 0.0005289045    1.619    0.382
       274  -9.6592    213.0313    181.4705   2.9040125946e+02   4.4632293913e+00   0.01435599  0.006213427 -33.25  0.001038674    3.446    0.710
       275 -10.4319    249.9840    180.2714   2.8996909156e+02   4.2769542507e+00   0.01385226  0.008245781 -61.41   0.00139353    1.678    0.404
       276 -10.0677    123.2546     19.2567   2.9048966392e+02   6.7731506508e+00    0.0127115   0.01102593  56.83  0.001535934    1.269    0.212
       277  -9.8521    119.6214     17.1836   2.9051951236e+02   6.8160659039e+00   0.01152223  0.006599586 -36.91  0.001096387    1.921    0.479
       278  -9.5469      1.6962     20.4715   2.9190209805e+02   7.4134140383e+00  0.009007622  0.006222448   4.38 0.0009419546    1.618    0.382
       279  -9.9399     51.8795    174.3866   2.9221731003e+02   5.4112694772e+00   0.01274987  0.008863859  79.15  0.001295976    1.941    0.485
       280  -8.8926    170.7018     17.7204   2.8993290910e+02   6.5339237789e+00  0.006620072  0.004746235 -25.54  0.000278772    1.539    0.350
       281 -10.2463     39.6042    173.7670   2.9235532344e+02   5.4841355525e+00  0.008982264  0.006326716 -76.63 0.0007359394    1.626    0.385
       282  -9.1342     57.4585    175.4286   2.9215900168e+02   5.3695711952e+00  0.006421346  0.006159954 -14.40  0.000146579    1.010    0.010
       283 -10.1228    189.9158     32.9392   2.8980030816e+02   6.2589018751e+00   0.01487051   0.01170302  66.73 0.0009024457    1.517    0.341
       284 -10.4870    186.4178     15.1162   2.8973635156e+02   6.4780881219e+00   0.01231986   0.01032508   4.26 0.0005724926    1.223    0.182
       285 -10.4010     34.9093    170.5126   2.9239061176e+02   5.5459926388e+00   0.01028615  0.008867498 -54.75  0.001242739    1.149    0.130
       286  -9.5580    149.5862     15.1449   2.9016155585e+02   6.6770897241e+00   0.01098202  0.008681602 -19.71  0.001256437    1.350    0.259
       287 -11.4574     13.8254    158.6327   2.9256501127e+02   5.7928892899e+00   0.02305243     0.012699 -67.87  0.002197761    1.967    0.492
       288  -9.2965    198.1855    167.7967   2.9049249218e+02   4.6973310617e+00  0.009070448  0.007166367 -30.94 0.0005681661    1.302    0.232
       289 -11.6267      9.3837    166.4549   2.9266161764e+02   5.7285477261e+00   0.03193702   0.02153535 -39.96  0.003074084    1.513    0.339
       290 -10.0084     18.7312    165.3228   2.9254718801e+02   5.6912174047e+00   0.01267646   0.01095749 -46.16  0.001113653    1.132    0.117
       291  -9.8423    205.0979    163.3157   2.9038677864e+02   4.7104120042e+00   0.01060401  0.008662329 -41.16 0.0005909654    1.208    0.172
       292  -9.0097    188.6668    163.7075   2.9057828303e+02   4.7947740141e+00  0.006855688  0.004744671 -24.66 0.0007023513    1.635    0.388
       293 -10.3515     80.6663    159.9667   2.9180149573e+02   5.4190382542e+00   0.01702073   0.01390577  12.46  0.002010709    1.240    0.193
       294 -10.9146    246.4576    158.8651   2.8988478774e+02   4.5368277867e+00   0.01527466  0.006514743 -64.50  0.001277556    2.459    0.593
       295 -10.9406    104.6822    153.2878   2.9148564553e+02   5.3650389731e+00   0.02464407   0.01577661 -70.60  0.002536226    1.719    0.418
       296  -9.6970      9.0060    155.9717   2.9260520476e+02   5.8486934304e+00    0.0102871  0.009613304 -23.65 0.0008094344    1.045    0.043
       297 -10.8612     33.2270    144.4107   2.9225855741e+02   5.8490978138e+00   0.01315344   0.01247308  35.11 0.0006821889    1.087    0.080
       298 -10.1970     31.5469    154.5245   2.9233665436e+02   5.7441673581e+00   0.01796297   0.01118758  37.58    0.0018576    1.618    0.382
       299 -10.9254     30.5869    148.8813   2.9231498270e+02   5.8128953331e+00    0.0191461   0.01321988 -59.52  0.001105406    1.435    0.303
       300 -11.8111     22.6721    149.5143   2.9241001217e+02   5.8482082237e+00   0.02511724   0.01506442 -16.94  0.002335535    2.226    0.551
       301 -10.7700     15.9924    148.0894   2.9247884829e+02   5.9000677710e+00   0.01910625  0.009392884  37.37   0.00175773    2.024    0.506
       302 -12.1404      5.4324    147.3440   2.9259642633e+02   5.9650442984e+00   0.03429819   0.02209978 -39.66  0.003297557    1.600    0.375
       303 -11.3542      3.2603    141.2964   2.9258642715e+02   6.0448130934e+00   0.02258706   0.01402824  19.86  0.002321403    1.648    0.393
       304 -11.9129      3.8844    136.4812   2.9255128946e+02   6.0957195639e+00   0.01411689   0.01222066 -25.12 0.0004003405    1.164    0.141
       305 -11.6256     62.7065    149.7656   2.9194943011e+02   5.6304925095e+00   0.02522175   0.02054591  29.09  0.002526435    1.222    0.182
       306  -9.6823     85.9931    149.9977   2.9168209553e+02   5.5026786105e+00  0.008049213  0.007756357 -23.49 0.0008311549    1.007    0.007
       307 -11.3564     46.4238    146.7268   2.9211968699e+02   5.7521796870e+00   0.02717856   0.02167641 -42.33  0.002142136    1.236    0.191
       308 -11.1085    249.5156    142.8364   2.8975605620e+02   4.7005610951e+00   0.02752503   0.01009341 -67.29  0.002047704    3.224    0.690
       309 -10.0808    133.7386    139.9763   2.9107306436e+02   5.3583758077e+00   0.01703521   0.00989541 -43.65  0.001686431    1.740    0.425
       310 -11.0688     14.7415    140.1357   2.9244714079e+02   5.9963801789e+00   0.01540585   0.01051804   7.99  0.001628777    1.609    0.378
       311  -9.1776     69.4913    140.4802   2.9181716940e+02   5.6986202375e+00  0.006561065  0.006101337 -22.99 5.550211e-06    1.053    0.050
       312 -12.1572     23.1857    136.1578   2.9232656302e+02   5.9959269324e+00   0.04089397   0.02444607  42.37  0.004120359    1.763    0.433
       313 -11.7350     29.7991    132.8429   2.9223095987e+02   5.9977999771e+00   0.02410204    0.0171334 -72.26 0.0004508394    1.542    0.352
       314 -10.7991     81.2794    135.3999   2.9165159060e+02   5.6924494329e+00   0.02679148   0.01580079 -16.71  0.002246397    2.317    0.568
       315  -9.5203    145.7326     16.1623   2.9021199618e+02   6.6864903608e+00   0.01280707  0.009448349  15.07  0.001427546    1.391    0.281
