#   1 NUMBER                 Running object number                                     
#   2 MAG_AUTO               Kron-like elliptical aperture magnitude                    [mag]
#   3 X_IMAGE                Object position along x                                    [pixel]
#   4 Y_IMAGE                Object position along y                                    [pixel]
#   5 X_WORLD                Barycenter position along world x axis                     [deg]
#   6 Y_WORLD                Barycenter position along world y axis                     [deg]
#   7 A_WORLD                Profile RMS along major axis (world units)                 [deg]
#   8 B_WORLD                Profile RMS along minor axis (world units)                 [deg]
#   9 THETA_WORLD            Position angle (CCW/world-x)                               [deg]
#  10 FWHM_WORLD             FWHM assuming a gaussian core                              [deg]
#  11 ELONGATION             A_IMAGE/B_IMAGE                                           
#  12 ELLIPTICITY            1 - B_IMAGE/A_IMAGE                                       
         1 -14.9128    213.5231     73.9892   6.4279510502e+01   2.2865923646e+01     9.456016     5.707354 -77.99   0.04035277    2.299    0.565
         2 -13.0316    248.7087      4.5887   4.5679895301e+01   2.4786263827e+01    0.8514029    0.4928981 -85.82   0.00400326    1.512    0.339
         3 -14.9426    245.6753     40.7412   5.2845699753e+01   2.0817896842e+01     2.680025    0.9417531  53.39  0.007944683    3.304    0.697
         4 -13.8218    250.0784     27.3206   4.9780938279e+01   2.1709851588e+01     2.216433    0.4532627 -35.65  0.003478647    5.870    0.830
         5 -14.6879    230.7366     28.3141   5.1987840403e+01   2.5748505569e+01     2.450009     2.025366  72.60   0.01598684    1.213    0.175
         6 -10.0677    134.2538     20.0260   6.4495901885e+01   4.8624939203e+01    0.4818342    0.1887255 -23.34  0.002017719    3.292    0.696
         7 -10.2340    127.8072     22.5297   6.6586030797e+01   4.9733019452e+01    0.3024032    0.2116241  39.70   0.00113545    1.306    0.234
         8  -9.5614     92.1929     17.2249   7.3514883278e+01   5.7279093767e+01    0.5854053    0.1552531 -28.22  0.002249495    4.176    0.761
         9 -10.6258    143.0746      8.8990   5.9632062577e+01   4.7807396898e+01    0.8437188    0.3015025 -19.74  0.003339671    4.145    0.759
        10 -10.0370    125.4029     14.6415   6.4721223740e+01   5.1050789213e+01    0.2641263    0.2438339  29.22  0.001756716    1.110    0.099
        11 -11.3688    118.9076     10.1068   6.4715461079e+01   5.2825188042e+01    0.6461958    0.4354234  46.80  0.003043524    1.235    0.190
        12  -8.2929    215.8365      8.8317   4.9590227476e+01   3.1395399516e+01     0.226631    0.1240193 -84.12   0.00116383    1.926    0.481
        13 -13.1800    245.8146     13.8131   4.7631878344e+01   2.4307929922e+01    0.6996422    0.4483004 -41.65  0.003151991    1.664    0.399
        14  -8.4139    165.4430      3.4974   5.4608654044e+01   4.3325069049e+01    0.2814018    0.1807112  -3.26  0.001542226    2.365    0.577
        15  -8.9155    159.1581      2.4453   5.5266658480e+01   4.4829952948e+01    0.2572362    0.1869034 -11.36  0.001586981    1.808    0.447
        16  -9.1922    138.6292      2.0853   5.8503026166e+01   4.9377762748e+01    0.2762177    0.1652429  26.80  0.001503276    2.061    0.515
        17  -8.1584    172.0194      1.9887   5.3312064756e+01   4.1980789173e+01    0.1750116    0.1472499  73.99            0    1.030    0.029
        18  -8.5775    207.0754      1.3964   4.8963740804e+01   3.4135658820e+01    0.1672455   0.09713271  73.29 0.0001453883    1.419    0.295
        19 -10.1761    198.6314    171.2141   8.9059751336e+01   7.1504840754e+00    0.2680788    0.2508403  77.69  0.000486105    1.161    0.138
        20  -9.1484    240.3116    249.1482   9.5539713783e+01  -1.3629961484e+01    0.2009845    0.1702958  28.70 0.0003793889    1.227    0.185
        21  -8.8007    230.6915    167.5232   8.1977836064e+01   1.5711652577e+00    0.2520714    0.1692681 -59.56  0.001184291    1.827    0.453
        22  -7.4142    213.4501    167.4997   8.5284734209e+01   4.9237531429e+00    0.1455654    0.1369291 -70.72  4.90826e-05    1.150    0.131
        23 -11.6339     68.6177    144.0840   1.1450723732e+02   3.7528388120e+01     1.129448     1.034939  42.07  0.005405772    1.230    0.187
        24 -11.3163     57.6303    151.2116   1.1847396208e+02   3.7254848145e+01     0.712149    0.4321188 -73.81  0.001906501    1.593    0.372
        25 -11.0163     43.5810    159.3001   1.2305643109e+02   3.6990481987e+01    0.4221684    0.3412232 -33.17  0.001457252    1.575    0.365
        26 -11.6955     51.3585    154.9208   1.2057832940e+02   3.7133386290e+01    0.8470295    0.5600212 -70.26  0.002865182    1.315    0.240
        27  -8.5388     84.1209    157.8435   1.1303037654e+02   3.2060881525e+01    0.2043452    0.1859959 -70.19 0.0004139961    1.048    0.046
        28  -8.8964     32.7805    156.5917   1.2521200650e+02   3.8739074627e+01    0.1626559    0.1075048  50.38 0.0009499774    1.665    0.399
        29 -12.6062    170.3094     76.3923   7.2681285021e+01   3.2554251355e+01     1.710674     1.208801 -69.00  0.008040366    1.747    0.428
        30 -10.1973    133.5955    234.5718   1.1401906243e+02   6.6791685049e+00    0.2453238    0.2316422  76.71 0.0004537741    1.118    0.105
        31 -10.5115    198.1965    134.0730   8.1033135186e+01   1.4936108618e+01    0.5617726    0.4605542 -50.49  0.002843176    1.187    0.157
        32  -7.7664    184.6568    131.3080   8.3209290907e+01   1.8505077006e+01    0.1599618    0.1214688 -87.49 0.0003547783    1.693    0.410
        33 -14.2972    221.3175     63.5846   6.0742643447e+01   2.2782927971e+01     4.502173     1.073833  56.99   0.01457474    3.852    0.740
        34  -8.3851    161.1312    128.7045   8.7822250868e+01   2.4272090863e+01    0.2574456    0.1999118  69.77  0.001197655    1.467    0.318
        35  -9.4517    135.2082    122.8394   9.2668485624e+01   3.1084129481e+01    0.7415912    0.1400008 -50.57  0.001596571    6.550    0.847
        36  -7.5113    175.2814    128.3467   8.4545266756e+01   2.1219608303e+01    0.1543645    0.1249284  -6.03 0.0003241253    1.641    0.391
        37  -9.5085    215.4562    124.1483   7.5433221435e+01   1.3168115739e+01     0.431064    0.2778223  87.62  0.001460786    2.588    0.614
        38  -7.6773      5.7823    221.1794   1.3667657547e+02   2.7227995794e+01    0.1367486    0.1074163 -77.64 0.0004509185    1.321    0.243
        39  -9.4304    186.9608    120.1597   8.0107810462e+01   2.0310589202e+01    0.3997745    0.2786976 -68.43   0.00175245    1.758    0.431
        40  -9.2631    161.2727    118.7927   8.5408335819e+01   2.6373237263e+01     0.280268    0.2391036 -82.11 0.0003538239    1.301    0.231
        41  -7.4727    136.0987    220.3841   1.1143594103e+02   9.0598804890e+00    0.1882665    0.1145941  53.81 0.0001044329    1.578    0.366
        42  -7.3066    205.2874    115.2943   7.5317205996e+01   1.7159347503e+01    0.1425193    0.1208161   3.99 0.0002110664    1.546    0.353
        43  -8.8818    169.0291    113.8041   8.2433056390e+01   2.5682143140e+01    0.4973765    0.2920819  33.95  0.001964766    2.157    0.536
        44  -9.3064    134.7891    112.1628   9.0155817804e+01   3.3495563901e+01    0.5137301    0.1199591 -45.12  0.001378903    4.240    0.764
        45  -9.6883    124.1967    109.5679   9.2221346300e+01   3.6197120006e+01     0.405086     0.342025 -28.19  0.001704303    1.261    0.207
        46  -9.9307    191.1147    107.2015   7.6166877808e+01   2.1973086376e+01    0.3840804    0.2403923 -80.28  0.001428703    2.712    0.631
        47 -10.6683    187.5475     98.0541   7.4660154826e+01   2.4571687774e+01    0.8460104    0.2747943 -40.21  0.002715545    3.134    0.681
        48  -9.9684    185.6996     92.4537   7.3650623752e+01   2.6060208102e+01    0.3927661    0.3307808 -49.99   0.00134173    1.180    0.153
        49  -9.8973    205.9285    110.2656   7.4028604731e+01   1.8000418528e+01    0.4306647    0.2690432  50.97  0.001944832    1.644    0.392
        50  -8.6970    161.9944    105.0606   8.1839214772e+01   2.9061855977e+01    0.2180114    0.2123562 -79.26            0    1.010    0.010
        51  -9.7477    124.8346    103.4270   9.0491275612e+01   3.7366854331e+01     0.397635    0.2915406  62.55 0.0007715659    1.616    0.381
        52 -10.1455    202.0599    101.8372   7.2775907395e+01   2.0502939240e+01    0.5580219     0.350837  64.06  0.001626652    1.731    0.422
        53  -8.6637    147.3599    102.7805   8.4674808568e+01   3.2777938146e+01    0.2727277    0.2454552  38.23 0.0006591536    1.139    0.122
        54  -8.4817    167.5912     98.8970   7.9034879835e+01   2.9017035847e+01     0.338364    0.1466306 -41.92  0.001235254    2.327    0.570
        55  -9.0340    134.1690     98.5485   8.6825396505e+01   3.6458900530e+01    0.3014383    0.2811768  -3.06  0.001646953    1.144    0.126
        56  -9.3483    156.2693     97.7282   8.1277898959e+01   3.1815818906e+01    0.5264416    0.2686146  44.29  0.002093785    1.994    0.498
        57  -8.9791    163.9567     94.9518   7.8829491452e+01   3.0615764279e+01    0.2517314    0.1880544 -82.66  0.001146869    1.734    0.423
        58  -9.1848    140.9066     93.1430   8.3724990266e+01   3.6101591602e+01    0.3431481    0.2887037  84.88  0.001141339    1.407    0.289
        59 -10.1985    171.9301     89.6674   7.5758109704e+01   2.9783941363e+01     0.629264    0.3589423  37.64  0.002500542    2.123    0.529
        60 -10.4554    154.8245     88.5721   7.9223737679e+01   3.3906141445e+01     0.341336    0.2867111 -35.34 0.0005433541    1.245    0.197
        61  -8.2610    243.2259    206.8013   8.7432737501e+01  -7.6417324319e+00    0.1755743    0.1654177  -6.21 0.0003508027    1.135    0.119
        62  -9.2725    105.8643     83.8764   9.0397047907e+01   4.4905947797e+01    0.2744975    0.2262841 -71.09 0.0003916864    1.541    0.351
        63  -9.0401    161.9482     79.3394   7.5208328051e+01   3.3972959767e+01    0.3830656    0.2235197  36.42 0.0008111107    2.067    0.516
        64  -9.7346    126.5386     74.5792   8.2238576664e+01   4.2591005604e+01    0.2536032    0.2415945  65.66  0.001479306    1.127    0.113
        65  -7.6171     79.5081     75.4987   9.5782207786e+01   5.0867787203e+01    0.1315161    0.1190717 -18.64 0.0008105512    1.021    0.020
        66  -9.6150    241.3409    188.6449   8.4273580178e+01  -4.2251013193e+00    0.3555161    0.2776563 -73.53  0.001803199    1.935    0.483
        67  -9.4324    232.9011    154.7393   7.8898896620e+01   3.5875090742e+00    0.2632681     0.207046  70.79  0.001361319    1.596    0.373
        68 -10.6081    120.6118     63.0514   8.0445142712e+01   4.5753730025e+01    0.4044201    0.3049073  71.58 0.0003681013    1.758    0.431
        69  -8.4434    130.4938     63.4799   7.8079423186e+01   4.3642430315e+01    0.2056268    0.1365007 -23.76 0.0009871571    1.755    0.430
        70  -9.2597    131.3288     60.3120   7.6962242439e+01   4.3971445720e+01     0.242717    0.1758084 -12.47 0.0008875404    1.706    0.414
        71  -9.4468    152.9114     57.3765   7.1229166619e+01   3.9672075048e+01    0.3290304    0.1749282 -45.62  0.001452694    2.060    0.515
        72 -10.9138    141.0367     56.3598   7.3550645817e+01   4.2483392533e+01    0.4812708    0.3579212  -0.87   0.00245057    1.766    0.434
        73 -10.4714    137.4292     51.2697   7.2915496132e+01   4.4028736346e+01    0.5022888    0.2627555  41.05  0.002249925    1.927    0.481
        74  -8.4991    218.5391    154.1827   8.1466419772e+01   6.5470734706e+00    0.2332062    0.1978583  45.85 0.0001170866    1.235    0.190
        75  -7.9478    102.6608     43.3000   7.9212798073e+01   5.2208542593e+01    0.1204008    0.1042101  89.26 0.0007035761    1.665    0.400
        76  -8.6262    204.5028     40.0695   5.7822905718e+01   3.0134954250e+01    0.3441152    0.1538043 -45.95  0.001394465    2.254    0.556
        77  -8.9353    201.2380     31.9918   5.6421256334e+01   3.1961353525e+01    0.3992409    0.2689677 -48.69  0.002127472    1.521    0.343
        78  -8.7293    204.1681    152.5281   8.3938881455e+01   9.8459646918e+00    0.2924351    0.2341875 -77.37 0.0007815039    1.523    0.343
        79  -8.5437    213.3080    138.8828   7.9133471528e+01   1.0692844798e+01    0.2414676    0.1789444 -58.96 0.0009044223    1.425    0.298
        80  -8.2000    163.2707     33.1829   6.2651968883e+01   4.0634598344e+01    0.2115254    0.1620344 -25.41 0.0008457555    1.537    0.349
        81  -9.2159    144.7730     30.8707   6.5502427281e+01   4.5106294359e+01    0.4013304    0.1663294 -20.68  0.001503094    3.809    0.737
        82  -7.9726    201.7954     24.0589   5.4539186957e+01   3.2820247112e+01    0.1703239    0.1460479  77.31 0.0004254525    1.072    0.067
        83  -8.3529    158.7370     24.0229   6.1011791514e+01   4.2754922980e+01    0.2917729    0.1981534  48.43  0.001557636    1.366    0.268
        84  -8.0383    189.2552    138.6022   8.3912203501e+01   1.5951497556e+01    0.2171733    0.1457668  38.59  0.000953757    1.623    0.384
        85  -9.0488    229.3952    183.8532   8.5548277334e+01  -1.2459722316e+00    0.2619459     0.213796  46.03  0.000959557    1.316    0.240
        86  -7.5186    212.6567    182.3094   8.8489950981e+01   2.1753133922e+00    0.1419899    0.1153535  88.10   0.00070447    1.697    0.411
        87 -12.0648     15.1553    176.0877   1.3126534151e+02   3.5978327311e+01    0.7779381    0.5225804 -59.17  0.004706754    1.440    0.305
        88 -11.2628     11.7140    171.9134   1.3156271311e+02   3.7203691396e+01    0.6084956    0.3258966 -48.03  0.003014283    2.178    0.541
        89  -9.3933    230.3750    178.9874   8.4383541626e+01  -5.2457639214e-01    0.2437485      0.20272  35.39 0.0001660902    1.241    0.194
        90  -9.0843    221.7205    177.5213   8.5738723144e+01   1.3673766534e+00    0.4219542    0.2784463  71.81  0.001781955    2.620    0.618
        91  -8.8916    222.0230    136.3284   7.6929661141e+01   9.3664742094e+00    0.4169114    0.2174182 -56.55  0.001628922    2.300    0.565
        92  -8.9654    248.3287    176.0560   8.0511537723e+01  -3.2007458811e+00    0.2299657    0.1592891 -24.28  0.001199361    1.491    0.329
        93  -9.3233    224.5625    173.7128   8.4412385328e+01   1.5550623170e+00    0.4619629     0.126853 -36.62  0.001272775    4.693    0.787
        94  -9.0448    244.1719    173.8065   8.0798933794e+01  -2.0671958450e+00    0.1944369    0.1531527 -13.98 0.0005911424    1.355    0.262
        95  -9.3806    230.4302    173.9190   8.3342353275e+01   4.1238856314e-01     0.254035    0.1976949  33.35  0.001364212    1.350    0.259
        96  -8.2178    151.1535    173.3188   9.9884092312e+01   1.6380445370e+01    0.2103315    0.1815265  54.01 0.0004702568    1.138    0.122
        97  -9.2021     84.8264    173.0369   1.1540186771e+02   2.8349132806e+01    0.2070902    0.1873967  71.41  0.000269305    1.096    0.088
