#   1 NUMBER                 Running object number                                     
#   2 MAG_AUTO               Kron-like elliptical aperture magnitude                    [mag]
#   3 X_IMAGE                Object position along x                                    [pixel]
#   4 Y_IMAGE                Object position along y                                    [pixel]
#   5 X_WORLD                Barycenter position along world x axis                     [deg]
#   6 Y_WORLD                Barycenter position along world y axis                     [deg]
#   7 A_WORLD                Profile RMS along major axis (world units)                 [deg]
#   8 B_WORLD                Profile RMS along minor axis (world units)                 [deg]
#   9 THETA_WORLD            Position angle (CCW/world-x)                               [deg]
#  10 FWHM_WORLD             FWHM assuming a gaussian core                              [deg]
#  11 ELONGATION             A_IMAGE/B_IMAGE                                           
#  12 ELLIPTICITY            1 - B_IMAGE/A_IMAGE                                       
         1 -12.5861     62.6853     69.7531   1.0465275256e+02   5.5595803821e+01     1.027328    0.1565085 -42.43  0.002638316    6.390    0.844
         2 -10.8945    249.6635     16.6635   5.4224437160e+01   2.3015014162e+01    0.1025903   0.08650231  53.66 0.0007051717    1.749    0.428
         3 -10.4320     92.3171    237.6680   1.2942450851e+02   1.2270437256e+01    0.1417398   0.08898935  68.55 0.0004702996    1.688    0.408
         4 -10.4625    144.8544    232.5372   1.1749765099e+02   4.5321965768e+00    0.2617989    0.1858104 -77.68  0.001311435    1.911    0.477
         5 -10.7657     84.2342    226.9860   1.2985277433e+02   1.5817249902e+01    0.1752884    0.1072392 -67.77 0.0008877668    1.657    0.396
         6 -10.2284    190.3503    226.6759   1.0690800376e+02  -2.2418028274e+00    0.1324604    0.1075929  71.04 0.0007048591    1.752    0.429
         7 -10.5978    162.8145    225.0774   1.1242744809e+02   2.8357045561e+00     0.263985    0.1980701 -22.41  0.001371186    1.618    0.382
         8 -10.4093    182.7972    222.8219   1.0779629862e+02  -2.4398789294e-01    0.1854808    0.1654157  65.62  0.001073415    1.357    0.263
         9 -10.5356    148.6091    222.3519   1.1505881529e+02   5.9063901821e+00     0.264494    0.1391013 -56.80  0.001140697    2.194    0.544
        10  -9.8017    174.3085    222.6491   1.0955561226e+02   1.2731923528e+00    0.1371503     0.110072  76.64 0.0004419613    1.714    0.416
        11 -10.8055    193.4994    221.0247   1.0525687909e+02  -1.7565184050e+00    0.2024513    0.1328712 -42.96 0.0009460542    1.590    0.371
        12 -10.5017     74.3452    219.6669   1.3110969227e+02   1.8941425889e+01    0.1480634   0.08908611  68.95 0.0007049879    1.763    0.433
        13 -11.4398    204.8182    217.8114   1.0237407653e+02  -3.0907514684e+00    0.1740513    0.1669261  82.42 0.0006414293    1.347    0.258
        14 -10.4081    112.1286    216.5688   1.2228674480e+02   1.3574920475e+01    0.2288048    0.1673976 -56.15 0.0007331782    1.445    0.308
        15 -10.3999    143.7272    216.0239   1.1509016025e+02   8.0934858580e+00    0.1983251    0.1892949 -60.30 0.0009620343    1.118    0.105
        16 -11.1688    199.0402    215.0134   1.0302696031e+02  -1.6073705729e+00    0.2042297     0.175255  84.60  0.001114364    1.673    0.402
        17 -11.4272    185.9962    214.5134   1.0563367984e+02   7.5892736821e-01    0.2746564     0.215538 -44.48  0.001001606    1.342    0.255
        18 -10.0343    154.4829    214.4977   1.1243910945e+02   6.4543812658e+00    0.1429854     0.133862  44.85 1.166378e-05    1.026    0.025
        19 -10.4857     76.3097    212.8084   1.2983426988e+02   2.0213947891e+01    0.2731695    0.1202958 -73.68  0.001077306    2.638    0.621
        20 -11.6951    218.2131    210.8971   9.8441832887e+01  -4.0823731400e+00     0.281518    0.1814447 -49.98  0.001426995    1.785    0.440
        21 -10.6447    193.0508    210.6854   1.0345423430e+02   2.3940891311e-01    0.2011775    0.1744017  24.33 0.0006550473    1.099    0.090
        22 -10.8784    177.0063    209.5488   1.0663172680e+02   3.3390341499e+00    0.2716351    0.2062678 -63.23  0.001378505    1.619    0.382
        23 -11.2408    116.1816    208.9109   1.2018759887e+02   1.4585410893e+01    0.3847859    0.2079438 -54.45  0.001692083    1.914    0.478
        24 -10.8109    206.1333    207.9049   1.0026002746e+02  -1.5193246205e+00    0.2020269    0.1956716 -78.57  0.001229831    1.281    0.219
        25 -11.6524    198.6954    204.3266   1.0108721616e+02   4.4804669249e-01    0.2761149    0.2352457 -88.58  0.001016245    1.647    0.393
        26 -12.2109    186.0815    203.6546   1.0358914603e+02   2.8499641584e+00    0.4443822    0.2828343 -51.16  0.001832773    1.710    0.415
        27 -12.7467    164.6458    200.5913   1.0766832081e+02   7.4693270080e+00    0.8763639     0.462778 -36.97  0.003565642    2.210    0.547
        28 -11.4064    162.3724    193.1667   1.0676314331e+02   9.4890089409e+00     0.474075    0.2796765 -51.53  0.001827328    1.770    0.435
        29 -11.1349    211.8692    201.1801   9.7826810537e+01  -1.2649783637e+00    0.2024309    0.1941665 -63.62 0.0008900629    1.265    0.209
        30 -10.7595    203.0347    197.4660   9.8872440673e+01   9.8605790271e-01    0.2586873    0.1997204 -57.95  0.000871123    1.545    0.353
        31 -10.4933    148.5809    196.9012   1.1061766637e+02   1.1319689091e+01    0.3502803    0.1458955 -59.88  0.001140511    3.319    0.699
        32 -11.2627    123.9177    196.8350   1.1637610102e+02   1.5958735969e+01     0.413857     0.209721 -62.66  0.001626402    2.264    0.558
        33 -10.5631    193.4913    195.5623   1.0046309443e+02   3.0911514333e+00    0.2978693    0.1387952 -44.78  0.001203368    2.140    0.533
        34 -10.6438    209.5006    195.0064   9.7089220006e+01   3.0479029125e-01    0.2174344    0.1324114 -41.92 0.0009188747    1.591    0.372
        35 -10.3291    215.5950    193.8323   9.5656749598e+01  -5.4352381610e-01    0.1992375    0.1266054 -50.76 0.0009520103    1.730    0.422
        36 -10.7901    186.3368    192.5981   1.0138702879e+02   5.0212369254e+00    0.2987441    0.1765845 -42.58  0.001337359    1.689    0.408
        37 -10.9425    224.6128    191.7994   9.3523467759e+01  -1.7169100511e+00    0.1965498    0.1216907 -49.79  0.000843376    1.747    0.428
        38 -11.8627    172.4560    190.4172   1.0397072578e+02   8.1291385959e+00    0.3890471    0.2587121 -57.30  0.001772921    1.694    0.410
        39 -10.9436    205.7669    190.9190   9.7024865485e+01   1.7566502755e+00    0.2680385    0.1889479 -45.28  0.001147166    1.415    0.293
        40 -11.3588    204.0686    184.1741   9.6007043501e+01   3.3887871777e+00    0.4455637    0.2086838 -51.42  0.001730972    2.415    0.586
        41 -10.6377    199.7560    190.7719   9.8216506455e+01   2.8834906743e+00    0.2669978     0.169568 -39.75  0.001263094    1.538    0.350
        42 -10.0773    179.4113    190.2878   1.0241932812e+02   6.8158677245e+00    0.2012801    0.1413409 -55.48 0.0009429483    1.565    0.361
        43 -10.4457    210.5163    188.9800   9.5688736633e+01   1.2739988520e+00    0.2161724    0.1331654 -44.01 0.0008889209    1.579    0.367
        44 -10.9258    138.8806    187.5197   1.1112576810e+02   1.5295584556e+01    0.4801885    0.2051662 -50.45  0.001759921    2.369    0.578
        45 -10.4402    192.5501    187.2865   9.9010290633e+01   4.9265389011e+00    0.2757958    0.1400496 -48.46  0.001128063    2.022    0.506
        46 -10.4919    128.9050    187.2897   1.1347033432e+02   1.7252274928e+01    0.3639313    0.2002725 -62.79  0.001454642    2.077    0.519
        47 -10.4384    217.5245    187.0520   9.3931175365e+01   3.9323172778e-01    0.2180998     0.129887 -41.02  0.001029376    1.583    0.368
        48 -11.2895    165.3223    185.7502   1.0463829227e+02   1.0525796238e+01    0.4297075    0.2737603 -55.02  0.001471542    1.686    0.407
        49 -10.5071    155.6834    185.3793   1.0676847033e+02   1.2504971924e+01    0.4294738    0.1411734 -51.11  0.001348462    3.199    0.687
        50 -11.2683    120.1993    183.6960   1.1492276970e+02   1.9732688877e+01    0.7141718    0.2033253 -59.47  0.001867385    4.764    0.790
        51 -10.6075    183.1930    183.5458   1.0024130608e+02   7.4950426965e+00     0.294416    0.2023591 -45.92  0.001335485    1.449    0.310
        52 -12.2605    174.2863    182.1556   1.0190491683e+02   9.5373033961e+00     0.540431    0.3488389 -43.01   0.00201216    1.553    0.356
        53  -9.9420    224.6759    183.3524   9.1825286185e+01  -1.6513378063e-01    0.1364123     0.110772 -76.38 0.0007047658    1.758    0.431
        54 -10.5742    244.1822    181.5866   8.7950365083e+01  -3.1170277822e+00    0.2567098   0.09033963 -43.49 0.0009908285    2.584    0.613
        55  -9.8824    211.3139    182.3139   9.4182941917e+01   2.4181834944e+00    0.1457424    0.1082946  -5.44 0.0007033594    1.639    0.390
        56 -11.7696    147.4588    178.3945   1.0730032671e+02   1.5716131989e+01     0.587804    0.2388779 -45.71  0.002051242    2.525    0.604
        57 -11.1943    138.0461    177.9507   1.0946773427e+02   1.7679598820e+01    0.4290439    0.2282003 -46.55  0.001713688    1.922    0.480
        58 -11.0542    192.1186    176.8423   9.6956712359e+01   7.1517022912e+00     0.375984    0.2154973 -46.50  0.001628952    1.718    0.418
        59 -10.0795    218.4970    175.9522   9.1486643790e+01   2.3401061693e+00    0.2260803    0.1312689 -43.02  0.001037373    1.612    0.379
        60 -11.6589    183.1879    174.8467   9.8441357124e+01   9.3338645910e+00    0.4084845    0.3208572 -37.96  0.001934484    1.264    0.209
        61 -11.2345     77.7746    176.1179   1.2424059313e+02   2.8826551958e+01    0.3955563    0.1503548  50.85  0.001351969    3.147    0.682
        62 -11.3175    177.3411    170.3994   9.8776626071e+01   1.1467035534e+01    0.4516587    0.2759907 -54.12  0.001926464    1.747    0.428
        63 -10.3229    134.5355    170.2724   1.0877794051e+02   2.0182418347e+01    0.3060381    0.1530972 -55.87  0.001149882    2.091    0.522
        64 -11.0365    205.9400    168.9878   9.2478483253e+01   6.0716109904e+00    0.3550315    0.2039812 -50.53  0.001308198    1.790    0.441
        65 -10.3098    198.5515    169.3513   9.4045749181e+01   7.4379934755e+00    0.2888122    0.1394546 -47.84  0.001134599    2.055    0.513
        66 -10.9162    121.1035    168.3259   1.1174229779e+02   2.3264625551e+01    0.4898266    0.2504142 -70.74  0.001602689    3.146    0.682
        67 -10.6536    167.7240    167.6724   1.0034559966e+02   1.4035032230e+01    0.4263478    0.1770775 -49.42  0.001487457    2.439    0.590
        68 -10.6218    149.2391    168.3105   1.0479564426e+02   1.7685242330e+01    0.2835103    0.2291372 -53.16   0.00111163    1.237    0.192
        69 -10.4036     55.3135    169.6646   1.2897208767e+02   3.3597425926e+01    0.1469465   0.09752814  74.73 0.0003932551    1.688    0.407
        70 -10.7595    185.2147    166.5217   9.6233932077e+01   1.0701162399e+01    0.2938828     0.207659 -45.41 0.0009535283    1.379    0.275
        71 -11.1488    192.2182    163.9012   9.4186232685e+01   9.8357666520e+00    0.5914297    0.2052672 -43.71  0.001967775    2.780    0.640
        72 -11.8900    138.6687    163.0167   1.0624214058e+02   2.1075132843e+01    0.6281878    0.2929701 -58.20  0.002193724    2.481    0.597
        73 -10.8382     79.6797    163.7897   1.2166455083e+02   3.1610987844e+01    0.4009053    0.2157778  89.84  0.001331681    3.518    0.716
        74 -11.7297    212.8849    162.4972   8.9743075642e+01   6.0331914910e+00    0.5309453    0.2068491 -49.93  0.001862338    2.768    0.639
        75 -11.6253    205.2305    161.5792   9.1038803929e+01   7.7124183587e+00    0.4596043    0.2552558 -36.16  0.001682112    1.824    0.452
        76 -10.5968    159.3314    162.5914   1.0118095214e+02   1.6917547210e+01    0.3259934    0.1911747 -45.25  0.001342096    1.696    0.410
        77 -11.0820    177.3727    158.8992   9.6274591921e+01   1.3968064059e+01    0.4806859    0.2017421 -46.49  0.001705251    2.332    0.571
        78 -10.6023    151.3570    159.4928   1.0239053265e+02   1.9290269360e+01    0.3236325     0.194334 -52.23  0.001334065    1.680    0.405
        79 -10.5160     92.4934    160.0062   1.1755818927e+02   3.0485392751e+01    0.2189013    0.1299049 -84.29 0.0008103639    2.556    0.609
        80 -11.5810    196.5485    156.3621   9.1648817006e+01   1.0534703010e+01    0.4919534    0.2832668 -45.50  0.001629238    1.659    0.397
        81 -10.6615    105.4665    158.1503   1.1374062189e+02   2.8675811962e+01     0.302633    0.1930645  72.47  0.001189553    2.277    0.561
        82 -10.2910    218.3518    156.7929   8.7492757077e+01   6.1112522444e+00    0.2141219     0.125744 -34.91 0.0009476945    1.692    0.409
        83 -10.3598    188.2256    156.5745   9.3421855517e+01   1.2206056719e+01    0.2999865    0.2021537 -44.69  0.001026979    1.430    0.301
        84 -10.8880    167.6299    155.4823   9.7695611757e+01   1.6777151729e+01    0.5080771    0.1778461 -42.48  0.001593587    2.943    0.660
        85 -11.3271    119.4295    154.8768   1.0938527776e+02   2.6856317757e+01     0.485953    0.2641685 -71.44  0.001649666    2.884    0.653
        86 -11.0855    204.9335    154.0440   8.9462639091e+01   9.3095382965e+00     0.360674    0.2067074 -36.93  0.001169458    1.742    0.426
        87 -10.2417    157.4594    154.9932   9.9942490030e+01   1.9043171917e+01    0.2512377    0.1530404 -48.63  0.001039385    1.622    0.384
        88 -10.7886     81.8234    154.5662   1.1939989051e+02   3.3584864092e+01    0.2908851    0.1862331  79.66  0.001201861    2.228    0.551
        89 -10.4795    144.4865    153.9910   1.0283958695e+02   2.2003976558e+01    0.2510195    0.1543392 -50.47  0.001038659    1.612    0.380
        90 -10.8266     67.6874    153.5522   1.2307922850e+02   3.5952698184e+01    0.2596234    0.1709839 -85.56  0.001189821    1.786    0.440
        91 -11.2568    133.0161    152.0904   1.0527944546e+02   2.4821525240e+01    0.4929069    0.2621954 -62.11   0.00179315    2.308    0.567
        92 -10.1084     98.4980    150.9810   1.1414192822e+02   3.1694897935e+01     0.217491    0.1331302 -82.16 0.0008096137    2.478    0.596
        93 -11.3694    190.1370    148.7654   9.1279673786e+01   1.3466094126e+01    0.4489878    0.3256249 -47.87  0.002101975    1.328    0.247
        94 -11.6855    200.1296    147.2489   8.8910331262e+01   1.1690638652e+01    0.5238718    0.2148812 -40.86  0.001862069    2.370    0.578
        95 -11.7417    107.2427    145.1233   1.1051486335e+02   3.1553410163e+01    0.6140805    0.3811055  83.79  0.002152717    3.028    0.670
        96 -10.9638     38.7438    146.7746   1.2990430430e+02   4.1228949949e+01    0.2864721    0.1523928 -89.98  0.001185784    2.574    0.611
        97 -11.9899    148.6700    143.1156   9.9333079160e+01   2.3644197581e+01    0.8763339    0.3839209 -56.60  0.002858163    2.792    0.642
        98 -10.7783     49.5100    155.0072   1.2826355963e+02   3.7969118057e+01     0.286661    0.1380774  63.92  0.001034046    3.400    0.706
        99 -11.5658     55.2651    144.6402   1.2495044969e+02   3.9835276060e+01    0.4303641    0.2353821 -83.19  0.001740004    2.494    0.599
       100 -10.0150    175.3942    145.2221   9.3626326475e+01   1.7383944410e+01    0.2287629    0.1435812 -54.97 0.0009518482    1.677    0.404
       101 -10.2434    208.6118    143.8129   8.6499207111e+01   1.0642694729e+01    0.2166257    0.1306999 -51.91 0.0009440992    1.658    0.397
       102 -11.8875    124.9120    142.3940   1.0517762684e+02   2.8780822061e+01    0.5589153    0.3294021 -77.96  0.001840762    3.214    0.689
       103 -11.3321     87.9018    143.3289   1.1547855841e+02   3.5398770998e+01    0.3541863    0.2158235 -72.91  0.001466392    2.002    0.501
       104 -10.4170    165.5398    142.2688   9.5152414352e+01   2.0178260988e+01    0.4008064    0.1515976 -43.19  0.001306271    2.646    0.622
       105 -10.9339    234.1190    146.9896   8.2607554109e+01   5.0186048767e+00     0.334324    0.1374643 -47.11  0.001308478    2.264    0.558
       106 -10.5724    182.1327    140.5075   9.1079053005e+01   1.6943400865e+01    0.3062752    0.2141245 -44.76  0.001396959    1.381    0.276
       107 -11.0870     68.5073    138.5210   1.2002380639e+02   3.9574221771e+01    0.2753001    0.1364047 -70.68  0.001040822    2.474    0.596
       108  -9.5855    235.3105    138.3235   8.0578401804e+01   6.4350057399e+00    0.1379003    0.1081467  -9.32 0.0007038194    1.653    0.395
       109 -10.4093    219.6304    137.0054   8.2974825581e+01   9.7577271430e+00    0.3358622    0.1281239 -42.88  0.001227333    2.387    0.581
       110 -10.8435     22.7218    137.3035   1.3291061954e+02   4.5080550283e+01    0.3585939    0.1502686 -86.24  0.001215419    4.089    0.755
       111 -10.2626    171.6901    136.5350   9.2420252239e+01   2.0091848219e+01    0.2931909    0.1400477 -45.42  0.001083319    2.039    0.510
       112  -9.8662    215.5020    147.9858   8.6122863273e+01   8.4142141942e+00    0.2145586    0.1188552 -61.61 0.0008103557    2.564    0.610
       113 -10.9833    112.8726    133.1196   1.0624143122e+02   3.3379338123e+01     0.343792    0.2306155 -72.88    0.0014255    1.936    0.484
       114 -10.6677    179.3986    132.2594   8.9732143098e+01   1.9308095210e+01    0.3708278    0.1852554 -42.47  0.001421728    1.961    0.490
       115 -12.1064    131.8417    130.1568   1.0046572442e+02   3.0222962704e+01    0.6885388    0.3238474 -57.75  0.002348769    2.592    0.614
       116 -12.5624     83.1952    129.8823   1.1392236673e+02   3.9456641430e+01    0.7895289    0.3086517 -61.77  0.002591521    3.090    0.676
       117 -11.5168    142.9777    130.5547   9.7734834953e+01   2.7747194944e+01     0.570769    0.2518179 -54.21  0.001925809    2.555    0.609
       118 -10.3503    204.5092    129.5295   8.4064072164e+01   1.4386911158e+01    0.2692709     0.130151 -52.15  0.001024078    2.163    0.538
       119 -11.2519    152.7044    127.3604   9.4579213202e+01   2.6325964861e+01    0.6591584    0.1976504 -50.15  0.001835656    3.682    0.728
       120 -12.8795     98.7659    126.3070   1.0857715336e+02   3.7646322758e+01    0.8738192    0.3853747 -60.33  0.002978316    2.786    0.641
       121 -11.1320    197.8132    135.1553   8.6635668478e+01   1.4676999528e+01    0.6016932     0.200727 -39.79  0.001903839    3.065    0.674
       122 -10.3380    212.0000    128.9254   8.2548078179e+01   1.2919458045e+01     0.247366   0.07886785 -42.37 0.0007970554    2.905    0.656
       123 -10.4870    192.9689    128.5603   8.6069014113e+01   1.7086436349e+01      0.29987    0.2108426 -29.25  0.001357197    1.630    0.386
       124 -10.6471    168.5800    128.0284   9.1077723316e+01   2.2630083797e+01    0.3714557    0.1498959 -44.54  0.001266066    2.423    0.587
       125 -11.1690     72.6637    128.2810   1.1667918414e+02   4.1472693793e+01    0.3688182    0.1808216 -68.47   0.00136294    2.639    0.621
       126 -12.3003    117.6255    124.7011   1.0290343414e+02   3.4414634168e+01     0.536172    0.3411668 -72.51  0.002083763    2.292    0.564
       127 -12.0332     58.6593    122.6388   1.1969668620e+02   4.4771657143e+01    0.7249771    0.3416721 -74.78   0.00241257    3.749    0.733
       128 -10.9102    179.7548    122.7673   8.7389932778e+01   2.1230646258e+01    0.4500663    0.2408788 -30.42  0.001645146    2.469    0.595
       129 -12.0727     42.5632    120.2757   1.2416274696e+02   4.7243080614e+01    0.8403671    0.3244437 -73.73  0.002476575    4.963    0.798
       130 -10.1898    188.4936    122.9796   8.5649293039e+01   1.9224709246e+01     0.243332    0.1455292 -44.93  0.001035455    1.602    0.376
       131 -10.7648    158.2348    120.3508   9.1539400404e+01   2.6616676504e+01    0.3823218    0.1806714 -50.71  0.001381198    2.208    0.547
       132 -10.4114    172.5120    119.7387   8.8193788815e+01   2.3504749593e+01    0.3036537    0.1513024 -39.17  0.001140155    2.079    0.519
       133 -11.6338     70.8037    119.1417   1.1520325243e+02   4.3928780522e+01    0.3822795    0.1948685 -65.44  0.001511929    2.334    0.571
       134 -12.0297    130.5203    117.8187   9.7721798604e+01   3.3298705261e+01    0.5035591    0.3132344 -70.43  0.001893062    2.435    0.589
       135 -12.4360    108.8646    112.4065   1.0221852095e+02   3.8948957217e+01     0.811362    0.3418031 -55.78  0.002723773    2.859    0.650
       136 -10.1941    185.6002    114.6792   8.4241206788e+01   2.1565998035e+01    0.3022319    0.1452271 -38.46  0.001137049    2.152    0.535
       137 -11.2736     27.7528    121.5675   1.2892994387e+02   4.8393706361e+01    0.5367502    0.2572168  82.51  0.001516549    6.743    0.852
       138 -12.5088     92.3657    109.8368   1.0636590254e+02   4.2595972874e+01    0.9694765    0.3017708 -51.46   0.00306945    3.219    0.689
       139 -12.4315     78.5521    111.0629   1.1088670066e+02   4.4627691776e+01    0.7264139    0.3486368 -65.35  0.002549465    3.101    0.677
       140 -12.2175    122.0725    111.1271   9.8225970291e+01   3.6559863005e+01    0.5489767    0.2330129 -45.99  0.001961693    2.331    0.571
       141 -10.4961    174.5378    110.2798   8.5425340339e+01   2.4989168418e+01    0.3090532    0.1441793 -46.78  0.001151536    2.114    0.527
       142 -12.3925    141.5468    117.7420   9.4889850710e+01   3.0918272108e+01     0.767902    0.3277214 -53.88  0.002534662    2.765    0.638
       143 -11.8558     65.9597    109.2616   1.1439493649e+02   4.6917482067e+01    0.4534058    0.2034881 -59.52  0.001783954    2.358    0.576
       144 -10.9478     13.9701    109.4867   1.3108004678e+02   5.2294368915e+01    0.3768471    0.1655906 -74.70  0.001660975    2.493    0.599
       145 -11.1735    133.1244    108.6909   9.4669151810e+01   3.4724460408e+01    0.2908491    0.2121649 -56.39  0.001333209    1.453    0.312
       146 -10.0207    182.5099    108.0394   8.3241496652e+01   2.3600532078e+01    0.2400184    0.1461548 -43.75  0.001035712    1.599    0.375
       147 -12.3250    139.7587    103.5356   9.1622353880e+01   3.4339165523e+01    0.5757295    0.2978868 -53.09  0.002192619    2.168    0.539
       148 -12.2688    149.9019    101.4626   8.8624294894e+01   3.2461831900e+01    0.6953034    0.1994239 -46.83  0.002002529    3.678    0.728
       149 -12.3904     44.3289     99.5189   1.1914174137e+02   5.1825010561e+01    0.8963593    0.4254003 -70.09  0.003447281    3.168    0.684
       150 -11.7785     21.5415     99.9459   1.2686055565e+02   5.3879249020e+01    0.7996393    0.3538694 -77.60  0.002970065    3.846    0.740
       151 -12.7243    128.6569    100.7222   9.3687259256e+01   3.7369415799e+01    0.5544404    0.3028248 -45.71  0.002270262    1.841    0.457
       152 -13.3139    108.6527     96.5766   9.8007517094e+01   4.2398244771e+01    0.8709437    0.5113058 -53.30  0.003728453    1.868    0.465
       153  -9.9906    189.0000    106.9241   8.1699960984e+01   2.2330103474e+01    0.2533743   0.08330156 -41.59  0.000803861    2.952    0.661
       154 -12.5280     81.6495     97.9513   1.0651689295e+02   4.7035364336e+01    0.6105835    0.2492164 -48.69  0.002344891    2.334    0.572
       155 -12.0560     94.8758     94.8878   1.0158479545e+02   4.5382838133e+01    0.6018334    0.2984599 -38.74  0.002438417    2.087    0.521
       156 -12.8563     63.2404     92.7703   1.1109931602e+02   5.0938948913e+01    0.9236397    0.3254025 -52.07  0.003466682    2.691    0.628
       157 -12.1205    138.6377     90.9527   8.8478181805e+01   3.7105246738e+01    0.4921621    0.2569334 -49.44  0.001960714    2.058    0.514
       158 -13.0990    124.7236     88.4427   9.1299179806e+01   4.0675509577e+01     0.739495    0.3337438 -39.17  0.002808174    2.308    0.567
       159 -11.2164    249.4832     91.4809   6.8717881773e+01   1.2131772887e+01    0.1333884    0.1120262 -60.28 0.0001897566    1.026    0.025
       160 -11.3554     34.5915     86.8936   1.1946741610e+02   5.5569925088e+01    0.6618385    0.1638247 -54.36  0.002401107    3.227    0.690
       161 -12.7682     86.5077     84.1264   1.0107872848e+02   4.9057266463e+01    0.7350973     0.324929 -41.68  0.002974947    2.220    0.550
       162 -12.5182    104.4986     80.8355   9.4661409645e+01   4.6329650690e+01    0.7191903    0.2923385 -41.40  0.002722882    2.487    0.598
       163 -12.6153     48.0833     81.1887   1.1318470721e+02   5.5296483483e+01    0.7189168    0.1991984 -48.11  0.002651552    3.026    0.670
       164 -11.8513    140.7867     82.4359   8.5590261018e+01   3.8213004942e+01    0.3632616    0.1988978 -44.16  0.001530587    1.880    0.468
       165 -10.7927    158.3875     82.1926   8.1575013627e+01   3.4155935998e+01    0.2214117    0.1336266 -50.93 0.0009585326    1.759    0.432
       166 -10.9606     23.7573     79.5357   1.2156275282e+02   5.8076629070e+01    0.3440756    0.1620095 -66.40  0.001555557    2.609    0.617
       167 -11.3000     24.5969     74.4025   1.1996249389e+02   5.9047004315e+01    0.6298143    0.2321085 -26.91  0.002032415    5.320    0.812
       168 -11.1388     74.0899     78.7423   1.0349777830e+02   5.2175082041e+01    0.3919347    0.1835214 -51.77  0.001628187    2.380    0.580
       169 -11.3758    160.1808    239.0981   1.1526347989e+02   6.3935818135e-01    0.2520293    0.1885763  49.65  0.001258367    1.318    0.241
       170 -11.6328    140.4827     73.9629   8.3269191132e+01   3.9781131584e+01    0.3800509    0.1456884 -38.13   0.00136449    2.737    0.635
       171 -11.5686    248.8766     73.2511   6.5110576406e+01   1.5245857895e+01    0.2183856     0.173071 -14.27 0.0009390545    2.023    0.506
       172 -12.6367     82.2980     69.1675   9.7861841867e+01   5.2586913225e+01    0.7722477    0.2509975 -37.96  0.002726232    3.247    0.692
       173 -10.8714    115.5547     71.2401   8.8688286637e+01   4.5783467212e+01    0.3451422    0.1420344 -36.12  0.001296727    2.617    0.618
       174 -11.5577    105.7473     69.7077   9.0925979247e+01   4.8079550718e+01    0.4916447    0.1838383 -35.29  0.001768437    2.972    0.664
       175 -11.9004     94.7675     68.7926   9.3853788829e+01   5.0389977723e+01    0.6965577    0.1701263 -43.86   0.00209661    4.389    0.772
       176 -10.6211    239.4642     71.4840   6.5860345477e+01   1.7448746960e+01    0.1328561    0.1110118 -68.28 0.0001204434    1.018    0.018
       177 -11.6497     50.8471     66.8460   1.0800317230e+02   5.7735418822e+01    0.6656181    0.1715182 -51.62  0.002092159    4.775    0.791
       178 -11.4696    138.5042     65.0126   8.1155394800e+01   4.1719724111e+01    0.3686912    0.1428025 -36.77  0.001366595    2.742    0.635
       179 -11.4020    121.4997     64.3431   8.5044568655e+01   4.5650297842e+01    0.4457766     0.202943 -32.51  0.001774854    2.486    0.598
       180 -10.6733    250.3299     64.3313   6.3177401126e+01   1.6347645463e+01     0.112121    0.1027879  16.28  0.000705185    1.718    0.418
       181 -11.4631    110.1765     61.5691   8.7162026631e+01   4.8514697149e+01    0.4589664    0.2382142 -27.95  0.001956422    2.291    0.564
       182 -11.2579    150.3901     79.6930   8.2629651372e+01   3.6480673102e+01    0.2925924    0.1369743 -43.99  0.001140735    2.194    0.544
       183 -10.8064    246.3143     60.3529   6.2824574630e+01   1.7765318477e+01    0.1127662    0.1030385  14.41 0.0007045879    1.733    0.423
       184 -11.6209     73.2119     56.3586   9.6682927371e+01   5.6287109854e+01    0.7670689    0.2117319 -36.74   0.00261495    3.887    0.743
       185 -11.8302    100.2158     55.7594   8.8080390942e+01   5.1451462870e+01    0.4953075    0.2318685 -26.98   0.00202193    2.655    0.623
       186 -11.5687    119.1389     79.0137   9.0049375756e+01   4.3645379935e+01    0.3583778    0.2152629 -39.90  0.001618664    1.710    0.415
       187 -10.9987    118.6436     54.0595   8.2605511464e+01   4.7855227131e+01    0.3126419    0.1309382 -35.19   0.00126124    2.556    0.609
       188 -11.1752    146.8024     66.5533   7.9756292176e+01   3.9545254392e+01    0.3952354     0.172538 -31.77  0.001485576    2.732    0.634
       189 -10.9211     53.4791     51.1338   1.0190325337e+02   6.0103855986e+01    0.4351078    0.1171714 -45.57  0.001545362    4.032    0.752
       190 -10.7462    105.5525     51.7355   8.5285950836e+01   5.0968675474e+01    0.2546503    0.1340128 -29.05  0.001152279    2.124    0.529
       191 -12.7234    128.0620     73.0934   8.6003268949e+01   4.2744969983e+01     0.630933    0.2963184 -33.86  0.002487426    2.384    0.581
       192 -11.9026     92.1139     46.8971   8.7490948016e+01   5.4336300688e+01    0.5681055    0.1860086 -32.88  0.002120027    3.361    0.702
       193 -11.3774     82.7890     42.5753   8.8827363321e+01   5.6680405869e+01    0.5686913    0.2485338 -19.38  0.002063353    3.955    0.747
       194 -10.5532    112.6767     43.9981   8.0921842525e+01   5.0547206922e+01    0.3416227      0.17801  -5.43  0.001144243    4.582    0.782
       195 -10.5342    122.3968     42.8246   7.8202009365e+01   4.8584248052e+01     0.185073    0.1295415 -12.07 0.0009551261    1.781    0.438
       196 -11.1118      4.8404     39.8428   1.1816833393e+02   6.6864562242e+01    0.2742938   0.07519814 -55.08  0.001126981    3.818    0.738
       197 -11.3075    248.4162     36.1921   5.7932799649e+01   2.0783113749e+01    0.2366121     0.117142  44.45 0.0009638201    4.413    0.773
       198 -10.8533     27.4948     29.5081   1.0448076399e+02   6.6531729481e+01    0.2524145   0.06941227 -30.63 0.0008104187    5.690    0.824
       199 -11.5388    236.6038     29.2103   5.7667644866e+01   2.4140000496e+01    0.1525822    0.1135407 -34.32 0.0009477606    1.680    0.405
       200 -10.6989    250.3323     25.3291   5.5746813104e+01   2.1811378827e+01    0.1034285   0.08985753  51.84 -0.0002827635    1.719    0.418
