#   1 NUMBER                 Running object number                                     
#   2 MAG_AUTO               Kron-like elliptical aperture magnitude                    [mag]
#   3 X_IMAGE                Object position along x                                    [pixel]
#   4 Y_IMAGE                Object position along y                                    [pixel]
#   5 X_WORLD                Barycenter position along world x axis                     [deg]
#   6 Y_WORLD                Barycenter position along world y axis                     [deg]
#   7 A_WORLD                Profile RMS along major axis (world units)                 [deg]
#   8 B_WORLD                Profile RMS along minor axis (world units)                 [deg]
#   9 THETA_WORLD            Position angle (CCW/world-x)                               [deg]
#  10 FWHM_WORLD             FWHM assuming a gaussian core                              [deg]
#  11 ELONGATION             A_IMAGE/B_IMAGE                                           
#  12 ELLIPTICITY            1 - B_IMAGE/A_IMAGE                                       
         1 -11.5846     77.0101     40.4459   3.1541518445e+01   5.8598987982e+01    0.4527681    0.1973017 -33.96  0.001859828    2.665    0.625
         2 -14.1179    248.9117     15.0950   3.2434526477e+00   2.6350837113e+01     1.096023    0.4688559 -66.38   0.00721452    2.025    0.506
         3 -13.5230    245.3155      1.8253   1.1439424781e+00   2.8191870451e+01     0.643536    0.2926766  69.10  0.004448556    2.581    0.612
         4 -11.3463     69.5539     18.9796   2.5023770281e+01   6.3062669877e+01    0.3009959    0.1984392  25.09  0.001548721    1.955    0.489
         5 -11.8140    226.0309      4.2935   2.3081481879e+00   3.1046598621e+01    0.1859652    0.1055886 -49.47 0.0003475781    1.290    0.225
         6  -9.7110     80.6608      1.6811   1.4873613198e+01   6.2085763150e+01     0.133291   0.07891615  45.01 0.0007049504    1.710    0.415
         7 -11.4734     84.2892    240.6953   7.2821616140e+01   1.2842975897e+01    0.3405745    0.2769068 -81.80  0.002079269    1.623    0.384
         8 -10.9122    248.4135    250.0136   4.1618636097e+01  -4.0575123256e+00    0.1880222    0.1009153  -3.57  0.001364086    1.625    0.385
         9  -9.8886    232.6723    250.6855   4.4045839306e+01  -3.0229825631e+00     0.108858   0.05524518 -14.62 0.0007043983    1.672    0.402
        10 -10.5348     90.6645    249.0407   7.2138814245e+01   1.0564985364e+01    0.2461509    0.1659357 -82.77  0.001338727    2.284    0.562
        11 -10.7344     77.2910    248.5504   7.5316908411e+01   1.2037668629e+01    0.2741777    0.1736292 -80.44  0.001464856    2.260    0.558
        12 -11.1025     74.4232    243.7467   7.5564347988e+01   1.3272505023e+01    0.2560542    0.1376257 -76.76  0.001218675    2.672    0.626
        13 -11.6128    248.6723    237.8943   3.9914427620e+01  -2.5949454287e+00    0.2654367    0.1068102 -23.82  0.001383638    2.187    0.543
        14 -12.4158    243.6795    235.4675   4.0289352112e+01  -1.9209964379e+00    0.3330274    0.1218599 -23.46  0.001711604    2.887    0.654
        15 -11.4173     65.3895    234.5484   7.6968365817e+01   1.6083920469e+01    0.4177815    0.2404512  81.64  0.001909608    2.739    0.635
        16 -11.3244     81.4947    233.1750   7.2724906662e+01   1.4656913234e+01    0.4095533    0.1398217 -64.71  0.001562046    3.628    0.724
        17 -10.7667     96.7462    236.6194   6.9312865925e+01   1.2297980140e+01    0.2829025    0.2059888  82.95  0.001522821    2.166    0.538
        18 -10.1799     59.4952    228.0122   7.7886961134e+01   1.8089166425e+01    0.1867891    0.1350786 -67.97 0.0009282859    1.596    0.373
        19 -11.4139     88.7461    225.2640   6.9989875506e+01   1.5487564463e+01      0.27805    0.2024612 -70.40  0.001523416    1.728    0.421
        20 -10.0497    240.4507    225.5179   3.9333868022e+01  -3.8384738520e-01    0.1061961   0.07176632 -19.48 -1.936744e-05    1.027    0.026
        21 -12.0649     74.8528    229.0009   7.3979997870e+01   1.6247515283e+01    0.5838439    0.1793573 -59.48  0.002233382    3.362    0.703
        22 -10.6993    101.1074    222.0142   6.6456093419e+01   1.4732130293e+01    0.3227518    0.1905366 -76.88   0.00143771    2.796    0.642
        23 -10.3709     45.0000    222.9984   8.1299407283e+01   2.0658793201e+01    0.2041872   0.07782145 -71.40  0.000807138    2.975    0.664
        24 -10.2519     71.0000    221.9899   7.4245424472e+01   1.8175555222e+01    0.2046535   0.07930322 -64.90 0.0008030192    2.946    0.661
        25 -10.4791     64.3757    222.1744   7.6027196501e+01   1.8854234046e+01    0.1781383    0.1313741 -89.59 0.0009524857    1.703    0.413
        26 -11.0693     88.8481    218.1810   6.9109352447e+01   1.6973453782e+01    0.3562369    0.2389913 -73.16  0.001808298    1.946    0.486
        27 -10.3818     96.8735    229.3711   6.8428793056e+01   1.3723325095e+01    0.2108904    0.1906995 -80.58   0.00131578    1.424    0.298
        28 -10.1310    249.6713    216.3227   3.6686788832e+01   8.0610196333e-02    0.0871909   0.07330021 -39.14 0.0007049172    1.694    0.410
        29 -11.4971     69.1103    214.9713   7.3990044969e+01   1.9943246257e+01    0.3722234    0.1403493 -50.47   0.00146022    2.766    0.638
        30 -10.5238    244.4886    214.9703   3.7209062868e+01   6.8297013593e-01    0.1622456   0.07624545 -36.23  0.001036893    1.604    0.376
        31 -11.3510     58.8354    212.9905   7.6595896678e+01   2.1522320264e+01    0.4605072    0.1233446 -56.16  0.001601794    3.511    0.715
        32 -11.2977     81.7456    210.3879   7.0027198329e+01   1.9516894125e+01    0.5240771    0.2564612 -68.81  0.002193777    2.602    0.616
        33 -10.4216     96.4681    211.1488   6.6217958021e+01   1.7574681124e+01     0.318643    0.1440704 -62.08  0.001310566    2.643    0.622
        34 -10.7670     90.1295    207.1642   6.7358795221e+01   1.9223351819e+01     0.364033    0.2067221 -68.73  0.001632881    2.249    0.555
        35 -10.4580     74.3892    206.9874   7.1618602686e+01   2.1155418884e+01    0.3020788    0.1372078 -62.98  0.001250286    2.423    0.587
        36 -10.3480    105.8969    203.7477   6.2734445103e+01   1.7991895758e+01    0.4565737    0.1029626 -50.10  0.001443268    4.008    0.750
        37 -10.8631     62.2269    203.3403   7.4602556109e+01   2.3406316505e+01    0.2823779     0.204761 -89.72  0.001429179    1.696    0.410
        38 -10.7029     84.3007    199.3871   6.7898634520e+01   2.1704640834e+01    0.3719341    0.1763041 -64.71  0.001511696    2.477    0.596
        39 -10.7786     95.1744    195.8518   6.4417130108e+01   2.1124391297e+01    0.4952334       0.1542 -49.67   0.00172406    3.115    0.679
        40 -10.0124     64.5054    197.4829   7.3264000765e+01   2.4545642753e+01    0.1440757    0.1315785  25.21  8.11321e-05    1.019    0.018
        41 -11.4191     72.3444    191.7535   7.0263874178e+01   2.4990166395e+01    0.4994592    0.2429555 -53.31   0.00209642    2.087    0.521
        42 -11.0799     83.0719    190.2895   6.6974361067e+01   2.3986965007e+01    0.4572334    0.1993304 -56.03  0.001817883    2.326    0.570
        43 -10.3152     92.0115    187.7957   6.4084074598e+01   2.3396103891e+01    0.2041196    0.1656952  82.36  0.001042077    1.605    0.377
        44 -11.1085    103.4946    183.7085   6.0277847158e+01   2.2764202980e+01    0.4987155    0.2104895 -46.77  0.001939629    2.369    0.578
        45 -10.8866     61.5216    184.9944   7.2590899369e+01   2.7963244706e+01    0.2216305    0.1464541 -65.49  0.001041122    1.617    0.382
        46 -10.8422     78.8307    182.4034   6.7053757323e+01   2.6434412323e+01    0.4270024    0.2077478 -57.93  0.001746205    2.110    0.526
        47 -10.6333     70.1525    182.5145   6.9651027555e+01   2.7523838558e+01    0.2942932    0.2012402  85.95  0.001324997    1.970    0.492
        48 -10.3921     93.3647    175.0007   6.1664080904e+01   2.6228721342e+01    0.3339844    0.1408428 -57.31  0.001246111    2.469    0.595
        49 -11.4804     84.6842    173.9406   6.4016909691e+01   2.7708303080e+01    0.4949312    0.2334155 -55.27  0.001971593    2.132    0.531
        50 -11.5700     66.4427    174.1968   6.9599334102e+01   3.0081177995e+01    0.4039497    0.2659083 -77.70  0.001816974    1.822    0.451
        51  -9.9517     54.3360    174.6750   7.3477865718e+01   3.1438525055e+01    0.1609196    0.1048045  55.19 0.0007051313    1.718    0.418
        52 -11.4070     62.7731    166.4236   6.9612774237e+01   3.2542221236e+01    0.3984683    0.2283494 -59.31  0.001712804    1.766    0.434
        53 -10.5767     92.6863    166.5312   6.0413325934e+01   2.8360424700e+01    0.3003233    0.1939865 -60.02  0.001357895    1.665    0.400
        54 -10.3059     77.9907    166.3036   6.4791658549e+01   3.0533225937e+01    0.3062564    0.1707953 -75.57  0.001173815    2.476    0.596
        55 -11.7957     85.7047    162.0781   6.1709586406e+01   3.0479073280e+01    0.5574504     0.283548 -61.65  0.002203761    2.156    0.536
        56 -11.2153     74.4424    160.7642   6.4976948568e+01   3.2429710442e+01    0.3746178    0.1412359 -57.72  0.001302468    2.615    0.618
        57 -11.2966     88.0905    153.2388   5.9370034224e+01   3.2303896049e+01     0.535387    0.2637567 -59.35  0.002072978    2.170    0.539
        58 -10.9108     95.2201    149.7643   5.6543682313e+01   3.2029550356e+01    0.3748969    0.1898679 -61.96  0.001425695    2.311    0.567
        59 -10.6456     82.6434    144.9713   5.9482531764e+01   3.5207066505e+01    0.3875504    0.1914188 -57.12   0.00149852    2.073    0.518
        60 -11.1529     95.4565    141.7266   5.4846201330e+01   3.3931818190e+01     0.464047    0.1541335 -55.85  0.001457135    3.194    0.687
        61 -12.1137     76.4554    137.3298   5.9979625972e+01   3.8101760198e+01    0.6928764    0.3099629 -66.13  0.002342191    2.883    0.653
        62 -10.4081     85.0049    137.9656   5.7312371146e+01   3.6575452917e+01    0.3462133    0.1774323 -48.72  0.001363627    1.948    0.487
        63 -10.3513     69.2943    135.9399   6.2137246816e+01   3.9557219998e+01    0.2083782    0.1873877 -46.24 0.0003344317    1.123    0.110
        64 -12.0762     93.3549    126.7602   5.2233417292e+01   3.7880169494e+01     0.793784    0.3035833 -56.57  0.002626094    2.916    0.657
        65 -10.8763     53.4770    130.9209   6.6861180584e+01   4.3132527790e+01    0.2291203    0.1528272 -63.37 0.0006425399    1.540    0.351
        66 -12.5390    246.8456    128.2849   2.2988803935e+01   1.2588660840e+01    0.3266521    0.1652832 -52.86  0.001354575    2.066    0.516
        67 -12.2471     66.7301    119.9890   5.9687722944e+01   4.4035498220e+01      1.13151    0.3866872 -64.32  0.003162188    4.163    0.760
        68 -11.9717     82.7597    120.0327   5.4089904145e+01   4.1356115152e+01    0.3578793    0.2749951 -16.94  0.001223034    1.570    0.363
        69 -10.9173     75.4607    121.5520   5.6927987724e+01   4.2226771034e+01    0.2723534     0.232564  17.40 0.0005636055    1.195    0.163
        70 -11.6362     78.2792    119.4178   5.5462962061e+01   4.2278380256e+01    0.7233285    0.3368658 -68.09  0.002286022    3.451    0.710
        71 -12.3508    249.2507    117.4155   2.0876759734e+01   1.3811154663e+01     0.338881    0.1167386 -34.96  0.001657847    2.597    0.615
        72 -12.2801     87.5537    109.4929   4.9934766650e+01   4.2991526448e+01    0.9753919     0.298935 -51.40   0.00300262    3.327    0.699
        73 -11.6510    103.2078    107.1907   4.4512275222e+01   4.0512755389e+01     0.706648    0.2590646 -53.09  0.002315684    3.081    0.675
        74 -12.7617     75.0598     91.8177   4.9497003340e+01   4.9360389871e+01     1.049977    0.4372019 -45.97  0.003811807    2.494    0.599
        75 -12.6086     59.3017     79.2691   5.1903741155e+01   5.5029865060e+01     1.071988    0.2313554 -47.11  0.002900392    4.704    0.787
        76 -12.3841    246.9411    101.9616   1.8439428781e+01   1.6227833531e+01    0.2120265    0.1231322 -48.27   0.00120369    1.350    0.259
        77 -10.8401     97.6159     84.5393   3.9965113537e+01   4.6390293584e+01    0.4348684    0.2262825 -33.26  0.001679979    2.484    0.597
        78 -10.1547     81.9782     85.3106   4.5172482819e+01   4.9437616979e+01    0.2152101    0.1976496  32.77  0.001161796    1.067    0.063
        79 -12.0284     72.8139    108.9718   5.4873167733e+01   4.5761585065e+01    0.7253783    0.2633278 -51.30  0.002441522    2.728    0.633
        80 -11.9084     58.4662     90.5088   5.5541449612e+01   5.2613056844e+01    0.4491932    0.2542655 -70.77  0.001534083    2.640    0.621
        81 -10.0622    176.1954     76.6202   2.1567879889e+01   3.1359545769e+01    0.1656216    0.1141405  51.00 0.0009455514    1.667    0.400
        82 -11.6434     72.5910     69.4595   4.3531646620e+01   5.4555226964e+01     0.941857    0.4129014 -37.39  0.003473028    2.776    0.640
        83 -11.0393     90.5984     69.4668   3.7483153902e+01   5.0780079063e+01    0.5463704    0.1414341 -42.87  0.001638222    4.077    0.755
        84 -12.3161     58.4261     66.2335   4.8034674037e+01   5.7948426387e+01    0.6754108    0.2674544 -50.54  0.002474261    2.810    0.644
        85 -10.3997     45.0061     67.5355   5.4526378317e+01   6.0013997244e+01    0.2239558    0.1352257  33.03 0.0006272064    1.556    0.357
        86 -12.0456     84.4491     54.7660   3.4465155209e+01   5.4702717243e+01    0.5852797    0.5296024 -16.00  0.002441199    1.267    0.211
        87 -10.0584    159.1436     54.8358   1.8754661224e+01   3.7982337303e+01    0.1482659     0.147147 -82.92 0.0003571494    1.245    0.197
        88 -11.2344     69.6285     50.9103   3.8058776133e+01   5.8562839616e+01    0.5440489    0.1926957 -40.24  0.001975148    3.119    0.679
        89 -10.6317    225.8111     52.3415   1.1268137828e+01   2.5834026808e+01    0.2124977   0.06169355 -39.13  0.001015566    2.594    0.614
        90 -10.4234    249.9860     50.4629   9.2329420558e+00   2.2343115768e+01    0.1265222   0.09092063  88.43 0.0006474649    1.544    0.352
        91 -11.4095     88.4885     44.5175   2.9634490273e+01   5.5398431879e+01    0.3631477    0.1460726 -31.22    0.0013632    3.160    0.684
        92 -11.7740    238.4833     42.4578   8.5571369538e+00   2.4998088187e+01    0.1838021    0.1336033 -54.67  0.000612358    1.017    0.017
        93 -11.9281    243.2985    244.7047   4.1633561445e+01  -3.0510270190e+00     0.265707    0.1164732 -24.89  0.001513915    1.802    0.445
        94 -10.3968     42.8006     39.4082   4.4850877295e+01   6.5842844108e+01    0.2021107    0.1177125  31.68 0.0009497437    1.668    0.401
        95 -10.4508    122.1151     36.6906   1.9518220039e+01   4.8641871714e+01    0.2099974    0.1680703 -58.18 0.0008204734    1.245    0.197
        96 -10.7017     85.3241     35.4978   2.7197804466e+01   5.7395451322e+01    0.2316764    0.1280459 -34.44  0.001095871    2.034    0.508
        97 -10.0618     91.6385     34.6637   2.5232368116e+01   5.6037394321e+01     0.143129   0.09666883  33.40 0.0007036926    1.819    0.450
        98 -10.1018     28.1075     42.5078   5.4240173126e+01   6.7729382950e+01    0.2036218    0.1230715  29.45 0.0005940782    1.507    0.337
        99 -11.3553     63.3235     40.6259   3.6377744510e+01   6.1565596512e+01    0.3096317    0.2620356 -34.97  0.001740306    1.319    0.242
       100 -11.3551    249.9801    243.8555   4.0554629824e+01  -3.4214583332e+00     0.245282     0.090626 -30.65  0.001495467    2.014    0.503
       101 -10.1168    224.6902    245.6871   4.4599884474e+01  -1.7798678375e+00    0.1103455   0.05801326 -14.96 0.0007028487    1.628    0.386
       102 -11.6344     62.8651    242.8155   7.8355285977e+01   1.4636429185e+01    0.3379303    0.2476235  70.69  0.001954204    1.706    0.414
       103  -9.7089     35.4597     12.4630   3.5136739563e+01   7.1177344084e+01    0.1291091    0.1080876  38.20 9.563512e-05    1.023    0.023
       104 -10.1587     91.8643    241.8537   7.1088742226e+01   1.1808518236e+01    0.1798586    0.1404094  41.76  0.001080763    1.362    0.266
