#   1 NUMBER                 Running object number                                     
#   2 MAG_AUTO               Kron-like elliptical aperture magnitude                    [mag]
#   3 X_IMAGE                Object position along x                                    [pixel]
#   4 Y_IMAGE                Object position along y                                    [pixel]
#   5 X_WORLD                Barycenter position along world x axis                     [deg]
#   6 Y_WORLD                Barycenter position along world y axis                     [deg]
#   7 A_WORLD                Profile RMS along major axis (world units)                 [deg]
#   8 B_WORLD                Profile RMS along minor axis (world units)                 [deg]
#   9 THETA_WORLD            Position angle (CCW/world-x)                               [deg]
#  10 FWHM_WORLD             FWHM assuming a gaussian core                              [deg]
#  11 ELONGATION             A_IMAGE/B_IMAGE                                           
#  12 ELLIPTICITY            1 - B_IMAGE/A_IMAGE                                       
         1 -12.8264    160.9395     54.0390   4.6179085795e+01   3.7761805856e+01     1.640648      1.30545  24.93  0.008834708    1.678    0.404
         2  -7.9598    120.2148      8.5978   3.9965346141e+01   5.2661891900e+01    0.1852719   0.09450397  56.50 0.0003243001    1.608    0.378
         3  -8.5779    192.3690      2.7886   2.9594015043e+01   3.6684406449e+01    0.1435863    0.1138972 -21.05 0.0009553203    1.723    0.419
         4  -9.8673    188.7414    245.9554   8.2379784084e+01  -4.1876273240e+00    0.2218926     0.148647  38.90  0.001279802    1.587    0.370
         5 -14.2817    118.1318    221.3855   9.3997101969e+01   1.0983340244e+01     1.507255    0.7179041 -42.76  0.005193118    2.500    0.600
         6 -15.3418    100.4567    200.8314   9.5217918686e+01   1.8381527921e+01     2.682456    0.9459268 -68.34   0.00745178    5.077    0.803
         7 -14.8815     71.2509    183.9247   1.0026861682e+02   2.6926606244e+01     1.164939    0.5207338  43.46  0.003971725    2.182    0.542
         8 -15.1625     82.3040    184.8945   9.7468433396e+01   2.5064286171e+01     1.217508    0.7756305 -10.22  0.004460826    2.881    0.653
         9 -19.1690     69.0788    216.4993   1.0499379301e+02   1.9354692154e+01     5.244473     4.698345  63.31     0.029766    1.013    0.013
        10  -9.1548    144.4501    186.4747   8.1859594018e+01   1.4218976263e+01    0.3297832    0.2237835 -36.23 0.0009505807    1.566    0.361
        11  -9.7338    140.0941    185.9780   8.2817272812e+01   1.5105430011e+01    0.4571514    0.3443426  35.03  0.001782471    1.304    0.233
        12  -9.3311      4.5631    195.8078   1.1831930971e+02   3.1474020182e+01    0.3342958     0.185295 -81.31  0.001191695    1.539    0.350
        13 -10.6323    192.9967    232.0410   7.9283363126e+01  -2.5071904633e+00    0.4445582    0.3435855 -81.60  0.002297943    2.716    0.632
        14  -8.5852    165.6050    233.8426   8.5257481435e+01   1.1700358802e+00     0.252531    0.1786573  35.88  0.001110503    1.337    0.252
        15  -8.9969    143.5853    233.4903   8.9992404491e+01   4.5771707876e+00    0.2258205    0.2214032  56.86 0.0009562316    1.182    0.154
        16  -9.1366    164.6292    181.2943   7.6142329142e+01   1.1736931592e+01    0.3401253    0.2741024   9.39  0.001743881    1.348    0.258
        17  -9.2597    166.9168    175.4092   7.4446133912e+01   1.2580412848e+01    0.4460982    0.1932851 -44.70  0.001238287    2.243    0.554
        18 -12.3243    235.7075    166.8604   5.9300839267e+01   2.5638276214e+00     1.266152     1.055634 -36.81  0.007969861    1.096    0.088
        19 -11.4790    245.4711    165.5527   5.7478356505e+01   1.3375978326e+00    0.9509051    0.3411789 -44.25    0.0040054    2.432    0.589
        20  -9.4258    155.3872    167.2912   7.5432828698e+01   1.6497743821e+01    0.2719881    0.2501639 -73.60 0.0004806728    1.217    0.179
        21  -9.0806    142.6238    230.2045   8.9711421650e+01   5.3569841851e+00    0.2519353    0.2358806   8.07  0.000679682    1.064    0.061
        22  -9.3331    142.9898    161.9887   7.7311913369e+01   2.0065408590e+01    0.2325105    0.2248661 -19.75 0.0003888717    1.022    0.021
        23 -10.5043    137.8848    158.0372   7.7745871646e+01   2.1967639909e+01    0.5831799    0.3936618  85.87  0.002208827    2.639    0.621
        24  -9.1466      4.0630    231.0834   1.2053841662e+02   2.3523069286e+01    0.6029645    0.1687715  65.98  0.002079109    4.687    0.787
        25  -8.9351    201.9222    231.1842   7.7367690458e+01  -3.6079772891e+00    0.2085782    0.1658907 -25.25  0.000461915    1.198    0.165
        26  -9.9484    148.6340    157.0225   7.4863786548e+01   2.0114029650e+01     0.499059     0.341075  69.24  0.001998018    2.169    0.539
        27  -9.9079    158.0414    157.1777   7.2655945036e+01   1.8243146517e+01    0.4502254    0.3494206  78.26  0.001130169    1.778    0.438
        28  -8.4777    154.4090    152.1843   7.2416074466e+01   2.0074157331e+01     0.248143    0.2150322 -81.93 0.0005866049    1.363    0.266
        29  -9.4323    163.9106    226.8693   8.4504436603e+01   2.7003502529e+00    0.3484746    0.1773019  46.52  0.001285278    2.283    0.562
        30 -16.4490     93.4099    227.2285   1.0055643412e+02   1.3496542252e+01     1.211938     0.710937 -54.92  0.006021375    1.844    0.458
        31  -9.7881    149.4370    147.3890   7.2536172367e+01   2.2149714098e+01    0.5890369    0.2932245 -61.76  0.001951979    3.003    0.667
        32  -9.2046     21.9983    145.9031   1.0901807819e+02   4.2474694832e+01     0.357048     0.262763 -39.28  0.001606056    1.480    0.324
        33 -10.4169      2.5603    150.6239   1.1518643330e+02   4.2757780651e+01    0.4588872     0.271477 -78.48  0.001742733    1.418    0.295
        34  -9.3773     10.0048    152.2111   1.1324563822e+02   4.1827673203e+01    0.2436537     0.166197 -74.19 0.0007448079    1.233    0.189
        35  -8.9158    212.6817    242.6128   7.7180306733e+01  -6.8218207098e+00    0.2432027    0.1223121 -27.67 0.0007743522    2.009    0.502
        36  -8.8279    161.9749    140.2512   6.7956065930e+01   2.1197729676e+01    0.3450651    0.2020159 -37.37  0.001260008    1.761    0.432
        37 -10.6332    163.7923    205.4774   8.0883652021e+01   6.8602908440e+00    0.5664555    0.3443905 -46.16  0.002708853    1.686    0.407
        38 -10.8058     26.4992    139.1381   1.0673283159e+02   4.3821430208e+01    0.5623564     0.383784  34.87  0.001761624    1.603    0.376
        39  -9.6677    157.6550    134.5430   6.7619499798e+01   2.3338724134e+01    0.3104772    0.2515818 -74.98 0.0004643617    1.470    0.320
        40  -9.2449    153.0980    130.7958   6.7796057580e+01   2.5115577360e+01    0.3774946    0.2568938 -87.84  0.001450671    2.523    0.604
        41  -9.8363      3.2714    131.6820   1.1299488980e+02   4.7487482090e+01    0.4751793    0.2785805 -52.61  0.001829545    1.521    0.342
        42 -10.1733     40.5103    122.3811   9.9413672826e+01   4.6742613934e+01    0.5135381    0.2152236 -72.51  0.001357611    2.882    0.653
        43 -11.4955     46.2971    118.2286   9.6620106446e+01   4.7143941240e+01    0.8823282    0.3511014 -48.85  0.003403891    2.265    0.559
        44 -11.3453     48.1555    130.0194   9.8285670422e+01   4.3916995712e+01    0.8253021    0.5724733  28.35     0.004134    1.565    0.361
        45  -7.6145     14.2677    133.3686   1.0977435101e+02   4.6314031624e+01    0.1436391   0.08211879 -47.73 0.0006992686    1.661    0.398
        46 -10.3482     35.0364    135.9955   1.0356822351e+02   4.3814685184e+01    0.5543597    0.3637325 -52.61  0.002806914    1.389    0.280
        47  -9.7542     48.3592    125.0873   9.7280525955e+01   4.5158408412e+01    0.3560552    0.2652884  16.65  0.001825481    1.521    0.343
        48 -10.1959    204.1890    200.8189   7.1549155172e+01   1.2962586025e+00     0.387317    0.2337504 -27.94  0.001938225    1.645    0.392
        49  -9.9689     31.2349    122.1115   1.0251656903e+02   4.7754261980e+01    0.5496236    0.2734346 -12.34  0.001999676    3.630    0.725
        50  -9.8635     34.9877    117.0310   1.0030889462e+02   4.8674573001e+01    0.3620519    0.2644797  -3.63  0.001663522    1.631    0.387
        51  -9.4640    205.5655    244.4263   7.8831880737e+01  -6.1843946226e+00    0.1937695    0.1790455  34.03 0.0007258371    1.495    0.331
        52  -8.1883    126.3218    118.2799   7.1450624972e+01   3.3564898380e+01    0.1557245    0.1251334  -0.29 0.0006992212    1.586    0.369
        53 -10.6774    168.5599    114.0003   6.0250347039e+01   2.5363929338e+01    0.4507621    0.3341008 -75.34  0.001282093    1.701    0.412
        54 -10.3496    113.1573    110.6185   7.3115972047e+01   3.8020803306e+01    0.5498913    0.3135966  60.05  0.002038321    2.452    0.592
        55 -11.3052     73.7295    107.7360   8.4749910765e+01   4.5936096241e+01    0.6217784    0.4935855 -36.24  0.003161396    1.243    0.196
        56 -11.1219     82.7154    103.4054   8.0603266700e+01   4.5456064547e+01    0.5410327    0.4553944 -24.53  0.001266048    1.231    0.188
        57  -9.5178    170.0216    243.0941   8.5763825093e+01  -1.0947639145e+00    0.3344082    0.1998023 -45.64  0.001785681    1.857    0.462
        58  -9.6222     50.2354    105.6757   9.2499876290e+01   4.9780528508e+01    0.2515261     0.196777 -51.67 0.0007468014    1.169    0.145
        59  -7.9132      1.6590    106.6950   1.1031923295e+02   5.3784083883e+01    0.1386882    0.0761613 -42.39 0.0006727038    1.681    0.405
        60 -10.1339    106.0167    104.9603   7.3686005924e+01   4.0734298794e+01    0.3700255    0.2273474  33.99   0.00140791    1.740    0.425
        61 -10.6981     54.4597    110.2835   9.2053141196e+01   4.8115555548e+01    0.6780112    0.2312487  35.66  0.002413623    2.975    0.664
        62 -11.5841     64.7565    109.0704   8.8162016525e+01   4.6987717983e+01    0.6813765    0.4996579  15.88  0.003349237    1.534    0.348
        63  -7.6570    216.3314    200.2985   6.9123796325e+01  -4.2153388681e-01    0.1360602   0.09144743  -7.20 0.0007030365    1.644    0.392
        64  -9.1311    145.8723    196.9250   8.3451714558e+01   1.1673864295e+01    0.4681149    0.2023972 -43.78  0.001445636    2.406    0.584
        65 -10.2040    144.0401    191.7980   8.2951380000e+01   1.3111550965e+01    0.6660294    0.4225325 -23.36  0.002822691    2.137    0.532
        66  -9.1018    144.8208     85.9335   5.8162071708e+01   3.6208719456e+01    0.3280551    0.2159557  59.34  0.001356079    1.573    0.364
        67 -11.2837    151.2267     70.2904   5.2454037942e+01   3.7497542909e+01    0.6472653    0.5262706 -50.54  0.003255289    1.242    0.195
        68  -9.8244    122.6548    247.1189   9.6496792823e+01   5.1419162838e+00      0.21459     0.158517  34.00 0.0002468225    1.171    0.146
        69  -9.8321    144.3673     59.7447   5.0885494126e+01   4.0807610033e+01    0.2899229    0.2528743 -68.29 0.0005816665    1.183    0.155
        70  -7.8350    222.2280     44.5906   3.5782510301e+01   2.5423022983e+01    0.1492408    0.1081753  65.26 0.0002649409    1.480    0.324
        71  -8.2986    221.8699     40.2029   3.4904453980e+01   2.6082822190e+01    0.1906613    0.1341913 -71.35 0.0005298614    1.233    0.189
        72  -8.1129    162.5914     14.1996   3.5362139855e+01   4.2279359368e+01    0.1464974    0.1245547  -8.73 0.0004898649    1.576    0.365
        73  -9.5894     21.1322    244.2466   1.1787383706e+02   1.9035577896e+01    0.3709047    0.1740128  54.02  0.002008315    1.763    0.433
