#   1 NUMBER                 Running object number                                     
#   2 MAG_AUTO               Kron-like elliptical aperture magnitude                    [mag]
#   3 X_IMAGE                Object position along x                                    [pixel]
#   4 Y_IMAGE                Object position along y                                    [pixel]
#   5 X_WORLD                Barycenter position along world x axis                     [deg]
#   6 Y_WORLD                Barycenter position along world y axis                     [deg]
#   7 A_WORLD                Profile RMS along major axis (world units)                 [deg]
#   8 B_WORLD                Profile RMS along minor axis (world units)                 [deg]
#   9 THETA_WORLD            Position angle (CCW/world-x)                               [deg]
#  10 FWHM_WORLD             FWHM assuming a gaussian core                              [deg]
#  11 ELONGATION             A_IMAGE/B_IMAGE                                           
#  12 ELLIPTICITY            1 - B_IMAGE/A_IMAGE                                       
         1 -10.7824     37.0537      9.3927   9.1187556963e+01   7.0172047232e+01    0.9528523    0.4088819 -48.86  0.002911672    2.555    0.609
         2 -10.8903     21.8464      7.8513   9.7984304257e+01   7.2115488941e+01     1.187456     0.840297  65.51  0.006413433    3.274    0.695
         3 -10.9962     23.4196     32.9010   1.0779623068e+02   6.7154168102e+01     1.350431    0.4141589 -46.32   0.00347363    2.485    0.598
         4  -9.4916      2.3983     14.4865   1.1138862570e+02   7.2362796726e+01    0.4753393    0.2046624 -71.37  0.001969503    3.202    0.688
         5 -10.4825      4.9884      4.6189   1.0574700989e+02   7.4088603346e+01    0.4765454    0.3626994 -33.10  0.001822897    1.122    0.108
         6 -10.6542      6.7152     29.7319   1.1435743105e+02   6.9007182320e+01    0.6627319    0.3525774 -60.29  0.002716787    1.389    0.280
         7 -10.0020     10.1627     18.8567   1.0899757000e+02   7.1010786979e+01    0.9178011    0.3328217 -27.08  0.003243881    5.541    0.820
         8 -10.3559     73.6906     17.5238   8.0423412663e+01   6.3323598797e+01     1.453919    0.3445251 -31.08  0.004091195    4.432    0.774
         9  -8.5585     72.0621      8.4708   7.6347978334e+01   6.4898414599e+01    0.3259375    0.1744665 -20.26   0.00101721    1.789    0.441
        10  -9.9973     69.6392     40.3962   9.2050118717e+01   6.0061561511e+01     1.087678    0.3700953 -40.34  0.003906533    2.623    0.619
        11  -9.2201     77.9678      4.2093   7.2097101263e+01   6.4313902571e+01    0.5353133    0.2825206  -9.86  0.001787781    2.096    0.523
        12 -10.7170    134.1299     30.8355   6.9450804416e+01   4.8343370740e+01    0.4513995     0.287847  -7.27  0.001939659    1.846    0.458
        13  -9.4214    101.0828     31.1919   7.8001580778e+01   5.5877418243e+01    0.7580637     0.247473 -33.25  0.002331977    2.813    0.645
        14  -9.0873    103.0134     21.2994   7.3097021711e+01   5.6934782939e+01    0.4250853    0.2115913 -27.69 0.0006953253    1.875    0.467
        15  -8.4325    104.4005     14.9970   6.9834589951e+01   5.7462473948e+01    0.4576709    0.2308281  -2.67  0.001662366    3.008    0.668
        16  -9.9110     60.7332     31.9088   9.1854769682e+01   6.3021149414e+01    0.8937718    0.3240098 -36.62   0.00286941    2.657    0.624
        17 -10.4164     51.5101     14.3941   8.7364931210e+01   6.7412717012e+01     1.266827    0.6596075  -7.46  0.004568911    4.300    0.767
        18 -10.1757     46.3238     29.7169   9.6680051800e+01   6.5398776959e+01    0.5547276    0.2990184 -61.44  0.002490971    2.632    0.620
        19  -9.8243     63.2228     21.4294   8.6162328261e+01   6.4479445993e+01    0.5519805    0.2827501 -51.98  0.001797822    2.642    0.622
        20  -9.9252     64.5593     13.3711   8.1639598060e+01   6.5528209655e+01    0.3639672    0.2553824 -15.46 0.0002488943    1.323    0.244
        21  -8.9766     40.9444     21.3339   9.5318554875e+01   6.7624578034e+01    0.3810317    0.1462496 -46.64  0.001358475    2.183    0.542
        22  -8.7550    120.2461     16.1032   6.6451309204e+01   5.3653941217e+01    0.4352934     0.246258  12.24  0.001724893    2.429    0.588
        23  -9.4105    133.6835     12.2188   6.1944520603e+01   5.0787641060e+01    0.4913214    0.1906431 -35.88  0.001527412    2.503    0.601
        24  -8.9082    131.9830      6.1840   5.9724469907e+01   5.1843692746e+01    0.3337094    0.2757336   9.57  0.001796149    1.196    0.164
        25  -8.8060    132.6975     17.3859   6.4296153868e+01   5.0447380560e+01    0.3301358    0.2913574 -20.45   0.00130076    1.103    0.093
        26  -8.9616    112.3035     15.4863   6.8055272554e+01   5.5602886336e+01    0.3639436    0.2161312 -36.71 0.0004781522    1.683    0.406
        27  -9.1433    114.2404     10.0720   6.5140149381e+01   5.5783397391e+01    0.4133319    0.2306607  29.76 0.0002770084    2.026    0.507
        28  -8.9636    115.5820      4.2031   6.2152706433e+01   5.6081614098e+01    0.3020226    0.2225418 -36.62 0.0005965107    1.430    0.301
        29  -8.7166     95.9657     16.7658   7.2978603818e+01   5.9067822500e+01    0.3160123    0.1789421 -35.87 0.0009780324    1.697    0.411
        30  -8.7617     96.6928     12.6262   7.0796780382e+01   5.9448503944e+01    0.4583479    0.2124157 -10.62  0.001685954    2.916    0.657
        31  -8.3469     97.6880      5.7131   6.7148584698e+01   6.0043491487e+01    0.3637077    0.2104386  -8.13  0.001186461    1.807    0.447
        32  -8.6660     95.7145      3.3038   6.6465297822e+01   6.0735743614e+01    0.2336167    0.1806732 -27.86 0.0004811053    1.284    0.221
        33  -9.5268     85.2949     13.1863   7.4428728986e+01   6.1739483753e+01    0.4589874    0.2811749 -52.53   0.00154621    2.336    0.572
        34  -7.7972     80.5102     12.5044   7.5607389256e+01   6.2769692365e+01    0.2464688    0.1053757 -38.81  0.001021786    2.317    0.568
        35  -8.2817     85.5225      5.9638   7.0688522787e+01   6.2597939332e+01    0.3934101    0.2097751  19.50  0.001659572    2.482    0.597
        36  -9.9806     63.7478      3.2908   7.6482050853e+01   6.7058846814e+01    0.5819423    0.2907854 -29.70  0.002880363    1.748    0.428
        37  -7.9734    141.2860     12.0270   6.0430002826e+01   4.8868629387e+01    0.3573006    0.1293819 -35.94  0.001262466    2.655    0.623
        38  -8.9273    126.7546      9.3726   6.2115768993e+01   5.2827315870e+01    0.3272961    0.2169059  32.29 0.0007503688    1.553    0.356
        39  -9.7690    125.5529      5.4131   6.0631686546e+01   5.3529794339e+01    0.6592918    0.3160029  52.92  0.002800341    1.937    0.484
        40  -8.6169    102.0609      8.1509   6.7203241647e+01   5.8801935534e+01    0.3493458    0.1864798 -26.34   0.00095555    1.744    0.427
        41  -8.2374    104.3806      2.1066   6.3701919459e+01   5.8916044683e+01    0.2869928    0.2012801  31.97    0.0010993    1.378    0.274
        42  -8.7657    110.3680      7.7661   6.4980003272e+01   5.6945436021e+01     0.279239    0.1646564 -16.70 0.0007833517    1.653    0.395
        43  -9.0633    110.3572      4.0002   6.3217552675e+01   5.7341071171e+01     0.363845    0.2964569  86.30   0.00197582    1.552    0.356
        44  -8.7706     89.0695      2.6899   6.7960339619e+01   6.2229425339e+01    0.3574508      0.26369   2.69   0.00165869    1.283    0.221
        45  -7.2978    142.5563      4.5104   5.7157052409e+01   4.9294239495e+01    0.1426611    0.1373702 -40.62 5.016869e-05    1.103    0.093
        46  -8.0329    135.9118      1.5393   5.7054909258e+01   5.1280049692e+01    0.2814514    0.1257749  60.28  0.000930156    2.069    0.517
        47  -8.9048    126.0621     83.7618   8.9906143905e+01   4.0793077150e+01    0.5559126    0.3467554  14.84  0.001981143    3.235    0.691
        48 -12.0079    234.4787    249.1616   1.0130979830e+02  -4.4619913607e+00    0.2151021    0.1427319  32.97 0.0002984055    1.111    0.100
        49 -11.5868    199.3091    248.9162   1.0651261481e+02   5.3030212504e-01     0.895811    0.2225418  43.13  0.004145205    2.963    0.663
        50 -10.0969     58.4851    124.7393   1.1674521239e+02   4.2884714226e+01    0.6068841    0.3100115  77.68  0.002238202    2.817    0.645
        51  -9.6413     41.6040    122.1508   1.2059677983e+02   4.5387865347e+01    0.5247393    0.2240043 -86.01  0.002092094    2.877    0.652
        52  -9.8485     27.3907    122.9259   1.2421295726e+02   4.6605743257e+01    0.5655233    0.2386852  72.00   0.00202015    3.140    0.681
        53  -9.0380    110.0985    107.2154   1.0020164263e+02   3.8954366087e+01    0.6386902    0.3861039  29.97  0.002531707    2.226    0.551
        54 -10.4895    108.2756     99.5544   9.8809428934e+01   4.0959613841e+01     0.856051    0.5485362  72.80  0.002623742    2.311    0.567
        55  -8.2951    158.0485    122.0222   9.2509236669e+01   2.6328617883e+01    0.2309719    0.1792116 -83.13 0.0005873716    1.707    0.414
        56  -7.4391    184.6201    118.1616   8.6124189496e+01   2.1275790598e+01    0.1906775    0.1375379 -23.85 0.0002822701    1.471    0.320
        57  -8.4176      1.3867    117.1410   1.3000546045e+02   4.9924089303e+01    0.2637858   0.08390738 -81.26  0.001035058    2.481    0.597
        58  -8.6173    245.8734    116.8470   7.5200351197e+01   8.3860022785e+00    0.1729948    0.1611822 -46.67 0.0004952601    1.319    0.242
        59  -8.8436    152.1298    116.1481   9.2391105285e+01   2.8714759619e+01    0.2965151    0.1914426 -14.05   0.00117252    2.582    0.613
        60 -10.0959     91.8802    112.8938   1.0612716190e+02   4.0832813820e+01    0.5750774    0.3735295 -88.32  0.001704047    2.027    0.507
        61  -9.0627     93.3277    103.5834   1.0371804888e+02   4.2681505417e+01     0.607587    0.3791173  16.36  0.002485788    3.066    0.674
        62 -10.2367     78.0976    112.9550   1.0971822556e+02   4.2930549014e+01    0.5327022    0.2952304 -79.78  0.001661173    2.317    0.568
        63  -7.8364     77.7852    105.8067   1.0837544834e+02   4.4601174160e+01     0.266936      0.16152 -39.95  0.001265478    2.009    0.502
        64  -6.9769    167.2940    114.6239   8.8758219222e+01   2.5726864954e+01    0.1529875    0.1166108 -73.28  0.000702345    1.741    0.426
        65 -10.3263     62.9167     95.6543   1.1041715798e+02   4.8980022856e+01     0.559916     0.320726 -88.87  0.001522398    2.531    0.605
        66  -8.6098     65.1416     85.7660   1.0757153790e+02   5.0959057688e+01    0.6461436    0.4276451 -43.55  0.003425528    1.529    0.346
        67  -9.9595     65.7698    111.0459   1.1261543096e+02   4.5070801162e+01    0.5019339    0.3325519  73.22  0.001267098    1.726    0.421
        68  -8.8333     59.0395    109.0750   1.1406647672e+02   4.6380152783e+01    0.4117178    0.2179693 -85.25  0.001546423    2.404    0.584
        69 -10.1233     66.5798    103.4287   1.1095792929e+02   4.6710416713e+01    0.7251728    0.4926861  16.33  0.003717957    2.280    0.561
        70  -8.9889    158.9037    111.3391   8.9721757559e+01   2.8184276588e+01     0.391004    0.2165488 -37.16  0.001179272    1.841    0.457
        71  -8.9854     35.2656    111.9913   1.2086529074e+02   4.8330356069e+01    0.2549987    0.2278018  29.90  0.001499563    1.479    0.324
        72  -9.9424     30.1220    110.5809   1.2203220238e+02   4.9136795784e+01    0.4419174     0.186356 -45.56   0.00195238    3.211    0.689
        73  -8.7484    149.9692    109.7861   9.1296906067e+01   3.0423124042e+01    0.2750137    0.1791665 -53.80 0.0006513198    1.646    0.392
        74 -10.9048     20.9019    100.8536   1.2325338079e+02   5.2144291067e+01     1.226851    0.4854767  88.21  0.003623871    3.522    0.716
        75 -10.4469     32.7706     64.0078   1.1297318853e+02   5.9573372408e+01     1.192101     0.472981 -34.54  0.004173714    4.762    0.790
        76  -9.9148     20.6863     84.0900   1.2090276875e+02   5.5997449958e+01    0.4883102    0.1909492 -64.09  0.002414206    1.876    0.467
        77 -10.6240     25.1889     77.9281   1.1843622869e+02   5.7054095993e+01    0.7503179    0.4504445  79.54  0.003306843    2.000    0.500
        78 -10.9650     45.0482    102.7101   1.1681178633e+02   4.9460422662e+01    0.8088884    0.3850169  74.44  0.003086659    3.801    0.737
        79  -9.3828      6.5414    103.8271   1.2748905592e+02   5.2525970525e+01    0.3923926    0.1915584  73.80  0.001821874    2.111    0.526
        80  -8.5024      1.5875    105.2275   1.2892594385e+02   5.2534686215e+01    0.3042633   0.08255544 -60.66  0.001389832    2.827    0.646
        81  -8.7467    166.0414    104.2121   8.6353564533e+01   2.7943540032e+01    0.2779143    0.2127662 -46.56 0.0005410759    1.319    0.242
        82  -9.6443    149.5488    103.2245   8.9700444423e+01   3.1805969583e+01    0.4418682    0.2835082 -55.73  0.000969319    1.744    0.427
        83  -8.8094     14.5090    104.7846   1.2547123468e+02   5.1747542741e+01    0.2211612    0.1499312 -22.69  0.000825358    2.391    0.582
        84  -9.9853     14.2393    111.4383   1.2627077192e+02   5.0272437230e+01    0.4181508    0.1983988  77.30  0.001819976    2.228    0.551
        85  -8.2934    159.1947    101.3495   8.7061832159e+01   3.0027523942e+01    0.2661207    0.2155674 -81.29 0.0005383673    1.550    0.355
        86  -8.5608    244.2447    100.4098   7.1433515363e+01   1.0958951900e+01    0.1769048    0.1409756  67.41 0.0005943606    1.593    0.372
        87  -9.6466     81.5981     99.3038   1.0593189876e+02   4.5511861763e+01    0.7345718    0.3069606 -57.33  0.001733738    2.165    0.538
        88  -9.4029     94.3724     97.2998   1.0195685063e+02   4.3912406217e+01    0.3119617    0.2303692 -65.77 0.0005966308    1.320    0.242
        89  -8.9119     95.7543     91.1616   1.0003912280e+02   4.5041969721e+01    0.5481937    0.3344947 -20.53  0.002049166    3.330    0.700
        90  -8.8383    150.0152     96.8682   8.7886970634e+01   3.2949790300e+01    0.4407485     0.237127  28.45  0.001517068    3.082    0.676
        91  -9.5145    240.7861     95.0454   7.0586154459e+01   1.2437888012e+01    0.3790803    0.1503254 -32.74  0.001478051    2.215    0.548
        92  -8.3900    170.5948     95.2750   8.2980044631e+01   2.8545405436e+01    0.2426935     0.237592 -83.65 0.0003777269    1.086    0.079
        93  -8.9763    164.5738     94.4150   8.4005954171e+01   3.0103458968e+01    0.3892653    0.2392952 -38.98  0.001687412    1.577    0.366
        94 -10.6411    165.7216    248.0437   1.1156217372e+02   5.5021115802e+00    0.3785398    0.1705764  46.18   0.00231585    1.669    0.401
        95 -10.5628      5.3023     86.2245   1.2585547331e+02   5.6567820161e+01     1.478998    0.2995068 -65.15   0.00495824    2.959    0.662
        96 -10.9917    121.2280    109.6688   9.8011049324e+01   3.6333491371e+01     1.307311     0.566509 -49.31  0.003393511    2.226    0.551
        97  -9.7141     16.0085     70.6638   1.2014180135e+02   5.9408471352e+01     0.434432    0.2020186 -63.65  0.001403272    1.574    0.365
        98  -9.7803     17.3766     61.0738   1.1781436045e+02   6.1483846024e+01    0.6863924    0.2586281 -60.66  0.003372831    1.882    0.469
        99  -7.6401     11.9960    246.7732   1.3465768954e+02   2.4940091990e+01    0.1097863   0.05422286  46.94 0.0008576699    1.586    0.370
       100 -10.8004     21.9672     53.6176   1.1442401732e+02   6.2812491459e+01    0.7973375    0.3966882 -89.19  0.002818042    3.797    0.737
       101 -10.1767     12.3512     45.6548   1.1624014474e+02   6.5248578507e+01    0.7649665    0.3993326  -1.08  0.003079927    3.039    0.671
       102  -8.1175    249.6482    237.7048   9.7517461566e+01  -5.6052754219e+00    0.1106604   0.05862709  20.70 0.0007032815    1.684    0.406
       103 -10.0111    188.2681    233.4724   1.0630202014e+02   3.7771566613e+00    0.2428487    0.1854791 -19.19  0.001048982    1.658    0.397
       104 -10.1113      4.9087     41.7582   1.1835660015e+02   6.6539427378e+01    0.5297989    0.2647735 -68.58  0.002039962    1.560    0.359
       105  -7.1511    111.6678    233.6659   1.1870617810e+02   1.5126232729e+01   0.09516875   0.07889237  22.13 0.0007052222    1.731    0.422
       106  -9.7434    138.8518     91.5641   8.9007969278e+01   3.6464605209e+01    0.7020865    0.3573981 -41.85  0.001928063    1.888    0.470
       107  -9.3055    140.6383     82.2185   8.5864515145e+01   3.7919960084e+01    0.6643886    0.3135112 -37.12  0.001638642    2.087    0.521
       108  -9.1013    139.9487     75.5107   8.3974512738e+01   3.9374132140e+01    0.4938272    0.2415989 -33.39  0.001546661    2.105    0.525
       109  -9.1786     39.9658    106.7014   1.1884657761e+02   4.9072814550e+01    0.2468658    0.1381443 -88.84 0.0006643191    1.864    0.463
       110 -10.1195     34.5763     90.8227   1.1781446608e+02   5.3259613439e+01     0.543095    0.2365911 -81.66  0.001852516    2.781    0.640
       111  -9.6971     36.7460     81.2568   1.1538316005e+02   5.5260328657e+01    0.5878354    0.3312125 -20.59  0.002607317    3.524    0.716
       112  -8.2446    149.3068     93.3137   8.7062581669e+01   3.3802056978e+01     0.261733    0.1436666 -31.88  0.001029352    1.991    0.498
       113  -8.9701    150.3810     89.0738   8.5613954234e+01   3.4380877526e+01    0.2991827    0.2290836 -42.97 0.0009332155    1.264    0.209
       114  -9.1089    157.5076     91.0468   8.4586135290e+01   3.2369256281e+01    0.3620092    0.2117503 -30.67   0.00113447    1.812    0.448
       115 -10.0658    146.5953    225.7754   1.1214781552e+02   1.1106751660e+01    0.1916072    0.1677154  46.30 0.0004708472    1.137    0.120
       116  -9.4532    111.3250     89.6451   9.5409790537e+01   4.2531670710e+01    0.6940816    0.3836226  28.24  0.002665027    2.811    0.644
       117 -10.2763     48.0099     84.6510   1.1255726116e+02   5.3310408111e+01    0.5433033    0.3417993  86.90  0.001732409    1.987    0.497
       118  -9.1203     48.8826     77.2596   1.1065220411e+02   5.4911617872e+01    0.5448489    0.1927045 -46.69  0.002160913    2.776    0.640
       119 -10.1730     85.3703     86.6397   1.0180586313e+02   4.7781141535e+01    0.4873829    0.3395474 -88.98 0.0009004939    1.957    0.489
       120  -9.5196     87.4345     78.7315   9.9063790456e+01   4.9198769749e+01    0.5581422    0.3749493  14.89  0.001642809    2.380    0.580
       121  -9.6217    226.6367     87.5329   7.0752735565e+01   1.6653735649e+01    0.2825618    0.2460953  15.50 0.0005692921    1.165    0.142
       122  -9.4870    230.9352     83.8434   6.9116689289e+01   1.6206665441e+01     0.367121    0.2493943  27.29 0.0009272085    1.698    0.411
       123  -8.3029     42.4334     76.7764   1.1262627036e+02   5.5721062465e+01    0.2797933    0.1031225 -60.41  0.001126829    2.132    0.531
       124  -7.9452    163.3916     87.2421   8.2217633131e+01   3.1706183878e+01    0.2223372    0.1375965 -46.53  0.000492731    1.647    0.393
       125  -8.0836    116.5456     84.7263   9.2646202861e+01   4.2551355383e+01    0.2691806    0.1826552 -38.53 0.0007381996    1.450    0.311
       126  -9.2190    115.3990     72.3323   8.9202916742e+01   4.5344517253e+01    0.4999579    0.2796716 -46.27  0.001363943    1.684    0.406
       127  -8.9338    118.9979     80.4670   9.0750883397e+01   4.2940552926e+01     0.358729    0.2448834 -59.87 0.0007742636    1.629    0.386
       128  -8.1911    120.0051     75.9791   8.9120454925e+01   4.3650660973e+01    0.2898088    0.2131743  31.41 0.0008763698    1.594    0.373
       129 -10.3545    104.0124     82.7072   9.5449500713e+01   4.5406284768e+01    0.5301654    0.3157707 -59.25 0.0009159204    1.812    0.448
       130  -9.6190    105.1590     71.4752   9.1756105948e+01   4.7562695336e+01    0.7276048    0.5202738 -26.59  0.003494756    1.577    0.366
       131  -8.9835    157.6065     83.6080   8.2403086730e+01   3.3741592769e+01    0.3408953    0.2438095 -43.40 0.0009382358    1.365    0.268
       132  -9.2628    157.0816     76.5312   8.0378130068e+01   3.5169158274e+01    0.5999995    0.2479852 -43.62  0.001761573    2.412    0.585
       133  -8.2258    170.5390     82.9158   7.9455249863e+01   3.0784298585e+01    0.3087286    0.1519092 -30.83  0.001151027    2.078    0.519
       134  -9.3194     74.1309     79.5668   1.0329240840e+02   5.1101744250e+01    0.5805839    0.2174116 -55.91  0.002055695    2.411    0.585
       135  -8.4386    149.8563     80.9642   8.3342192962e+01   3.6051186157e+01    0.3424605    0.2022862 -50.84  0.000485297    1.834    0.455
       136  -7.9258    150.6671     76.6852   8.1850600857e+01   3.6664311989e+01    0.2717913    0.1892665  28.21  0.001179449    1.766    0.434
       137  -8.5828    166.3300     78.8929   7.9125063331e+01   3.2516527833e+01    0.2248875    0.1900058 -28.42 0.0008718828    1.153    0.133
       138  -7.6962    236.3042     78.6321   6.6945151484e+01   1.5721307512e+01    0.1537108    0.1032954 -53.05 0.0001221505    1.746    0.427
       139  -7.9706    184.0504     77.9999   7.5337524490e+01   2.8338310563e+01     0.236692     0.225142 -18.87 0.0007090389    1.005    0.005
       140  -9.3879    127.3248     75.2703   8.7008660957e+01   4.2234476235e+01    0.4418212    0.2804316 -60.74 0.0008936286    1.976    0.494
       141  -8.9868    129.5719     69.1382   8.4481302956e+01   4.2939239846e+01    0.4823231    0.3124891  15.36   0.00186737    2.562    0.610
       142  -8.5434    130.4622     64.5233   8.2730499637e+01   4.3616373345e+01    0.3746507    0.2034091 -27.01  0.001027312    2.108    0.526
       143  -8.3342    162.9099     73.3929   7.8155918197e+01   3.4323515669e+01    0.3077023    0.1970784 -48.61 0.0005901813    1.648    0.393
       144  -9.8769     81.5396     72.3438   9.9002376917e+01   5.1562284933e+01    0.4275037    0.2824431 -68.37 0.0009509145    1.768    0.434
       145  -8.9867     83.7902     64.4688   9.5884496530e+01   5.2888194860e+01     0.524182    0.3434255 -11.73   0.00223924    2.587    0.613
       146 -10.4500     55.3951     71.0742   1.0700723979e+02   5.5551020085e+01    0.5974665    0.3378446  56.98  0.001488835    2.503    0.600
       147  -8.7714     55.2394     63.5888   1.0501716456e+02   5.7243702117e+01    0.3899069    0.2737421 -11.97    0.0014244    2.070    0.517
       148 -10.2552     62.1251     60.8043   1.0183375699e+02   5.6958625122e+01    0.7345506    0.2905665  34.98 0.0007575708    3.048    0.672
       149  -8.5653    169.4226     70.7549   7.5990619930e+01   3.3180628148e+01    0.3243505    0.1497589 -33.42 0.0006939202    2.073    0.518
       150  -8.1627    170.2144     65.3971   7.4142179092e+01   3.3887909189e+01     0.348087    0.2324096 -31.74  0.001400945    1.436    0.304
       151  -8.6394    156.7505     70.3312   7.8508832044e+01   3.6365662243e+01    0.2634201    0.2178825 -29.86 0.0005974786    1.171    0.146
       152  -9.5928    147.0216     68.5219   8.0093454939e+01   3.9030378452e+01    0.6895784    0.2818489 -41.05  0.001359924    2.326    0.570
       153  -9.7972     94.8708     68.2355   9.3708316815e+01   5.0164973708e+01    0.4500651    0.2541519 -53.18 0.0008891313    1.738    0.425
       154  -9.6216     96.7127     58.5167   8.9925272005e+01   5.1815855417e+01    0.8266953    0.4627577 -33.29  0.003582824    1.834    0.455
       155  -7.7385     23.3007     69.0085   1.1735822271e+02   5.9244265613e+01    0.1727512    0.1246196 -66.26  0.000346084    1.066    0.062
       156  -7.5068    213.2466     68.6026   6.7571185440e+01   2.2609831586e+01    0.2174437    0.1366531  47.14 0.0009610238    1.672    0.402
       157  -9.4036    138.9665     56.9965   7.8088693488e+01   4.3007733208e+01    0.4211865    0.2388663 -43.90 0.0005333109    1.751    0.429
       158  -9.3082    138.0811     66.2228   8.1432616016e+01   4.1553868457e+01    0.4213672    0.2388941 -48.82  0.000695612    1.866    0.464
       159  -8.9504    138.7711     61.9935   7.9851473383e+01   4.2165568950e+01    0.4313819    0.2509612  22.22  0.001506522    2.975    0.664
       160  -9.0895    121.2729     65.9389   8.5559556456e+01   4.5376531494e+01        0.376    0.2574556 -47.87 0.0006383968    1.429    0.300
       161  -8.3271    122.0371     61.4830   8.3851218747e+01   4.6064369300e+01    0.3293818    0.2354722  15.61   0.00105067    1.903    0.475
       162  -8.1919     75.6738     66.4851   9.9088366121e+01   5.3759956739e+01    0.2447383    0.1148283 -50.66 0.0007095395    1.855    0.461
       163  -9.3259    109.7610     63.8582   8.7979663051e+01   4.8196321974e+01    0.3678893    0.2511115 -51.68  0.000694869    1.476    0.322
       164  -9.0695    110.9094     58.2329   8.5722875903e+01   4.9057723871e+01    0.4075274     0.302473   7.94  0.001125098    1.799    0.444
       165  -8.3637    157.6650     63.1150   7.5978334518e+01   3.7402154546e+01    0.2510142    0.1810118 -48.51 0.0006931779    1.440    0.306
       166  -8.6206     39.8845     50.7008   1.0677774990e+02   6.1828033599e+01    0.2874713    0.1812174 -59.42  0.001369155    1.346    0.257
       167  -8.9162     49.4093     61.3232   1.0639945176e+02   5.8447577798e+01    0.3610544    0.2182882 -79.92 0.0009557638    2.344    0.573
       168  -8.8157     44.1217     54.1347   1.0621988460e+02   6.0626596234e+01     0.286235    0.1799395 -49.41  0.001048496    1.290    0.225
       169 -10.0458     50.0081     54.2762   1.0410029003e+02   5.9920454661e+01    0.6369028    0.3685929 -69.06  0.001409437    2.059    0.514
       170  -9.7479     56.1123     43.4113   9.8165325341e+01   6.1432933965e+01      0.86574    0.4641831 -13.99  0.002840987    5.188    0.807
       171  -8.3524    152.7100     60.5840   7.6203949361e+01   3.9057841100e+01    0.2685629    0.1757459 -51.47 0.0005454096    1.690    0.408
       172  -9.3452     88.0833     56.4609   9.1854988922e+01   5.3806698714e+01    0.7674877    0.3045513 -38.66  0.002862411    2.459    0.593
       173 -10.1121     73.3192     57.3820   9.6952775986e+01   5.6065854328e+01     1.115775    0.3449036 -43.15  0.003296531    2.983    0.665
       174  -9.0461     79.9428     46.6192   9.0907816334e+01   5.7171867368e+01    0.4355647    0.2270236 -34.20  0.001267627    1.889    0.471
       175 -10.2224     85.0885     48.0183   8.9747342906e+01   5.6006992451e+01     0.464876     0.310132 -63.48  0.001015865    2.013    0.503
       176 -10.4001     89.7188     38.3054   8.4438938332e+01   5.6958224154e+01    0.9519978    0.4309912  30.01  0.003259017    3.751    0.733
       177  -8.3427    164.5198     60.1449   7.3580971590e+01   3.6190435067e+01    0.2346841    0.1496139 -31.67  0.000759301    1.504    0.335
       178  -9.5045    146.7736     58.5827   7.6840125795e+01   4.0853778757e+01    0.5610209    0.2178361 -32.00   0.00188566    2.549    0.608
       179  -9.3490    129.7028     56.4648   8.0144557582e+01   4.5269076838e+01    0.6084365    0.3034972 -39.47  0.001441051    1.880    0.468
       180  -9.4037    118.2644     54.8708   8.2522735059e+01   4.8122571246e+01    0.5185675    0.2808591 -41.83  0.001341417    1.737    0.424
       181  -8.9312    162.6185     52.9886   7.1571919164e+01   3.7830185335e+01    0.4777181    0.2815731 -27.80   0.00198363    1.666    0.400
       182  -7.8406    152.7593     53.9949   7.3951858618e+01   4.0153032575e+01    0.2017729    0.1274165 -31.26 0.0002826407    1.519    0.342
       183  -8.7426    105.3271     53.0468   8.5441991287e+01   5.1190803403e+01    0.3345339    0.2221127 -50.14 0.0008189917    1.545    0.353
       184  -8.4003    105.9840     49.3217   8.3873024311e+01   5.1749516049e+01    0.3591758    0.2190947  18.98    0.0014085    2.655    0.623
       185  -7.9116    157.5051     48.9841   7.1224531235e+01   3.9762185893e+01    0.2356962    0.1475339 -31.99 0.0004155547    1.522    0.343
       186  -9.1665    139.4696     40.2900   7.1913943968e+01   4.5634500805e+01    0.5542021     0.221321 -39.03  0.001556102    2.396    0.583
       187  -9.0303    141.9942     48.7705   7.4472950857e+01   4.3670339253e+01    0.2869602     0.209651 -38.58 0.0004061708    1.319    0.242
       188  -9.5744    130.6331     45.9424   7.6091223216e+01   4.6868744066e+01    0.9490729    0.3328013 -26.09  0.001738657    3.649    0.726
       189  -9.4430    149.9041     47.6355   7.2330583260e+01   4.1893604703e+01    0.3420122    0.2100937 -33.65 0.0008500448    1.545    0.353
       190  -8.9239    121.1181     46.9490   7.8852789986e+01   4.8898279192e+01    0.3065845    0.2006863 -34.45 0.0004801779    1.428    0.300
       191  -7.7202    162.4852     46.4633   6.9358668815e+01   3.8875794032e+01    0.2774007    0.1271544 -40.16 0.0006112727    2.123    0.529
       192  -8.6433    111.9358     46.6917   8.1206307685e+01   5.0968853017e+01    0.2858387    0.2277736 -34.75 0.0006442642    1.162    0.139
       193  -7.7301     19.4851    218.0405   1.3246379387e+02   2.8709831248e+01    0.1329189   0.07475001 -87.90 0.0003800548    1.506    0.336
       194  -7.5092    148.2727    211.4072   1.1013202740e+02   1.2850066983e+01    0.1559842   0.09072196  50.13 0.0002907375    1.447    0.309
       195 -10.0577     10.2555    207.3351   1.3346703285e+02   3.1395143956e+01    0.3659455    0.2313848  29.92  0.002717422    2.253    0.556
       196 -10.0878     76.1274     31.9939   8.6277485012e+01   6.0534927549e+01    0.5003776    0.4062561  78.83  0.001073035    1.877    0.467
       197  -9.6561     79.7317     23.7079   8.1314821756e+01   6.1273300211e+01    0.5170282      0.30665  17.27  0.001696405    2.438    0.590
       198  -9.1951     84.6861     21.9329   7.8852484375e+01   6.0614223218e+01     0.301401    0.2490933  -8.97 0.0007884562    1.117    0.104
       199  -9.0780     39.8359     35.3445   1.0161592186e+02   6.5054987546e+01    0.3868942    0.3149044  12.37  0.002413117    1.467    0.318
       200  -9.8920     37.8021     41.9936   1.0481299375e+02   6.3903323355e+01     0.386807    0.2801912 -86.02  0.001484791    1.976    0.494
       201 -10.2136     35.9116     37.9642   1.0419972857e+02   6.4938285199e+01    0.2523549    0.1890145 -47.49  0.000347707    1.052    0.050
       202  -9.7742    153.1559     40.8242   6.9206262884e+01   4.2113936290e+01    0.4764902    0.3450008 -40.06  0.001405626    1.363    0.266
       203  -9.0063    110.3002     33.2539   7.6294047368e+01   5.3567677565e+01    0.3913186    0.2242686 -42.50  0.001007607    1.762    0.432
       204  -8.8379    105.0984     41.3593   8.1046044554e+01   5.3351900383e+01    0.4051249    0.2327931 -53.48  0.001111789    2.202    0.546
       205  -8.4230    106.1149     36.5790   7.8824760120e+01   5.3942540499e+01    0.4156344    0.2370732  29.90  0.001036647    2.267    0.559
       206  -9.1484    192.4405    195.1941   1.0011224754e+02   7.7602747782e+00    0.7632741    0.3841196 -60.96  0.002389332    7.818    0.872
       207  -9.5724    222.1434     38.8725   5.7652370930e+01   2.4454143519e+01    0.4344987    0.2780198 -23.53   0.00153572    1.481    0.325
       208  -8.1163    123.0310     40.3837   7.5844853042e+01   4.9555087707e+01    0.3517166    0.2053572  18.64  0.001288341    2.795    0.642
       209  -8.5849     53.3194     39.0679   9.7607632292e+01   6.2677108084e+01    0.3004223    0.1578154 -45.53  0.001021933    1.566    0.361
       210  -8.7079     54.7387     35.4410   9.5634687113e+01   6.3201173158e+01    0.2087021    0.1605014  10.11  0.000924175    1.547    0.354
       211  -7.8293    160.4704     39.0298   6.7128957394e+01   4.0490322658e+01    0.2469161    0.1480077 -27.47  0.001038823    1.613    0.380
       212  -8.9663    144.1350     36.5032   6.9473341635e+01   4.5037381996e+01    0.3110002     0.246652 -60.23 0.0005769989    1.464    0.317
       213  -8.7491    132.8909     36.0847   7.1793527783e+01   4.7883090052e+01    0.3108523    0.2063784 -39.16 0.0005640247    1.478    0.323
       214  -7.6653     23.5659    176.4957   1.2955765589e+02   3.5764336588e+01    0.1081153   0.07868996  79.48 7.956609e-05    1.026    0.025
       215  -8.3529     10.2627     60.6458   1.2028987195e+02   6.2050994325e+01    0.2381821    0.1180942 -78.19  0.001262777    1.819    0.450
       216  -7.9287    250.4073    175.2558   8.7014859168e+01   3.0484887901e-01     0.155695    0.1057813 -29.65 0.0006114703    1.574    0.365
       217  -9.2120    240.6208    172.0414   8.7935968433e+01   2.3238898827e+00    0.2578662    0.1631342  44.02 0.0009247151    1.558    0.358
       218  -9.2976    241.3891    167.1293   8.6857302939e+01   2.7742285748e+00    0.2876246    0.1896362  29.11 0.0002465522    1.360    0.265
       219  -8.2316    110.3803     26.7754   7.3528657212e+01   5.4527553274e+01    0.3633615    0.2085373  -5.38  0.001439407    2.402    0.584
       220  -8.9249    118.8632     34.4465   7.4536557597e+01   5.1452899682e+01    0.3562573    0.1871323 -35.64 0.0008004943    1.780    0.438
       221  -7.9274    230.4823    168.0117   8.8796086027e+01   4.5883689465e+00    0.1661958    0.1044216 -51.40 0.0007934704    2.589    0.614
       222  -9.1265     96.1166    166.2659   1.1410497106e+02   2.8830796701e+01    0.1910712    0.1714549 -84.83 0.0003907944    1.142    0.125
       223  -8.3889    162.7696    163.9510   1.0022022771e+02   1.7800228607e+01    0.2109479    0.1707359  46.14 0.0003908639    1.131    0.115
       224  -8.4105     41.9341     28.1659   9.7882734150e+01   6.6228940969e+01    0.2400964    0.1488039 -38.24  0.000338789    1.329    0.248
       225  -8.7064    241.5456    162.4316   8.5898430078e+01   3.3138235213e+00    0.2159308    0.1802261  14.55  0.000243027    1.036    0.035
       226 -10.3632    209.4569    160.1132   9.0808865761e+01   9.5151156072e+00    0.2335735    0.2167697  20.36 0.0003113137    1.103    0.093
       227  -7.2691    195.7243     31.6991   5.8886860429e+01   3.2167821533e+01    0.1506852    0.1127696  24.43 0.0002086353    1.537    0.350
       228  -9.3930    151.7568     30.7445   6.5764922057e+01   4.3897546592e+01    0.3087743    0.2217369  16.57 0.0009867691    1.625    0.385
       229  -9.2169     91.4233     26.3338   7.8751353370e+01   5.8617852377e+01    0.4547843    0.2509842 -50.98  0.001738937    2.380    0.580
       230  -8.6723     92.0649     21.0241   7.6125399474e+01   5.9285169458e+01    0.3077075    0.2099187  24.84 0.0009957565    1.625    0.385
       231  -9.0802    144.1516     26.0806   6.5472473291e+01   4.6468540286e+01     0.278541    0.1950556 -31.47 0.0009765496    1.380    0.275
       232  -8.5848    128.4507     25.9082   6.8737080305e+01   5.0415308661e+01    0.2671413    0.2211096 -61.41 0.0006688041    1.433    0.302
       233  -7.8551    130.1609     22.0105   6.6750711750e+01   5.0508251001e+01     0.251044    0.1681965  26.17 0.0007787363    1.674    0.403
       234  -8.5227     95.2063    151.0482   1.1212349438e+02   3.2042088752e+01    0.1911218    0.1616289  62.36 0.0002647733    1.111    0.100
       235  -8.8201    155.4563     23.0543   6.2189204329e+01   4.3917550509e+01     0.230229    0.1438601 -25.44 0.0004734323    1.554    0.357
       236  -8.4341    140.2938     22.8077   6.4954852955e+01   4.7869303439e+01    0.2380577    0.1736894 -43.75 0.0005864249    1.441    0.306
       237  -9.5822    119.0338     21.6408   6.9135944296e+01   5.3244175923e+01    0.3463262    0.2793819 -34.19 0.0008403804    1.233    0.189
       238  -7.8904    134.0000    148.9993   1.0334735701e+02   2.5872104313e+01    0.3325762    0.1370844 -59.42  0.001217134    3.268    0.694
       239  -7.9302    111.5734     21.3751   7.0863820969e+01   5.5012928343e+01    0.2903405    0.1247225 -32.33  0.001138818    2.141    0.533
       240  -7.6385    133.3942    144.1920   1.0257692872e+02   2.6920524614e+01    0.2582055    0.1298868 -61.89  0.001053251    2.546    0.607
       241  -8.8171    237.4950    147.0302   8.3352901689e+01   5.9948974700e+00    0.1982436    0.1205585 -27.36 0.0009219196    1.583    0.368
       242  -9.3031     66.8525    144.3200   1.1750908467e+02   3.7509169299e+01    0.4674436    0.2424863  60.18  0.002349886    2.039    0.509
       243  -8.4681    128.9931     16.4833   6.4691748421e+01   5.1476315796e+01    0.3032036    0.2180508 -52.74 0.0009655452    1.639    0.390
       244  -8.9735    228.7584    142.6822   8.3843625363e+01   8.2443188150e+00    0.2240905    0.2039153  22.98 0.0003737184    1.128    0.113
       245  -7.4455    213.9929    141.2460   8.6049526462e+01   1.1363631696e+01    0.1692509    0.1112345  44.88 0.0003184738    1.485    0.327
       246  -6.8800    161.6489    136.6912   9.5054994807e+01   2.2835903476e+01    0.1450432    0.1106612  11.18 0.0002846833    1.715    0.417
       247  -7.9612    242.6262    134.6847   7.9826087670e+01   6.6425656533e+00     0.146095   0.09209646  15.28 0.0004533892    1.793    0.442
       248  -8.4990    112.2176    134.0450   1.0537791756e+02   3.2806555470e+01    0.2565567      0.18763  69.17  0.001260771    1.478    0.323
       249  -9.6416    134.4424    131.8641   9.9883936634e+01   2.9174310010e+01    0.5080677    0.3842498  46.82  0.002149085    1.308    0.236
       250 -10.3324    140.8698    117.3443   9.5199452772e+01   3.0826745972e+01    0.8665578    0.4418653 -37.42  0.001218986    2.185    0.542
       251 -10.0675    139.4512    103.9117   9.2203393679e+01   3.3841945931e+01      0.87097    0.3668271 -46.51  0.002196977    2.334    0.572
       252 -10.9520    133.4250    109.7143   9.5087116590e+01   3.3904553968e+01    0.9206002    0.4248079 -45.55  0.002412676    2.115    0.527
       253  -9.4114    134.9845    121.9905   9.7615714237e+01   3.1069855235e+01    0.5256501    0.2497563 -52.33  0.002116414    2.193    0.544
       254  -9.7196    130.3264    118.7291   9.7952566177e+01   3.2658790954e+01    0.4039258    0.2873844 -80.04 0.0007627021    1.851    0.460
       255 -10.6397     69.9870    126.4612   1.1416040476e+02   4.1018970971e+01     0.668534    0.4821641 -50.33  0.001613159    1.509    0.337
       256  -8.6357    125.1735     12.9506   6.3993487048e+01   5.2826230808e+01    0.2455295    0.2207641 -72.36 0.0008222381    1.313    0.238
       257  -8.1889     82.5009    130.9946   1.1185272453e+02   3.8249676447e+01    0.3896074    0.1991426 -88.33  0.001443577    3.499    0.714
       258  -9.6312     98.5946    128.6502   1.0756677397e+02   3.6264152055e+01    0.6000745    0.3365184  72.38  0.002274682    2.807    0.644
       259  -8.1673    160.5847    128.8146   9.3538162210e+01   2.4514781034e+01    0.2934529     0.177266 -55.07  0.001295157    1.932    0.482
       260 -10.0128    116.9037    125.0162   1.0248310058e+02   3.3879879560e+01    0.7123454    0.4774239 -61.83  0.002083526    1.518    0.341
       261  -9.9568    108.8072    114.6211   1.0221510537e+02   3.7574677776e+01    0.6056101    0.3787354 -89.62  0.001547437    2.622    0.619
       262  -9.4600    127.7166    102.5343   9.4655515388e+01   3.6556693592e+01    0.3488351    0.3165833  81.56 0.0008925215    1.159    0.137
       263  -9.3933    131.0665     96.1121   9.2144521461e+01   3.7202331895e+01    0.5433354    0.3645753  20.02  0.002276514    2.284    0.562
       264 -10.4410    123.3226     92.2686   9.3021372002e+01   3.9599828287e+01    0.7669161    0.5891325 -41.09  0.002121964    1.263    0.208
