#   1 NUMBER                 Running object number                                     
#   2 MAG_AUTO               Kron-like elliptical aperture magnitude                    [mag]
#   3 X_IMAGE                Object position along x                                    [pixel]
#   4 Y_IMAGE                Object position along y                                    [pixel]
#   5 X_WORLD                Barycenter position along world x axis                     [deg]
#   6 Y_WORLD                Barycenter position along world y axis                     [deg]
#   7 A_WORLD                Profile RMS along major axis (world units)                 [deg]
#   8 B_WORLD                Profile RMS along minor axis (world units)                 [deg]
#   9 THETA_WORLD            Position angle (CCW/world-x)                               [deg]
#  10 FWHM_WORLD             FWHM assuming a gaussian core                              [deg]
#  11 ELONGATION             A_IMAGE/B_IMAGE                                           
#  12 ELLIPTICITY            1 - B_IMAGE/A_IMAGE                                       
         1 -16.5582    222.0975     77.0684   2.5992609085e+01   1.9297363154e+01     3.416865     2.107533  52.14   0.01606488    1.719    0.418
         2 -17.1060    237.8238     69.8215   2.2030985063e+01   1.6864644585e+01     4.719027     2.803361 -70.76   0.02097809    2.200    0.546
         3 -14.9452    209.0462    116.7871   3.8039407368e+01   1.5319519669e+01     4.957897     2.399384 -56.28   0.01681813    3.100    0.677
         4 -14.8062    228.4551    113.2163   3.3751162337e+01   1.1703849680e+01     4.557865     2.054274 -19.26    0.0113394    6.457    0.845
         5 -16.1685    247.1237     47.5707   1.5789963477e+01   1.8085739060e+01     4.465827     1.675002 -49.89   0.01749023    2.530    0.605
         6 -12.8597    143.9875     52.9909   3.3604626757e+01   4.2529329622e+01     1.576727     1.000227 -21.88  0.006994109    1.851    0.460
         7 -12.3218    132.5365     40.4415   3.2085155593e+01   4.7168490982e+01    0.7740093     0.704405  71.49  0.004384034    1.159    0.137
         8 -10.9466    190.7152     28.5759   1.7881880232e+01   3.4082707929e+01    0.4830572    0.3072266 -13.57   0.00206879    2.135    0.532
         9  -7.3257    194.7480     15.5862   1.3880895554e+01   3.4585056059e+01    0.3532611    0.2135219  -0.00  0.001555487    2.837    0.648
        10  -9.8473    126.9981     13.9728   2.4040208177e+01   5.1676808623e+01     0.268645    0.1627996 -53.28  0.001261439    2.197    0.545
        11  -8.3621    218.4278      9.2696   9.8201709140e+00   2.9498493573e+01    0.2678311    0.1998332 -78.30  0.001025128    1.182    0.154
        12  -7.8976    199.5348      8.1519   1.1417230812e+01   3.4192057678e+01    0.1544958    0.1274312   9.99 0.0008965218    1.655    0.396
        13  -9.9721    135.3631      5.3630   1.9417443159e+01   5.0465492101e+01    0.3792298    0.1343049  46.21  0.001479865    2.615    0.618
        14  -8.7555    250.7277      4.0228   6.0557227530e+00   2.2743567472e+01    0.1573138   0.09917255 -34.73 0.0004361643    1.635    0.389
        15  -8.0766    195.7876      3.4044   1.0595097938e+01   3.5593267457e+01    0.1771714    0.1555881  38.70 0.0007432433    1.384    0.277
        16  -9.8682    119.4573      3.1764   2.1665893452e+01   5.4451709918e+01      0.47043    0.1467872  45.63  0.001790426    2.809    0.644
        17  -8.0452     99.1698      3.2487   2.6267752317e+01   5.9023618722e+01    0.2121359    0.1699992  77.64 0.0007057551    1.533    0.348
        18  -8.7752    225.4675      1.2480   7.3582788663e+00   2.8695723980e+01    0.1648019   0.09412085  79.96 0.0004146759    1.563    0.360
        19  -8.1055    220.5902      2.6634   8.0856918175e+00   2.9687602785e+01    0.1413559     0.108158 -57.12 0.0002861149    1.201    0.168
        20  -7.0127     47.7473    236.3908   9.3234096093e+01   2.0030359475e+01    0.1212482   0.06444816  70.68  0.000233901    1.680    0.405
        21  -7.4556     87.8898    250.8281   8.7128542831e+01   1.2034457965e+01     0.151267   0.07209811  41.04 0.0003654838    1.767    0.434
        22 -10.1218    231.2494    215.2412   5.4650133961e+01  -5.5523659762e+00    0.2715047    0.2169141  11.92 0.0003147979    1.041    0.040
        23  -8.1072    203.8196    234.9238   6.3063566381e+01  -3.9238551048e+00    0.2056791    0.1576141  39.64 0.0004079684    1.258    0.205
        24 -10.1587    230.1563    202.0754   5.2446265652e+01  -3.4872918890e+00    0.3355536    0.2339329   7.46  0.001500695    1.464    0.317
        25 -15.3478    240.7551    111.3595   3.1334080134e+01   9.4402602313e+00     1.279049     1.080087  -3.38  0.007154361    1.341    0.254
        26  -7.1840    139.1994    199.0197   7.0405727138e+01   1.3411134250e+01    0.1644885    0.1113158 -53.24 0.0008287727    1.634    0.388
        27  -7.0772    132.7347    199.2449   7.1855086349e+01   1.4530655623e+01    0.1313732   0.09828199  66.23 0.0006769514    1.430    0.301
        28 -15.2202    237.8096    134.8820   3.7163400039e+01   6.0241388425e+00      1.76854     1.148709 -54.85  0.007487312    1.875    0.467
        29 -15.1655    229.3635    129.7999   3.7457931900e+01   8.5997072152e+00     2.641715     1.440538 -21.30   0.01054119    2.421    0.587
        30  -9.5936    183.0374    195.0086   6.0342365136e+01   6.0183029412e+00    0.2264512    0.2045143  27.06            0    1.008    0.008
        31  -9.3554    196.1461    233.7813   6.4332741860e+01  -2.5218753038e+00    0.2894918    0.1841722  34.09  0.001663989    1.309    0.236
        32  -8.2965    195.4977    229.1500   6.3721481623e+01  -1.7410893571e+00    0.2204648    0.1945568   1.98 0.0007382035    1.152    0.132
        33 -10.0853    197.3036    180.9288   5.4710370295e+01   5.8314389554e+00    0.3125776     0.268938   0.75 0.0001621153    1.165    0.141
        34  -7.0820     12.9724    181.0000   9.5954429772e+01   3.5154984094e+01    0.1519827   0.06311157  30.80 0.0003659893    2.734    0.634
        35  -8.1075    187.2043    178.8966   5.6388482343e+01   8.1575360102e+00     0.283987    0.1786108  19.15  0.001226089    2.084    0.520
        36  -6.8689    100.7561    176.2580   7.5547344947e+01   2.5039393194e+01    0.1338431   0.09949902  74.42            0    1.418    0.295
        37  -9.5788    194.6318    174.7333   5.4008167200e+01   7.4716122962e+00    0.2986671    0.2447097  48.60 0.0004241944    1.274    0.215
        38 -14.4095    247.9700    119.0451   3.1966629988e+01   6.6999923340e+00    0.7320235    0.4534959 -32.38  0.002561637    1.481    0.325
        39  -9.4899    193.7900    167.4793   5.2680849721e+01   8.9847287300e+00     0.366203    0.2424994  21.95  0.001321618    1.804    0.446
        40  -9.2521    199.1665    164.4504   5.0936681931e+01   8.4700218481e+00    0.4695108    0.2012783 -37.79  0.001752547    2.407    0.585
        41  -7.3965    166.3132    154.0155   5.5752791577e+01   1.7341858683e+01    0.2116856    0.2030362 -57.62  0.001055151    1.089    0.082
        42  -7.3311     64.7690    152.9355   8.0861427066e+01   3.5950569880e+01    0.1777592    0.1025998 -64.60 0.0003252774    1.573    0.364
        43  -8.7051    151.8203    152.3190   5.8744088533e+01   2.0749235502e+01    0.2219999    0.2024512 -64.37  0.001159996    1.148    0.129
        44  -7.3860     60.5767    152.5243   8.1876382126e+01   3.6597708174e+01    0.1354132    0.1170893 -83.52  7.13741e-05    1.014    0.013
        45  -7.3323    179.4532    150.9759   5.2154487072e+01   1.5173976789e+01     0.203843    0.1332821 -67.62 0.0004496007    2.328    0.571
        46  -9.6482    175.7503    149.0083   5.2526955815e+01   1.6366052656e+01    0.2764158    0.2495344   5.44 0.0001987672    1.178    0.151
        47  -8.3023    132.9530    148.3150   6.2466964711e+01   2.5508666180e+01    0.2596606    0.2052982 -66.89 0.0006825576    1.363    0.266
        48  -8.7123    200.1540    147.8279   4.7090089531e+01   1.1393945551e+01    0.2690065    0.2306887  20.38 0.0003789144    1.203    0.168
        49 -12.3354    195.3558    144.2746   4.7261498063e+01   1.3095086095e+01    0.3303501    0.3090907  -6.53  0.000301729    1.058    0.055
        50 -10.1516    200.0091    142.8896   4.5995188401e+01   1.2366285419e+01    0.3684202    0.2759531 -29.92 0.0003970693    1.352    0.261
        51  -8.6793    132.2133    141.2310   6.1113825051e+01   2.7270064906e+01    0.3336938    0.2035396 -51.47 0.0009528389    1.656    0.396
        52  -8.8973     38.0110    137.8928   8.5713987356e+01   4.2700884916e+01    0.1926025    0.1658018 -80.93 0.0003114706    1.035    0.034
        53 -10.2179    163.1139    130.7614   5.1134475638e+01   2.2952773143e+01    0.6236745     0.434696  37.12  0.002073298    1.502    0.334
        54  -7.6720    116.4826    129.5205   6.2574510055e+01   3.3107112556e+01    0.1517874     0.147401 -30.26 -9.755177e-06    1.092    0.084
        55 -10.2631     48.9807    127.3119   8.1107397602e+01   4.4071507748e+01    0.3756176    0.2416937  89.85  0.001896596    1.746    0.427
        56 -10.2491     60.6583    121.6698   7.6737793137e+01   4.4036150999e+01    0.2967844    0.2642031 -15.71  0.001760451    1.343    0.255
        57 -10.6613     54.9878    123.1493   7.8665978736e+01   4.4378371936e+01    0.4887415    0.3459851  88.62  0.002576095    1.573    0.364
        58 -10.8746    139.5184    118.6769   5.3888546767e+01   3.0815346234e+01    0.5064322    0.4167252 -18.66  0.002064826    1.432    0.302
        59  -8.8521    176.5025    123.7273   4.6373231324e+01   2.1386199506e+01    0.2628587    0.2571431  45.94 0.0002931701    1.028    0.027
        60  -9.8437     41.1262    119.4157   8.2070858030e+01   4.6808942574e+01     0.467794    0.1962134 -51.00  0.002065518    2.156    0.536
        61  -9.0919    111.4670    119.5990   6.1611571770e+01   3.6388337869e+01    0.4078212    0.2836873  -2.22  0.001358795    2.436    0.589
        62  -8.3398    181.4649    115.7024   4.3279671702e+01   2.1859626768e+01    0.3559939    0.1542195 -37.20  0.001238267    2.385    0.581
        63 -10.9102    157.3360    109.2471   4.7036930548e+01   2.8817852555e+01    0.8608503    0.5444761  24.59  0.001119784    2.289    0.563
        64 -12.5939    148.5347    106.0637   4.8316463731e+01   3.1521094182e+01     1.805759     1.539945  11.52  0.008761553    1.375    0.273
        65 -11.1234    135.9873    104.4883   5.1073604290e+01   3.4692932698e+01    0.6029561    0.4773036  77.46  0.002020094    1.565    0.361
        66 -12.5816    136.3777     95.3214   4.8425763638e+01   3.6546057665e+01     1.000594    0.9547473  50.33  0.003253931    1.053    0.050
        67 -11.8013    131.9898    107.6930   5.2987096977e+01   3.4874784715e+01    0.7988229    0.6414835  73.88  0.002733526    1.489    0.328
        68 -11.4625    142.1349     89.5324   4.5290855532e+01   3.6408432466e+01    0.8398923    0.5059822 -69.86  0.002890716    3.035    0.670
        69  -8.5762    159.9277     95.9322   4.2812294092e+01   3.0920994811e+01    0.2354689    0.2309954  83.87 0.0003870151    1.023    0.022
        70  -7.6856    169.9256     94.1411   4.0069096790e+01   2.8860427653e+01    0.2340496    0.2082847 -73.29 0.0004127727    1.208    0.172
        71 -13.8183    249.0049    131.1003   3.4490973105e+01   4.4988386502e+00    0.6977488    0.4167902 -47.23  0.003377834    1.712    0.416
        72  -9.1844    156.6372     92.2504   4.2546957608e+01   3.2438316964e+01    0.2948822    0.2562773  42.23 0.0007429129    1.163    0.140
        73 -10.3708    126.8596     89.4570   4.9268205329e+01   3.9882463691e+01    0.4971474     0.316647 -66.41  0.001944644    2.316    0.568
        74  -8.9189    157.8315     88.1410   4.1102583523e+01   3.2952809497e+01    0.2493181    0.2129624 -74.37  0.001212751    1.321    0.243
        75 -11.1134    135.1564     85.1654   4.5796506960e+01   3.8890983707e+01    0.7048602    0.4519766 -76.02  0.002533373    2.914    0.657
        76 -11.2982    128.9319     77.2082   4.5029748890e+01   4.1864001225e+01    0.5725083    0.4119941 -55.35  0.002633884    1.575    0.365
        77 -14.2110    229.5045    101.7556   3.0856101946e+01   1.3467154372e+01    0.4994389    0.4583829 -27.82  0.001932581    1.086    0.079
        78  -8.2661      3.4894     86.2101   8.8427540209e+01   5.7364131951e+01    0.1811673    0.1656316 -23.33 0.0008175558    1.304    0.233
        79 -11.2461    178.1005     82.1660   3.5031591376e+01   2.9093850266e+01    0.5099479    0.3324207  31.22  0.001322734    1.993    0.498
        80  -9.2956    173.2004     79.6522   3.5325453182e+01   3.0762382006e+01    0.3889862    0.2785342 -15.32 0.0002958428    1.791    0.442
        81  -8.4152    160.9955     85.2925   3.9566311080e+01   3.2729009185e+01    0.2274107    0.1977532  50.51 0.0005815661    1.141    0.124
        82 -10.5804    142.8437     81.5558   4.2767965186e+01   3.7808975801e+01    0.3762644    0.3366853 -61.95  0.001925099    1.194    0.162
        83  -9.6319    165.5843     78.2443   3.6527158051e+01   3.2905936186e+01    0.4357278    0.3561255 -20.07  0.001352073    1.373    0.272
        84  -9.0260    150.5152     79.0211   4.0154633920e+01   3.6455886379e+01    0.2432269    0.1540058 -37.10  0.001037678    1.608    0.378
        85  -9.3087    157.3017     79.6932   3.8780486590e+01   3.4680301221e+01    0.2920853    0.2714326 -51.54 0.0003023864    1.091    0.084
        86  -8.6013    157.5062     72.4543   3.6595080465e+01   3.5942428484e+01    0.3413041    0.1519984 -37.00  0.001242397    2.278    0.561
        87 -11.7809    147.7712     64.0861   3.6250970029e+01   3.9791561310e+01    0.8123404    0.6381945   6.50  0.003882071    1.592    0.372
        88 -11.4343    139.4460     68.5336   3.9627459584e+01   4.1027998831e+01    0.6688502    0.3924595 -46.88  0.002355418    1.828    0.453
        89 -12.8224    135.8234     60.1614   3.7856530110e+01   4.3339275753e+01     1.304471    0.9497395 -82.41  0.005794236    2.015    0.504
        90  -8.0838    232.9898    232.0240   5.7238048046e+01  -8.0566994736e+00    0.1828757    0.1441713  11.02 0.0003193048    1.024    0.024
        91  -7.9364     97.0695     69.0106   5.1679767204e+01   5.0124521072e+01    0.2154725     0.199185 -30.54   0.00053736    1.065    0.061
        92  -9.2987    165.9148     61.3445   3.1497276011e+01   3.5729337141e+01    0.3468986    0.2751254  38.78 0.0003600186    1.341    0.254
        93  -8.1958    167.4359     56.6260   2.9790316577e+01   3.6097600949e+01    0.2544635    0.2329011 -24.13 0.0007411498    1.175    0.149
        94  -7.6614    179.1596     52.1162   2.6299387192e+01   3.3809593884e+01    0.3530444    0.2419124 -57.35  0.001651284    1.598    0.374
        95  -8.3289    181.2551     57.6732   2.7518257330e+01   3.2428824359e+01    0.3989095     0.277933 -30.72  0.001648377    1.525    0.344
        96 -12.1066    187.5988     51.3705   2.4655970789e+01   3.1778107694e+01    0.5892082    0.3681029  29.52  0.001948828    2.365    0.577
        97 -10.8555    191.2670     51.3231   2.4048200515e+01   3.0857888828e+01    0.3512754    0.2702337   2.72 0.0002385682    1.789    0.441
        98  -7.7322    193.6442     56.7701   2.5158621373e+01   2.9440423828e+01    0.1815058    0.1315749 -45.85 0.0002706627    1.360    0.265
        99 -15.2663    248.8391     65.0391   1.9549587517e+01   1.5180032507e+01     1.029079    0.4451997 -47.41  0.004156656    2.100    0.524
       100 -10.5450    117.2290     51.8437   3.9907495192e+01   4.8997765347e+01    0.4230268    0.3172241 -70.42  0.002004399    1.927    0.481
       101 -11.2801    184.0907     42.0072   2.2593371662e+01   3.4008886102e+01    0.3971004    0.2903215 -27.04  0.001214707    1.514    0.339
       102  -7.9099     83.0028    232.0615   8.6304580690e+01   1.6130496400e+01    0.1821539     0.146588  62.62 0.0003930002    1.032    0.031
       103 -10.3847    190.0000     33.0003   1.9193233075e+01   3.3707186742e+01    0.3484108    0.2219063 -26.93  0.001546417    1.758    0.431
       104  -8.9792    178.1774    230.7967   6.7335043339e+01   9.0744107902e-01    0.2899513    0.1834444  45.12  0.001603755    1.426    0.299
       105  -7.6676    177.9888     42.4745   2.3719600964e+01   3.5498984676e+01    0.2177287     0.122491 -88.17 0.0008097814    2.686    0.628
       106  -9.6163    196.6242     27.8231   1.6891896602e+01   3.2689250488e+01    0.2360775    0.2107818  75.05 0.0004784369    1.081    0.075
       107 -10.3037    199.9667     24.2838   1.5536007611e+01   3.2284348701e+01    0.3184275    0.2178663 -41.60 0.0008041392    1.462    0.316
       108  -9.5555    196.1093     22.2238   1.5470452825e+01   3.3490833368e+01    0.2289769     0.211191  73.09 0.0004020481    1.116    0.104
       109 -10.3479    134.5179     22.6572   2.5530507928e+01   4.8939315770e+01    0.5428474    0.2659102 -60.83  0.001782634    4.367    0.771
       110  -7.5485     64.0506    228.4361   8.9602564411e+01   1.9459897963e+01    0.1703105    0.1012312  42.52 0.0003923223    1.537    0.350
       111  -9.0047    241.0601    216.7021   5.3149746621e+01  -7.2683355337e+00    0.1742168    0.1349007  14.83  0.000444274    1.074    0.069
       112  -8.7565    233.7647    219.9929   5.5035407684e+01  -6.5951728848e+00    0.2017883    0.1629838  13.55 0.0006370929    1.026    0.026
       113  -8.8417    238.1554    225.1370   5.5145575931e+01  -7.9414491368e+00    0.2414542    0.1471267  29.73 0.0002705037    1.422    0.297
       114  -8.5157    234.4890    223.9772   5.5599409608e+01  -7.2376417217e+00    0.2100378    0.1612574 -19.38  0.000633507    1.291    0.225
       115 -11.3949    126.0888     66.1949   4.2310922146e+01   4.4555999422e+01    0.6460866    0.3720411 -52.11  0.002644799    2.099    0.524
       116  -8.4410    185.9537    218.1061   6.3783771893e+01   1.5777082109e+00     0.195999    0.1678963  31.54 0.0003410344    1.040    0.038
       117 -14.9474    239.5779    165.9795   4.3590122226e+01   5.0236185701e-01     3.782518     2.722423   4.26   0.02024114    1.537    0.349
       118  -7.5622    121.7027    237.8854   7.9408588259e+01   9.1410318198e+00    0.1652932    0.1441077  65.44 0.0005097282    1.120    0.107
       119 -15.0816    234.1970     95.1784   2.8558226699e+01   1.3561107516e+01     1.386038    0.8888957  60.85  0.006726529    1.727    0.421
       120 -16.1856    244.8035     94.6174   2.6867519301e+01   1.1387386947e+01     2.298569     1.163173  47.64   0.01020843    2.248    0.555
       121 -16.1119    246.6225     83.6124   2.4080025448e+01   1.2780823383e+01     1.139526    0.9050739  32.56  0.006292802    1.595    0.373
