#   1 NUMBER                 Running object number                                     
#   2 MAG_AUTO               Kron-like elliptical aperture magnitude                    [mag]
#   3 X_IMAGE                Object position along x                                    [pixel]
#   4 Y_IMAGE                Object position along y                                    [pixel]
#   5 X_WORLD                Barycenter position along world x axis                     [deg]
#   6 Y_WORLD                Barycenter position along world y axis                     [deg]
#   7 A_WORLD                Profile RMS along major axis (world units)                 [deg]
#   8 B_WORLD                Profile RMS along minor axis (world units)                 [deg]
#   9 THETA_WORLD            Position angle (CCW/world-x)                               [deg]
#  10 FWHM_WORLD             FWHM assuming a gaussian core                              [deg]
#  11 ELONGATION             A_IMAGE/B_IMAGE                                           
#  12 ELLIPTICITY            1 - B_IMAGE/A_IMAGE                                       
         1 -10.4480    239.7008     31.3222   4.8998674417e+01   2.0944775463e+01    0.7462051    0.3269455  -0.66  0.002291518    5.049    0.802
         2 -11.9819    243.7559     19.0894   4.5496125064e+01   2.1292673517e+01     1.404274    0.3237894 -43.89  0.004745916    3.679    0.728
         3 -12.1124    246.5558      6.1105   4.1997975743e+01   2.1902461065e+01     1.164086    0.8151972 -59.81  0.006826332    1.360    0.265
         4 -11.9301    228.4500     13.3141   4.5130927994e+01   2.5363800834e+01    0.9659224    0.3046945 -32.31   0.00377742    2.474    0.596
         5 -10.4068    231.6147      3.2385   4.2186826715e+01   2.5557697885e+01    0.3453988    0.2283989  73.96  0.001881101    1.593    0.372
         6 -11.4313    216.2176      8.2137   4.4667790316e+01   2.8812242658e+01    0.6099503    0.3861418 -21.95  0.003078171    1.529    0.346
         7  -9.6829    206.0867      8.1454   4.5487262748e+01   3.1368237286e+01    0.3628442    0.2124289 -42.59  0.001727755    1.572    0.364
         8 -10.5444    203.2361      2.0787   4.3905490667e+01   3.2655974419e+01    0.5057042    0.2588816 -73.47  0.002131248    2.239    0.553
         9  -9.8516    187.8276      4.9642   4.6169519623e+01   3.6450969574e+01    0.5398237    0.1825361 -29.55  0.001977046    2.569    0.611
        10  -9.9109    172.8031      1.8380   4.6647178847e+01   4.0817211972e+01    0.4636738    0.1472473  79.66  0.001430142    3.572    0.720
        11  -9.9948    159.7224      3.8664   4.8894797969e+01   4.4260438022e+01    0.2460488    0.1895884  20.63  0.001219241    1.471    0.320
        12 -10.0861    139.3330      4.3208   5.1958569892e+01   4.9905501815e+01    0.3217928    0.1550359  39.38  0.001216034    2.335    0.572
        13 -11.2731      4.3301      5.8490   1.1173537074e+02   7.6378420105e+01    0.3900128    0.3271987 -78.97  0.002705298    1.301    0.231
        14  -8.6766    165.3440    213.3148   1.0060993923e+02   1.0934817630e+01    0.1178375   0.07630331  16.23 0.0007047715    1.712    0.416
        15  -9.0210    123.9120    205.8730   1.0762191804e+02   1.8162265646e+01    0.1579944    0.1091145  50.40            0    1.265    0.209
        16 -11.2510    202.0506    195.2027   9.1405476779e+01   7.5562783763e+00    0.5251314    0.2410663 -32.78  0.002809634    2.505    0.601
        17  -9.4874    129.5035    200.4877   1.0587213686e+02   1.8153652842e+01    0.1909213     0.108563 -38.61  0.001042827    2.481    0.597
        18 -10.7625    189.8461    196.1822   9.3719829113e+01   9.3353899005e+00    0.5030943    0.2618173 -15.17  0.002393537    3.139    0.681
        19  -9.0963    174.3530    199.3170   9.7021984283e+01   1.1363001239e+01    0.1242848   0.07970586  15.38 0.0007046606    1.741    0.426
        20  -8.7097    151.3057    198.0628   1.0123877871e+02   1.5153097881e+01     0.175499   0.08930303 -24.08 0.0007035029    4.378    0.772
        21  -8.7568    144.3427    197.3064   1.0250677458e+02   1.6353172002e+01    0.1207229   0.08517982  14.80 0.0007042443    1.688    0.408
        22 -12.3076    214.4597    188.1820   8.8136710456e+01   6.4512946718e+00    0.6520364    0.4607799 -25.83   0.00432521    1.552    0.356
        23  -9.6249    148.5033    189.4772   1.0059940156e+02   1.6868175550e+01    0.1994104    0.1138051 -32.77  0.001039791    2.408    0.585
        24  -9.3515    187.9509    185.9854   9.2458980379e+01   1.0933005575e+01    0.1787505    0.1471821  61.35  0.001138637    1.708    0.415
        25  -8.3090    181.3498    186.2108   9.3720172542e+01   1.1979981705e+01    0.1462732    0.1157058 -43.74 0.0009388727    1.630    0.387
        26  -9.2085    177.2250    191.7589   9.5359545268e+01   1.1906016699e+01    0.2046322    0.0800371  32.39  0.000887181    2.478    0.596
        27  -9.2857    161.0000    180.9647   9.6823507611e+01   1.6097331191e+01    0.1810276   0.07319354 -44.08 0.0008050334    2.960    0.662
        28 -10.0057    147.5812    179.2052   9.9276380902e+01   1.8613483869e+01    0.3080985    0.1780914  13.88  0.001319988    3.069    0.674
        29 -10.2808    193.2903    175.4333   8.9711130262e+01   1.1437505665e+01    0.3036216     0.208948  -2.65  0.001761948    1.643    0.391
        30  -9.6805    178.8380    177.1718   9.2719116788e+01   1.3640377199e+01    0.3425906   0.07854003  39.96  0.001151469    3.769    0.735
        31  -8.1610    125.6452    177.6722   1.0369679828e+02   2.2475634219e+01    0.1263431   0.09551001   7.92 0.0007046009    1.775    0.437
        32 -13.2929    225.2012    212.1499   9.0136207620e+01   2.3454541978e+00     1.788648    0.9746266  -8.68   0.01085784    2.130    0.530
        33 -12.0411    234.4923    216.2928   8.9286416531e+01   6.8777572658e-01     1.131407    0.4573463 -29.82  0.006526083    2.759    0.638
        34 -10.4448    231.3645    169.1170   8.2009076977e+01   5.9678887966e+00    0.3098919    0.1584263   1.93  0.001412322    2.856    0.650
        35  -8.7923    177.7462    168.9960   9.1529699610e+01   1.4999883652e+01    0.1560168    0.1102214 -34.21 0.0008963445    1.598    0.374
        36 -10.7807    237.6328    165.7039   8.0382522312e+01   5.3606765501e+00    0.5120643    0.1968383 -23.09  0.002340164    2.808    0.644
        37 -11.2425    224.6766    158.3549   8.1086126237e+01   8.3132026129e+00    0.7931613    0.3417003  29.56  0.003539497    2.519    0.603
        38 -10.2255    164.1243    169.0361   9.4244407093e+01   1.7378619243e+01    0.2999985    0.1817265 -28.05   0.00154102    2.078    0.519
        39 -11.3153    247.3981    157.9816   7.7427255402e+01   4.6762813865e+00    0.8813609     0.388157 -10.94   0.00385838    3.075    0.675
        40 -11.4575    238.1068    151.7710   7.7649478226e+01   6.8583931793e+00    0.6508791    0.3158133 -20.91  0.002859325    2.060    0.515
        41 -11.2642    244.5719    148.3114   7.5975128978e+01   6.1945992809e+00    0.6998166    0.3152755  29.65  0.003351757    2.335    0.572
        42 -10.3101      4.0493    164.3640   1.3040106838e+02   4.0059446524e+01    0.2735378    0.1072703  65.05  0.001488694    2.044    0.511
        43  -9.8562     14.9907    161.7890   1.2778255872e+02   3.9705910633e+01    0.1807276   0.09162547  67.51  0.001058889    1.631    0.387
        44  -9.7179      6.3065    147.9943   1.2927023227e+02   4.3267499830e+01    0.2236524    0.1133561  53.66  0.001201723    1.583    0.368
        45 -10.1779    240.8467    141.9010   7.5253710377e+01   7.5467241980e+00    0.3077957    0.1448621  34.89  0.001520355    2.060    0.515
        46  -7.7050    233.2983    140.3274   7.6101962832e+01   9.0261488627e+00    0.1324525   0.08461852  10.25 0.0007027395    1.635    0.388
        47  -9.0600    219.6499    137.5041   7.7732192209e+01   1.1817741497e+01    0.2271631    0.1147973 -29.32 0.0007825026    1.946    0.486
        48 -11.5470    241.1652    132.5251   7.3264520495e+01   8.5967339822e+00    0.6150377     0.387236 -25.88  0.003513778    1.474    0.321
        49 -11.1796    239.6895    116.5616   7.0025298631e+01   1.0791092051e+01    0.9525699    0.5317831  16.84  0.004443957    2.293    0.564
        50 -10.8193    242.4694    104.6167   6.6923420256e+01   1.1737761943e+01     0.500602    0.2261088 -13.12  0.001998022    2.851    0.649
        51 -10.4453    249.0478    103.6641   6.5805963356e+01   1.0626045334e+01     0.421853    0.1761133 -26.18  0.001897815    2.120    0.528
        52  -8.3300    221.0000     93.9928   6.7523296101e+01   1.7388629152e+01    0.2334805   0.07343097 -29.21 0.0008068644    2.973    0.664
        53 -11.9132    245.1662     80.5527   6.0878105019e+01   1.4138828954e+01    0.8958491    0.3948196 -34.43  0.004053219    1.991    0.498
        54  -9.3225      4.5043     73.4989   1.2515407838e+02   6.0493260091e+01    0.1230988    0.1000337 -83.30 -9.708153e-05    1.008    0.008
        55 -10.8055    240.9187     51.8333   5.4195382150e+01   1.8410338705e+01    0.7575482     0.278139 -46.35  0.002833893    3.037    0.671
        56 -11.1488    249.2689     48.9572   5.2613904937e+01   1.6961939489e+01    0.7639649    0.3256169 -19.02  0.003223322    2.340    0.573
        57 -11.8573    243.3333     64.9167   5.7244863468e+01   1.6375311300e+01    0.8782429    0.4385052 -29.54  0.004163983    1.715    0.417
        58  -9.4916    230.8572     56.5608   5.6553626713e+01   2.0059641371e+01    0.3013547    0.1467363 -40.72  0.001326125    1.933    0.483
        59  -9.7719    246.9850     57.9980   5.5109256325e+01   1.6419743470e+01    0.3570183    0.2367893  12.97  0.001830999    1.859    0.462
        60 -10.1116      3.8515     47.1794   1.2227853421e+02   6.6863758631e+01    0.3173238   0.09305361 -64.19  0.001364373    2.412    0.585
        61 -10.3056    240.4174     39.6092   5.1090355621e+01   1.9892449757e+01    0.3017473    0.2483189 -25.44  0.001568145    1.090    0.082
        62  -9.7463    231.9362     42.4811   5.2697270458e+01   2.1467839757e+01    0.3887571    0.2221962 -39.50   0.00188978    1.581    0.367
        63 -10.1851    228.5671     38.3057   5.1925367703e+01   2.2712509123e+01    0.3734692    0.2686008 -64.61  0.001973507    1.546    0.353
        64 -10.6886    243.1137     44.0531   5.1975184597e+01   1.8813911750e+01    0.4322596    0.2454946  44.89  0.002124947    2.029    0.507
        65 -10.8937    231.2980     30.9106   4.9657196188e+01   2.2895654254e+01    0.4366519    0.2777534  11.00   0.00206623    2.092    0.522
        66 -11.3558    236.5160     23.7203   4.7274848122e+01   2.2453916830e+01    0.3951102    0.3350774 -70.11  0.002400483    1.214    0.176
        67  -9.5227    235.1159    242.3985   9.2826762817e+01  -1.6427756400e+00    0.2890664    0.1361525 -30.34  0.001951741    2.600    0.615
        68  -8.7309    248.5249    242.5094   9.0855904987e+01  -3.2705091422e+00    0.1661462   0.08484948 -21.57  0.001195267    2.116    0.527
        69  -9.7856    247.2953    237.4802   9.0357907063e+01  -2.7357889702e+00    0.1657233    0.1129837  -4.89  0.001287494    1.378    0.275
        70 -10.8485      4.7956     25.3584   1.1755975840e+02   7.1976686142e+01    0.3100986    0.2203897   0.56  0.001963397    1.672    0.402
        71 -12.8934    223.6097    181.2543   8.5433098287e+01   5.8179287121e+00     1.124663     1.024477 -38.14  0.008112025    1.651    0.394
        72  -8.9229    170.4872    235.5076   1.0241923879e+02   7.5467946807e+00    0.2528789    0.0736919  29.36 0.0008106178    5.876    0.830
        73  -8.4601     24.3406     13.3172   1.0011090629e+02   7.3299337678e+01    0.1351295   0.08264335 -28.20 0.0007048859    1.710    0.415
        74  -8.2616    154.5094    230.9977   1.0470553410e+02   1.0303060058e+01    0.1368466   0.08760057  -9.97 0.0008105594    2.594    0.615
        75  -8.6500    137.3153    231.6862   1.0787098943e+02   1.2618426716e+01    0.1090972   0.06874065  54.43 0.0005360442    1.642    0.391
        76 -11.9888    247.0687    185.1332   8.2381314692e+01   1.9167883074e+00     1.090757    0.5949181  -0.59  0.006343204    1.939    0.484
        77 -12.8581    246.8704    172.5002   8.0196119613e+01   3.2208875128e+00     2.022326    0.9362931  12.10  0.008915976    3.253    0.693
        78  -8.8661    197.4710    227.0144   9.6776490439e+01   4.7100140584e+00    0.1373545    0.1026047 -21.44 0.0008530164    1.597    0.374
        79  -9.3845    171.5114    221.9781   1.0060498336e+02   8.9620791477e+00    0.2307699    0.1159712  15.77  0.001041753    3.465    0.711
        80 -13.6426    247.5762    202.2874   8.5131552483e+01   2.1539570938e-01     2.614623      1.06295 -23.24   0.01463224    2.541    0.606
