#   1 NUMBER                 Running object number                                     
#   2 MAG_AUTO               Kron-like elliptical aperture magnitude                    [mag]
#   3 X_IMAGE                Object position along x                                    [pixel]
#   4 Y_IMAGE                Object position along y                                    [pixel]
#   5 X_WORLD                Barycenter position along world x axis                     [deg]
#   6 Y_WORLD                Barycenter position along world y axis                     [deg]
#   7 A_WORLD                Profile RMS along major axis (world units)                 [deg]
#   8 B_WORLD                Profile RMS along minor axis (world units)                 [deg]
#   9 THETA_WORLD            Position angle (CCW/world-x)                               [deg]
#  10 FWHM_WORLD             FWHM assuming a gaussian core                              [deg]
#  11 ELONGATION             A_IMAGE/B_IMAGE                                           
#  12 ELLIPTICITY            1 - B_IMAGE/A_IMAGE                                       
         1 -13.4185    222.5898      7.0601   3.5344574869e+01   2.8909426954e+01      1.20566    0.9199594  59.13  0.005028209    1.463    0.316
         2 -14.3474    195.7826     38.0415   4.5896670723e+01   3.1580884518e+01     2.968823     1.819866  23.49   0.01239867    2.864    0.651
         3 -10.8925     75.5901     13.6267   6.2182424883e+01   6.2556737872e+01    0.4921054    0.2479564  64.77  0.002019339    3.404    0.706
         4  99.0000     48.8195    217.3467   1.1824917823e+02   2.2938940141e+01    0.2689339    0.2377989  16.73  0.001856075    1.638    0.390
         5 -11.3446    247.1788    248.7184   8.4091501597e+01  -1.1537642882e+01     0.563616    0.2929975  22.04  0.003371996    1.681    0.405
         6 -10.2836    184.3828    212.7693   8.9611425023e+01   2.7513895818e+00    0.2113955    0.2001352 -27.32  0.001360953    1.209    0.173
         7 -10.0034     56.3728    209.2668   1.1600345459e+02   2.3691600291e+01    0.3847598    0.1860671  85.74  0.001285435    2.572    0.611
         8 -10.8765     65.9912    207.0210   1.1377562931e+02   2.2919275792e+01    0.2697095    0.2086568 -58.08 0.0003270014    1.469    0.319
         9 -11.2241     64.7549    203.1627   1.1363090604e+02   2.3913703908e+01    0.2181451     0.178025  80.36 0.0004220706    1.059    0.056
        10 -10.1685     42.5254    208.6580   1.1877286523e+02   2.5504942907e+01    0.2586606    0.1420253  63.13 0.0009785775    1.664    0.399
        11  -9.8005     35.6673    208.6875   1.2014985178e+02   2.6281832436e+01    0.1518007   0.09942557  66.67   0.00042961    1.289    0.224
        12  -8.4149    224.0035    206.7178   8.0924338340e+01  -2.7721629271e+00    0.1570137    0.1034342  32.22  0.000459548    1.430    0.301
        13 -10.9110    192.9351    194.8050   8.4650153493e+01   4.3322797874e+00     1.229644    0.6240486 -62.14  0.003411839    6.937    0.856
        14  -9.1024     93.7141    205.4514   1.0765648146e+02   1.9288274272e+01    0.2830662    0.1980295   2.50  0.001307669    2.669    0.625
        15 -12.6028     53.3016    197.8126   1.1552840423e+02   2.6555548068e+01    0.4870808    0.2781114 -49.85  0.002516604    2.183    0.542
        16  -9.5272     38.8440    199.6467   1.1875513697e+02   2.7867347234e+01    0.1833114    0.1395097  89.15 0.0005440303    1.105    0.095
        17  -9.2912    204.3257    199.3323   8.3257776296e+01   1.5981835964e+00    0.1413187   0.09615534   2.04 0.0007051091    1.710    0.415
        18 -11.6482    133.9004    196.1335   9.7433831623e+01   1.4626820127e+01    0.4042615     0.276141 -82.66  0.001897769    2.117    0.528
        19  -8.1690     70.3003    196.6653   1.1170526147e+02   2.4587277471e+01    0.1383567   0.08679377  70.80 0.0007034229    1.656    0.396
        20  -9.5365     72.0870    250.0509   1.1656982778e+02   1.3679492679e+01    0.1557797    0.1223115  74.83 0.0003567013    1.139    0.122
        21  -9.0927     81.6459    194.3772   1.0890260500e+02   2.3486695041e+01    0.2958661    0.2009608  71.93  0.001572121    1.533    0.348
        22  -9.6246    168.2235    232.9421   9.6058545217e+01   2.1290037673e+00    0.2366034    0.1723267  41.96 0.0007594979    1.245    0.197
        23 -12.2908     62.6263    185.7279   1.1213931245e+02   2.8081911187e+01    0.7918746    0.6828495 -55.37  0.003203455    1.336    0.251
        24 -11.2191     66.7169    181.9898   1.1073850559e+02   2.8397081920e+01    0.3654702    0.2842661 -74.06  0.001061812    1.194    0.163
        25  -9.1453     95.9643    189.9643   1.0505275214e+02   2.2295134829e+01    0.3002542     0.147726  70.55 0.0009698349    4.223    0.763
        26 -10.7915    149.4570    187.7952   9.2539267540e+01   1.3537865694e+01    0.3447901    0.2790208  71.04 0.0009579576    1.487    0.328
        27 -11.7055     74.2393    188.8801   1.0987758758e+02   2.5781450027e+01    0.5192849    0.2745101  71.79  0.001711276    2.546    0.607
        28  -9.0823     93.0618    185.5200   1.0507866789e+02   2.3745309405e+01    0.2068332    0.1283828  41.61  0.001018601    1.556    0.357
        29 -11.0748     98.8904    181.3846   1.0308839974e+02   2.3757030648e+01    0.4114732    0.3406052  -9.46  0.001640717    1.685    0.406
        30 -10.1876    188.7302    176.8900   8.1982068562e+01   8.3262159509e+00    0.4310584    0.3812591 -62.59   0.00240574    1.388    0.280
        31 -10.9248    143.6333    178.3852   9.2111559176e+01   1.6563450239e+01    0.3380556    0.2422992 -31.59 0.0009703143    1.627    0.385
        32  -9.2953    149.2205    176.9418   9.0564633004e+01   1.5818649411e+01    0.2129116    0.1936752  85.93 0.0004474602    1.237    0.191
        33 -11.5468    129.1442    172.2940   9.4340081659e+01   2.0570142648e+01     1.030339    0.3131611  33.31  0.002783616    4.819    0.792
        34 -10.6289    138.3591    170.1935   9.1764328214e+01   1.9315574489e+01    0.4311834    0.3173579  42.60  0.001723972    1.328    0.247
        35 -10.0669     54.5156    173.5408   1.1255771714e+02   3.1953401469e+01    0.2602884    0.1883714  74.72 0.0006541555    1.323    0.244
        36  -9.7031     46.5654    173.3317   1.1441448188e+02   3.2958304836e+01    0.2710413    0.2579414  40.13  0.001043674    1.303    0.233
        37  -8.3013    194.3338    172.2882   7.9886517564e+01   8.1265546068e+00    0.1472913    0.1074134   4.30  0.000701762    1.628    0.386
        38  -9.6209     84.1318    173.5837   1.0542803193e+02   2.7868711029e+01    0.2091716    0.1832294 -51.64 0.0004070534    1.251    0.201
        39  -9.0834    185.3127    169.3327   8.1126076956e+01   1.0408813486e+01    0.2859905    0.1779279 -62.01  0.001173262    2.460    0.593
        40  -9.8935    240.3899    169.2390   7.0614442185e+01   3.9893929481e-01    0.1836685    0.1138346 -40.34 0.0005072638    1.579    0.367
        41  -9.4218    187.9655    162.4839   7.9111102278e+01   1.1212568283e+01    0.2753204    0.2052802 -55.07 0.0007650038    1.560    0.359
        42  -9.6313     58.6213    228.9432   1.1732128577e+02   1.9384111556e+01    0.1569225    0.1180721  85.41 0.0004310727    1.193    0.162
        43 -11.8156     94.0690    151.5667   9.9196795187e+01   3.1565995278e+01    0.7184492    0.6316473 -18.85  0.003890275    1.387    0.279
        44 -10.8958    133.8217    145.4104   8.7697339373e+01   2.5754429501e+01     1.287089     0.324547 -54.21  0.002994879    5.728    0.825
        45  -9.4267    187.2155    151.5809   7.6854456007e+01   1.3493111574e+01    0.2099396    0.1400173  32.00 0.0009486757    1.617    0.381
        46  -9.2908    112.7248    150.5800   9.4153078845e+01   2.8571244635e+01    0.2526178     0.186719  83.94 0.0006342698    1.731    0.422
        47  -8.9005    109.7139    148.0636   9.4417365355e+01   2.9712971839e+01    0.2222818    0.1982627  83.79 0.0003427407    1.166    0.142
        48  -9.8656    174.7065    148.9822   7.8935050106e+01   1.6587351779e+01    0.3396521    0.2302604 -61.22 0.0008880066    1.882    0.469
        49 -10.7682    105.9158    137.8044   9.3257344649e+01   3.2852082761e+01    0.5738471    0.3611346 -28.14  0.002317652    2.274    0.560
        50 -10.5008    105.9887    130.7323   9.1663395490e+01   3.4536014450e+01    0.3939562    0.3310549 -59.86  0.001182405    1.153    0.133
        51 -11.6375     93.8061    137.6331   9.6515910669e+01   3.4996903340e+01    0.2878259    0.2596583 -47.58  0.000533317    1.115    0.103
        52 -10.0586    136.0642    129.5858   8.3438373775e+01   2.8906431319e+01    0.4883119     0.202017 -47.82  0.001688254    2.373    0.579
        53 -10.7184    114.1731    129.2837   8.9098721279e+01   3.3353435970e+01    0.4289522    0.3472142  24.01  0.001371473    1.410    0.291
        54  -9.3972    160.8595    128.0962   7.7064152880e+01   2.3926110688e+01    0.2498896    0.2211766 -76.16  0.001244612    1.285    0.222
        55 -10.3606    101.2904    124.9745   9.1638738977e+01   3.6765764229e+01    0.3142248    0.2392521 -34.03 0.0006864296    1.430    0.301
        56 -11.1903    120.1233    122.8112   8.5928205474e+01   3.3710347769e+01    0.5865411    0.3769243 -20.01  0.002245919    2.438    0.590
        57 -10.2802    134.8114    120.5597   8.1499257189e+01   3.1207160196e+01    0.5593809    0.1190793 -47.66  0.001349157    4.785    0.791
        58  -9.5923     44.1291    229.4453   1.2010424585e+02   2.1068280027e+01    0.1380637   0.08240547  59.35 7.781877e-05    1.375    0.273
        59  -9.4690    109.4380    118.3448   8.7746066467e+01   3.6834403001e+01    0.2546197     0.235708 -51.23 0.0002336039    1.031    0.030
        60 -10.1247    231.3367    113.7141   5.9794674379e+01   1.1468512655e+01    0.2777843    0.2633858  58.81 0.0008084231    1.201    0.168
        61  -9.0049    167.6690    112.6287   7.1550790507e+01   2.5641600656e+01    0.3267089    0.2308887 -77.54  0.001329653    2.132    0.531
        62 -10.1045    134.6223    104.7796   7.7338660021e+01   3.4730834676e+01    0.6527971    0.1933903 -42.78  0.001901596    3.295    0.697
        63 -11.6155    118.4605    109.9609   8.3068221730e+01   3.6995612335e+01    0.6283277    0.4937147  75.47  0.002362513    1.632    0.387
        64  -9.5569    205.4939    110.3444   6.3361463436e+01   1.7543467026e+01    0.3032825    0.2526118  33.30  0.001142882    1.328    0.247
        65 -11.9191     49.3398    250.1147   1.2062774323e+02   1.6552693676e+01    0.1912239    0.1675305  49.75 0.0005518526    1.366    0.268
        66  -8.8903     81.0426    220.6497   1.1209620691e+02   1.8017683761e+01    0.1744573    0.1402672  53.10 0.0004369676    1.109    0.098
        67  -8.8135     59.2112    220.2168   1.1644398735e+02   2.1053868471e+01    0.3323788    0.1770922  32.27  0.001755199    2.098    0.523
        68  -9.3519     65.5413     70.5164   8.8159207253e+01   5.5071635062e+01    0.2424005    0.1961979  40.71  0.001094544    1.418    0.295
        69 -10.1277     72.5307    245.3836   1.1609903569e+02   1.4458556984e+01    0.3323456    0.1573367  62.59  0.001715494    2.168    0.539
        70 -12.6979    180.3120     51.9140   5.2045508313e+01   3.3456418473e+01    0.8139725    0.7162662  32.95 0.0008525506    1.281    0.219
        71  -8.0457     84.2404    245.6700   1.1394954636e+02   1.2814415573e+01    0.1165092   0.07438671  69.11            0    1.536    0.349
        72  -9.6947    189.6378     15.0857   4.0487369258e+01   3.5807233201e+01    0.2253197    0.1699329 -87.36 0.0006294852    1.252    0.201
        73 -19.4875     12.3174    145.4536   1.1972829588e+02   4.2938528380e+01     19.29936     4.488483 -76.17   0.06466193    4.031    0.752
        74  -9.2376     53.2505    220.8038   1.1767093140e+02   2.1687256135e+01    0.3475345    0.1236601  55.87  0.001503171    2.800    0.643
