#   1 NUMBER                 Running object number                                     
#   2 MAG_AUTO               Kron-like elliptical aperture magnitude                    [mag]
#   3 X_IMAGE                Object position along x                                    [pixel]
#   4 Y_IMAGE                Object position along y                                    [pixel]
#   5 X_WORLD                Barycenter position along world x axis                     [deg]
#   6 Y_WORLD                Barycenter position along world y axis                     [deg]
#   7 A_WORLD                Profile RMS along major axis (world units)                 [deg]
#   8 B_WORLD                Profile RMS along minor axis (world units)                 [deg]
#   9 THETA_WORLD            Position angle (CCW/world-x)                               [deg]
#  10 FWHM_WORLD             FWHM assuming a gaussian core                              [deg]
#  11 ELONGATION             A_IMAGE/B_IMAGE                                           
#  12 ELLIPTICITY            1 - B_IMAGE/A_IMAGE                                       
         1 -12.0022    223.2255     24.3906   3.1514146412e+01   2.7779037002e+01    0.6270163    0.3650769 -77.80  0.002995045    1.638    0.389
         2 -12.6454    207.9101     23.7246   3.2745753903e+01   3.1072899217e+01     1.045214    0.5831782 -72.47  0.005622382    1.804    0.446
         3 -11.3031    149.3268      9.1307   3.5738329768e+01   4.5903662668e+01    0.5498067    0.2561869 -69.77   0.00220771    3.372    0.703
         4 -12.2029    148.5166     15.2421   3.7568514991e+01   4.5519625207e+01    0.5604579    0.2535236  67.26  0.002640412    1.898    0.473
         5 -11.3066    247.2871     18.4928   2.8546880254e+01   2.3747743203e+01    0.4533718    0.2198101  80.06  0.002649677    2.001    0.500
         6 -11.3089     18.0002     12.3986   7.6622265673e+01   7.1575984148e+01    0.2965087    0.1357644  31.05  0.001437231    2.080    0.519
         7 -11.1524     10.7995     13.0839   8.1148360620e+01   7.2233960138e+01    0.4237405    0.2110227  34.67  0.002263431    2.385    0.581
         8 -10.5023     85.0431      1.7115   4.4992937476e+01   6.1152258729e+01    0.2342591    0.1410267  51.80 0.0007709826    1.327    0.247
         9 -11.3590     90.4214      3.1082   4.4242994616e+01   5.9891239101e+01    0.3613999    0.1968548  65.14  0.001576973    1.728    0.421
        10 -14.0025    104.8693     10.1620   4.3620359923e+01   5.6126281369e+01     1.536213    0.7943426  85.66  0.006140096    3.472    0.712
        11 -12.5106    190.0417      9.9645   3.1362659028e+01   3.6483747547e+01    0.9797154    0.3985195 -71.38  0.003895204    3.493    0.714
        12 -12.6498    127.9380     13.0992   4.0172834733e+01   5.0558998390e+01    0.5267211    0.2684225  89.69  0.002173514    3.000    0.667
        13 -10.7304    156.5831     11.0266   3.5307958762e+01   4.4031289846e+01     0.353325    0.1881446 -63.50  0.001718212    2.237    0.553
        14 -11.4691     90.8400     11.6754   4.7453854280e+01   5.9093563574e+01    0.3149999     0.208476  79.67  0.001660145    2.024    0.506
        15 -12.3331     80.6084     11.4054   5.0097402668e+01   6.1285802091e+01    0.5560285    0.2636726  64.57  0.002493814    2.512    0.602
        16 -11.1325     54.5197     11.0111   5.8597158461e+01   6.6368291956e+01    0.2138886    0.1515777  46.00  0.001242389    1.398    0.285
        17 -10.7599     49.0321     11.6942   6.1107022191e+01   6.7247585309e+01    0.1828388    0.1341343  27.72  0.001173125    1.116    0.104
        18 -11.6156    161.3604      9.6562   3.4349853650e+01   4.3047328101e+01    0.3929282       0.1934 -69.67  0.001766311    2.629    0.620
        19 -11.9056    153.1014      2.9153   3.3551735138e+01   4.5567367317e+01    0.6203469    0.3145952  88.16  0.003036193    2.084    0.520
        20 -12.9132    169.7454      3.8687   3.1926871027e+01   4.1646887690e+01    0.8400315    0.4245372  89.01  0.003809233    1.989    0.497
        21 -13.3221    161.1317      2.9551   3.2628383648e+01   4.3705716964e+01     1.510323    0.3109203  72.44  0.004857526    4.521    0.779
        22 -11.5124     39.5002      9.4701   6.4149475632e+01   6.9034596432e+01    0.3466691    0.1796628  52.71  0.001673355    2.904    0.656
        23 -11.9861     22.9561      8.1364   7.1701700246e+01   7.1530282549e+01    0.3645127    0.1821789  35.96  0.002064664    1.963    0.491
        24 -11.2291    138.9099      8.1201   3.6910278287e+01   4.8433525265e+01    0.2001073    0.1547326 -83.02  0.001071686    1.311    0.237
        25 -11.5820     45.9592      7.9697   6.0582977181e+01   6.8150953356e+01    0.3160771    0.1598908  45.22  0.001709509    1.830    0.454
        26 -10.9924     50.7010      6.1490   5.7770660570e+01   6.7518678908e+01    0.2058286    0.1466577  46.58   0.00109056    1.412    0.292
        27 -10.6852     31.8105      8.2102   6.7157337803e+01   7.0324545527e+01    0.1704664    0.1104893  11.60 0.0006069348    1.346    0.257
        28 -11.0584      7.1494      2.3397   7.7861029388e+01   7.4051716474e+01    0.3637111    0.2164814  19.67  0.002347261    1.468    0.319
        29 -11.1120     11.4336      8.1437   7.8295381223e+01   7.2856323655e+01    0.2483116    0.1356619  22.35  0.001526685    1.643    0.391
        30  -9.9130     65.6294      7.2934   5.2928216085e+01   6.4659711795e+01    0.1111187   0.09605797  87.66 0.0007026387    1.726    0.420
        31 -11.2102    129.5051      1.8808   3.6435597454e+01   5.1140382533e+01    0.3661453    0.1833428  86.61   0.00164211    2.388    0.581
        32 -10.9400    143.6757      4.3424   3.5147646983e+01   4.7641630419e+01      0.35048    0.1791624 -51.36  0.001762835    2.246    0.555
        33 -11.2295    133.8551      3.1541   3.6176184790e+01   5.0028744305e+01    0.3538176    0.1901744 -46.67   0.00185268    2.136    0.532
        34 -11.0393    138.3146      2.0466   3.5215713067e+01   4.9078823465e+01    0.3743189    0.1969273  81.57  0.001828011    1.875    0.467
        35 -11.5462    127.0142      5.5464   3.7957805658e+01   5.1427524123e+01     0.264986    0.1480464  86.90  0.001298815    2.083    0.520
        36 -10.7006     73.9590      6.4751   4.9968075314e+01   6.3081215953e+01    0.2308287    0.1514321  70.17  0.001269655    1.935    0.483
        37 -11.7256     68.8340      3.6357   5.0284064327e+01   6.4343577639e+01    0.3366209     0.181031  58.87  0.001510008    1.834    0.455
        38 -11.2750     64.4049      3.1407   5.1461876602e+01   6.5252134373e+01    0.2931384    0.1532815  46.38  0.001136533    1.532    0.347
        39 -10.6791     36.0479      5.3026   6.3625941190e+01   7.0012365279e+01    0.1710242    0.1247992  24.33 0.0007508642    1.119    0.106
        40 -11.7202    235.4009      2.4138   2.6340953647e+01   2.7793438224e+01    0.5040811    0.2100528  84.03  0.002597771    2.247    0.555
        41 -11.5414    121.3398      3.9361   3.8379433559e+01   5.2871487270e+01    0.2201729    0.1537467  78.39 0.0007345678    1.363    0.266
        42 -10.8937     45.9463      2.4926   5.7872137922e+01   6.8680492934e+01    0.3713698    0.1088702  50.93  0.001475198    3.526    0.716
        43 -11.1435     40.0042      1.8793   6.0069344302e+01   6.9727180306e+01    0.2752939    0.1770659  44.85  0.001719222    1.551    0.355
        44 -10.8259     28.3328      2.8352   6.6076832488e+01   7.1411328841e+01    0.2480453    0.1533802  41.42  0.001523849    1.743    0.426
        45 -11.5185     20.4845      2.2587   6.9918264670e+01   7.2535217274e+01    0.3526972    0.1592139  28.15  0.001944357    1.945    0.486
        46 -12.4468    110.8924      8.1110   4.1667444705e+01   5.4934159397e+01     0.376746    0.2699099 -54.45  0.002206661    1.731    0.422
        47 -11.7371    202.2959      1.4599   2.8434498969e+01   3.4652390220e+01    0.6078756   0.08825468  72.69  0.001924346    5.531    0.819
        48 -11.4168     79.6217      2.9051   4.6873952641e+01   6.2205185723e+01     0.302608    0.1667682  63.94  0.001465748    1.818    0.450
        49 -10.1537    230.2711     71.5296   4.0666783666e+01   1.9885015039e+01    0.3303628    0.1459723 -61.99  0.001295229    3.108    0.678
        50 -10.6009    198.7501     67.6802   4.3909603448e+01   2.7074960714e+01    0.5498087    0.1456047 -42.80  0.001875302    3.294    0.696
        51  -9.7471    164.1987     65.1903   4.8907610810e+01   3.5368130092e+01    0.2052038    0.1620224 -71.84  0.000893876    1.359    0.264
        52 -10.4470    111.7003     64.5279   6.0689350381e+01   4.7648744866e+01    0.2587325    0.1831649 -59.70   0.00120469    1.838    0.456
        53 -10.3317    231.1223     62.3773   3.8636217490e+01   2.1099187412e+01    0.3303664    0.1081739 -44.56  0.001376628    2.499    0.600
        54  -9.8909    158.8617     62.5725   4.9185718260e+01   3.7039038356e+01    0.2798904     0.173152 -69.93  0.001187007    2.248    0.555
        55  -9.8344    165.2220     59.9864   4.7310399301e+01   3.5940727065e+01    0.2380156    0.1462984 -62.92  0.001064734    1.968    0.492
        56  -9.6759    158.3970     56.1452   4.7484673936e+01   3.8132748981e+01    0.2014367    0.1225272 -48.64  0.000940978    1.707    0.414
        57 -10.3305    163.9898     53.9143   4.5876465077e+01   3.7139174325e+01    0.2304266    0.1594103 -72.78 0.0009673436    1.690    0.408
        58  -9.3571    249.3682     52.1387   3.4746583701e+01   1.9065158205e+01    0.1735816   0.08378351 -49.37 0.0005596334    1.658    0.397
        59  -9.5434    172.1858     50.1549   4.3520689406e+01   3.5751298694e+01    0.1875397    0.1445543 -72.95 0.0003867942    1.326    0.246
        60  -9.9322    158.9666     49.0167   4.5399447242e+01   3.9028735367e+01    0.2273491    0.1569208 -70.89 0.0009861088    1.693    0.409
        61  -9.5070    247.3851     48.2150   3.4163037657e+01   1.9973720429e+01    0.1751498    0.0840703 -49.41 0.0008210429    1.672    0.402
        62  -9.2272    163.6502     46.2996   4.3860932362e+01   3.8295728864e+01    0.1441101   0.09864796 -75.33 0.0007037185    1.689    0.408
        63  -9.2446    169.4199     45.1977   4.2644216091e+01   3.7085708152e+01    0.1942042    0.1150603 -48.84 0.0009440567    1.709    0.415
        64  -9.7003      6.9831     44.7532   9.5906649756e+01   6.7132280822e+01    0.1732933    0.1349046 -18.58  0.001050354    1.103    0.094
        65  -9.9326    165.7489     40.6491   4.1999042094e+01   3.8553702666e+01    0.2641857    0.1500475 -59.52  0.001163526    2.040    0.510
        66 -10.9098    141.1336     40.6198   4.6230042236e+01   4.4401849673e+01    0.3514903     0.223449 -73.11  0.001607674    2.185    0.542
        67 -10.3631    235.6705     36.7838   3.2945218333e+01   2.3740643954e+01    0.2805312     0.150644 -87.06  0.001504241    2.020    0.505
        68  -9.5861    155.2513     39.9319   4.3494818338e+01   4.1132793526e+01    0.1680296    0.1146883 -37.20 0.0004290138    1.551    0.355
        69  -9.4340     30.2295     40.4482   8.2539237740e+01   6.5871348822e+01    0.1658294     0.110189  32.80 0.0009466215    1.678    0.404
        70  -9.5764     42.9776     39.2293   7.6019791209e+01   6.4471816352e+01    0.1689198   0.09726726  30.08 0.0006760146    1.660    0.398
        71  -9.6163    242.4330     38.1795   3.2640838236e+01   2.2247386039e+01    0.2358575   0.08889324 -42.57  0.001060263    2.151    0.535
        72 -10.9887    128.8660     36.6252   4.7447905579e+01   4.7809514123e+01    0.3680041    0.2269744 -62.10  0.001692919    2.239    0.553
        73  -9.6165    123.4670     36.0445   4.8412536321e+01   4.9145312798e+01    0.1923461    0.1356114 -30.91 0.0009348993    1.562    0.360
        74  -9.8974     31.6990     34.4479   7.9403532780e+01   6.6707164223e+01    0.2227543    0.1087872  32.80  0.001124409    2.064    0.515
        75 -10.2811    126.0930     31.4429   4.6367043693e+01   4.9084982574e+01    0.3136401    0.1892073  84.35  0.001408268    2.280    0.561
        76 -11.3611    111.0717     31.9430   4.9869268876e+01   5.2497531827e+01    0.4054497    0.2343043  71.67  0.001725088    2.140    0.533
        77 -10.9010    109.1286     26.4040   4.8404943471e+01   5.3572503496e+01    0.2996364    0.1653002 -37.39  0.001472775    2.033    0.508
        78 -10.2525     77.9175     31.8334   5.9208996337e+01   5.9603397845e+01    0.2215322    0.2032794 -27.72  0.001393667    1.274    0.215
        79 -10.2689     35.9610     31.4963   7.6080466729e+01   6.6637571493e+01    0.1852451    0.1102854  28.37  0.001029901    1.584    0.369
        80 -10.5088    103.9361     29.6678   5.0823898690e+01   5.4371008194e+01    0.2768533    0.2244717  88.44  0.001423258    1.559    0.359
        81 -11.9342     27.2133     29.1971   7.9442094082e+01   6.8074490395e+01    0.3714328     0.243362  16.64  0.002256422    1.391    0.281
        82 -10.6207    183.5688    239.3094   8.3502861486e+01  -2.6501094673e+00    0.2345562    0.1251167 -47.40  0.001152712    2.176    0.540
        83 -11.2360    217.6422    234.9564   7.5969691513e+01  -6.5558105074e+00    0.4955869    0.2790237 -49.42   0.00251138    2.471    0.595
        84  -9.6670     18.9910     28.9571   8.3669720024e+01   6.8997469782e+01    0.1626479     0.148288  39.36   0.00095661    1.695    0.410
        85  -9.6570    145.8134     25.5768   4.0950631115e+01   4.5088226996e+01    0.1917901    0.1160753  79.18 0.0009479084    1.709    0.415
        86 -11.3757     35.6760     23.9308   7.2873851268e+01   6.7787750141e+01    0.3140807    0.1679339  32.77  0.001609555    1.749    0.428
        87 -11.9486     48.6286     22.2856   6.6207993920e+01   6.6077870745e+01    0.3356911      0.20551  44.42  0.001644054    1.737    0.424
        88 -11.3726     18.0830     22.4022   8.1317682826e+01   7.0125755039e+01    0.3294468    0.2020738  28.85  0.001448004    1.706    0.414
        89  -9.4160    250.3076    234.6816   6.9981712356e+01  -1.0419982581e+01   0.09844074   0.09000866 -24.67 0.0004813193    1.635    0.388
        90 -10.0281    190.6429    225.1797   7.9664927376e+01  -1.2550559514e+00    0.1927138    0.1107216 -31.31 0.0009550633    1.731    0.422
        91 -11.4087    161.2670     21.7183   3.7565233031e+01   4.1855953629e+01    0.5847999    0.2569622  73.20  0.002591509    2.200    0.545
        92 -10.1185    157.0166     17.5229   3.7011048200e+01   4.3292968772e+01    0.3393917     0.185592 -81.62  0.001573265    2.296    0.564
        93  -9.9193     62.8894     21.2850   6.0076037531e+01   6.3743899647e+01     0.193176    0.1512295  51.88  0.001052431    1.469    0.319
        94 -10.5262     28.5484     21.5046   7.5314697228e+01   6.9062883453e+01    0.3096909     0.102264  36.52  0.001341613    3.033    0.670
        95 -10.1425    189.3864     19.8789   3.3726359638e+01   3.5581605639e+01     0.281246    0.1600858 -74.73  0.001463882    1.843    0.457
        96 -11.2116    193.7177    218.5541   7.7863997532e+01  -5.4344148408e-01    0.3901386    0.2368488 -45.78  0.001983228    1.790    0.441
        97 -10.6687     24.3138     13.5865   7.3738842463e+01   7.0670699562e+01    0.2132401   0.09875873  35.21  0.001130698    2.120    0.528
        98 -11.2301     29.4615     16.0170   7.2241242535e+01   6.9693786685e+01    0.2973357     0.155474  41.60  0.001303048    2.259    0.557
        99 -10.9840     33.9223     17.5048   7.0726698533e+01   6.8896229526e+01    0.2330959    0.1369382  28.39  0.001189729    1.507    0.336
       100 -10.9180     23.4918     18.0579   7.6352423337e+01   7.0163979549e+01    0.2119229    0.1493064  32.95 0.0009358823    1.619    0.382
       101 -10.2845     56.0037    216.4853   1.0937508837e+02   2.0682974094e+01    0.2609899    0.1727164 -75.96 0.0005799868    1.496    0.331
       102 -10.6441     16.0500     17.3036   8.0110428215e+01   7.1097624008e+01    0.2344911    0.1562194 -11.75  0.001519542    1.240    0.194
       103  -9.8983     27.5005    211.9957   1.1551826827e+02   2.4998666787e+01    0.1922742    0.0873229  75.83 0.0008106161    2.578    0.612
       104 -11.0278    141.6460     17.1845   3.9161764467e+01   4.6948882637e+01    0.2301855    0.1594218  80.64 0.0008745174    1.386    0.278
       105  -9.7510    242.3831    210.2458   6.7052007892e+01  -5.8445943552e+00    0.1733344    0.1025701 -42.02 0.0009520819    1.701    0.412
       106 -10.6463    224.1726    205.2351   6.9418956028e+01  -2.6168930215e+00    0.4644419    0.2390738 -53.47   0.00195265    3.113    0.679
       107 -10.2941    186.9721    202.9854   7.6426872093e+01   3.3551337072e+00    0.3095538    0.1828171 -56.52  0.001360143    2.340    0.573
       108 -10.1583     74.5144     17.5321   5.4474303285e+01   6.1930494086e+01    0.2197205    0.1177192  61.57  0.001033479    2.276    0.561
       109  -8.8963    133.0318    199.2271   8.8118097690e+01   1.3129299173e+01     0.175507    0.1177346  32.72 0.0008140072    1.438    0.305
       110 -11.6284     52.9159     15.4611   6.1298160356e+01   6.6175524285e+01    0.4383022     0.104898  46.06   0.00158894    3.713    0.731
       111 -10.8471     80.4467     18.4132   5.3002364044e+01   6.0639877257e+01    0.2531515    0.1864782  62.96  0.001464411    1.521    0.343
       112 -10.5002      2.9462    195.9731   1.1989861192e+02   3.1050373952e+01    0.2351241   0.08322767  50.24  0.001033069    2.625    0.619
       113 -10.8156    210.8195    188.9349   6.8844365361e+01   2.2293924268e+00    0.2535696    0.1890041 -53.83  0.001347074    1.664    0.399
       114 -11.6007      4.0520    188.2668   1.1912070647e+02   3.2806917470e+01    0.3257007    0.1681368  54.10  0.001694909    1.853    0.460
       115  -9.7054    222.9987    188.0538   6.6357383956e+01   5.3331751227e-01    0.1543985     0.130949 -11.51            0    1.052    0.050
       116 -10.3331    198.2063    182.7251   7.0124576231e+01   5.4350437510e+00    0.4611048    0.2437738 -57.51   0.00176493    2.953    0.661
       117 -10.3796     32.7948     12.3969   6.8787358363e+01   6.9693809428e+01    0.1707918   0.09215666  25.63 0.0008762405    1.648    0.393
       118 -11.7801      2.1279    178.3998   1.1886614587e+02   3.5360100050e+01    0.3850805    0.1859055  86.83  0.001849802    1.944    0.486
       119 -10.4387    241.5040    181.0571   6.1717301939e+01  -9.3117637359e-01    0.4322496    0.1455762 -48.35  0.001509809    3.790    0.736
       120 -11.6818    219.1332    177.4799   6.4980810993e+01   3.0378441487e+00    0.3400075     0.301258 -62.91  0.001641435    1.498    0.332
       121 -10.1231     29.7968    178.2106   1.1186592384e+02   3.3014104099e+01    0.2455911    0.1102211  62.77 0.0009531649    2.808    0.644
       122 -12.0979      5.5928    173.8083   1.1765511294e+02   3.6236186039e+01    0.3349029    0.2062707  69.49  0.001823505    1.569    0.362
       123 -10.8602    133.9947     10.4924   3.8367505858e+01   4.9376313308e+01    0.1983136    0.1092188  67.87 0.0005951164    1.556    0.357
       124 -10.5373    205.5535    169.5751   6.5957600488e+01   6.7556636727e+00    0.3017178    0.2245469 -79.79  0.001381809    2.433    0.589
       125 -10.5612    219.1164    168.7281   6.3207847892e+01   4.6611025468e+00    0.2502453     0.175515 -45.58  0.001307759    1.390    0.281
       126  -9.3606    160.0000    164.9613   7.4826864643e+01   1.5998936822e+01    0.2558675   0.08534955 -46.84 0.0007980735    2.912    0.657
       127  -9.8542    250.1966    152.8143   5.4775212293e+01   2.6580203762e+00    0.2647267    0.1862566 -14.45  0.001496579    1.588    0.370
       128 -10.2482    246.5043    151.9834   5.5174844959e+01   3.3590189098e+00     0.480467    0.1311885 -43.65  0.001718512    3.116    0.679
       129  -9.8013    246.8312    162.6048   5.7233596862e+01   1.4701151484e+00    0.2539109    0.1631936 -47.40  0.001111321    1.518    0.341
       130 -10.4895    246.8415    159.1266   5.6544184116e+01   2.0691864159e+00    0.2635873    0.1846714 -27.15  0.001126089    1.254    0.203
       131  -9.3081    213.3057    163.6485   6.3235711872e+01   6.5816901820e+00    0.1367882    0.1097637 -68.09  0.000704187    1.708    0.415
       132 -10.1021      2.9920    154.5090   1.1667273243e+02   4.1273788912e+01    0.1842815   0.07956155  49.33 0.0007763978    2.539    0.606
       133 -10.1472    235.7985    147.9398   5.6044897780e+01   5.7596563929e+00    0.2665223    0.1718834 -52.51  0.001374842    1.632    0.387
       134 -10.2521    225.6682    148.3393   5.7809354093e+01   7.3682139252e+00    0.1367475    0.1045084 -67.42 8.439049e-06    1.744    0.427
       135  -9.5387    182.3784    141.2545   6.4478160758e+01   1.6784751109e+01    0.2232226    0.1351633 -50.67 0.0009525653    1.672    0.402
       136 -11.3866    235.8777    136.4863   5.3662916956e+01   7.8033941157e+00    0.5889147     0.345764 -64.04  0.002555059    2.710    0.631
       137 -10.2260    208.9421    137.6017   5.8440179682e+01   1.2384582537e+01    0.3103448    0.1730035 -53.59  0.001333376    1.974    0.493
       138 -11.4603      4.4327    137.2951   1.1453658820e+02   4.5565704556e+01    0.2776632   0.09705747 -68.06  0.001154582    2.177    0.541
       139 -10.6880    248.4558    128.5199   5.0161188842e+01   7.1209892122e+00    0.4514131    0.2164195 -47.98  0.002141111    1.854    0.461
       140 -11.5713    211.1624    127.3285   5.5762421261e+01   1.3938367784e+01    0.6573268    0.3735638 -67.18  0.002423357    3.271    0.694
       141 -10.4751    203.3520    120.8237   5.5669431551e+01   1.6705353830e+01    0.3142385    0.2032914 -67.25  0.001371348    2.135    0.532
       142 -10.1707      3.6658    116.6738   1.1229615671e+02   5.0843349554e+01    0.1431835   0.07650974 -44.62 0.0007051474    1.716    0.417
       143 -11.2630    248.6924    117.8716   4.7970681142e+01   8.9042684785e+00    0.3675767    0.2192138 -44.43  0.001290193    1.362    0.266
       144 -11.2697    232.0671    115.7808   4.9880288589e+01   1.2162768996e+01    0.4868335    0.3136718 -87.49  0.002192713    2.753    0.637
       145 -12.4995    219.1771     96.3538   4.7545154609e+01   1.8020395667e+01     1.415339     0.571488 -52.74  0.005381166    2.736    0.634
       146  -9.6756    249.2395     88.6151   4.1980993067e+01   1.3640438803e+01     0.149625    0.1191056  53.17 0.0007803815    1.566    0.361
       147 -10.2835    244.6965     88.3704   4.2464526565e+01   1.4495304893e+01    0.2026163    0.1280641 -65.98 0.0009099405    1.712    0.416
       148  -9.4039    249.9622     81.0329   4.0379456048e+01   1.4703498964e+01    0.1554289    0.1214882 -52.98  0.000686123    1.023    0.022
       149 -11.3578    203.7209     77.6327   4.5538520254e+01   2.4392886226e+01    0.5859311    0.4127556  72.50  0.002481215    1.527    0.345
