#   1 NUMBER                 Running object number                                     
#   2 MAG_AUTO               Kron-like elliptical aperture magnitude                    [mag]
#   3 X_IMAGE                Object position along x                                    [pixel]
#   4 Y_IMAGE                Object position along y                                    [pixel]
#   5 X_WORLD                Barycenter position along world x axis                     [deg]
#   6 Y_WORLD                Barycenter position along world y axis                     [deg]
#   7 A_WORLD                Profile RMS along major axis (world units)                 [deg]
#   8 B_WORLD                Profile RMS along minor axis (world units)                 [deg]
#   9 THETA_WORLD            Position angle (CCW/world-x)                               [deg]
#  10 FWHM_WORLD             FWHM assuming a gaussian core                              [deg]
#  11 ELONGATION             A_IMAGE/B_IMAGE                                           
#  12 ELLIPTICITY            1 - B_IMAGE/A_IMAGE                                       
         1 -15.3666     30.7204     99.4012   7.2259252336e+01   5.3562891130e+01     2.104033     1.522877  63.13   0.01087607    1.565    0.361
         2 -15.4266     12.9818     90.0741   7.7752078907e+01   5.7421333558e+01      2.68805     1.265032  88.84  0.007610631    2.462    0.594
         3 -14.1642     36.8201     58.4504   5.9154430749e+01   6.3430330770e+01     1.605112    0.9688247 -71.10  0.006679496    2.067    0.516
         4 -13.7405     22.8762     41.0504   6.0263999719e+01   6.8859267127e+01    0.8959373    0.7957759  20.69  0.005599983    1.295    0.228
         5 -13.4915     30.0971      5.9452   3.6449983803e+01   7.4350914157e+01     3.224881    0.8510987  44.81   0.01168073    4.179    0.761
         6 -13.7765      4.7432     35.9771   6.9635653654e+01   7.1357232781e+01     2.034677    0.5718672 -54.91  0.008501167    2.405    0.584
         7 -13.5811     16.1132     13.4189   5.1048203798e+01   7.5042021390e+01    0.5834253    0.4917639  64.06  0.003205492    2.042    0.510
         8 -12.8263    248.9846     21.2115   3.5919540802e+02   2.3060003438e+01    0.6515343    0.2251618 -43.46  0.003156191    2.023    0.506
         9 -13.6604    247.1237      6.8074   3.5613603361e+02   2.4991703496e+01     1.050304    0.4542842 -38.07  0.005732794    1.719    0.418
        10 -12.2129    199.9387     20.6772   2.6002797901e+00   3.3493922963e+01    0.4430872    0.2843364 -23.18  0.002352182    1.665    0.399
        11 -11.7041     28.8377     19.9255   4.6318175410e+01   7.2370299513e+01    0.5546509    0.1892252 -44.55  0.002250177    2.758    0.637
        12 -13.3564     93.0078      6.2816   1.2351158211e+01   6.1358592081e+01    0.8652786    0.6729535  49.08   0.00497543    1.175    0.149
        13 -12.3800     78.6256      4.6624   1.5126950022e+01   6.4882357124e+01    0.5576841    0.3870203  53.75  0.002202614    1.315    0.240
        14 -14.2230      6.6721     12.3281   5.7699949182e+01   7.6145104262e+01    0.8680074    0.5514695 -24.58  0.004706584    1.387    0.279
        15 -12.0436    196.2256      4.1258   3.5843169177e+02   3.6079806116e+01    0.3459302      0.20987  -6.35  0.001740262    2.316    0.568
        16 -10.8500    142.7808      1.5985   2.3662554310e+00   4.9315608811e+01    0.3337077     0.123761  78.01  0.001293355    2.660    0.624
        17 -13.6391    102.3438    186.9736   6.4785791858e+01   2.1577953970e+01    0.9124971    0.6266754  80.74  0.003603585    1.912    0.477
        18 -14.3059    216.3284    237.5064   4.8925101091e+01  -3.3135772821e+00     1.062581    0.5619496 -42.86  0.006179275    2.402    0.584
        19 -15.0729    239.0343    241.7846   4.5791770960e+01  -6.3670805215e+00     1.200388    0.8372518  17.25  0.008825101    1.273    0.215
        20 -12.9230    226.4780    244.9567   4.8324815343e+01  -5.3690428181e+00    0.3398381    0.2226561  -7.59  0.001728362    1.257    0.204
        21 -12.9039    206.5482    249.7307   5.2410971748e+01  -3.6845323050e+00    0.4670198    0.1706296  31.14   0.00242912    2.326    0.570
        22 -16.4415    141.3775    240.8716   6.3412497437e+01   5.7381784197e+00     5.158303     1.176201  38.61   0.01928389    3.577    0.720
        23 -14.0042      8.4134    229.5707   8.9614955126e+01   2.3547764583e+01     1.993988    0.1726851  56.12  0.005715002    7.310    0.863
        24 -11.8419      3.2922    178.5327   8.8629600412e+01   3.5110587951e+01    0.8849261    0.3712237 -84.08  0.004282297    2.027    0.507
        25 -15.8676     87.6462    231.6153   7.3448861291e+01   1.4427151888e+01     2.148431     1.289005  80.78  0.009607024    2.254    0.556
        26 -16.0986     69.1416    187.9450   7.3123437476e+01   2.6026485423e+01     4.064864     2.402538  80.36   0.01911303    2.023    0.506
        27  99.0000     17.7631    179.2162   8.5147876857e+01   3.3755786043e+01     2.047264    0.9048591 -85.15  0.009647039    2.042    0.510
        28 -15.1560      7.7148    152.2823   8.5997775738e+01   4.1265941824e+01     3.474824    0.9360511 -82.21   0.01227109    3.293    0.696
        29 -15.1952     66.8360    233.2146   7.7956676286e+01   1.6697261642e+01     2.061401    0.9124372 -82.21  0.009749186    2.961    0.662
        30 -14.1523     56.0646    205.3597   7.8001452813e+01   2.3700018037e+01    0.9317079    0.5232559  43.24  0.003572816    1.540    0.351
        31 -15.4537     37.7791    181.2374   8.0311060598e+01   3.1327908230e+01     2.594188     1.500461  86.66   0.01183783    1.674    0.403
        32 -11.7234      2.0503    250.2605   9.1439171117e+01   2.0212106306e+01    0.2451521    0.1021423  45.00  0.001432928    1.662    0.398
        33 -11.9585    240.7088    141.4225   2.7184013940e+01   7.2804862328e+00    0.2968151    0.1671606  -9.48  0.001329799    2.537    0.606
        34 -15.7107     45.7512    242.0688   8.2851493676e+01   1.7425968141e+01     1.897311    0.6205139  56.60  0.008464426    2.983    0.665
        35  99.0000     49.9079    122.9584   6.9546981638e+01   4.5148326102e+01     2.184209    0.6804866 -71.81  0.006440017    3.745    0.733
        36 -12.6990     41.7768    120.0576   7.1819219993e+01   4.6857586330e+01     1.344469    0.5320334 -78.53  0.004543012    3.008    0.668
        37 -13.3713     30.7542     80.1507   6.8222979381e+01   5.8663784657e+01     1.179954    0.7329739  66.97  0.005305089    2.254    0.556
        38 -11.8455     29.3315    114.5440   7.5289539970e+01   4.9584998916e+01    0.9921774    0.6631492  47.59  0.003776743    1.619    0.382
        39 -11.0097     25.6183    247.1395   8.7001468583e+01   1.8576946949e+01    0.2327813    0.1687477 -38.69  0.001365986    2.292    0.564
        40 -14.2977     35.0489    249.2219   8.5311138856e+01   1.7245680943e+01    0.5546471    0.2223422  36.64  0.002639619    1.922    0.480
        41 -11.4083     22.9552    128.4061   7.9283301564e+01   4.6378329182e+01    0.3958926    0.1832349 -80.22  0.001576548    1.947    0.486
        42 -12.4800      1.4343    120.7285   8.5529870273e+01   4.9903142066e+01    0.8388257   0.08710852 -77.28  0.002028231    6.458    0.845
        43 -12.7010      3.7155    110.3030   8.3816624111e+01   5.2550985957e+01    0.7670501     0.363214 -82.42  0.002675674    1.772    0.436
        44 -12.7923     60.9689    109.6803   6.3103978242e+01   4.7315513183e+01    0.9837229    0.5801156  50.32  0.004217361    1.955    0.489
        45 -13.1723     60.8711    102.5194   6.1495230712e+01   4.9234693294e+01    0.9940934    0.5454772 -60.31  0.004203264    1.653    0.395
        46 -12.3390    141.0569    104.3109   3.7149365804e+01   3.3633241894e+01    0.5737224    0.3884856 -24.35  0.002405967    1.782    0.439
        47 -13.7199    215.4610    103.1564   2.2273292345e+01   1.7993159853e+01     1.061899    0.6079876 -48.70  0.004967158    1.708    0.414
        48 -10.9647    143.7812     89.4860   3.2163759467e+01   3.6158834350e+01    0.3199021    0.2180562 -41.23   0.00141598    1.377    0.274
        49 -12.3360    181.9849     84.1201   2.2765129394e+01   2.8389326677e+01    0.5130692    0.2812999 -52.07  0.002112694    1.929    0.482
        50 -14.2030    101.0349     77.4535   4.0038666921e+01   4.8278048534e+01     1.768808     0.993197 -50.58  0.006905884    1.796    0.443
        51 -11.7514     61.1799     81.3235   5.5686020831e+01   5.4650018660e+01    0.4510858    0.3474266 -64.55  0.001758116    1.309    0.236
        52 -13.7168     88.4302     72.7251   4.2590958227e+01   5.1902628028e+01     1.418043    0.7096931 -51.83  0.005126945    2.071    0.517
        53 -14.1975     49.1185     65.0513   5.5594887071e+01   6.0326653894e+01     1.612007      1.15438 -25.71  0.007912131    1.502    0.334
        54 -12.8716    249.2070    226.3145   4.1745120155e+01  -5.6695288283e+00    0.3552368    0.2227735 -25.89  0.001753017    1.401    0.286
        55 -12.0312    168.7105     62.5727   1.8790873609e+01   3.5196670949e+01    0.2894712    0.1393668  55.35  0.001154322    2.168    0.539
        56 -13.3787    235.6230     48.3907   6.4444350709e+00   2.2325241376e+01    0.5630881    0.4348951  89.46  0.002147672    1.435    0.303
        57 -13.5129    235.7987     40.6497   4.5895309548e+00   2.3303255838e+01     0.777622     0.374204 -45.20  0.003162872    1.633    0.388
        58 -12.0358     18.1095     32.4991   5.9629237271e+01   7.1144642395e+01    0.6787546    0.3739542 -15.00  0.003259474    2.218    0.549
        59 -11.8468     19.5213     49.6435   6.5289616924e+01   6.7203835398e+01    0.4891062    0.3914815 -52.21  0.002285007    1.084    0.078
        60 -13.1116    180.1878    223.3961   5.3355073839e+01   3.2165566265e+00    0.5192651    0.3425811 -57.37  0.002871602    2.383    0.580
        61 -12.7663    193.4206     43.4597   9.5683498786e+00   3.2165348013e+01    0.8156149    0.4515098 -46.23  0.003349751    1.601    0.375
        62 -15.2906      7.7981    241.8634   9.0145943632e+01   2.1240195715e+01     1.520958    0.3753019  60.98  0.006668869    3.385    0.705
        63 -13.4324    103.5353    210.5467   6.7672849379e+01   1.6395913391e+01    0.8776225    0.5941043  65.31  0.004161204    1.743    0.426
        64 -13.9689     30.5779    146.4812   7.8941645542e+01   4.0873162450e+01     2.601152    0.7276573 -73.56  0.008867546    3.140    0.682
        65 -11.3728    201.7431     49.4547   1.0231207808e+01   2.9417871421e+01    0.3801664     0.247258 -86.87  0.001884263    1.803    0.445
        66 -12.5609    155.3605     37.6537   1.3063266855e+01   4.2232927751e+01    0.4269585    0.3089423 -82.01  0.002109799    1.531    0.347
        67 -12.3551    144.7351     33.3509   1.3342691869e+01   4.5484725187e+01    0.7020191    0.2409765  61.49  0.002513002    2.728    0.633
        68 -14.9675     95.8665    170.2442   6.3869560100e+01   2.6434171326e+01     2.035604     1.248307  53.73  0.006509732    1.757    0.431
        69 -15.1892     23.3017    225.8362   8.6488400315e+01   2.2900760230e+01     1.560948    0.5732338  74.59  0.007021716    3.000    0.667
        70 -11.8649    221.6201     22.7147   1.3763627606e+00   2.8443832109e+01    0.3685986     0.212659 -58.53  0.001996346    1.539    0.350
        71 -15.2014      6.0646    212.9028   8.9475532108e+01   2.7159736094e+01     1.378556    0.3703252  61.69  0.005654138    3.328    0.700
        72 -13.6825    119.5293    177.7739   5.9130783766e+01   2.0938796262e+01    0.6303746    0.5116579  54.06   0.00340751    1.284    0.221
        73 -13.8579     51.8568    232.2725   8.0996119090e+01   1.8615805818e+01    0.7510893    0.4148873  56.52   0.00298278    1.568    0.362
        74 -14.8547     22.8548    206.7183   8.5596711038e+01   2.6961546303e+01     2.575409    0.5492675  52.58   0.00927177    3.936    0.746
        75 -10.6427     52.8629    161.8966   7.4324524584e+01   3.4455412441e+01    0.2822371    0.1626338 -65.88 0.0009697971    1.607    0.378
        76 -13.6442    103.4029    196.9656   6.5939600681e+01   1.9236627291e+01    0.8725689    0.6067517  47.04  0.002881008    1.361    0.265
