#   1 NUMBER                 Running object number                                     
#   2 MAG_AUTO               Kron-like elliptical aperture magnitude                    [mag]
#   3 X_IMAGE                Object position along x                                    [pixel]
#   4 Y_IMAGE                Object position along y                                    [pixel]
#   5 X_WORLD                Barycenter position along world x axis                     [deg]
#   6 Y_WORLD                Barycenter position along world y axis                     [deg]
#   7 A_WORLD                Profile RMS along major axis (world units)                 [deg]
#   8 B_WORLD                Profile RMS along minor axis (world units)                 [deg]
#   9 THETA_WORLD            Position angle (CCW/world-x)                               [deg]
#  10 FWHM_WORLD             FWHM assuming a gaussian core                              [deg]
#  11 ELONGATION             A_IMAGE/B_IMAGE                                           
#  12 ELLIPTICITY            1 - B_IMAGE/A_IMAGE                                       
         1 -12.2170    110.2009     53.6168   1.1962182060e+01   5.0288040397e+01    0.5484979    0.2492771 -45.59  0.002047746    2.222    0.550
         2 -11.7560     78.8110     13.9993   4.0945120144e+00   6.3435720038e+01    0.2300822    0.2005266  66.00  0.001389887    1.032    0.031
         3 -11.1027     50.9107     13.5005   1.3614655239e+01   6.9868720740e+01    0.2142502    0.1852927 -38.46 0.0002994711    1.290    0.225
         4 -10.6761    116.6709     11.8333   3.5544631433e+02   5.4336155048e+01    0.2727367    0.1726247  -6.43  0.001341664    2.260    0.557
         5 -11.9587     72.0145      9.5048   3.7710690569e+00   6.5537488913e+01    0.2942035    0.1979766 -18.37 -0.0004979814    1.748    0.428
         6 -11.3260     83.0814      7.2112   3.5977284319e+02   6.3094873776e+01    0.2003191    0.1896855 -42.31 0.0003965744    1.177    0.150
         7 -10.7098     66.4873      5.5706   3.3219477300e+00   6.7236069384e+01    0.2958252    0.1772474 -67.34  0.001375213    2.400    0.583
         8  -9.7955    149.9807      4.9855   3.4928218614e+02   4.6917939556e+01     0.152996    0.1263261 -73.46 0.0004370752    1.010    0.010
         9  -9.9795    103.9898      3.9697   3.5435396294e+02   5.8222816185e+01    0.1533234    0.1371522  89.67 0.0003047422    1.040    0.039
        10 -10.9697     72.7365      2.7493   7.5393008965e-02   6.6009178276e+01    0.1752007     0.142688 -74.37  0.001044095    1.333    0.250
        11 -10.3895    226.2791    246.4430   2.9802613956e+01  -2.7263629946e+00    0.1187439   0.08212671  17.86 0.0003504155    1.451    0.311
        12 -11.4023    139.3018    248.9284   4.5953048206e+01   5.3743038961e+00    0.2774321    0.1768931 -35.66   0.00171058    1.665    0.400
        13 -12.2123     31.0650    214.5463   6.8097660560e+01   2.3865721233e+01    0.6262194    0.3201236 -38.56  0.002764381    2.935    0.659
        14 -11.4190     24.7363    229.0372   7.0444775954e+01   2.1279795393e+01    0.2917061    0.1749378 -69.40 0.0004256288    1.867    0.464
        15 -13.7255     21.8967    217.2928   7.0571194240e+01   2.4087275304e+01    0.9442185    0.5093327  59.57  0.004893249    1.707    0.414
        16 -13.1513     12.9376    214.8224   7.2707711283e+01   2.5407627623e+01    0.7104435    0.4031602 -79.37  0.003842902    1.832    0.454
        17 -13.0473     12.1365    190.5050   7.1819423556e+01   3.1206258948e+01     0.538229     0.295373  89.86 0.0006628628    1.790    0.441
        18 -13.8456      4.2115    216.9853   7.4952787564e+01   2.5621380595e+01     1.313641    0.4997569 -82.22  0.005986126    2.671    0.626
        19 -14.0040      4.6316    200.2760   7.4269848328e+01   2.9426320072e+01     1.117378     0.609171 -72.62  0.005776983    1.886    0.470
        20 -13.4408     19.3662    242.5604   7.2285717377e+01   1.8972453650e+01    0.7519155    0.5519499  -8.71  0.003538758    1.810    0.448
        21 -13.7530     14.9958    229.5696   7.2796066925e+01   2.2016267300e+01     0.662855    0.4948308  72.06  0.003328454    1.276    0.216
        22 -13.6995      6.1040    234.5729   7.5045557239e+01   2.1700994913e+01    0.5772125    0.5176328 -11.34  0.002684024    1.440    0.306
        23 -13.3282      5.5225    248.9967   7.5579391560e+01   1.8862024977e+01    0.8035225    0.3353036  20.54  0.004111111    2.221    0.550
        24 -13.9941      9.4933    240.3427   7.4448229395e+01   2.0249465316e+01     1.000815    0.5808051  -8.85  0.004000241    2.722    0.633
        25 -10.1631     99.8201    246.3799   5.4148247838e+01   1.0113676879e+01    0.1763251   0.09978672  15.45 0.0006156689    1.686    0.407
        26 -10.2078    246.1805    245.2107   2.6626530495e+01  -4.1905015420e+00    0.1192627   0.09116995 -14.49 0.0002524003    1.303    0.233
        27 -10.3082    204.8545    243.7978   3.2938195578e+01  -5.0119352057e-01    0.1345733    0.1140536   1.03  0.001071995    1.343    0.256
        28 -10.6001    186.4128    242.7607   3.6032223568e+01   1.4046999026e+00    0.2341496    0.1258375 -39.59  0.001444965    1.853    0.460
        29 -10.4584    179.3049    241.0998   3.7111935663e+01   2.3537050864e+00    0.1664604    0.1359072 -31.45 0.0003000636    1.378    0.274
        30 -10.4158    143.0050    243.2339   4.4507827707e+01   5.8763236791e+00    0.1798626    0.1606823 -74.94  0.001262695    1.678    0.404
        31  -9.9131     49.7127    249.9965   6.5759609047e+01   1.4708909903e+01    0.1293364      0.10602 -87.66 0.0008794154    1.425    0.298
        32 -11.3233    116.4688    240.9211   4.9889328626e+01   9.2172089734e+00     0.271827    0.1968308  64.82 0.0009691083    2.034    0.508
        33 -10.3686     39.1445    241.9908   6.7713634429e+01   1.7282918651e+01    0.1985205   0.09759008  42.12  0.001054922    1.605    0.377
        34 -10.2684    211.6126    237.7904   3.0970023626e+01  -3.3819334263e-01    0.1294242    0.0896266 -36.68 0.0002169893    1.551    0.355
        35 -10.2059     64.2453    237.9673   6.1569268466e+01   1.5550198063e+01    0.1415788    0.1071648 -76.99 0.0008745387    1.561    0.360
        36 -11.7045    120.1385    235.3205   4.8439038757e+01   9.7820838117e+00     0.285221    0.1659207 -44.74  0.001372219    1.880    0.468
        37  -9.9412     53.7483    236.6116   6.3950457262e+01   1.6912145313e+01    0.1173819   0.08919434 -30.99 0.0006955508    1.673    0.402
        38 -11.2059     30.3761    227.5461   6.9005507393e+01   2.1081240237e+01    0.2416495    0.1945403  49.76  0.000788181    1.052    0.050
        39 -12.8635     36.2235    230.1142   6.7731578713e+01   1.9986450766e+01    0.6295266    0.2963009 -67.58  0.003063337    2.339    0.573
        40 -11.4405     33.5425    224.0056   6.8032448083e+01   2.1543486108e+01    0.2864797    0.1689716 -85.55  0.001388277    1.857    0.462
        41 -11.0186    158.6316    233.6423   4.0096682088e+01   5.6831546815e+00     0.206127    0.1798464  14.61  0.001093149    1.209    0.173
        42 -10.7690     99.6212    232.8034   5.2799835086e+01   1.2616086826e+01    0.2402057    0.1676459  55.21 0.0008702791    1.684    0.406
        43 -10.6266     71.7363    233.2187   5.9403047356e+01   1.5684477430e+01    0.2714238    0.1744703   5.02 0.0009723152    1.800    0.444
        44 -10.4118     73.5825    229.7976   5.8658455039e+01   1.6166362832e+01     0.225178    0.1643954  74.33  0.001043841    1.635    0.389
        45 -11.8122    152.8500    230.3958   4.0831055667e+01   6.8574737199e+00    0.3234161    0.2611994 -29.20  0.002192803    1.256    0.204
        46 -11.6130    155.0352    224.8691   3.9625031657e+01   7.5199783028e+00    0.2560579    0.1714343 -43.84 0.0007848907    1.587    0.370
        47 -12.0688    160.0029    222.3997   3.8263793564e+01   7.3515626132e+00    0.4128934    0.1976899  39.26  0.002053718    2.312    0.568
        48 -10.4547    217.4896    231.4820   2.9106513899e+01  -5.3579703765e-02    0.1095609   0.07921588 -10.12 4.300943e-05    1.015    0.015
        49 -10.4922     61.9621    231.1706   6.1577660905e+01   1.7154625739e+01    0.2694803    0.1499858  22.90  0.001116647    1.613    0.380
        50 -10.6580     57.7409    228.9001   6.2422417302e+01   1.8069967580e+01    0.1986412    0.1629373  39.50 0.0007168347    1.033    0.032
        51 -12.8953    138.2574    228.3437   4.3619672513e+01   8.8933377152e+00    0.2542307    0.2164831 -10.02 0.0004654252    1.110    0.099
        52 -10.3577    221.6326    228.7157   2.8038147720e+01  -7.4640404671e-02    0.1131505   0.06370725  -8.14 0.0007018457    1.696    0.410
        53  -9.9832    194.4945    228.5302   3.2591156993e+01   2.6093204546e+00     0.113184   0.08883891  -5.80 1.859044e-06    1.043    0.042
        54 -13.2791    115.0948    226.1932   4.8483834379e+01   1.2036255518e+01    0.5474765    0.3939715 -50.33  0.001063583    1.554    0.356
        55 -10.8869    230.4904    227.5021   2.6470871035e+01  -7.2721004771e-01    0.1068518   0.07671123 -12.76 0.0008105879    1.012    0.012
        56  -9.5430    204.6922    227.6804   3.0689058971e+01   1.6968474022e+00     0.116538   0.06804836 -11.22 0.0007032546    1.638    0.390
        57  -9.7983    166.7432    227.5817   3.7652256161e+01   5.7406589057e+00    0.1620368   0.09785088  33.32 0.0009441843    1.668    0.401
        58 -11.5992    107.2300    225.5778   5.0224533792e+01   1.3094908668e+01    0.3158029    0.2110658 -13.07  0.001693042    1.816    0.449
        59 -12.1507    147.3112    224.5686   4.1188810194e+01   8.4766929151e+00    0.2986597    0.2597376 -14.41 0.0006300148    1.124    0.110
        60 -10.8247     91.9917    225.1432   5.3774071159e+01   1.4990647914e+01    0.1934029     0.187967 -57.33 0.0005385261    1.193    0.162
        61 -10.2252     80.4324    225.5201   5.6599346765e+01   1.6258948896e+01    0.1288886    0.1113601  31.41 8.907777e-05    1.011    0.011
        62 -12.4036    174.9996    222.6414   3.5339509374e+01   5.5948305244e+00    0.3890619    0.2142739  10.40  0.001290523    1.925    0.480
        63 -12.3477    170.5255    219.7328   3.5781568480e+01   6.5676734809e+00     0.406192     0.227619  18.76 0.0003570897    1.704    0.413
        64 -12.8587    126.0996    221.3682   4.5378925646e+01   1.1601640943e+01    0.6611922    0.3223822  25.40  0.002491598    1.850    0.459
        65 -10.2085    122.2397    217.4314   4.5739049584e+01   1.2817241863e+01     0.200846    0.1149706  26.86  0.000745247    1.554    0.356
        66 -12.3323     41.7824    220.4330   6.5756143583e+01   2.1517719173e+01    0.4293221    0.2408025   5.29  0.002025395    2.304    0.566
        67 -12.3418     48.9137    221.1439   6.4016545551e+01   2.0638067716e+01    0.5064804     0.256986  47.82  0.001544443    1.769    0.435
        68 -10.5415     67.2122    220.8676   5.9413110988e+01   1.8725175366e+01    0.1923137    0.1544817  46.76  0.000454945    1.145    0.127
        69 -11.7390    192.8934    217.6602   3.1270952025e+01   4.3810439134e+00    0.4766443    0.2266951 -31.68  0.002583505    1.957    0.489
        70 -11.4528    120.4733    213.8488   4.5670975271e+01   1.3727862409e+01    0.2598769    0.2205978  47.83 0.0007842596    1.325    0.245
        71 -12.1484    139.9546    207.3098   4.0320329277e+01   1.2481402162e+01     0.509116    0.3256986 -68.59  0.002518324    2.436    0.590
        72 -12.0719    145.9712    215.2428   4.0164449343e+01   1.0268867062e+01    0.3865188     0.288193 -50.01  0.001595256    1.522    0.343
        73 -11.5864    142.3150    214.6849   4.0873997677e+01   1.0822796497e+01    0.2439957    0.2196686  63.50 0.0009257151    1.511    0.338
        74 -10.0028    216.9724    217.0016   2.7048604885e+01   1.9593982236e+00    0.1325086   0.09870768 -13.94 0.0009634349    1.011    0.011
        75  -9.5714     68.3302    217.2716   5.8801184634e+01   1.9367895846e+01    0.1275615   0.09730161 -12.65 0.0002462671    1.587    0.370
        76 -12.1507    127.7302    214.6683   4.4114461061e+01   1.2654302205e+01    0.3206593    0.2267238  42.96   0.00181745    1.520    0.342
        77 -11.8444    108.7782    214.8474   4.8555088436e+01   1.5004590311e+01    0.2883571    0.2385213 -12.95 0.0009468111    1.262    0.208
        78 -11.4136     85.5116    214.9124   5.4246593441e+01   1.7859024202e+01    0.4827408    0.2135968  46.56  0.002057678    2.358    0.576
        79 -11.4606    156.5687    213.1467   3.7621595371e+01   9.3322452114e+00    0.3693625    0.2263907 -58.55  0.001002197    2.234    0.552
        80 -11.3341     40.3362    212.0614   6.5547743433e+01   2.3526333560e+01    0.2917275    0.2745553 -46.27   0.00135672    1.254    0.203
        81 -10.7220    172.4637    211.9741   3.4240406792e+01   7.6082107014e+00    0.1775707     0.109612 -40.10 0.0006992409    1.572    0.364
        82 -10.2668     74.6899    211.6518   5.6631451512e+01   1.9850507455e+01    0.2847402    0.1486857   8.41  0.001181575    2.578    0.612
        83 -11.0383     72.6856    208.9035   5.6862168940e+01   2.0691556717e+01    0.2961531     0.251038  88.48 0.0004983955    1.312    0.238
        84 -10.7933     96.8584    208.1333   5.0622777471e+01   1.7889105365e+01    0.3038171    0.1667246 -59.56  0.001437639    2.009    0.502
        85 -11.3404     26.1618    208.5899   6.9014761643e+01   2.5680077042e+01    0.4067469    0.1996067 -89.30  0.001911141    2.200    0.546
        86 -10.3656    242.3203    209.3024   2.1974657257e+01   5.4941258073e-01    0.1096881   0.06248719 -12.73 0.0002688159    1.628    0.386
        87 -11.4429    161.9314    208.4292   3.5805002512e+01   9.4891894865e+00    0.2863535     0.237325  57.28  0.001765521    1.780    0.438
        88 -10.8014    180.8373    207.8629   3.1990796475e+01   7.2868289592e+00    0.1892414    0.1420939 -10.58 0.0009827813    1.172    0.147
        89 -12.3542     35.8198    205.7228   6.6289789171e+01   2.5431745014e+01    0.4292884    0.3939272  49.87  0.002743054    1.068    0.064
        90 -10.6158    103.4685    205.9206   4.8699663015e+01   1.7509385028e+01    0.1885177    0.1346996 -59.19 0.0008862537    1.558    0.358
        91 -10.6747     46.9885    206.5211   6.3385079009e+01   2.4111548576e+01    0.2109351    0.1194096  26.79  0.001033211    1.594    0.372
        92 -12.0358    145.9296    202.6420   3.8300239416e+01   1.2577278978e+01    0.4360102    0.2677473 -36.35  0.002317254    1.634    0.388
        93 -10.4951    150.3865    203.8007   3.7512793041e+01   1.1781038947e+01    0.1921807    0.1416845 -11.10   0.00110815    1.367    0.268
        94 -10.8971     17.0254    204.7298   7.1201751098e+01   2.7383821646e+01    0.3557186    0.1457873  52.51  0.001577288    2.141    0.533
        95 -10.5988     21.0115    204.2041   7.0123656384e+01   2.7163408384e+01    0.2496894    0.2144052 -44.32  0.001096094    1.413    0.292
        96 -10.2787    128.3866    204.2326   4.2490435119e+01   1.4585568146e+01    0.1715053    0.1291926 -66.64 0.0009442095    1.693    0.409
        97 -12.6552     84.8623    198.7519   5.2536536528e+01   2.1466425815e+01    0.7514663    0.4483984 -63.73  0.003666606    1.833    0.455
        98 -12.3829     91.7574    199.0058   5.0769810362e+01   2.0521933453e+01    0.5467008    0.2941776 -43.47  0.001069255    2.102    0.524
        99 -10.7981     92.4949    194.0044   4.9924576751e+01   2.1543836167e+01    0.2750611    0.2515487 -80.24 0.0008806242    1.211    0.174
       100 -10.6489    231.0253    203.2233   2.2702754457e+01   2.4603795966e+00    0.1275676   0.08152246  21.14 0.0007349038    1.635    0.388
       101 -11.3694    136.8085    199.1468   3.9796049033e+01   1.4458532601e+01    0.4509252    0.3153608 -44.99  0.002425396    1.462    0.316
       102 -11.1745    176.7193    198.4662   3.1280227865e+01   9.3529602817e+00    0.2079725    0.1756903  38.26  0.001025006    1.460    0.315
       103 -12.9187     23.2770    194.3074   6.8942404239e+01   2.9333071307e+01    0.5703571    0.2984807  59.21  0.002274483    1.818    0.450
       104 -11.6539     20.4039    197.7512   6.9931663524e+01   2.8751644767e+01    0.3162182    0.2352461 -62.89  0.001031297    1.481    0.325
       105 -10.7835    150.3094    197.3187   3.6513291254e+01   1.2993602038e+01    0.2369018     0.166574 -74.68  0.001173452    2.445    0.591
       106 -11.8317    122.6127    195.8536   4.2610670863e+01   1.7052909894e+01    0.3054722    0.2295703  53.06  0.000970084    1.581    0.367
       107 -11.4502     36.3155    196.4816   6.5488508285e+01   2.7576481279e+01    0.4792435    0.1751441  48.92 0.0008234882    2.549    0.608
       108 -11.7941    192.5676    193.8707   2.7554865938e+01   8.1506909202e+00    0.2495921    0.2180152 -19.32 0.0003734177    1.154    0.133
       109 -10.4717    160.5981    192.7967   3.3591333461e+01   1.2451852353e+01    0.1662028    0.1209908 -52.48 0.0005476179    1.567    0.362
       110 -11.7957    132.8890    191.6542   3.9527791830e+01   1.6486488402e+01    0.3671656    0.2613723 -21.67  0.001225214    1.541    0.351
       111 -11.2155     50.7751    190.8674   6.0974231980e+01   2.7423229346e+01    0.4545455    0.2084071  55.77  0.001826226    2.414    0.586
       112 -11.4230    110.3662    188.5245   4.4527339213e+01   2.0316982476e+01    0.3386144    0.2218143 -63.10   0.00166818    1.740    0.425
       113 -10.9603    153.3660    187.7934   3.4291562610e+01   1.4378793390e+01    0.1923041    0.1117485 -37.46 0.0009527337    1.687    0.407
       114 -11.7206     17.1478    198.8684   7.0872860192e+01   2.8762573472e+01    0.3934629    0.1806007 -83.86 0.0003681634    2.217    0.549
       115 -12.5215      3.3995    184.3667   7.3985332747e+01   3.3387800402e+01    0.5179883    0.3186927  67.76  0.001825908    1.461    0.316
       116 -12.2682      1.9636    175.1424   7.4013248023e+01   3.5819316499e+01    0.5190833    0.2008325 -85.55  0.001786336    2.461    0.594
       117 -10.1754    208.5528    186.4798   2.3534957942e+01   7.3942513578e+00    0.1212417   0.09377141 -18.24 -8.337536e-05    1.053    0.050
       118 -11.6953    128.2505    185.7088   3.9668983477e+01   1.8369716459e+01    0.2725949    0.2152269 -11.87  0.001494911    1.350    0.259
       119 -11.1241    163.9045    184.4370   3.1492570878e+01   1.3541881732e+01     0.316156    0.1859026 -53.01  0.001578974    1.926    0.481
       120 -11.8880     26.1136    183.7749   6.7445884974e+01   3.1692675676e+01     0.312594    0.2274393  76.11  0.001693144    1.322    0.244
       121 -10.1357    181.8329    184.2001   2.7899534418e+01   1.1145491414e+01    0.1728224    0.1271969 -15.21 0.0002891391    1.296    0.228
       122 -10.7448    105.2404    183.0243   4.5010204769e+01   2.2269252890e+01    0.1953483    0.1812927 -50.77  0.000566935    1.133    0.117
       123 -11.2998     94.7394    180.7807   4.7466965965e+01   2.4277267526e+01    0.4335012    0.2307174 -52.20  0.001763203    1.921    0.480
       124 -10.4784    223.3225    182.0018   2.0406804051e+01   6.3456421394e+00    0.1755374    0.0838426 -54.45  0.000704539    4.251    0.765
       125 -11.7172    137.0741    176.6179   3.6040821305e+01   1.8970574167e+01    0.4228145    0.2830381 -62.18   0.00095901    1.815    0.449
       126 -11.5459    117.2276    177.9538   4.1113716457e+01   2.1655487099e+01    0.3169773    0.1974935  35.13  0.000558691    1.542    0.352
       127 -13.3044    127.3392    173.4305   3.7819324686e+01   2.1122469613e+01    0.4756204    0.3527264 -43.27 0.0004873339    1.342    0.255
       128 -12.7655    129.2745    169.6855   3.6681612829e+01   2.1636887449e+01      0.49238    0.4169633  73.90 0.0002337463    1.504    0.335
       129 -11.2513    107.0949    175.5535   4.3343502326e+01   2.3702681446e+01     0.254028    0.2320478  66.00 0.0005892999    1.203    0.169
       130 -11.2261     31.4468    175.6286   6.5241648377e+01   3.3277057742e+01    0.3226889    0.2052893 -83.26  0.001583445    1.575    0.365
       131 -11.7751     90.4499    174.2811   4.7672608236e+01   2.6428958469e+01    0.3264957     0.241624  73.72  0.001545322    1.667    0.400
       132 -11.5899     91.3016    169.3776   4.6672449815e+01   2.7492720655e+01    0.4164636    0.2846602 -78.28  0.001931275    1.773    0.436
       133 -10.6756     79.8242    173.1240   5.0521193971e+01   2.8200935908e+01     0.261298    0.2007807  29.29 0.0008604763    1.254    0.203
       134 -11.7474     14.9842    170.9989   6.9898909310e+01   3.5933807383e+01    0.2890881    0.2076379 -34.34 0.0008799372    1.714    0.417
       135 -13.6892     17.4625    167.5913   6.8911283900e+01   3.6628825294e+01    0.8590521    0.3969769  62.39  0.003556797    2.215    0.548
       136 -10.3373    208.4430    170.2392   2.0718324640e+01   9.9919407513e+00    0.1635311    0.1018703 -45.50 0.0005308223    1.573    0.364
       137 -11.4138    152.9524    170.3288   3.1309119702e+01   1.7850602160e+01    0.1893299    0.1709663   1.39 0.0006420579    1.062    0.058
       138 -10.1857    177.2565    169.6496   2.6173858348e+01   1.4368790454e+01    0.1203745    0.1014047 -67.25  0.000384342    1.601    0.375
       139 -11.4372    202.0499    166.7360   2.1148061570e+01   1.1410510858e+01    0.2463129    0.1583439 -51.39 0.0008550331    1.766    0.434
       140 -11.3138    121.9599    167.9093   3.8185075107e+01   2.3168925372e+01    0.3413585    0.1818385  40.77 0.0008526981    1.888    0.470
       141 -11.3588    171.5350    166.0482   2.6626646970e+01   1.5874102121e+01     0.242514    0.2183999  76.31  0.001176821    1.526    0.345
       142 -12.3413    170.2264    160.2318   2.5781400146e+01   1.7169282732e+01    0.4545297    0.2753378 -48.17  0.002293007    1.616    0.381
       143  -9.7206     77.5211    166.5152   5.0227196637e+01   3.0170819753e+01    0.1467612    0.1403906  50.16 1.700744e-05    1.006    0.006
       144 -10.6176    110.7740    165.1848   4.0609157762e+01   2.5540497121e+01     0.205571    0.1698974 -13.52 0.0006450817    1.349    0.259
       145 -12.7360      5.8420    160.2923   7.2108463706e+01   3.9436834464e+01    0.4956256    0.3234401  63.55  0.002228586    1.408    0.290
       146 -11.9559     24.9987    160.5942   6.5982673159e+01   3.7848799634e+01    0.4198698     0.225626 -49.60  0.001832231    2.051    0.513
       147 -12.0850     12.7320    161.0246   6.9958523881e+01   3.8746596438e+01     0.369326    0.2419945 -75.23  0.001234101    1.458    0.314
       148  -9.8200    182.9682    160.9832   2.3462778431e+01   1.5105922495e+01    0.1540301    0.1337922 -22.91 0.0003371539    1.009    0.009
       149 -10.1158     37.3864    160.8042   6.1999151329e+01   3.6596630983e+01    0.1984654    0.1267571 -62.16 0.0003661565    1.557    0.358
       150 -10.9413    105.1255    158.3425   4.0918409252e+01   2.8047123444e+01     0.388157    0.1892674  62.67  0.001031232    5.448    0.816
       151 -10.0284    151.2937    158.6631   2.9467055409e+01   2.0466498997e+01    0.1340148    0.1121098 -88.94 0.0007027263    1.646    0.392
       152 -11.4107    142.6869    172.4491   3.3998175230e+01   1.8984821842e+01    0.4056925    0.1998327  44.24  0.001728391    2.273    0.560
       153 -11.4195    132.4992    156.8189   3.3487191650e+01   2.3930724706e+01    0.2700674    0.2083874  33.44  0.001401677    1.311    0.238
       154  -9.6500     90.7098    157.2722   4.4839424093e+01   3.0564829162e+01    0.1486004    0.1122053  63.33 0.0002064379    1.512    0.339
       155 -10.2557    146.0000    155.0710   2.9951979170e+01   2.2073371743e+01    0.2156918     0.195114 -64.48 0.0009397427    1.237    0.191
       156 -10.6775    143.7016    152.6960   3.0006606427e+01   2.2955306597e+01    0.1916943    0.1731742  84.97 0.0004092188    1.347    0.257
       157 -10.3541    141.0584    155.3145   3.1142804016e+01   2.2839419624e+01    0.1922817    0.1869978  -8.28 0.0007897986    1.050    0.047
       158  -9.8865    124.6177    155.7257   3.5242179707e+01   2.5478713367e+01    0.1510095    0.1120172  -7.01 0.0006999117    1.708    0.414
       159 -10.6198     20.7083    155.1719   6.6927841182e+01   3.9687304396e+01     0.247473    0.1779095  41.46 0.0007813266    1.318    0.241
       160 -11.1091      1.6708    154.1888   7.3122938477e+01   4.1339381503e+01    0.3430084    0.1506276  86.91  0.001146236    2.186    0.543
       161 -12.0299      4.5448    149.6701   7.1924530255e+01   4.2379229473e+01    0.2993745    0.2454966  40.51 0.0008375007    1.199    0.166
       162 -10.8707     13.7020    154.1767   6.9171047648e+01   4.0517571776e+01    0.2413325    0.1742366  41.35 0.0005754567    1.314    0.239
       163 -11.3180    172.8283    152.4511   2.3742722227e+01   1.8238808829e+01    0.2551663    0.1768123 -40.53 0.0006991883    1.305    0.234
       164 -11.4396     62.8221    177.0370   5.6002579705e+01   2.9446354708e+01    0.2824516    0.2020174  16.13 0.0004810872    1.494    0.331
       165 -11.1000     81.7322    152.9549   4.6788783582e+01   3.3017028392e+01    0.2649481    0.2020387 -47.18 0.0003089104    1.358    0.264
       166 -11.1881     84.3386    149.9191   4.5460985280e+01   3.3399926924e+01    0.2720505    0.2489466  12.91 0.0007541719    1.153    0.133
       167 -12.0962     75.1174    151.1564   4.8539791616e+01   3.4457660223e+01    0.4007401     0.325666  65.30  0.002009663    1.305    0.234
       168 -10.5953     64.6577    151.3007   5.1903857148e+01   3.5887891664e+01    0.1626825    0.1075753  59.76 0.0007037314    1.674    0.403
       169 -11.1917     44.1447    151.1169   5.8658533574e+01   3.8487405640e+01    0.2284868    0.2017558 -39.34  0.001223183    1.246    0.197
       170 -11.5937     27.0825    150.4654   6.4361081380e+01   4.0411582398e+01    0.4618323    0.2321597 -16.35  0.001636949    3.355    0.702
       171 -12.6066     19.5970    149.9181   6.6856661692e+01   4.1213402883e+01    0.5042333    0.2944261  61.48  0.001577051    1.712    0.416
       172 -11.2290    109.0626    149.0219   3.8067493247e+01   2.9635150008e+01    0.3135783     0.220265 -54.90 0.0005084109    1.427    0.299
       173 -10.6176     96.3074    148.9814   4.1697970390e+01   3.1748202555e+01    0.2074386    0.1928219 -59.44 0.0003846608    1.082    0.076
       174 -10.2701     58.9777    147.0737   5.3121368407e+01   3.7775872779e+01    0.1837625    0.1694245 -82.29 0.0009797548    1.068    0.064
       175  -9.8819    231.6963    145.3109   1.2666326226e+01   1.0884122067e+01    0.1104843   0.08223412 -55.37 0.0002382273    1.611    0.379
       176 -10.3959    170.4691    145.5410   2.2812654777e+01   1.9938705013e+01    0.1363217    0.1225223 -30.95 2.998484e-05    1.008    0.008
       177 -10.5849    157.4642    145.3498   2.5444883935e+01   2.2152390946e+01    0.2440726    0.1321817  40.92  0.001097096    1.974    0.493
       178 -10.4861    105.2266    145.0320   3.8354732458e+01   3.1242247708e+01    0.2363615    0.2083595 -23.65  0.001227341    1.223    0.182
       179 -10.9897    102.2430    142.1180   3.8625793786e+01   3.2458889364e+01    0.3414424    0.2576773 -83.37 0.0009429358    1.636    0.389
       180 -10.2819     85.3783    144.1080   4.4080977001e+01   3.4727645273e+01    0.2366702    0.1836801 -40.04 0.0005908326    1.381    0.276
       181  -9.6526     41.3360    143.2536   5.8611924292e+01   4.0956320603e+01    0.1471805    0.1116009 -28.30 0.0004920634    1.567    0.362
       182 -11.0153      3.4573    143.4943   7.1923347419e+01   4.4129994659e+01    0.1398801    0.1256664  83.69 5.226162e-05    1.024    0.024
       183 -11.2376     50.5081    142.0152   5.5242786881e+01   4.0226111627e+01    0.2966944    0.1720852  42.14 0.0005232202    1.677    0.404
       184 -11.8951     13.0470    141.7566   6.8446454804e+01   4.3969161070e+01    0.2981142    0.1831196  31.57  0.000851434    1.597    0.374
       185  -9.8072    164.9796    141.2118   2.3015090130e+01   2.1698804582e+01    0.1735387    0.1127312  40.63 0.0008594505    1.674    0.403
       186  -9.9888     93.3053    140.3041   4.0912093300e+01   3.4411560543e+01    0.1545988    0.1190539 -20.77 0.0002830925    1.600    0.375
       187 -11.3037     96.9228    138.2560   3.9407941906e+01   3.4317765481e+01    0.2683885    0.2134891 -49.49 0.0002727011    1.254    0.203
       188 -10.2979     59.6679    139.6851   5.1715951456e+01   3.9681878711e+01    0.1588625    0.1148156 -29.31 0.0007046027    1.683    0.406
       189 -10.1517     41.4629    137.9665   5.7854532229e+01   4.2403830438e+01    0.2269307     0.117189  76.22 0.0008095029    2.625    0.619
       190 -11.0872     19.9961    137.9760   6.5620135394e+01   4.4481678508e+01    0.2192001     0.207093  87.03 0.0005429374    1.039    0.037
       191 -11.7322      1.7949    136.8588   7.2098747519e+01   4.6048895829e+01    0.4208818    0.1377102 -71.00  0.001436293    2.626    0.619
       192 -12.0063     66.4545    137.0827   4.8950657823e+01   3.9438923365e+01    0.6439086    0.1544001  34.87  0.001868858    3.552    0.718
       193 -13.6285     14.0864    133.8485   6.7394512043e+01   4.6089544925e+01    0.5801309     0.513956  30.94  0.003295995    1.183    0.154
       194 -12.5896     20.3143    131.3652   6.4827429611e+01   4.6301843959e+01    0.5093963    0.2610419 -57.33  0.001034787    1.862    0.463
       195 -11.1127      7.6027    135.1472   6.9883207672e+01   4.6172077669e+01    0.2436077    0.1767745  41.68 0.0006191526    1.355    0.262
       196  -9.7674    211.0361    134.0007   1.3451899319e+01   1.5576745228e+01    0.1469844    0.1231404 -33.46 0.0002970392    1.026    0.026
       197 -10.0591    114.4909    134.5365   3.3568495975e+01   3.2138161595e+01    0.1501602    0.1461144 -29.76 -0.0001630453    1.035    0.034
       198 -10.0186    160.3763    132.7250   2.2142438065e+01   2.4182337925e+01    0.1965244    0.1228921 -36.07 0.0004422478    1.566    0.361
       199 -11.5950     49.9262    130.7813   5.3701744909e+01   4.3387996450e+01    0.4216413    0.2100038   3.26  0.001349583    3.578    0.721
       200 -11.4483     67.6379    129.6621   4.7172392381e+01   4.1256972141e+01     0.455745    0.2432033 -84.43  0.001559658    2.891    0.654
       201 -11.8194     35.8359    126.8409   5.8362630056e+01   4.6115607452e+01    0.3582733    0.2186467 -68.98 0.0002505191    1.555    0.357
       202  -9.9171    130.3996    128.1487   2.7956091309e+01   3.0667892038e+01    0.2112652    0.1386309 -59.71  0.000617519    1.659    0.397
       203 -10.2829    121.6670    128.3428   3.0249363827e+01   3.2261980695e+01    0.1570687    0.1198849  84.04 0.0007050766    1.756    0.431
       204 -11.4138     82.6673    127.3246   4.1604971145e+01   3.9499607600e+01    0.2682039    0.2652706   2.52  0.000514691    1.058    0.055
       205 -10.2866     49.2390    123.8199   5.2777529527e+01   4.5395868147e+01    0.2071705    0.1885387 -70.05 0.0003300415    1.068    0.063
       206 -12.3384     57.3824    126.6173   5.0255446115e+01   4.3550885139e+01     0.417183    0.3532842 -28.84 0.0008917826    1.323    0.244
       207 -11.4597     53.1616    122.7230   5.1102903699e+01   4.5187619187e+01    0.4727564    0.2499681  59.65    0.0017334    2.480    0.597
       208 -13.4825     13.3990    121.8470   6.6504643046e+01   4.9496586349e+01     0.940278    0.4688552 -48.70  0.003260989    2.048    0.512
       209 -10.7278    194.1238    121.8779   1.3587071695e+01   2.0326935011e+01     0.178426    0.1434633 -21.17 0.0005095396    1.299    0.230
       210 -10.2750    179.1021    121.8523   1.6134764621e+01   2.2931035382e+01     0.196406     0.168757 -56.58 0.0003410953    1.175    0.149
       211 -10.4880    105.2702    121.3811   3.3209821039e+01   3.6974275211e+01    0.2162976    0.1420939  48.88 0.0007051518    1.593    0.372
       212 -11.6617     28.3088    120.5005   6.0402057255e+01   4.8646849649e+01    0.3371728    0.2869645  14.69  0.001458243    1.271    0.213
       213  -9.7354    118.7893    120.0181   2.9072710773e+01   3.4721153971e+01    0.2012159    0.1198493 -50.21            0    1.633    0.388
       214 -12.4911     81.9725    117.9613   3.9773959794e+01   4.2032496219e+01    0.5513763    0.4446113 -23.64  0.002628017    1.477    0.323
       215 -11.0563     38.2143    119.0942   5.6247450948e+01   4.8021485639e+01    0.2696387    0.2323348 -35.46  0.001076421    1.247    0.198
       216 -10.4287     95.5804    119.5152   3.5708471249e+01   3.9222813797e+01    0.2417828    0.1981638  53.18  1.40474e-05    1.260    0.206
       217 -10.6373     96.5052    116.4671   3.4695215496e+01   3.9804283371e+01    0.3016991    0.1455997 -48.78 8.580831e-05    2.041    0.510
       218 -11.3961     54.5831    117.0775   4.9489235532e+01   4.6539395672e+01    0.2745737    0.2475576  45.14  0.000623731    1.114    0.103
       219 -12.9023      4.3577    121.8722   7.0076748872e+01   5.0060273115e+01    0.4584787    0.3146385 -57.42  0.002334278    1.410    0.291
       220 -12.0286     60.5111    114.8834   4.6784894504e+01   4.6288363789e+01    0.3346104    0.2708976  24.64  0.001641197    1.301    0.231
       221 -12.6975     61.8018    109.2203   4.5059350576e+01   4.7610039580e+01    0.5293407    0.4658699 -87.45  0.001991093    1.175    0.149
       222 -12.5581      5.4923    111.1189   6.8676153426e+01   5.2996135605e+01    0.7513718    0.3505442 -21.55  0.002905104    2.831    0.647
       223 -12.2754      1.6624    108.3368   7.0046168089e+01   5.3969326499e+01    0.4442171    0.2006786 -62.43 0.0008729313    1.946    0.486
       224 -10.0499    165.6611    112.3269   1.6458796268e+01   2.7197997428e+01    0.1443772    0.1072203 -75.36 0.0007051613    1.730    0.422
       225 -10.9700    114.9936    112.4925   2.8265996448e+01   3.7191395692e+01    0.2237468    0.1517375  43.72 0.0003865747    1.511    0.338
       226  -9.8901     87.5777    108.4964   3.5615434994e+01   4.3426598604e+01    0.1546216    0.1496126 -74.01 0.0001613729    1.012    0.012
       227 -10.5260    115.2497    105.6679   2.6447012290e+01   3.8691802937e+01    0.2127393     0.197585 -86.64 0.0006276009    1.100    0.091
       228 -11.6688     66.3156    105.5396   4.2478831885e+01   4.7872457841e+01    0.3716418    0.1908279  54.62  0.001203775    2.518    0.603
       229 -12.2911     11.9894    104.8246   6.5192123579e+01   5.4356721947e+01    0.4048385     0.346622  17.70  0.001394257    1.259    0.206
       230 -12.9953      6.0114     96.9108   6.6951672102e+01   5.6912109842e+01     0.547693    0.4537844 -74.03    0.0025372    1.103    0.093
       231 -10.6659    167.1302    104.8639   1.4411846019e+01   2.8324229435e+01    0.2079716    0.1728434 -58.73   0.00034992    1.169    0.145
       232 -11.8173     26.1875    125.2635   6.1870116279e+01   4.7506576955e+01    0.3935335    0.2102111  32.12   0.00169413    1.830    0.454
       233 -10.6828     78.4099    102.0765   3.7144327977e+01   4.6697543841e+01    0.3081203    0.2216464  45.71  0.000918549    1.406    0.289
       234 -11.4901     55.9859    101.1800   4.5507338611e+01   5.0619126078e+01    0.2914046    0.2337729 -51.01 0.0003955866    1.230    0.187
       235 -10.3911     57.9737     97.5111   4.3810413151e+01   5.1284394617e+01    0.2486656    0.1846588  47.85  0.000767736    1.394    0.283
       236  -9.4274    128.2820    100.6877   2.1716035403e+01   3.7086448934e+01    0.1506361    0.1163679 -80.84 0.0002884238    1.571    0.363
       237 -11.0610     94.3991     98.4102   3.0721004090e+01   4.4567348771e+01    0.3690907     0.238938  59.72  0.001547785    1.832    0.454
       238 -10.0387    178.6709     98.3210   1.0825840997e+01   2.7268572683e+01    0.1410606   0.09908174 -68.93 0.0004726069    1.691    0.408
       239 -10.9614     41.9366     93.5315   4.9727863220e+01   5.4590514088e+01    0.5030012    0.2757828 -56.62    0.0010815    1.711    0.415
       240 -10.3685    118.9630     94.0469   2.2303180558e+01   4.0469847806e+01    0.2156294    0.1831014  -5.91 0.0003143631    1.506    0.336
       241 -10.9325     90.1910     94.2532   3.0942837290e+01   4.6379132944e+01    0.2502257    0.2047413  15.39  0.001194312    1.486    0.327
       242 -11.4920     26.4449     92.5944   5.6669917514e+01   5.6571691815e+01    0.3642733    0.3074235 -28.72  0.001156102    1.244    0.196
       243 -10.6498     57.8259     91.8281   4.2420035103e+01   5.2778894903e+01    0.2218938    0.2033679 -22.23 0.0003386873    1.166    0.142
       244 -10.9310     11.6863     90.9241   6.3468916862e+01   5.8219344146e+01    0.2486394    0.2048906  28.28 0.0002868859    1.286    0.223
       245  -9.7044    110.2895     90.7077   2.3735240421e+01   4.3038512486e+01    0.1518875    0.1189095 -87.77 0.0002959983    1.546    0.353
       246 -11.3649     73.6116     90.0917   3.5653751014e+01   5.0532379182e+01    0.2689103    0.2107204  50.00 0.0007352509    1.305    0.234
       247 -11.9368      9.9220     79.8481   6.2631361307e+01   6.1332718946e+01    0.6390927    0.3459741 -86.29  0.002791025    1.992    0.498
       248 -12.7227      2.8296     87.1077   6.7310604247e+01   5.9758793759e+01     0.545159    0.2931899 -84.42  0.001672704    1.810    0.448
       249 -12.2395      7.1503     86.6179   6.5088737456e+01   5.9669527882e+01    0.2930486    0.2804925 -64.37 0.0006209424    1.040    0.039
       250 -10.6975    124.8694     87.8040   1.9028675746e+01   4.0496944739e+01    0.3097791     0.195804 -40.67 0.0009191955    1.589    0.371
       251 -12.0012     54.7923     85.3942   4.1974151170e+01   5.4891663824e+01    0.5300311    0.4800294 -58.92   0.00282983    1.089    0.082
       252 -10.1325    135.0165     84.2370   1.5615868493e+01   3.8976697918e+01    0.2787043    0.1829836 -32.50  0.001161675    1.706    0.414
       253  -9.7265    129.7281     85.3024   1.7138254195e+01   3.9933402349e+01    0.1484767    0.1124896 -75.97 0.0002981634    1.534    0.348
       254 -10.1594     79.3163     82.3448   3.1230150131e+01   5.1297953378e+01    0.1573444    0.1225279 -12.51 0.0007048327    1.718    0.418
       255 -11.1140     64.1521     81.7508   3.6950963210e+01   5.4247168844e+01    0.2506295    0.2404347 -70.98 0.0004512872    1.047    0.045
       256 -11.9441    151.9995     79.5425   1.0799026581e+01   3.6118370284e+01    0.2986079    0.2833934  65.18 0.0009799793    1.149    0.130
       257 -11.8486     89.1417     78.3653   2.6530480547e+01   5.0208151802e+01     0.380239    0.2580293 -39.86 0.0004204963    1.561    0.360
       258 -10.2814    105.4654     73.7257   1.9965051277e+01   4.7648210707e+01    0.3005289    0.1428786 -48.40  0.001149778    2.129    0.530
       259 -10.4179     44.7967     73.2034   4.3042366577e+01   5.9436664789e+01    0.2507722    0.1495768  67.12 0.0009413266    2.755    0.637
       260 -11.6272     70.5393     70.3958   3.0720390630e+01   5.5713696007e+01    0.4468294    0.3166908 -26.51  0.001239212    1.775    0.437
       261 -11.5529     53.8210     70.9331   3.8066467389e+01   5.8588278107e+01    0.2715189    0.2279993  50.01 0.0009328878    1.241    0.194
       262 -11.0969    162.0266     70.3203   6.5305016134e+00   3.5517885997e+01     0.189216    0.1721897 -80.46 0.0004487315    1.075    0.070
       263 -10.2711     80.8804     68.1716   2.6031215976e+01   5.4120914492e+01    0.2043296    0.1790012   7.76  0.000364389    1.348    0.258
       264 -12.2532     48.2009     64.0425   3.8430484794e+01   6.1108391847e+01    0.5506037    0.3776333  71.80  0.001420068    2.180    0.541
       265 -11.9416      4.1547     79.8431   6.5672908706e+01   6.1656807020e+01    0.4711582    0.2334458  43.18  0.002041492    2.217    0.549
       266 -10.2306     13.4540     66.3010   5.8049428864e+01   6.4649642150e+01    0.1874032    0.1317163 -85.14 0.0009391802    1.557    0.358
       267 -11.4174    114.4138     61.9108   1.3712581146e+01   4.7850506922e+01    0.3003244     0.204052  57.31 0.0009046915    1.453    0.312
       268 -10.4999    133.7928     61.2081   9.0975296729e+00   4.3438602524e+01    0.1878503    0.1741588  27.46 0.0007449799    1.310    0.236
       269 -11.9945     18.6337     59.9047   5.3380987265e+01   6.5836994163e+01    0.4131163    0.3167381   1.24  0.002200327    1.361    0.265
       270 -12.1113     12.5223     59.8341   5.7094055571e+01   6.6359328458e+01    0.2878526    0.2544031 -22.93 0.0003469361    1.099    0.090
       271 -11.8887     23.3246     55.9801   4.9384523691e+01   6.6333170620e+01    0.4102708    0.3644635 -33.29   0.00219147    1.065    0.061
       272 -12.0077     34.2625     59.1210   4.4040446273e+01   6.4286242542e+01    0.2934373    0.2558956 -56.41 0.0003416161    1.156    0.135
       273 -10.4278     28.0843     60.1783   4.7881207629e+01   6.4795974302e+01    0.2248769    0.1810973 -23.21 0.0009694177    1.276    0.216
       274 -10.7436    219.9647     59.0299   3.5655427913e+02   2.5613888725e+01    0.1793952    0.1384002 -52.47 0.0003029627    1.012    0.012
       275 -10.7532     42.3392     58.7609   3.9551561216e+01   6.3229577229e+01    0.3391082    0.2074156 -29.62  0.001474457    2.027    0.507
       276 -10.6448    126.2478     54.9854   8.7108864330e+00   4.6249789273e+01    0.2003493    0.1795314 -59.71 0.0003276409    1.076    0.071
       277 -10.2144    190.2727    248.9716   3.6168858970e+01   1.7924998447e-01    0.1467777    0.1068923 -12.07 -0.000430966    1.115    0.103
       278 -11.4488    115.8246     54.1479   1.0772430046e+01   4.8864581481e+01    0.2184351    0.1873221 -76.86 0.0004117535    1.162    0.139
       279 -10.8565    151.7035     52.3649   3.2018814185e+00   4.0688042149e+01    0.2762731    0.1474175 -48.30  0.001267105    1.744    0.427
       280 -12.0165     16.0894     49.8467   5.2041189760e+01   6.8506325127e+01     0.246232    0.2441025  -1.84 0.0003249836    1.109    0.098
       281 -12.3027     98.4141     47.8623   1.3006970530e+01   5.4039924843e+01    0.5400866    0.3132298 -67.57  0.001799963    2.649    0.623
       282 -11.8062     30.4946     50.2058   4.3070802629e+01   6.6834941893e+01    0.3108682    0.2017962  18.20  0.001519095    1.625    0.385
       283 -10.9612    178.7855     47.6623   3.5817473217e+02   3.5323971857e+01    0.3478783    0.1480948 -52.96  0.001508232    2.251    0.556
       284 -11.0502    127.1571     49.6076   6.7747867486e+00   4.6893432886e+01      0.20288    0.1231559  50.81 0.0006039347    1.726    0.421
       285  -9.9988     78.2192     47.0174   1.9047883072e+01   5.8810783971e+01    0.1880945    0.1188988 -40.45 0.0006481485    1.654    0.395
       286 -11.7845     37.1436     44.4696   3.6872541649e+01   6.7147949187e+01    0.2951753    0.2305607  73.14  0.001299834    1.787    0.440
       287 -10.0394     49.9793     44.0071   2.9749051256e+01   6.5099396920e+01    0.1695712    0.1522841  32.36 0.0005394887    1.071    0.067
       288  -9.7917      4.7116     43.6947   5.8106548801e+01   7.0826594281e+01    0.1405156   0.08414042 -36.20 0.0002508392    1.569    0.363
       289 -12.8818     32.1836     39.8031   3.7827112833e+01   6.8853958192e+01    0.5325012    0.2444009  38.86  0.002282035    2.162    0.537
       290  -9.6460    126.2340     39.6594   3.6554737301e+00   4.8599043584e+01    0.1426059   0.09587177 -61.98 0.0001454308    1.547    0.353
       291 -11.0710     80.5905     36.8426   1.3982322342e+01   5.9972373537e+01    0.4410335    0.2199145 -44.86  0.001875402    2.150    0.535
       292 -11.5233     37.5824     54.3041   4.0500328471e+01   6.4941220793e+01    0.2590712    0.1400335 -60.43 0.0008245653    2.033    0.508
       293 -11.2937     21.3393     34.9749   4.2874050923e+01   7.1294548554e+01     0.187951    0.1671168 -32.96  0.000522647    1.089    0.081
       294 -10.7595     86.3174     34.3101   1.1109539501e+01   5.9023301093e+01    0.1426009     0.106708  27.91 0.0004831751    1.639    0.390
       295 -11.3147     15.9739     33.8534   4.6292915427e+01   7.2133955349e+01    0.3282573    0.1335806  43.94  0.001253261    3.261    0.693
       296 -11.1160     42.3161     32.1981   2.8258539799e+01   6.8688449327e+01    0.3011577    0.1611873 -46.80 0.0009192176    2.002    0.501
       297 -12.3674     30.0744     31.4838   3.5279781622e+01   7.0823753036e+01    0.4781465    0.2407234  27.38  0.002137646    2.076    0.518
       298 -10.7765      1.4585     29.9547   5.6399779335e+01   7.4184816660e+01    0.2065376    0.1775411  -3.25 0.0004737703    1.126    0.112
       299 -11.0638      5.5024     29.5435   5.2836084977e+01   7.4004814929e+01    0.4013919     0.184521 -56.74  0.001904763    1.974    0.494
       300 -11.8189     77.5557     30.4135   1.2149705794e+01   6.1639602601e+01    0.2754574    0.2345961  70.99 0.0006346172    1.166    0.142
       301 -10.1374     61.5252     28.4544   1.7125573108e+01   6.5513816753e+01    0.1367811    0.1273212  47.92 7.469677e-05    1.024    0.023
       302 -11.1840     67.8121     27.2079   1.4052806183e+01   6.4319940151e+01    0.1883001    0.1568382  25.61  0.000489505    1.302    0.232
       303 -11.1260     36.4004     26.8667   2.8909684193e+01   7.0662088245e+01    0.2181601     0.168071  16.19 0.0006589349    1.348    0.258
       304 -11.3971     45.1505     25.3997   2.3177755022e+01   6.9324644403e+01    0.2734585    0.2168797  55.15  0.001545419    1.344    0.256
       305 -12.6250     85.3879     23.7737   6.8058795528e+00   6.0695108110e+01    0.3008757    0.2477477  75.03 0.0003532038    1.170    0.145
       306 -10.5739     81.8122     19.7886   5.9933353482e+00   6.2047599948e+01    0.2216428    0.1574266 -72.33  0.000459187    1.709    0.415
       307  -9.8508      1.2228     25.0380   5.4800425408e+01   7.5279161033e+01    0.1593876   0.09599629 -59.60 0.0004104565    1.592    0.372
       308 -10.8912    203.4569     23.8034   3.4999735630e+02   3.3214784341e+01    0.1876658     0.142781 -80.56 0.0003316063    1.217    0.178
       309 -11.0109     19.1893     23.6760   3.8985664772e+01   7.3827564970e+01    0.1970309    0.1814998  31.09 0.0004035936    1.200    0.167
       310 -11.9867    174.2924     22.8610   3.5213117179e+02   3.9467630050e+01      0.21502    0.1773567 -74.54  0.000242989    1.057    0.054
       311 -11.9896     70.3184     21.2208   1.0227410340e+01   6.4572045154e+01    0.2861922    0.2537238 -10.57 0.0008064411    1.269    0.212
       312  -9.9718     40.2677     22.6194   2.4304037135e+01   7.0687401112e+01    0.1266951    0.1059968 -80.50 0.0006989948    1.689    0.408
       313 -10.6203    227.0382     19.9983   3.4767016665e+02   2.9154812242e+01    0.1714328    0.1256653 -56.08 0.0003450551    1.009    0.009
       314 -10.0256     58.5856     20.2000   1.4088834432e+01   6.7338241122e+01    0.1713015    0.1302223 -12.96  0.000602931    1.551    0.355
       315 -10.8085    132.6227     17.2244   3.5507579955e+02   4.9846902858e+01    0.2003496    0.1705993 -17.13 0.0004930711    1.442    0.307
       316 -10.2657     65.6596     15.9501   9.1510766790e+00   6.6301350230e+01    0.1747579    0.1737362  77.13 0.0006247126    1.099    0.090
       317 -10.3181    125.4200    249.4872   4.8912309735e+01   6.7827220419e+00    0.1893333       0.1347  26.21 0.0005483437    1.184    0.155
       318 -10.8842    125.0399    246.0396   4.8607819258e+01   7.3916540261e+00    0.1763518     0.138346   1.38 0.0003544413    1.168    0.144
       319 -11.1406    114.3136    248.3463   5.1166150341e+01   8.1830069992e+00    0.2910788    0.1833464 -50.57  0.001291553    1.844    0.458
       320  -9.7821     54.4853    249.4292   6.4642660975e+01   1.4343882821e+01    0.1225083   0.09585413  36.42 8.583828e-05    1.023    0.022
       321 -11.9751     67.6669    246.6087   6.1440569887e+01   1.3529593530e+01    0.3833683    0.2912781  35.72  0.002184383    1.078    0.073
       322 -11.9622     29.3287    246.4145   7.0187592411e+01   1.7326929830e+01    0.2682989    0.2209142  42.17  0.001794068    1.048    0.045
       323 -11.7312     36.1942    246.3800   6.8626262809e+01   1.6700034773e+01    0.5081739    0.1486216  48.80  0.002141722    2.896    0.655
       324 -11.5977     32.7515    240.5016   6.9117051062e+01   1.8182206316e+01     0.272948    0.1686959  44.59  0.000987917    1.303    0.233
