#   1 NUMBER                 Running object number                                     
#   2 MAG_AUTO               Kron-like elliptical aperture magnitude                    [mag]
#   3 X_IMAGE                Object position along x                                    [pixel]
#   4 Y_IMAGE                Object position along y                                    [pixel]
#   5 X_WORLD                Barycenter position along world x axis                     [deg]
#   6 Y_WORLD                Barycenter position along world y axis                     [deg]
#   7 A_WORLD                Profile RMS along major axis (world units)                 [deg]
#   8 B_WORLD                Profile RMS along minor axis (world units)                 [deg]
#   9 THETA_WORLD            Position angle (CCW/world-x)                               [deg]
#  10 FWHM_WORLD             FWHM assuming a gaussian core                              [deg]
#  11 ELONGATION             A_IMAGE/B_IMAGE                                           
#  12 ELLIPTICITY            1 - B_IMAGE/A_IMAGE                                       
         1 -10.9930     14.6150     17.3862   9.8091848473e+01   7.0215209004e+01    0.4174863    0.2817739 -61.51  0.001484618    2.100    0.524
         2 -11.6794     12.8032     11.1880   9.6250908557e+01   7.1392353917e+01    0.3291481    0.1846952  18.99  0.001037121    1.979    0.495
         3 -12.3650     17.8732     24.4892   9.9444262058e+01   6.8716742018e+01    0.5675914    0.3081316 -52.04  0.002268929    1.700    0.412
         4 -12.0370      1.9537     25.1385   1.0726996221e+02   6.9662215317e+01    0.3614727    0.1492746 -57.80  0.001935293    2.014    0.504
         5 -11.8272      5.8096     17.4689   1.0253527664e+02   7.0830627216e+01     0.478893    0.2611251 -44.85  0.002320122    1.346    0.257
         6 -11.6825    182.2120     18.9686   4.9320695398e+01   3.6991774876e+01    0.3316331    0.2828147  11.97 0.0008373503    1.325    0.245
         7 -10.2159     92.9251     19.7716   6.7896693326e+01   5.8552241299e+01    0.3535781    0.2617956 -34.09  0.001645746    1.454    0.312
         8 -10.8582     24.4565     16.9957   9.3121348477e+01   6.9415536724e+01    0.2737476     0.216325 -55.01   0.00182292    1.768    0.434
         9 -10.4344     21.3955     11.7901   9.2184014764e+01   7.0541114166e+01    0.3087464    0.1723664  41.38  0.001721553    2.822    0.646
        10 -10.6596     76.2965     14.2241   7.0576351925e+01   6.2448363822e+01    0.3767676    0.2557099 -53.21  0.001409586    2.436    0.589
        11 -11.2870     31.7494     14.4023   8.8461061506e+01   6.9065900575e+01    0.4518355    0.1895565 -36.59  0.002161619    1.953    0.488
        12 -10.6805    116.3460     15.2999   5.9855151033e+01   5.3933427054e+01    0.3900831     0.192068  31.75  0.001614748    2.274    0.560
        13 -12.5837    173.7788     12.1621   4.8363577395e+01   3.9882247140e+01    0.4338455    0.4148162 -78.24  0.002605817    1.066    0.062
        14 -11.3520    148.0474     13.0916   5.2645213230e+01   4.6414322888e+01    0.4057803     0.211635  46.59  0.001601552    1.788    0.441
        15 -10.6653    128.1622     12.6865   5.6237103861e+01   5.1394927704e+01    0.4249375      0.15567 -13.75  0.001017808    3.545    0.718
        16 -10.3244    127.9994      8.4793   5.4643380225e+01   5.1832384228e+01     0.207839    0.1264556  59.47 0.0003708577    1.524    0.344
        17 -11.3756    209.5671     11.7269   4.3951038054e+01   3.0752530154e+01    0.4140391     0.293796   6.32  0.002061224    1.879    0.468
        18 -11.9824    208.9774      4.8135   4.2144307047e+01   3.1592427863e+01    0.4725528    0.2714137 -66.97 0.0003711797    1.898    0.473
        19 -10.5905    218.0046     11.9911   4.3170582321e+01   2.8628114946e+01    0.2123138    0.1542427  39.43 0.0007923764    1.644    0.392
        20  -9.3858     97.6507     11.7903   6.3056257609e+01   5.8464776834e+01    0.1852703    0.1132571 -31.15 0.0005747347    1.706    0.414
        21 -10.0138     67.2106     11.7623   7.2523744000e+01   6.4363379957e+01    0.2286485    0.1861579  -5.37 0.0007003174    1.067    0.063
        22  -9.6436    229.2730     10.9883   4.1858642081e+01   2.5996142365e+01    0.1803572    0.1571305 -49.24  0.000212527    1.098    0.089
        23  -9.4464     56.3517     10.7837   7.6093093453e+01   6.6268493437e+01    0.1799088   0.09953844 -18.44 0.0009415094    1.685    0.407
        24 -11.8287    194.3329      8.5150   4.4701790541e+01   3.4935853417e+01     0.410698    0.2408639 -76.16  0.001529589    2.001    0.500
        25 -11.5918    165.6971      3.9381   4.6839739887e+01   4.2732529151e+01    0.3495766     0.241684 -39.08  0.001390427    1.537    0.350
        26  -9.5033    159.8445      9.4343   4.9483804497e+01   4.3745611913e+01    0.2085131    0.1309525  66.30  0.001005038    1.479    0.324
        27 -12.6704    160.7137      3.5061   4.7385193024e+01   4.4051083538e+01     0.726446    0.5966178 -53.37  0.003737486    1.329    0.248
        28 -10.8369     51.0076      7.4377   7.6518213976e+01   6.7504514146e+01    0.3924969    0.1809412 -13.19  0.001718684    2.744    0.636
        29  -9.8973      4.3911      8.6882   9.9543023305e+01   7.2424142234e+01    0.2285146    0.1217425 -57.65  0.000861853    2.349    0.574
        30 -10.6707    185.2024      8.8791   4.5876542981e+01   3.7245990921e+01    0.2047293    0.1769131 -72.64   0.00035866    1.160    0.138
        31 -11.1241    146.9309      8.0410   5.1046141729e+01   4.7171728848e+01    0.3633324    0.1744584  34.62  0.001471871    2.386    0.581
        32 -10.4487     35.7593      8.3955   8.3610640788e+01   6.9469237606e+01    0.3362556    0.2138757  45.21  0.001626773    2.343    0.573
        33 -10.8326     40.0744      5.2869   8.0033596545e+01   6.9328167480e+01    0.3013844    0.2489454 -15.86  0.002119443    1.237    0.192
        34  -9.8801     38.0024      2.0210   7.9198743728e+01   7.0016003370e+01    0.1722434    0.1229854  -4.20  0.001136498    1.120    0.107
        35 -10.2599    119.9601      7.9582   5.6086148742e+01   5.3805528751e+01    0.2039614    0.1640684 -64.08 0.0005447759    1.620    0.383
        36 -10.6612    111.9467      5.0012   5.6620669120e+01   5.5938764392e+01    0.2403374     0.181463  13.65 0.0004338323    1.288    0.224
        37 -10.6677    107.8447      7.6397   5.8676435625e+01   5.6635123952e+01    0.3330642    0.2009028  58.85  0.001667255    1.642    0.391
        38 -10.4179    106.3636      3.8206   5.7396018025e+01   5.7311796116e+01    0.5083737    0.2049625   4.57  0.001585279    4.789    0.791
        39  -9.7182     74.0446      8.5114   6.8594034002e+01   6.3516739636e+01    0.1859102    0.1131951  40.42 0.0009653275    1.544    0.352
        40 -10.0350     87.6390      6.7256   6.3552369037e+01   6.1063277960e+01    0.2048788     0.170725  36.01 0.0006292019    1.153    0.133
        41 -10.4122     24.7614      6.6678   8.7964067914e+01   7.0975574620e+01     0.212676    0.1506009 -36.40  0.001234028    1.407    0.289
        42  -9.8734     19.6052      6.8107   9.0630664863e+01   7.1475530854e+01    0.2129418    0.0840289 -37.21 0.0008850094    1.994    0.498
        43 -10.6528    134.2010      6.0291   5.2529637630e+01   5.0533181785e+01    0.2193396    0.1683913  34.25 0.0005343286    1.231    0.188
        44  -9.6612     61.7671      6.5748   7.1913623711e+01   6.5895266464e+01    0.1576727    0.1185472  49.92 0.0009496937    1.680    0.405
        45 -12.3636    195.9678      3.2120   4.3013207119e+01   3.5022008033e+01    0.6578442     0.248166  61.72  0.002685944    2.306    0.566
        46 -10.5081     48.4033      3.1503   7.5327769948e+01   6.8409637007e+01    0.3854106    0.1944703  17.43  0.001873618    2.390    0.582
        47  -9.9508     30.7514      3.4076   8.3321964122e+01   7.0754285267e+01    0.1974778    0.1185009 -36.78 0.0007840494    1.644    0.392
        48 -10.1157     12.6347      2.8183   9.2235233555e+01   7.2711479091e+01    0.2268366    0.1942802 -89.43  0.001458521    2.926    0.658
        49 -10.2353    217.9982      2.2317   4.0634479308e+01   2.9612925330e+01    0.2278745     0.184916 -38.95 0.0008727121    1.233    0.189
        50 -11.5212    180.3270      2.1805   4.4446903220e+01   3.9116990706e+01      0.36279    0.2013794  69.64   0.00117044    1.638    0.390
        51 -10.2450    115.5580      2.0158   5.4603155499e+01   5.5353845230e+01    0.1985164    0.1609438  46.83 0.0001589428    1.107    0.096
        52 -10.2648     73.9817      1.9446   6.5386641175e+01   6.4202654397e+01    0.1963333    0.1619368  13.90 0.0005625826    1.032    0.031
        53 -10.4101    248.9566      2.9858   3.8365356201e+01   2.2262270213e+01    0.1890117    0.1613248 -63.34 0.0003312466    1.017    0.017
        54 -10.4944    129.1980      2.2307   5.2005608430e+01   5.2078608329e+01    0.2173447    0.1114786  78.85 0.0008876045    2.524    0.604
        55 -10.4427    143.9399      1.4361   4.9183475162e+01   4.8489425184e+01    0.2088443    0.1239431  65.59 0.0004479637    1.544    0.352
        56  -9.5204    122.6591      1.7172   5.3045695028e+01   5.3698890392e+01     0.147415   0.08581641  36.12 0.0003075014    1.632    0.387
        57 -10.2641     90.6429      1.5201   6.0304602649e+01   6.0926743722e+01    0.2323447    0.1502023  60.57 0.0009401692    1.701    0.412
        58  -9.9180     55.3222    228.5618   1.2376662098e+02   2.1478721385e+01    0.1234026   0.09186637  49.16 0.0002576139    1.320    0.243
        59  -9.2132    216.0186    250.7858   9.8146304589e+01  -5.8863147314e+00    0.1484056   0.07215288  38.53 0.0003150407    1.604    0.376
        60 -12.3776    186.6613    250.4177   1.0309614762e+02  -1.3432779342e+00    0.2268675    0.1234445  38.69  0.001351066    1.417    0.294
        61 -11.7389    127.6230    248.3122   1.1307537058e+02   8.1346640531e+00    0.2975402    0.2394605  88.68 0.0009243228    1.439    0.305
        62 -11.3730    116.0864    249.3923   1.1517027886e+02   9.7024395571e+00    0.3071072     0.209955  50.65  0.002114608    1.126    0.112
        63 -11.0607     24.0053    230.4184   1.2906215985e+02   2.4700453953e+01    0.3387505    0.1815647 -78.24  0.001406215    1.686    0.407
        64 -11.6343     39.0709    249.1192   1.2773392147e+02   1.9884572302e+01    0.2654081    0.1966872 -74.78  0.002163784    1.565    0.361
        65 -11.2759     36.5034    243.6393   1.2782301080e+02   2.1079440235e+01    0.2975712    0.2680544   7.91  0.001628679    2.126    0.530
        66 -12.9422      4.9031    247.0875   1.3272608139e+02   2.3780476184e+01    0.5945323    0.1645621  49.32  0.002788563    2.370    0.578
        67 -12.6522     18.0780    247.2324   1.3080814576e+02   2.2453853189e+01    0.8057358    0.2169355  50.94  0.004588744    2.468    0.595
        68 -12.0635      3.1911    233.5754   1.3243810992e+02   2.6205822261e+01    0.3836812    0.2052449 -85.89   0.00286414    1.529    0.346
        69 -11.9108     30.1300    244.7709   1.2887057711e+02   2.1592089489e+01    0.4860725    0.3735172 -46.48   0.00358352    2.440    0.590
        70 -12.3521     22.5021    241.9918   1.2989514775e+02   2.2867903183e+01    0.5933942    0.3152814  86.99  0.004257853    1.571    0.363
        71 -11.9165      6.9966    241.0447   1.3217938052e+02   2.4579463931e+01    0.4125992    0.1748629  43.33  0.001360242    2.024    0.506
        72 -12.9887     12.3008    232.1944   1.3098915859e+02   2.5573657477e+01    0.7831312    0.3867918  82.62  0.005070102    1.627    0.385
        73 -10.5828    234.0154    225.5055   9.1117995468e+01  -5.7964444273e+00    0.1885148    0.1649459 -32.95 0.0008676625    1.580    0.367
        74  -9.8834    164.4742    225.0095   1.0353043811e+02   5.7027964051e+00    0.1638186    0.1248479 -50.09   0.00102856    1.610    0.379
        75  -9.9195    122.7227    225.4583   1.1136773555e+02   1.2489049707e+01    0.2180333   0.09731029  45.71 0.0007089804    1.846    0.458
        76 -10.3296     98.8292    223.7406   1.1559487013e+02   1.6444883181e+01    0.2485511    0.1492995 -67.47  0.001482979    1.835    0.455
        77  -9.8840     79.6090    224.1290   1.1913368651e+02   1.9116323349e+01     0.310206    0.1571666  77.33  0.001566411    2.533    0.605
        78 -10.2317      1.9264    224.8223   1.3226221107e+02   2.7847321204e+01    0.1704814     0.100726  75.66 0.0006311664    1.194    0.162
        79 -10.7277     36.7443    223.4902   1.2656291198e+02   2.4564374125e+01    0.2906994    0.1484458  69.12  0.001306851    1.668    0.401
        80 -11.5568     40.1543    217.9821   1.2561059591e+02   2.5191262683e+01    0.2658832      0.17373  48.55 0.0008318352    1.408    0.290
        81 -10.4865     47.5450    217.8841   1.2431581923e+02   2.4355185070e+01    0.2210627    0.1502501  31.21 0.0009767702    1.953    0.488
        82 -10.3296     64.0088    221.4373   1.2168813070e+02   2.1673846777e+01    0.3048294     0.146405  81.81   0.00154991    2.559    0.609
        83  -9.9654     54.8107    221.3776   1.2330807112e+02   2.2837491201e+01    0.2195053    0.1146505  75.81  0.001272724    1.893    0.472
        84 -10.6240    228.8106    220.2254   9.1118887393e+01  -4.3529923857e+00    0.2057268    0.1766469  32.49 0.0003022767    1.304    0.233
        85  -9.1504     84.2556    220.9756   1.1798878741e+02   1.9038459283e+01    0.1279516   0.09227131 -78.88 0.0002760542    1.404    0.288
        86  -9.2984    249.6874    220.3435   8.7582326763e+01  -7.5994297213e+00   0.09822967   0.09651824  33.94 0.0007046635    1.705    0.414
        87  -9.6689     21.2757    218.6766   1.2885385237e+02   2.7090419714e+01    0.2589327    0.1025369 -78.03   0.00150314    2.203    0.546
        88  -9.6117     30.8866    250.6940   1.2906274059e+02   2.0535953053e+01    0.1373614   0.06009799  51.55 0.0009043021    1.666    0.400
        89 -10.2183    135.4893    218.1285   1.0803482147e+02   1.1652498512e+01    0.2189007    0.1808859  23.13 0.0005691494    1.407    0.289
        90 -10.0293     14.4939    219.1131   1.2999300036e+02   2.7686085885e+01    0.1450049    0.1150082  62.70  0.001195544    1.277    0.217
        91 -10.2286    195.4936    217.0005   9.6546433670e+01   1.5882712037e+00    0.1696779    0.1237735 -33.50  0.000758953    1.568    0.362
        92  -9.6007    176.0231    216.8318   1.0014487053e+02   4.9614671885e+00    0.2196839     0.131721  21.10  0.001083708    2.104    0.525
        93  -9.9699    101.3398    217.0899   1.1440074405e+02   1.7253000531e+01    0.1656897    0.1465742 -60.92 0.0005972538    1.372    0.271
        94 -11.6475     67.2424    207.3352   1.1983323245e+02   2.3903289944e+01    0.2461264    0.1692186  57.52 0.0002351403    1.229    0.186
        95 -10.8626     72.9764    216.2810   1.1960882113e+02   2.1447738584e+01    0.2016517    0.1952616 -22.56 0.0003515237    1.577    0.366
        96 -12.8592     74.3551    211.1375   1.1886091325e+02   2.2227110482e+01    0.2704183    0.2144097  70.54 0.0004602354    1.012    0.012
        97  -9.4846     92.5046    216.4506   1.1599477631e+02   1.8679837918e+01    0.1210856   0.09693065  64.66 2.590534e-05    1.020    0.019
        98  -9.8282     58.9509    215.6099   1.2210494033e+02   2.3392567476e+01    0.1667165    0.1272916  85.49 0.0006224714    1.135    0.119
        99 -11.2820     24.4451    208.5717   1.2770818815e+02   2.8655445987e+01    0.3366621    0.2237298  53.82   0.00125484    1.336    0.251
       100 -10.0786     28.3644    205.7035   1.2683229949e+02   2.8799471231e+01    0.2321782    0.1028835  76.59   0.00110429    2.241    0.554
       101 -10.6412     31.6929    216.0381   1.2693663684e+02   2.6487612842e+01    0.1870072    0.1356491  66.56 0.0003636865    1.093    0.085
       102  -9.9201     34.5026    213.4440   1.2627871879e+02   2.6668099096e+01    0.2105473    0.1265138  62.53 0.0008138606    1.327    0.247
       103 -11.6797     30.6596    211.7116   1.2683117592e+02   2.7410031744e+01     0.358361    0.2706693 -43.70  0.002491537    2.239    0.553
       104 -10.9065    165.4577    213.9446   1.0170072035e+02   7.2367905121e+00    0.2307086    0.1935551  46.28 0.0006595834    1.094    0.086
       105 -10.8494     85.3036    214.2793   1.1711963127e+02   2.0116992256e+01    0.3352116    0.2627691  44.84  0.001341948    1.294    0.227
       106  -9.9679     68.4739    215.0390   1.2032129851e+02   2.2277251653e+01    0.1580758    0.1238056  66.27 7.526971e-05    1.040    0.038
       107 -11.7525      8.5709    211.2525   1.3055761866e+02   2.9698667605e+01     0.459911    0.2198606  83.06  0.002853526    1.702    0.412
       108 -10.4798     13.9584    212.4958   1.2972700611e+02   2.8957513685e+01    0.1863564    0.1427672  75.48 0.0007938349    1.130    0.115
       109 -10.8981    111.7690    213.6618   1.1201026196e+02   1.6265333597e+01    0.2211313    0.1917635  53.26 0.0002992015    1.102    0.092
       110 -10.0062      1.3530    212.9756   1.3182388909e+02   3.0035503979e+01    0.1981203   0.07349773 -80.51  0.001010379    2.188    0.543
       111 -12.4777    129.0002    207.9747   1.0791257547e+02   1.4492331175e+01    0.5380724    0.3719138   7.97   0.00262925    2.675    0.626
       112  -9.0638     52.6876    213.2664   1.2304167769e+02   2.4605484828e+01    0.1164027   0.06573014  66.13 0.0002536992    1.543    0.352
       113 -10.0165    118.0242    212.0803   1.1060441164e+02   1.5555736588e+01    0.1926288    0.1605764  52.82 0.0005227797    1.050    0.048
       114  -9.6933     63.9427    212.3466   1.2091148801e+02   2.3373491703e+01    0.1584209    0.1237465  59.01 0.0008265428    1.141    0.123
       115 -10.5161     38.9466    210.6742   1.2530234757e+02   2.6700438971e+01    0.2491375    0.1509153  89.80  0.001650553    1.412    0.292
       116 -10.0425    144.9582    209.4540   1.0499029724e+02   1.1525606734e+01    0.2514289    0.1590923 -74.26  0.001241682    2.432    0.589
       117  -9.5857     96.8278    209.2231   1.1436707540e+02   1.9377821045e+01     0.151119    0.1349203  43.05 0.0005195715    1.279    0.218
       118 -10.7496     59.9497    208.6940   1.2132428732e+02   2.4579461730e+01     0.275205     0.173646  53.51 0.0009538539    1.351    0.260
       119 -11.8484     17.7214    207.8242   1.2882408646e+02   2.9470897161e+01    0.2104244     0.136824  69.84 0.0002873388    1.163    0.140
       120 -10.0382    196.3129    208.3386   9.4941378410e+01   2.6838804354e+00    0.1332614   0.09100082  10.93 0.0007046408    1.694    0.410
       121 -10.3438    153.0893    205.4238   1.0278590247e+02   1.0798046135e+01    0.2437502    0.1821318 -25.13   0.00137514    1.749    0.428
       122 -10.0861    156.8509    215.5084   1.0358201467e+02   8.4752824293e+00    0.1938372    0.1634828  66.58 0.0007474008    1.305    0.234
       123 -11.5986     52.6807    192.1430   1.2119573366e+02   2.8759407134e+01    0.3669646    0.1779779 -77.25  0.001961328    1.953    0.488
       124 -11.6258     34.7199    205.2187   1.2566266328e+02   2.8215311114e+01    0.2756902    0.1936302  75.39   0.00110691    1.093    0.085
       125 -10.0051     99.9356    205.3856   1.1330723110e+02   1.9631192995e+01    0.1771031    0.1357201  54.05 0.0005024345    1.133    0.117
       126 -10.7502    121.6814    200.7714   1.0836837331e+02   1.7029592654e+01    0.3818437    0.2397471 -79.74  0.001407413    2.157    0.536
       127  -9.8198    165.8503    202.1109   9.9742094069e+01   9.0844575400e+00    0.1960974    0.1615344  50.92 0.0009884384    1.177    0.150
       128 -11.2972     97.9696    200.4307   1.1309214440e+02   2.0882302011e+01    0.3528599    0.3364918 -71.29  0.001276368    1.268    0.211
       129 -10.5907     95.6484    194.8873   1.1286767778e+02   2.2324980209e+01    0.2109387     0.170199  46.91 0.0003707598    1.216    0.178
       130  -9.5459     69.7288    201.3004   1.1876425985e+02   2.4752599478e+01    0.1882684   0.08978322  48.18 0.0003581304    1.836    0.455
       131 -10.3907     71.3976    197.7317   1.1806890957e+02   2.5237908508e+01    0.2816979     0.145217 -57.12 0.0009399749    2.090    0.522
       132 -10.5520     19.1331    200.5521   1.2813274720e+02   3.0731406208e+01    0.1882716      0.12379 -79.34 0.0006004294    1.329    0.248
       133  -9.6642    190.7717    200.0316   9.4541764714e+01   4.9149850209e+00    0.1612806    0.1094049 -37.44 0.0008745961    1.641    0.390
       134 -10.1380     90.4064    200.0173   1.1455309730e+02   2.2099069049e+01    0.3036709    0.1509341  42.67  0.001541924    1.837    0.456
       135 -11.6840     53.2926    200.0443   1.2180408335e+02   2.7094749709e+01    0.4944869    0.3219934 -82.91  0.002663058    1.372    0.271
       136 -11.3703      5.4883    200.0236   1.3048689728e+02   3.2105079848e+01    0.1646851    0.1201608  63.63  0.001294203    1.207    0.172
       137 -10.3800    223.6636    198.9861   8.8231290699e+01  -7.5797764112e-01    0.2753484    0.1556571  38.40   0.00100453    1.587    0.370
       138  -9.6802    169.7991    198.9651   9.8437961534e+01   8.8939041813e+00    0.2061377    0.1569052 -86.90  0.001017285    2.038    0.509
       139  -9.7862    149.8594    199.1669   1.0244623822e+02   1.2454218177e+01    0.1894076    0.1617284  57.25 0.0002784387    1.138    0.121
       140 -11.4577      4.0861    205.2963   1.3100083932e+02   3.1224120070e+01    0.2651921    0.1519092  47.62  0.001271572    1.613    0.380
       141  -9.9035     13.5455    198.0540   1.2896832658e+02   3.1752737455e+01    0.1997869    0.1869364  31.93  0.001665053    1.649    0.394
       142 -10.3094    108.6904    194.3255   1.1012087536e+02   2.0392318103e+01     0.414842    0.1416921 -61.65   0.00157954    3.477    0.712
       143 -10.1178    109.4915    197.5175   1.1039045873e+02   1.9642107298e+01    0.2415504    0.1637507  62.10 0.0007564343    1.435    0.303
       144 -10.1659    105.2059    195.9954   1.1106035624e+02   2.0621588019e+01    0.2810617    0.1973352  54.46 0.0007315942    1.274    0.215
       145 -10.5598    128.8772    197.1501   1.0638678835e+02   1.6492852152e+01    0.3142481    0.1506321  47.64  0.000757772    1.885    0.470
       146 -10.5098     36.8794    196.6857   1.2462128287e+02   2.9658736818e+01     0.149346    0.1347885  50.27  0.000596078    1.425    0.298
       147 -10.3066    217.5627    194.5599   8.8507819298e+01   9.2573826732e-01    0.1876778    0.1648786 -21.39 0.0002830155    1.245    0.197
       148  -9.5763    140.4577    195.5374   1.0377652509e+02   1.4776460359e+01    0.1334147    0.1170913  56.09 0.0001030972    1.054    0.051
       149  -9.7049     82.6127    195.2568   1.1555753992e+02   2.4176555336e+01    0.1627165    0.1075796 -58.55 0.0008730472    1.623    0.384
       150  -9.9389     44.8425    194.5164   1.2293227465e+02   2.9201215528e+01    0.1612766    0.1226146  84.23 0.0003331779    1.057    0.054
       151  -9.9922     24.8657    194.8413   1.2671471783e+02   3.1288186861e+01    0.1564237    0.1229791 -81.65 0.0003182188    1.246    0.197
       152  -9.7651      6.7535    195.1669   1.2999844368e+02   3.2935057411e+01    0.1263981    0.1094323 -83.65 0.0006059699    1.388    0.280
       153 -11.3172    123.2230    193.2849   1.0697446089e+02   1.8189692683e+01    0.3962333    0.2614149  81.44 0.0002961838    2.063    0.515
       154 -10.6649    127.1087    189.3442   1.0556889026e+02   1.8283187483e+01    0.2201539    0.1931157 -63.09 0.0003551728    1.224    0.183
       155 -10.5113    153.7613    192.3720   1.0054476268e+02   1.2959903277e+01    0.3449413    0.2423239  12.29 0.0009047456    2.024    0.506
       156  -9.9053    245.3211    191.3139   8.2954776481e+01  -3.3958881789e+00    0.1345646   0.08460693   9.13 0.0003813769    1.655    0.396
       157 -10.2428    188.9375    190.3171   9.3135861075e+01   6.7863570870e+00    0.3543211    0.2599393  -4.90  0.001891192    1.633    0.388
       158 -12.0835     91.7253    189.1272   1.1293969236e+02   2.4078484303e+01    0.2640549    0.2138502 -80.38 0.0004107861    1.192    0.161
       159 -10.1313    249.5239    190.5058   8.2080920921e+01  -3.9832801418e+00    0.1287477    0.1037693   5.94   4.6435e-05    1.009    0.009
       160  -9.9542     68.5202    190.6620   1.1788696561e+02   2.7054552544e+01    0.2054135    0.1053111  39.77  0.001078727    1.934    0.483
       161 -10.5810     74.7002    186.3404   1.1613307349e+02   2.7110212210e+01    0.3529362    0.1527315 -66.76  0.001666759    2.264    0.558
       162  -9.5728    205.3678    187.2184   8.9380759919e+01   4.2228914219e+00    0.1679094    0.1254923 -41.64 0.0004551772    1.534    0.348
       163 -10.4207    130.6166    185.4210   1.0421045798e+02   1.8431683984e+01     0.364771    0.2478342  85.11  0.001427258    2.080    0.519
       164 -11.1774    104.9904    184.9939   1.0958650398e+02   2.2854136348e+01    0.3634231    0.3491918  -6.61   0.00156658    1.336    0.252
       165 -10.1380     43.3441    186.0952   1.2247762943e+02   3.1095521928e+01    0.1903686    0.1500624 -73.25 0.0004791413    1.275    0.216
       166  -9.8636     43.7274    182.1454   1.2203541182e+02   3.1876095166e+01    0.2604851    0.1193002  77.01 0.0009410891    2.674    0.626
       167 -11.0175     32.0854    184.3662   1.2454488081e+02   3.2676749506e+01    0.3638653     0.174462  46.06  0.001083729    1.931    0.482
       168  -9.8952    225.3965    183.7992   8.4986970648e+01   1.0786726712e+00    0.1770267    0.1161895 -15.96 0.0002915511    1.588    0.370
       169 -10.8134    177.7323    183.6413   9.4113792452e+01   1.0015139984e+01    0.3108285    0.1907052 -51.93  0.001260981    1.988    0.497
       170 -10.7498     15.9722    183.1855   1.2755874531e+02   3.4500030241e+01    0.2168988    0.1712304  82.20 0.0008449585    1.101    0.092
       171 -10.4148    166.2186    189.2833   9.7475509538e+01   1.1207186386e+01     0.219402    0.2111176  89.88 0.0004059598    1.185    0.156
       172 -10.2842    213.0655    182.2374   8.6950961664e+01   3.5621097685e+00    0.2004422    0.1580165  17.25 0.0002922531    1.172    0.147
       173  -9.8598     88.3051    181.9871   1.1272528157e+02   2.6066068667e+01    0.1797698    0.1459463 -78.91 0.0004124707    1.172    0.147
       174 -11.3842     57.4507    181.0527   1.1911659887e+02   3.0480803142e+01    0.4147918    0.3386908  30.24   0.00273276    1.584    0.369
       175  -9.7583    155.0968    181.0979   9.8304435438e+01   1.4776070446e+01    0.1955453    0.1738444  20.03 -0.0009232552    1.181    0.153
       176 -10.5593    131.4252    179.4881   1.0305989676e+02   1.9455822589e+01    0.2647667     0.218474  77.09 0.0005527866    1.304    0.233
       177 -12.5194     32.1142    176.4425   1.2386407239e+02   3.4332119948e+01    0.2671743    0.1931346 -71.83 0.0004708384    1.291    0.225
       178 -10.2901      3.9824    178.7375   1.2952773024e+02   3.6455331790e+01    0.1965014    0.1056542  75.71  0.000737673    1.529    0.346
       179 -10.5158     92.0690    177.3609   1.1128064393e+02   2.6471888938e+01    0.2069566    0.1671106 -58.79 0.0002763086    1.310    0.237
       180 -10.4382     74.2879    177.2349   1.1511414466e+02   2.9087418878e+01    0.2074857     0.172811  69.09 0.0003213485    1.077    0.072
       181 -11.7844     22.6429    176.1347   1.2573811725e+02   3.5336011898e+01    0.2588992    0.1647228  77.80 0.0004479637    1.308    0.235
       182 -11.3931    108.9157    176.5808   1.0748302781e+02   2.3947210197e+01    0.2337231     0.209207 -88.29 0.0003519078    1.077    0.071
       183  -9.7039     46.0696    177.2209   1.2107854880e+02   3.2651486547e+01    0.1628903    0.1317128  72.93   0.00029166    1.090    0.082
       184  -9.4495    136.3324    176.3166   1.0145520645e+02   1.9195626351e+01    0.1367749    0.1102964   1.55 0.0003086649    1.688    0.408
       185 -11.4742     79.2606    174.4263   1.1367331027e+02   2.8992338574e+01    0.2946613    0.2320326  59.57 0.0002250641    1.181    0.153
       186 -10.1512     17.4023    175.1033   1.2669538750e+02   3.6041359640e+01     0.167406    0.1539917 -52.00  0.000763168    1.548    0.354
       187  -9.8584    156.9137    173.5705   9.6526907767e+01   1.5848205944e+01     0.218696    0.1302404  43.21  0.001015404    1.569    0.363
       188 -10.6562     87.5333    171.7506   1.1148173205e+02   2.8359549623e+01    0.2786595    0.2100491 -85.49 0.0007394663    1.297    0.229
       189  -9.7178     62.7325    170.9853   1.1684618109e+02   3.1977588477e+01    0.2045982    0.1228746  40.13 0.0007116873    1.729    0.422
       190  -9.5788     41.0811    171.4881   1.2154691233e+02   3.4439636198e+01    0.1536153    0.1097535  46.28 0.0003883126    1.453    0.312
       191  -9.2432    121.6251    170.2744   1.0363867897e+02   2.3081536151e+01    0.1451926    0.1010615  69.98  0.000700271    1.691    0.409
       192  -9.6295    200.7448    175.4102   8.7932954552e+01   6.9749771344e+00    0.1870293    0.1215598  32.06 0.0001804657    1.479    0.324
       193 -10.3253     46.8148    166.7408   1.1982289939e+02   3.4832654828e+01    0.3242644    0.1652866  61.07  0.001080789    2.045    0.511
       194  -9.9608      2.7989    166.8521   1.2898728804e+02   3.9007957547e+01     0.289859    0.0740153 -63.53  0.001317866    3.150    0.683
       195  -9.5795     61.1531    166.1653   1.1660288623e+02   3.3236093137e+01    0.1704612     0.125595  70.78 0.0003566886    1.266    0.210
       196 -10.8776     37.5845    165.6385   1.2170145848e+02   3.6086101654e+01    0.2732389    0.1651846  62.57  0.001426922    1.580    0.367
       197 -12.2409     24.3981    163.5902   1.2431592158e+02   3.7847506593e+01     0.272733     0.191507  68.12 0.0004561588    1.277    0.217
       198 -10.5877    126.3595    161.6686   1.0102901542e+02   2.4035227393e+01    0.2490379    0.2330603  37.08 0.0007571902    1.124    0.110
       199 -10.1403     75.8780    161.9983   1.1271783648e+02   3.2195359179e+01    0.2020166    0.1721229 -88.61 0.0006148149    1.031    0.030
       200 -10.3923    140.4751    161.0367   9.7708418406e+01   2.1509275490e+01    0.2774644    0.2015723  45.27 0.0005808106    1.324    0.245
       201 -11.4660     36.1532    158.8269   1.2130713210e+02   3.7734523252e+01    0.9310698    0.2420072  52.51  0.003212551    4.924    0.797
       202  -9.9131     99.6722    160.6638   1.0700784848e+02   2.8884521153e+01    0.1340284    0.1087553 -22.22 0.0007051851    1.725    0.420
       203  -9.4210    122.6502    166.6650   1.0277818822e+02   2.3654448775e+01    0.1397634    0.1123829  -6.81 0.0007047102    1.781    0.439
       204  -9.6371    114.0215    158.5227   1.0329602686e+02   2.6927113323e+01    0.2013157    0.1349193  42.37 0.0003579927    1.484    0.326
       205  -9.4966     66.1790    158.4001   1.1444742764e+02   3.4318522663e+01    0.1777348    0.1075354  52.39 0.0005033354    1.653    0.395
       206  -9.4572     27.1379    158.1483   1.2321865173e+02   3.8777447476e+01    0.1600245    0.1103086  78.58 0.0002720425    1.264    0.209
       207  -8.9462    183.2898    156.7117   8.7508729881e+01   1.3721962599e+01    0.1373804    0.1180748  89.47 0.0001935139    1.540    0.350
       208  -9.6865    113.2022    153.8420   1.0262780538e+02   2.8094833202e+01     0.217765      0.18193  83.21  0.001074957    1.258    0.205
       209  -9.5180     71.2557    154.0563   1.1263996188e+02   3.4621089242e+01    0.1675729    0.1021062 -64.29 0.0005196168    1.493    0.330
       210  -9.8514    207.3022    151.9670   8.1633885184e+01   9.6012816478e+00    0.1972727    0.1751598 -12.38 0.0002500602    1.072    0.067
       211  -9.8935     10.2229    152.3605   1.2636369574e+02   4.1521391413e+01    0.1476234   0.09040776  49.53 0.0009489752    1.672    0.402
       212  -8.9395     45.7052    151.6914   1.1832279963e+02   3.8312443622e+01    0.1186388   0.08736162 -48.05 0.0001818001    1.588    0.370
       213  -9.6471     85.8679    150.1166   1.0851867879e+02   3.3417169714e+01    0.2049725    0.1636895  82.07 0.0003070926    1.259    0.206
       214  -9.1480      1.4242    152.5450   1.2825325580e+02   4.2150697896e+01    0.1125668   0.08221012 -86.51 7.912944e-05    1.030    0.030
       215  -9.7337     38.4944    148.1326   1.1957327165e+02   3.9890579659e+01    0.2712522    0.1291381  38.74  0.001404833    2.227    0.551
       216  -9.9420    201.7800    143.5162   8.0776114294e+01   1.2224597656e+01    0.2704896    0.1877185 -53.03  0.001075702    1.768    0.434
       217 -10.2657     15.5873    143.2523   1.2434804408e+02   4.3099118376e+01    0.2631344    0.1604484  18.29  0.001575585    2.397    0.583
       218  -9.6357      4.6728    143.1422   1.2680097681e+02   4.3959664620e+01    0.1636408   0.07565504 -68.91 0.0006578632    1.666    0.400
       219  -9.1035     21.2920    142.3394   1.2293964418e+02   4.2826649332e+01    0.1179147   0.07535442 -53.08 0.0007026105    1.648    0.393
       220 -10.0838    103.9614    139.8937   1.0218725961e+02   3.2826239912e+01    0.2121408    0.1953091 -75.42 0.0003859096    1.024    0.023
       221  -8.8957    132.3240    139.7377   9.5186763285e+01   2.7613559343e+01    0.1472398    0.1153909  77.80 0.0002613815    1.558    0.358
       222 -10.0666     35.7703    139.0578   1.1911314558e+02   4.2235008782e+01    0.1913651     0.140079  88.65 0.0005465898    1.215    0.177
       223  -9.6816     25.2252    139.4735   1.2170230844e+02   4.3129907137e+01    0.2161437    0.1063825  37.58  0.001145462    2.230    0.552
       224 -10.4733    236.0390    137.7141   7.3090585087e+01   6.1013977084e+00    0.1980424    0.1780512  16.22 0.0006460462    1.103    0.094
       225  -9.6049     83.0133    138.4764   1.0719829676e+02   3.6520320348e+01    0.1940384    0.1380489  35.20  0.000718978    1.575    0.365
       226 -10.1620     49.8321    136.2627   1.1524900954e+02   4.1391144675e+01    0.3204324    0.1592909 -47.96  0.001517789    2.177    0.541
       227  -9.1928     82.7414    134.6860   1.0657096816e+02   3.7440554116e+01    0.1335464    0.1022366 -36.99 0.0002418091    1.533    0.348
       228 -11.2733      9.7143    131.2712   1.2453346194e+02   4.6232546570e+01    0.2480191    0.1481332 -60.97 0.0001741482    1.460    0.315
       229  -9.4188    249.2963    133.3542   6.9869686733e+01   4.1709480829e+00    0.1463447   0.09966083   2.74 0.0007033904    1.692    0.409
       230 -11.0295     39.0874    131.5905   1.1730016187e+02   4.3624888424e+01     0.392549    0.2211548  80.33  0.001422313    2.128    0.530
       231 -11.8377     28.0445    131.8125   1.2010890761e+02   4.4626012787e+01    0.3687817    0.2351367  63.16  0.002175156    1.669    0.401
       232 -10.0396     57.0413    132.2538   1.1279344815e+02   4.1483050146e+01    0.1774644    0.1538822 -84.50 0.0002601366    1.051    0.048
       233 -10.8627     44.0047    132.0738   1.1611639853e+02   4.3003266853e+01    0.2013802    0.1623257 -79.15  0.000678944    1.038    0.036
       234  -9.3550     68.5400    131.5096   1.0967985727e+02   4.0195279503e+01    0.1357549     0.118503 -71.83 0.0001206244    1.020    0.019
       235 -10.2053     77.4414    129.2283   1.0692650943e+02   3.9492400023e+01    0.3920844    0.1241403  45.04  0.001373649    3.466    0.711
       236 -10.5719     20.4450    126.8538   1.2140578055e+02   4.6410831364e+01    0.2348689    0.2024826 -15.40 0.0009812854    1.616    0.381
       237 -10.2381     91.9309    126.2008   1.0248650997e+02   3.7982278951e+01     0.209375    0.1844758  87.37 0.0003043991    1.165    0.141
       238 -10.0355    102.8775    132.1953   1.0088866997e+02   3.4769584753e+01    0.4177166    0.1691248  44.39  0.001576627    2.559    0.609
       239  -9.5523    128.1704    124.8163   9.2782949201e+01   3.1707795809e+01    0.1969142    0.1746944 -18.70 0.0003909418    1.252    0.201
       240  -9.1458      3.4867    125.4494   1.2545600000e+02   4.7966233669e+01    0.1167493   0.08640238 -73.07 0.0001065467    1.099    0.090
       241 -11.3276      9.1582    118.2955   1.2327436394e+02   4.9200231600e+01    0.2793104     0.158123 -45.40 0.0008700822    1.945    0.486
       242 -10.1612    237.9845    121.4951   6.8915280012e+01   8.2859015225e+00    0.2119278     0.142451  47.61 0.0009357859    1.602    0.376
       243  -9.1135    123.2872    121.2801   9.3167183752e+01   3.3460745931e+01     0.145306    0.1194398  -8.52 0.0002140865    1.520    0.342
       244 -10.0419     21.8277    121.1582   1.2034182594e+02   4.7604333419e+01    0.1971436    0.1324955 -59.92 0.0004897243    1.290    0.225
       245 -10.5184     19.8165    118.3463   1.2050459852e+02   4.8410341919e+01     0.200265    0.1695932  41.58 0.0009036823    1.441    0.306
       246 -11.0570     56.1634    118.6013   1.1069726275e+02   4.4790179838e+01    0.3750793    0.2315535  49.42  0.001956547    1.831    0.454
       247 -10.2871     92.3729    118.7719   1.0076068104e+02   3.9632743400e+01     0.337728    0.2288055  57.41  0.001567631    1.719    0.418
       248  -9.2762     30.4528    117.4671   1.1754467450e+02   4.7723855999e+01    0.1262252    0.1000837 -69.06 0.0008074866    1.043    0.041
       249 -10.4658      1.4137    115.9697   1.2500373207e+02   5.0220741545e+01    0.2281641     0.120809 -78.62  0.001344574    1.450    0.310
       250 -11.6817      5.9827    114.9856   1.2371827107e+02   5.0158697683e+01    0.4732141    0.1769804 -78.79            0    2.296    0.564
       251 -11.1365      3.0734    112.4596   1.2419215972e+02   5.0909707100e+01    0.4850833    0.1493848 -50.47  0.002164528    3.073    0.675
       252  -9.4755     35.2342    115.4550   1.1593654767e+02   4.7753755337e+01     0.171873    0.1068858  49.56 0.0005747725    1.841    0.457
       253  -9.0324    128.9555    114.0000   8.9896114203e+01   3.3921660346e+01    0.2567055   0.08803046  44.22 0.0008118044    3.008    0.668
       254 -11.6122    149.8683    111.1805   8.3970595856e+01   3.0023190541e+01     0.254699    0.2425293 -23.21 0.0002440227    1.038    0.036
       255 -10.0579     48.9158    111.5452   1.1144162458e+02   4.7275451823e+01    0.3015994    0.1325235  29.87  0.001356792    2.726    0.633
       256 -11.0743     19.9857    109.8545   1.1930587900e+02   5.0349290012e+01    0.2996631    0.1807919 -44.47  0.001244252    1.744    0.426
       257  -9.6689     92.3872    109.8534   9.8693533621e+01   4.1689072690e+01    0.2278016    0.1753459  30.96  0.001017779    1.471    0.320
       258  -9.5384     84.1843    109.0957   1.0083377660e+02   4.3181747411e+01    0.1905289    0.1607839 -87.54 0.0003719933    1.311    0.237
       259 -10.4368     36.8347    108.7075   1.1438545821e+02   4.9174992095e+01    0.2362671    0.1645849 -40.97 0.0009341828    1.545    0.353
       260  -9.0532     13.3054    109.7159   1.2112205977e+02   5.0867957976e+01    0.1158202   0.07792038  76.77 0.0002656632    1.561    0.359
       261 -10.3081     64.0921    106.7617   1.0611202951e+02   4.6584797343e+01    0.3154649    0.2050581  77.42  0.001172508    2.254    0.556
       262  -9.6334     61.0066    114.7557   1.0862590849e+02   4.5103479740e+01    0.2826802    0.1587659 -86.35  0.001170364    2.669    0.625
       263  -9.9434    123.8875    104.8296   8.8791494210e+01   3.6959020659e+01    0.2174891    0.2007867 -12.26 0.0003012733    1.140    0.123
       264 -10.4467     18.9539    102.9924   1.1859235372e+02   5.2003601825e+01    0.2212541    0.1742159  76.90  0.001471105    1.358    0.264
       265 -11.0967     43.1953    102.4904   1.1140752688e+02   4.9997048347e+01    0.4013202    0.1976544 -66.53   0.00137002    1.791    0.442
       266 -10.5271     38.7135    100.6020   1.1238507409e+02   5.0880772674e+01    0.3009876    0.2103991   4.19  0.001705508    2.010    0.502
       267  -9.3074     29.4475    103.5111   1.1563882444e+02   5.1048789389e+01    0.1267699    0.1010436 -70.37 0.0001483471    1.037    0.036
       268 -11.2011     50.7106    102.0086   1.0907230977e+02   4.9305694253e+01    0.3935161    0.1724602  40.98  0.001762958    2.620    0.618
       269  -8.9643    134.6868    101.7292   8.5137271701e+01   3.5345560748e+01    0.1532908    0.1223628   4.74 0.0002240951    1.552    0.356
       270 -12.0001    105.6944     98.9055   9.2139939671e+01   4.1820540151e+01    0.2871812     0.275431  53.81 0.0002397038    1.122    0.109
       271  -9.7090      9.3374     99.6805   1.2087218833e+02   5.3415912432e+01     0.176657     0.114714  76.39 0.0008961129    1.706    0.414
       272  -9.8756     16.5482     98.1484   1.1855123380e+02   5.3285870100e+01    0.2238188    0.1435721 -52.44 0.0008003137    1.359    0.264
       273 -11.3485     55.8929     96.5882   1.0634393489e+02   4.9966007735e+01    0.4470303    0.3096612  -7.79  0.001986353    2.099    0.524
       274 -10.4779     62.9779     96.0618   1.0404942054e+02   4.9210785464e+01    0.2016468    0.1756961 -57.17 0.0003157876    1.024    0.023
       275 -11.2424     48.3509     93.1544   1.0791944297e+02   5.1615958630e+01    0.4233153    0.2371227 -30.62   0.00196563    2.361    0.577
       276 -10.8632     38.1741     95.0593   1.1147787653e+02   5.2214905278e+01    0.2554233    0.1922903  15.63  0.001547829    1.696    0.410
       277  -9.5195     23.0337     95.5642   1.1619661899e+02   5.3400835736e+01    0.1481544    0.1218292  32.45 0.0003164712    1.520    0.342
       278  -9.4920    118.3908     94.2030   8.7301147682e+01   4.0368765890e+01      0.20891    0.1400223 -52.72 0.0003060363    1.538    0.350
       279 -10.8803      1.4466     92.9600   1.2223600590e+02   5.5389781308e+01    0.2456439    0.1002338 -74.27  0.000377634    1.932    0.483
       280 -10.1931    104.9364     91.4014   9.0259275162e+01   4.3605243175e+01    0.3110831    0.2671497 -89.10  0.001315501    1.435    0.303
       281 -10.4878     20.0537     81.9538   1.1465951468e+02   5.6715347264e+01    0.3016187    0.1828625  53.03 0.0005093274    2.212    0.548
       282 -11.1059     27.3359     87.8877   1.1346225502e+02   5.4815474188e+01    0.5705439     0.212251 -49.52  0.002398566    2.200    0.545
       283 -10.4197     17.7122     91.5807   1.1714011081e+02   5.4701943019e+01    0.1790022    0.1677621 -14.72 0.0007432167    1.342    0.255
       284 -12.1465     21.2197     88.0400   1.1542788712e+02   5.5254579293e+01    0.2405996     0.205304 -53.14 0.0003191898    1.139    0.122
       285 -11.0643      7.1022     90.4419   1.2019079687e+02   5.5640647277e+01    0.2549814    0.1564009 -71.46 0.0006359835    1.258    0.205
       286  -9.8169     59.1316     90.1156   1.0382658566e+02   5.1058400819e+01     0.206228    0.1614686 -39.68 0.0003612276    1.215    0.177
       287 -10.7922     87.8740     88.7597   9.4541094360e+01   4.7202129016e+01    0.2966736    0.2375053 -21.03   0.00068727    1.375    0.273
       288  -9.9847      2.6729     87.8243   1.2114495189e+02   5.6474891315e+01    0.1625285    0.1155141 -73.58 0.0005979703    1.110    0.099
       289  -9.7017     64.1020     86.8486   1.0143039989e+02   5.1163436651e+01    0.1910715    0.1513506 -27.20  0.001070838    1.342    0.255
       290 -10.4463    155.0841     85.3029   7.5359272424e+01   3.3977020155e+01    0.2519896    0.2165999 -32.46 0.0003897049    1.137    0.121
       291  -9.7972    128.3280     85.9302   8.2181732559e+01   3.9996161755e+01    0.2625159    0.2097944  55.68 0.0008305265    1.374    0.272
       292  -9.6657     10.4797     85.4652   1.1836105868e+02   5.6559306025e+01    0.1862074    0.1521731   0.01  0.001310535    1.603    0.376
       293 -12.2470     14.6032     83.6836   1.1674499090e+02   5.6699555169e+01    0.2333272    0.1921825 -77.36 0.0002456449    1.170    0.145
       294 -11.5247     73.2673     82.0294   9.7199083457e+01   5.0963215188e+01    0.4665653    0.2546518 -52.25  0.001747575    1.654    0.395
       295 -12.0140     50.8350     83.1815   1.0479875808e+02   5.3611815131e+01    0.4328543    0.2802419  11.59  0.001464308    2.082    0.520
       296 -11.4155     54.1022     77.5468   1.0226283924e+02   5.4490093793e+01    0.4434043     0.286919  49.31 0.0007336509    2.011    0.503
       297 -10.6683     43.7213     81.1705   1.0665990563e+02   5.4832415837e+01    0.3072541    0.2042524 -21.14  0.001054525    1.883    0.469
       298  -8.9557    120.7224     80.3217   8.2491795354e+01   4.2760323360e+01    0.1497523    0.1211312 -71.88 0.0005502754    1.581    0.368
       299 -10.0403     89.7361     78.8695   9.1080141092e+01   4.9027322019e+01    0.2711041    0.1961822  74.17  0.001230079    2.220    0.550
       300  -9.4867     18.4128     77.5046   1.1432775036e+02   5.7827885433e+01    0.1814135   0.09680834 -71.08 0.0001363666    1.684    0.406
       301 -10.0287     18.2330     74.0131   1.1367589385e+02   5.8616521028e+01     0.238115    0.1270092 -31.56  0.001263365    2.145    0.534
       302 -11.2751     62.5518     75.3358   9.8811094053e+01   5.3916270458e+01    0.3165522    0.2480436  45.28  0.001458351    1.537    0.349
       303 -10.0638     28.6983     75.0208   1.1030149595e+02   5.7600609249e+01    0.3766841     0.113005 -50.17  0.001497515    2.470    0.595
       304  -8.8776    173.3065     75.6410   6.8450761651e+01   3.1259111061e+01    0.1650202    0.1210488 -65.36 0.0007040428    1.729    0.422
       305 -10.6556     69.5743     74.2938   9.6163895218e+01   5.3176187362e+01    0.2374157    0.2073927 -55.20 0.0005665826    1.164    0.141
       306  -9.8228     80.8793     74.1376   9.2420520804e+01   5.1495639075e+01     0.200821    0.1826313 -58.61 0.0003104909    1.196    0.164
       307  -9.3026    142.7724     73.0198   7.4462966890e+01   3.9201880461e+01    0.2077692    0.1264542 -35.85 0.0008636707    1.604    0.377
       308  -9.6997     89.1855     71.7968   8.9038111589e+01   5.0595091372e+01    0.2023236    0.1584035 -17.97 0.0005173683    1.347    0.258
       309 -10.0235     89.2267     67.9966   8.7785690848e+01   5.1357401242e+01    0.2916054    0.1752115 -30.20  0.001312239    1.724    0.420
       310 -11.0445     42.0385     70.9896   1.0466311864e+02   5.7260140386e+01    0.2688147    0.1802614 -42.53  0.001537922    1.271    0.213
       311 -11.1226     45.3363     68.8423   1.0291646404e+02   5.7381306673e+01    0.5383117    0.2344788 -30.62  0.002029103    3.469    0.712
       312 -10.6281     79.7685     70.0119   9.1483687410e+01   5.2533150665e+01    0.2115241    0.1964727  -1.94 0.0004013649    1.116    0.104
       313 -10.9843     55.9278     66.2443   9.8414291053e+01   5.6710612567e+01    0.2674647    0.2115243 -19.90 0.0007860872    1.295    0.228
       314 -10.2962      1.3391     69.7733   1.1864652138e+02   6.0536301804e+01     0.182966   0.08746675 -67.26 0.0006169779    1.568    0.362
       315  -9.9214      1.3373     66.1424   1.1797962109e+02   6.1326151260e+01    0.2380715   0.09201466 -72.16 0.0004672593    2.285    0.562
       316 -10.9488      1.7378     61.3174   1.1689645029e+02   6.2347580736e+01    0.3501731    0.1083049 -59.88  0.001187661    2.099    0.524
       317 -10.8653      9.4725     62.7086   1.1436760406e+02   6.1640947824e+01    0.2297678    0.2147813 -27.11 0.0009974482    1.283    0.221
       318 -11.5566      5.8791     58.4402   1.1476039260e+02   6.2754169721e+01    0.3710136    0.3153259  78.73  0.002131863    1.493    0.330
       319  -9.9467     36.1269     68.5998   1.0612777296e+02   5.8358621679e+01    0.2152544    0.1187567 -51.32 0.0005567223    1.426    0.299
       320 -11.1398     52.8159     69.8266   1.0056364954e+02   5.6325314310e+01    0.2521287    0.2017089 -70.04  0.001002981    1.431    0.301
       321 -10.0782    106.0085     67.0933   8.2356646832e+01   4.8388251566e+01    0.2226207    0.2089204  -0.97 0.0005323747    1.049    0.047
       322  -9.7323     75.3153     66.4172   9.1796395663e+01   5.3971706272e+01    0.2212518    0.1366884  30.34 0.0002227377    1.829    0.453
       323  -9.7393    101.3173     64.0413   8.2711494651e+01   4.9894803915e+01    0.2092247    0.1745888 -29.17 0.0005099688    1.111    0.100
       324  -9.8801     31.2875     64.4037   1.0677587377e+02   5.9703366621e+01    0.1975458      0.16526  37.60  0.001304402    1.511    0.338
       325 -10.4894     21.8142     62.8092   1.0985336179e+02   6.0809394165e+01    0.2500223    0.1464199 -67.25  0.001394143    1.615    0.381
       326 -11.7596     23.7129     57.6191   1.0780066501e+02   6.1771614031e+01    0.3237899    0.2787151 -73.47 0.0005805381    1.333    0.250
       327 -10.3808     98.1595     60.8414   8.2558642444e+01   5.1107561300e+01    0.2078843    0.1983871 -53.49 0.0005667033    1.209    0.173
       328 -10.2528     73.5973     61.2179   9.0651047583e+01   5.5284328930e+01    0.2314235    0.1892057  -0.93 0.0006035613    1.295    0.228
       329 -10.5958     70.5999     60.1442   9.1316083798e+01   5.5952915898e+01    0.3069449    0.2424989  25.93  0.001330854    1.384    0.277
       330 -10.0784     38.7360     60.6479   1.0298165436e+02   5.9809031384e+01    0.1829042    0.1587886  36.90 0.0004221492    1.445    0.308
       331 -10.8636     32.1681     59.0169   1.0497514106e+02   6.0771753047e+01    0.2913058    0.1707216  28.33  0.001637356    2.050    0.512
       332  -9.1226    238.4671     58.5848   5.2999497890e+01   1.7870589105e+01    0.1393563    0.1293509 -44.13 9.017205e-05    1.021    0.021
       333  -9.8401    105.9248     57.1297   7.8911840264e+01   5.0252108822e+01    0.2094117    0.1965775 -53.95  0.000405462    1.231    0.188
       334 -10.8492     53.5966     56.2771   9.6096564713e+01   5.9053704071e+01    0.3166318    0.2370413 -82.41  0.001407883    2.225    0.551
       335 -10.3410    225.9173     55.7952   5.3901589304e+01   2.1232260135e+01    0.2317019    0.1938529 -34.52 0.0003248601    1.130    0.115
       336  -9.3795    249.7758     55.0633   5.0753731354e+01   1.5789256241e+01    0.1829299    0.1019052 -33.37 0.0003538842    1.594    0.373
       337 -10.1016    118.3774     55.2948   7.4732258284e+01   4.7931382987e+01     0.159293    0.1113878  15.41 0.0007023069    1.746    0.427
       338  -9.8817     94.2693     54.3496   8.1438240157e+01   5.3039085023e+01    0.3936249    0.2202967  16.35  0.001452986    3.085    0.676
       339 -10.9184     94.5204     49.3371   7.9498394552e+01   5.3873990161e+01    0.4140567    0.2918089 -15.67  0.001045532    1.484    0.326
       340 -10.3639    151.1306     53.3597   6.6046308884e+01   4.0506774855e+01    0.2374485    0.2076306  -1.97 0.0004305359    1.183    0.155
       341 -11.0031     72.2610     51.9244   8.7843726584e+01   5.7285695635e+01    0.4077618    0.1743335 -43.37  0.001489038    2.116    0.527
       342 -10.3037     32.9882     54.5029   1.0334378166e+02   6.1637952023e+01    0.2324044     0.152703  -6.10  0.001325106    1.858    0.462
       343  -9.8882     28.8685     53.1726   1.0455017387e+02   6.2278560864e+01    0.1744839    0.1511634 -56.73 0.0005986217    1.222    0.182
       344 -11.5084     42.6385     50.9841   9.8485099284e+01   6.1386247638e+01    0.5414877     0.261948 -30.46  0.002480954    2.289    0.563
       345  -9.3802     42.5591     44.6506   9.6334085091e+01   6.2633440696e+01    0.2846227   0.09519015 -44.06 0.0007823032    2.396    0.583
       346 -10.0655     22.6022     48.5620   1.0567064478e+02   6.3735211686e+01    0.3148847    0.1594335 -60.65 0.0009773065    1.840    0.456
       347 -10.4734     19.3957     40.9349   1.0463769784e+02   6.5507202781e+01    0.2415301     0.172994  20.24  0.001598508    1.686    0.407
       348 -10.4635     16.3380     51.9289   1.0913404535e+02   6.3497527216e+01    0.2934031     0.166614 -35.87  0.001159174    1.583    0.368
       349 -11.2691      5.9916     39.3827   1.0990326861e+02   6.6687524537e+01    0.9406778    0.4299472 -59.66  0.004985826    1.752    0.429
       350 -11.2327     17.1884     46.9870   1.0740773238e+02   6.4455112885e+01    0.2569331    0.1973676 -25.73 0.0004190378    1.260    0.206
       351 -13.0262     12.4297     44.2434   1.0857810486e+02   6.5329047929e+01    0.6716841    0.1975168 -42.30  0.001217542    2.673    0.626
       352 -11.3240     13.6300     36.0872   1.0556269299e+02   6.6866660164e+01    0.2840153    0.1917788 -53.13 0.0006825644    1.255    0.203
       353  -9.9780     60.6674     52.0875   9.2055816568e+01   5.8955878998e+01    0.1921535    0.1821484  20.26 0.0005111627    1.263    0.208
       354  -9.4794    122.0000     50.9831   7.2210881921e+01   4.7841446613e+01     0.247027   0.08258838 -33.46 0.0008001599    2.927    0.658
       355 -10.9731     65.7746     49.7305   8.9345971352e+01   5.8678705557e+01    0.2815667    0.1959005 -32.39  0.001117273    1.254    0.203
       356  -9.6802     79.8227     49.7439   8.4433359367e+01   5.6455894470e+01    0.1846709    0.1585471 -48.38 0.0003131826    1.325    0.245
       357 -10.3560    114.2623     47.3541   7.2959417940e+01   5.0146565836e+01    0.2540706    0.1872816 -26.60 0.0002640597    1.312    0.238
       358  -9.8307     37.8444     48.2315   9.9448646212e+01   6.2436531509e+01    0.1844783    0.1219554 -30.78 0.0006797774    1.351    0.260
       359 -10.8062     62.0825     44.9992   8.8930139306e+01   6.0088144215e+01    0.3330784    0.1825461 -36.46 0.0007046176    1.592    0.372
       360  -9.6657    165.1187     45.8958   6.0708250056e+01   3.8072727914e+01    0.2128326    0.1986041 -63.71            0    1.142    0.124
       361  -9.7186    124.0580     45.8276   6.9795927527e+01   4.8187850128e+01    0.2182768    0.2041131 -78.34 0.0009677411    1.289    0.224
       362 -12.3243     70.8284     38.5480   8.3196512512e+01   5.9887433846e+01    0.5588596    0.2374355 -30.98 0.0005838829    2.351    0.575
       363 -10.2749     33.2412     44.0018   9.9875371501e+01   6.3722637891e+01    0.1860895    0.1733908  15.48  0.000763754    1.344    0.256
       364  -9.5118    199.8339     43.4416   5.4122822907e+01   2.9449658605e+01    0.2031431    0.1308618  50.67  0.000439825    1.581    0.367
       365 -10.3196    141.5313     42.4178   6.4388153729e+01   4.4523965378e+01    0.2563764    0.2339911  -2.93 0.0005046322    1.082    0.076
       366  -9.4145     53.6508     42.7842   9.1283121746e+01   6.1646250512e+01    0.1735528    0.1080677 -47.75 0.0002543436    1.562    0.360
       367  -9.7289    151.5225     41.4705   6.1919396054e+01   4.2164328151e+01    0.2587461    0.1477366 -12.13  0.001005773    2.218    0.549
       368 -11.8088    103.5927     39.0069   7.2770629398e+01   5.3726490346e+01    0.2513291    0.2322847 -13.39 0.0003622918    1.096    0.088
       369 -11.4353     41.5602     38.0739   9.4311039850e+01   6.3979081785e+01     0.371867     0.253883 -20.69 0.0008688297    1.378    0.274
       370  -9.7136     82.3207     39.0622   7.9425706803e+01   5.7849787398e+01    0.1952824    0.1553878 -25.60 0.0004985474    1.143    0.125
       371 -10.0273    118.3554     38.7301   6.8609306929e+01   5.0548775318e+01    0.2760721    0.1574066  54.17 0.0006461721    1.809    0.447
       372  -9.8944    115.6808     38.3235   6.9155117468e+01   5.1209933577e+01    0.3006289    0.1772336 -41.52  0.001298857    1.834    0.455
       373 -10.1309     85.9808     37.2483   7.7480494759e+01   5.7472530450e+01    0.2274536    0.1771359 -22.38 0.0005373868    1.168    0.144
       374  -9.9759     86.8981     33.1828   7.5505759003e+01   5.7922720193e+01    0.2287907    0.1788704 -33.46 0.0005367137    1.294    0.227
       375 -12.3567    194.0885     35.2986   5.2570175993e+01   3.1993704438e+01    0.3845339       0.2709  65.53 0.0004380496    1.396    0.284
       376  -9.8107    156.1357     36.8998   5.9435625982e+01   4.1612158478e+01    0.2112342      0.19885 -75.09  0.000295969    1.155    0.134
       377  -9.4076     91.0042     37.4831   7.5965998623e+01   5.6487244749e+01    0.1903244    0.1340555  41.49 -8.46333e-05    1.459    0.314
       378 -10.1778    208.4443     36.0604   5.0817283856e+01   2.8226536099e+01    0.3135107    0.1458314  35.29  0.001053081    3.548    0.718
       379  -9.1321    176.3285     36.2960   5.5620864911e+01   3.6473852042e+01    0.1550217    0.1083548  31.70 0.0007025212    1.632    0.387
       380  -9.9872    142.4693     36.0026   6.1902478577e+01   4.5177913218e+01    0.2786235    0.1959743 -39.63 0.0006509947    1.496    0.332
       381 -11.0774    142.6211     31.3471   6.0203263710e+01   4.5743240011e+01    0.4134905    0.3043594   0.29  0.001283279    1.520    0.342
       382 -10.1018    131.5618     36.1846   6.4401303519e+01   4.7819814814e+01    0.2886827    0.1925649  61.00 0.0004572537    1.592    0.372
       383 -10.7766    119.2604     33.9630   6.6546834476e+01   5.1011477876e+01    0.3307019    0.2847439 -78.43  0.001769347    1.536    0.349
       384 -11.3553     77.2336     33.6778   7.8931791383e+01   5.9600881064e+01    0.3113288    0.2686986 -70.39  0.001531094    1.788    0.441
       385 -10.6166     55.7951     33.8837   8.6910167092e+01   6.2927397889e+01    0.4013203    0.2980058 -56.71  0.001803659    1.891    0.471
       386 -10.4249     60.6992     33.0114   8.4650682354e+01   6.2369403751e+01    0.4666423    0.3755881  71.24  0.002578683    2.288    0.563
       387  -9.2581     29.3414     33.7508   9.7838148790e+01   6.6037877907e+01   0.09963773   0.09522284  87.20 0.0003408865    1.571    0.363
       388 -11.7860    107.6664     29.0991   6.7660567275e+01   5.4258527253e+01    0.3892435    0.2499732 -21.48 0.0003938139    1.540    0.351
       389 -10.1460     33.9225     30.5865   9.4608378680e+01   6.6155805415e+01    0.3416805    0.1510512 -55.39  0.001254342    3.020    0.669
       390  -9.9100    206.4863     31.4773   4.9780669361e+01   2.9295818012e+01    0.1408356    0.1348787 -76.69 0.0008100571    1.013    0.013
       391  -9.7710     24.1111     30.8544   9.9049457769e+01   6.7044513184e+01      0.19684    0.1380152 -48.54 0.0005868668    1.317    0.240
       392 -10.3774     23.0753     27.0166   9.8029146905e+01   6.7829309404e+01    0.1749163    0.1336031 -33.47 0.0002853336    1.053    0.051
       393 -10.3478    163.5350     29.9677   5.5742607146e+01   4.0587263714e+01    0.2135889     0.145515 -23.08 0.0004347917    1.532    0.347
       394 -10.8213     71.3570     29.3906   7.9161170108e+01   6.1261030639e+01    0.2955642    0.1909498  51.73  0.001519395    2.044    0.511
       395  -9.8751     10.0568     22.4898   1.0240008559e+02   6.9655181672e+01     0.161929    0.1300853  10.35 0.0003954593    1.472    0.321
       396  -9.7931    200.8448    249.2046   1.0049458801e+02  -3.3998670765e+00    0.1677624    0.1291163  37.00 0.0005496225    1.146    0.128
       397  -9.7381     77.8849    248.2586   1.2149006774e+02   1.5253808901e+01     0.201506    0.1197295  87.31   0.00100138    1.787    0.440
       398 -10.3972    220.9566     28.9434   4.7345450691e+01   2.5984150483e+01    0.2399799    0.1506485 -62.09  0.001139547    1.711    0.416
       399 -11.0706     49.3870     27.4034   8.6716934566e+01   6.4869448030e+01    0.2749878    0.2398835  83.18  0.001021842    2.121    0.529
       400 -10.1346    181.5347     27.9862   5.2198603114e+01   3.6147477500e+01    0.2245843    0.1437849 -24.54  0.001043251    1.631    0.387
       401 -10.1937    204.5711     26.8045   4.8702809255e+01   3.0345404480e+01    0.2062889    0.1195943 -41.28 0.0006771111    1.669    0.401
       402 -10.3518    210.6984    247.0294   9.8499799990e+01  -4.6646684388e+00    0.2199539     0.173023  33.50 0.0006593913    1.156    0.135
       403 -10.2124    158.8454     30.1321   5.6631160628e+01   4.1776999708e+01    0.2565617    0.2008634  43.18 0.0007310851    1.244    0.196
       404 -10.8927    207.3611    245.7904   9.8889206315e+01  -4.0103870225e+00     0.209991    0.1620898  12.72 0.0008231348    1.213    0.175
       405 -10.8333     97.0962    246.4644   1.1812686754e+02   1.2906034399e+01    0.2558906    0.1959474 -63.98  0.001880795    1.591    0.372
       406  -9.6554    243.2318     25.0072   4.4047252465e+01   2.1134646713e+01     0.182043    0.1586742 -47.34 0.0003915103    1.068    0.064
       407 -10.9306    153.5183     23.1823   5.5213315515e+01   4.3959295489e+01    0.2616105    0.2311894  45.90 0.0002684942    1.067    0.063
       408 -11.6094    176.3509     22.1188   5.1136708841e+01   3.8170624473e+01    0.4475931    0.2397033  41.04  0.001413297    2.062    0.515
       409 -10.8847     46.1826    246.0573   1.2644792296e+02   1.9570859798e+01     0.277375    0.1486616  77.21  0.001140066    1.657    0.397
       410 -11.1008    169.5960     22.3369   5.2234615251e+01   3.9902872851e+01    0.3498133    0.1616558 -32.52  0.001431975    2.142    0.533
       411 -11.9499    116.9165     22.6164   6.2666837085e+01   5.2989365740e+01    0.2398563    0.2071328  -7.56 0.0002277352    1.132    0.117
       412  -9.9933     62.9413     22.9949   7.9402165959e+01   6.3577394509e+01    0.2113302    0.1370847   2.82    0.0011206    1.674    0.403
       413 -10.0846    101.7996     20.2803   6.5600103719e+01   5.6632676367e+01    0.3706548    0.1614694 -23.12  0.001322035    2.329    0.571
       414 -11.9636    137.3108    244.8994   1.1101056876e+02   7.1489596008e+00    0.4248951    0.2771158  61.38  0.001931272    1.568    0.362
       415 -10.0055     89.4596     19.4580   6.8792443021e+01   5.9289668556e+01    0.3348864    0.1998055 -33.91  0.001195128    1.721    0.419
       416 -10.4978    132.4428     21.5865   5.8743662187e+01   4.9418411637e+01    0.2759502      0.23913 -45.02  0.001535759    1.302    0.232
       417 -10.8336     38.0768     21.4416   8.8876069028e+01   6.7241345765e+01    0.4110024    0.1907519  32.88  0.002125466    2.396    0.583
       418 -10.3537     27.4144     21.0706   9.3543744708e+01   6.8453999232e+01    0.2559144     0.146024 -16.93  0.001434679    1.817    0.450
       419 -11.1801    134.1124    240.9215   1.1111826339e+02   8.2389733976e+00    0.2087526      0.17945  47.19   0.00040529    1.107    0.097
       420 -10.8363    198.1337    240.5357   9.9718501055e+01  -1.9399443652e+00    0.2141059    0.1652776  33.72 0.0003814851    1.064    0.060
       421 -10.0871    140.9576     20.7253   5.6692736143e+01   4.7410144388e+01    0.2057049    0.1741095  55.60 0.0003592322    1.131    0.115
       422 -10.8464    219.5033     20.0282   4.5136721533e+01   2.7383068298e+01    0.2085046    0.1298273 -29.99   0.00103245    1.590    0.371
       423  -9.4634    190.4444     20.4426   4.8662050667e+01   3.4698097851e+01      0.13984    0.1323435  88.30  6.45666e-05    1.007    0.007
       424  -9.3249    120.6570     20.2956   6.0855076574e+01   5.2385994721e+01    0.1371231    0.1103348 -67.30 0.0004731368    1.664    0.399
       425 -11.0571    199.4583     17.6420   4.6722148290e+01   3.2686325096e+01    0.3059189    0.2516783  25.55  0.001683487    1.422    0.297
       426 -11.0828    201.2038    244.8759   9.9815642353e+01  -2.9475019001e+00    0.3110446    0.1655719  39.78   0.00140052    1.488    0.328
       427  -9.6094     61.5476     17.9861   7.7601158431e+01   6.4503559597e+01    0.1828646     0.109691 -25.80 -3.264187e-05    1.480    0.324
       428  -9.3380     57.9792     18.7567   7.9336563926e+01   6.4953787684e+01    0.1528725    0.1005938  33.02 0.0006102955    1.553    0.356
       429 -10.4143     46.7187     17.7045   8.3404430839e+01   6.6725953180e+01    0.3342144    0.2468103  67.86  0.001672972    3.429    0.708
       430 -10.2953     80.8656     17.3035   7.0508694831e+01   6.1223217824e+01    0.2117549    0.2045654  -5.86 0.0007991022    1.301    0.231
       431  -9.4637    157.8018     17.5605   5.2546852153e+01   4.3469198774e+01    0.1910356    0.1349636  81.10 0.0003441992    1.553    0.356
       432 -11.9728    204.3769    240.5265   9.8629283843e+01  -2.9258665560e+00    0.2919241    0.1993474  22.97  0.000177656    1.289    0.224
       433  -9.9525    229.9574     16.0631   4.3072655414e+01   2.5283176592e+01    0.1611921    0.1428176 -60.68 0.0005604639    1.028    0.028
       434  -9.3424    187.4889    245.4859   1.0228031732e+02  -8.6609948134e-01    0.1182606   0.09170358  34.08 0.0008103782    1.015    0.014
       435 -10.4695    112.8529     15.5182   6.0770782356e+01   5.4714270884e+01    0.3289866    0.2234133  43.42  0.001296395    1.340    0.254
       436 -12.4609     75.1386    242.6633   1.2150404461e+02   1.6529072925e+01    0.3298043    0.2916816  33.83   0.00139484    1.586    0.369
       437  -9.8004    169.3208     14.2901   4.9674406758e+01   4.0826387711e+01     0.148432   0.09843853  37.76 0.0002138704    1.604    0.377
       438 -12.1478    144.6624    238.2576   1.0891788770e+02   6.9722629768e+00    0.2460184    0.1797117  42.16 0.0002130424    1.120    0.107
       439  -9.4180    106.4501    244.5129   1.1634431486e+02   1.1869517843e+01    0.1140018   0.08788069  57.18 0.0002446231    1.006    0.006
       440 -10.5837    191.2863    241.2198   1.0101641910e+02  -9.3528635068e-01    0.2609109    0.2105304 -59.59  0.001764024    1.869    0.465
       441 -10.1167     89.3470     13.8131   6.6301310981e+01   5.9972423829e+01    0.2745622    0.1500066  52.52 0.0004383961    1.875    0.467
       442 -10.7885     91.7465    242.3444   1.1866699515e+02   1.4320125207e+01    0.2122067    0.1490901  58.63 0.0004613585    1.105    0.095
       443  -8.9197     83.3201    243.6845   1.2021397392e+02   1.5264946829e+01    0.1166784   0.06495524  65.47 0.0007040114    1.656    0.396
       444  -9.8349    133.0096     12.7514   5.5289422758e+01   5.0206273313e+01     0.198635     0.173379  46.98 0.0004589449    1.057    0.054
       445  -9.7074     62.2294    242.9955   1.2366622771e+02   1.8136116794e+01    0.1536754    0.1110282  68.52   0.00115835    1.048    0.046
       446 -10.2074    110.9140    241.8749   1.1530832318e+02   1.1628655670e+01    0.1627554    0.1369711  45.72 0.0004831094    1.211    0.174
       447  -9.8524     55.7162    242.3308   1.2468206449e+02   1.9053076958e+01    0.1623705   0.09402653  65.69 0.0005399479    1.378    0.275
       448  -9.6354     54.7172    239.3216   1.2463875683e+02   1.9682573496e+01    0.1917676    0.1066734  71.53 0.0002106145    1.566    0.361
       449 -10.0292    225.9335    240.3049   9.4893994663e+01  -6.2328901296e+00    0.1654817    0.1425451   4.89 0.0002031977    1.240    0.194
       450 -10.3616    137.5620    240.5052   1.1045682797e+02   7.7612152652e+00    0.1859977    0.1262265  41.89 0.0005819143    1.213    0.176
       451 -11.0399    119.4894    240.6113   1.1367174220e+02   1.0539984572e+01    0.2827861    0.1457354  39.52  0.001073733    1.702    0.413
       452  -9.9806    120.0602    237.5054   1.1323387121e+02   1.0941844179e+01    0.1751132    0.1567731  81.05 0.0003621727    1.208    0.172
       453 -10.7093    246.3854    239.7749   9.1394116025e+01  -9.1945456081e+00    0.2412693    0.1777931  54.82  0.001521445    2.313    0.568
       454 -10.4671    167.8604    238.5755   1.0480063710e+02   3.1882304484e+00    0.1875207    0.1752536 -78.37 0.0007237681    1.383    0.277
       455 -11.1389     96.1467    238.4521   1.1754876613e+02   1.4333769405e+01    0.4674265    0.2398757  64.78  0.002575081    2.074    0.518
       456 -11.0097    103.5303    235.1430   1.1592612699e+02   1.3808263280e+01    0.4419897    0.2496369  37.01  0.002354738    1.762    0.433
       457 -11.2238    145.9594    242.9454   1.0925720497e+02   6.0785812975e+00     0.200264     0.187018  45.28 0.0003990891    1.188    0.158
       458  -9.6178     63.6496    238.6081   1.2311045051e+02   1.8694962183e+01    0.1504813   0.07637224  51.89 0.0007551439    1.531    0.347
       459 -10.3372    217.6415    237.0229   9.5800131956e+01  -4.5888888886e+00    0.2053628    0.1367406  33.76 0.0006096557    1.203    0.168
       460 -10.3255     43.0131    235.9549   1.2632618842e+02   2.1646599875e+01    0.2170804    0.1234494 -87.98  0.001071042    1.593    0.372
       461  -9.8851    160.3734    236.1421   1.0581973534e+02   4.7475070395e+00     0.152284    0.1367942  44.48  0.000476206    1.126    0.112
       462  -9.6638     30.8010    236.4199   1.2831273421e+02   2.2932895886e+01     0.125846   0.08940282  39.52 0.0009478605    1.680    0.405
       463 -10.4708    249.7365    235.0634   9.0075256329e+01  -9.1914686538e+00     0.159448     0.120357   6.81  0.001035085    1.100    0.091
       464  -9.5100    133.3575    234.1134   1.1045360594e+02   9.4038290812e+00    0.1442243     0.108236 -79.39 0.0005282925    1.662    0.398
       465  -9.7897    197.1578    233.4997   9.8843910540e+01  -9.0051985331e-01    0.1756447    0.1494329  46.47 0.0006223514    1.311    0.237
       466 -10.1549    174.2504    232.7274   1.0284126004e+02   2.9566236212e+00    0.2563826    0.1266582  26.87  0.001181077    2.538    0.606
       467 -10.4532     74.8612    231.7605   1.2065338720e+02   1.8413497600e+01    0.2292586     0.146588 -65.52 0.0009362896    1.730    0.422
       468 -11.3153     73.1664    226.2142   1.2047204010e+02   1.9614981737e+01    0.3150182    0.1402926  51.31  0.001165166    1.835    0.455
       469  -9.9552     47.9893    231.5194   1.2521509254e+02   2.1838458695e+01    0.1507888    0.1017921  63.71 0.0003389148    1.116    0.104
       470 -10.5404     45.5358    228.0456   1.2538816536e+02   2.2741783175e+01    0.2277506     0.162636 -85.63 0.0009481992    1.291    0.225
       471  -9.1618     34.6477    232.7441   1.2748471935e+02   2.3149278366e+01   0.08305191   0.07948121  74.18 0.0002467879    1.604    0.377
       472 -10.6728     29.4554    231.1199   1.2822769129e+02   2.3999943188e+01    0.2003424    0.1294816 -88.53 0.0005677582    1.320    0.242
       473 -10.9929    144.1135    231.4657   1.0816567634e+02   8.0893304826e+00    0.3590906    0.2779688  61.62  0.002082776    1.291    0.225
       474  -9.2446    186.6715    230.6828   1.0029766578e+02   1.1870403697e+00    0.1241546   0.08350887  16.11 0.0007046163    1.680    0.405
       475 -11.0911    153.1619    226.8021   1.0588153628e+02   7.3220081309e+00    0.2685453    0.2290523 -50.96  0.001143223    1.422    0.297
       476  -9.8921    149.5024    225.5199   1.0638753509e+02   8.1284334889e+00    0.1891796     0.129381  59.10 0.0002032905    1.514    0.340
       477  -9.7872    138.3086    228.0358   1.0879655510e+02   9.5689980329e+00    0.1627474    0.1440614  59.97 0.0005711539    1.110    0.099
       478  -9.6392    126.2876    228.3909   1.1105990557e+02   1.1439981256e+01    0.2194657    0.1002327  38.27 0.0008083371    2.011    0.503
       479  -9.5426    110.0089    221.0040   1.1321586966e+02   1.5236689691e+01    0.1678432    0.1470348  50.28 0.0003298139    1.160    0.138
       480 -11.4973    110.9070    227.2905   1.1376111639e+02   1.4017090888e+01     0.356326    0.2065917  69.74  0.001394568    2.061    0.515
       481  -9.8539    112.5399    223.5702   1.1303882416e+02   1.4401403644e+01    0.1779469    0.1470143  57.14 9.798317e-05    1.022    0.022
       482  -9.8368     93.7315    227.1950   1.1688104606e+02   1.6585925893e+01    0.1921799    0.1329676 -78.51 0.0008786916    1.536    0.349
