#   1 NUMBER                 Running object number                                     
#   2 MAG_AUTO               Kron-like elliptical aperture magnitude                    [mag]
#   3 X_IMAGE                Object position along x                                    [pixel]
#   4 Y_IMAGE                Object position along y                                    [pixel]
#   5 X_WORLD                Barycenter position along world x axis                     [deg]
#   6 Y_WORLD                Barycenter position along world y axis                     [deg]
#   7 A_WORLD                Profile RMS along major axis (world units)                 [deg]
#   8 B_WORLD                Profile RMS along minor axis (world units)                 [deg]
#   9 THETA_WORLD            Position angle (CCW/world-x)                               [deg]
#  10 FWHM_WORLD             FWHM assuming a gaussian core                              [deg]
#  11 ELONGATION             A_IMAGE/B_IMAGE                                           
#  12 ELLIPTICITY            1 - B_IMAGE/A_IMAGE                                       
         1 -14.1618     67.5642    144.2594   1.2794708178e+02   3.8261960213e+01     3.693178     1.937942  79.03  0.002986071    3.312    0.698
         2 -13.2012    211.9046      2.9155   5.8652686851e+01   3.0856758244e+01     1.183198     0.700855  67.51  0.003180456    1.540    0.351
         3 -14.0593    188.7429     26.8994   6.7454313694e+01   3.4125228181e+01     1.724115     1.300753  -3.41  0.005562905    1.746    0.427
         4 -13.9645    196.6195     20.7925   6.4797376225e+01   3.2805183326e+01     1.540628     1.101513 -39.60  0.006139904    1.429    0.300
         5 -12.8062    202.5085     12.9522   6.2076446745e+01   3.2166926162e+01    0.6574587     0.538988  50.96  0.001303694    1.350    0.259
         6 -10.7990     32.6382      3.0084   9.8872910848e+01   7.1032036639e+01    0.2569002    0.0948144 -33.93  0.001254087    2.509    0.601
         7 -12.3443    198.1389    245.1621   1.1503153614e+02  -2.9634230875e+00    0.5610562    0.2298209  27.11  0.002362216    3.059    0.673
         8 -11.5858    247.9294    249.3000   1.0703628820e+02  -1.0799546057e+01    0.4983505    0.2114923  28.84  0.002724468    2.001    0.500
         9 -13.3024     57.0345    226.4341   1.3970633415e+02   2.2124127866e+01    0.9052595    0.5322736 -52.64  0.003192585    2.380    0.580
        10 -15.5081     33.8123    246.9525   1.4522676759e+02   2.1258527337e+01     9.298201     2.353836  32.90   0.02156841    6.309    0.841
        11 -12.7812    107.5606    245.0226   1.3188510366e+02   1.1615193264e+01     0.612376    0.3114314  56.06  0.002277585    1.772    0.436
        12 -12.9590     47.9948    230.5730   1.4170028703e+02   2.2497491688e+01     0.436378    0.3221788  77.86  0.001463832    1.134    0.118
        13 -11.5650    100.2482    238.3821   1.3258759867e+02   1.3846277042e+01     0.280739    0.1665293  55.60 0.0007398769    1.406    0.289
        14 -11.0612    104.1636    237.1496   1.3171466429e+02   1.3458243489e+01    0.1981391    0.1686376  78.59 0.0006600677    1.206    0.171
        15 -13.3123     74.0511    232.7172   1.3701776218e+02   1.8674692115e+01    0.8588866    0.4025639  63.20  0.003231245    2.161    0.537
        16 -11.2294     65.5263    233.5214   1.3868522768e+02   1.9695876196e+01    0.2539094    0.2040915 -75.76  0.001689134    1.411    0.291
        17 -10.2054     69.2907    233.3560   1.3796823704e+02   1.9216005507e+01    0.2016217    0.1715292  75.94 0.0007715144    1.185    0.156
        18  -9.3869    169.4066    215.2157   1.1594509366e+02   6.1527438110e+00    0.1634541    0.1278559 -63.12 0.0009451344    1.704    0.413
        19 -12.5671    126.4569    245.1246   1.2835313443e+02   8.6443076028e+00     0.609246    0.3871167  79.25  0.003375772    2.254    0.556
        20 -13.1907     48.6766    223.0320   1.4101993472e+02   2.3825304337e+01    0.4589818    0.3354408 -65.70  0.001288438    1.604    0.377
        21 -16.4866      7.2319    239.8537   1.4928366269e+02   2.5346797179e+01     16.11171     1.164728 -76.73   0.04794217    9.804    0.898
        22 -10.2873    226.0858    200.8286   1.0264959564e+02  -1.6558210562e+00    0.2387835    0.1945065 -47.22 0.0007156389    1.647    0.393
        23 -10.9399    193.2127    195.2235   1.0782046733e+02   5.0298328673e+00    0.7835996    0.3950875 -61.15  0.002393696    6.088    0.836
        24 -11.8910     72.0451    190.8936   1.3321556786e+02   2.7185904186e+01    0.3874266     0.258775 -43.94  0.001330286    2.090    0.522
        25 -11.8525     76.5366    184.2629   1.3141492460e+02   2.7952303791e+01    0.2788228    0.2365329 -58.72 0.0008191701    1.354    0.261
        26 -13.0235     90.6852    165.2416   1.2539977238e+02   2.9954607619e+01     2.717503    0.7286692  50.22  0.001081136    4.782    0.791
        27 -10.6308     38.4910    161.5105   1.3761018881e+02   3.7896783014e+01     0.239853    0.1191222  32.71  0.001218747    2.194    0.544
        28  -9.7688    163.8656    156.4032   1.0635364022e+02   1.7846466747e+01    0.2611209    0.2070706 -56.98  0.001063712    1.416    0.294
        29 -12.8553     45.8904    147.7360   1.3412605113e+02   4.0209031768e+01    0.7032957     0.315246 -64.80  0.003322881    1.962    0.490
        30 -12.3093     54.7793    145.9194   1.3156956501e+02   3.9564069846e+01    0.6752621    0.3445678 -44.05  0.003018199    2.510    0.602
        31 -10.2475    102.9833    148.3272   1.1938483470e+02   3.1684909730e+01    0.2964431    0.2823344  77.82  0.000859279    1.039    0.038
        32  -9.8235    105.4826    144.5288   1.1800765976e+02   3.2097969800e+01    0.3437099    0.2243989 -36.92  0.001322035    1.921    0.479
        33 -12.3114     91.7547    147.9098   1.2220953374e+02   3.3712912924e+01    0.2746521    0.2629178 -35.78 0.0005260588    1.216    0.178
        34  -9.9816    133.6884    144.2704   1.1082295368e+02   2.6680437221e+01    0.7809049    0.1423989 -52.22  0.001577925    8.163    0.877
        35 -14.6098     11.9243    206.9914   1.4686138768e+02   3.1000577078e+01      1.32681    0.8923319  58.99  0.003302182    1.212    0.175
        36  -9.9975    112.6216    134.8512   1.1414999098e+02   3.2957514309e+01    0.3168401    0.2424921 -22.03  0.001042943    1.758    0.431
        37 -11.9413     45.2758    130.1260   1.3179944408e+02   4.4374276058e+01    0.2623605    0.2321844 -83.90  0.001684768    1.025    0.025
        38 -10.7788    100.2588    131.7902   1.1679949034e+02   3.5949633219e+01    0.2951626    0.2333944 -31.05 0.0004913121    1.526    0.345
        39 -12.7841     40.7295    126.6230   1.3254513710e+02   4.5688402871e+01    0.6930381    0.2003697 -62.37   0.00268805    2.794    0.642
        40 -11.5403     84.3442    172.4944   1.2802084646e+02   2.9345372012e+01    0.4386443    0.2683125  67.55  0.000697809    1.825    0.452
        41 -11.9865     33.0554    120.3292   1.3379546093e+02   4.7928523655e+01    0.4665266    0.1204903 -61.06  0.001790856    2.915    0.657
        42  -9.6586    108.9321    122.4786   1.1237326634e+02   3.6458307251e+01    0.2065021    0.1953341 -62.03 0.0003355322    1.052    0.049
        43 -13.4070     72.6746    169.8695   1.3043899184e+02   3.1674738683e+01    0.4910423    0.2923498 -45.12  0.001759986    2.154    0.536
        44  -9.4543    160.6820    127.3340   1.0048819408e+02   2.4377860463e+01    0.1587274    0.1237716 -87.28 0.0005654203    1.695    0.410
        45 -10.8061     20.0548    111.0849   1.3626797199e+02   5.1194852788e+01       0.1887    0.1584135 -75.54 0.0005907756    1.024    0.024
        46  -9.4059    205.5057    110.4872   8.7055801825e+01   1.7165272173e+01    0.2633363    0.1318492  42.39  0.001016228    2.163    0.538
        47 -11.0659    168.2603    113.0790   9.5217204544e+01   2.5456719922e+01    0.3616942    0.3085413 -78.92 0.0007906725    1.362    0.266
        48 -13.4813     96.4582    248.1263   1.3424229280e+02   1.2775224867e+01    0.9437343    0.4576295  39.17  0.003840754    1.782    0.439
        49 -11.9258    162.2883    248.1388   1.2201531538e+02   2.4069602361e+00    0.3912928    0.2883642  12.41    0.0024584    1.666    0.400
        50 -12.7448     82.0402    247.1110   1.3678198595e+02   1.5031053525e+01    0.4962497    0.3828157 -62.48  0.003528937    1.653    0.395
        51 -12.2415     63.6273    249.5402   1.4026097433e+02   1.7133412459e+01    0.6191056    0.2102421  50.32   0.00316323    2.183    0.542
        52 -12.8337    177.5344    249.5408   1.1939259287e+02  -2.4450973292e-01    0.9474396    0.2403004  38.23  0.003595068    3.284    0.695
        53 -15.5493     57.1802    210.6752   1.3835229942e+02   2.5147038971e+01      5.66289    0.8468477  47.46   0.01364599    4.722    0.788
