#   1 NUMBER                 Running object number                                     
#   2 MAG_AUTO               Kron-like elliptical aperture magnitude                    [mag]
#   3 X_IMAGE                Object position along x                                    [pixel]
#   4 Y_IMAGE                Object position along y                                    [pixel]
#   5 X_WORLD                Barycenter position along world x axis                     [deg]
#   6 Y_WORLD                Barycenter position along world y axis                     [deg]
#   7 A_WORLD                Profile RMS along major axis (world units)                 [deg]
#   8 B_WORLD                Profile RMS along minor axis (world units)                 [deg]
#   9 THETA_WORLD            Position angle (CCW/world-x)                               [deg]
#  10 FWHM_WORLD             FWHM assuming a gaussian core                              [deg]
#  11 ELONGATION             A_IMAGE/B_IMAGE                                           
#  12 ELLIPTICITY            1 - B_IMAGE/A_IMAGE                                       
         1 -14.0951    226.0087     36.4488   3.1950317694e+01   2.5969032613e+01     1.720021     1.053246  42.33  0.009170663    2.712    0.631
         2 -12.5052      8.6031     17.0732   8.3198598742e+01   7.1988730711e+01     0.511493    0.4610356 -58.85  0.003676784    1.920    0.479
         3 -12.9358      3.6336      3.8924   7.9939418241e+01   7.4321863832e+01     1.067646    0.6991949 -27.32  0.007459258    1.348    0.258
         4 -12.3478    249.5723     14.7509   2.6066044563e+01   2.4047817579e+01    0.5368951    0.2242118 -40.39   0.00287315    2.088    0.521
         5 -12.5606      2.6094     23.8791   8.9788490785e+01   7.1361902652e+01     0.595765    0.5285649 -32.34  0.004461972    1.405    0.288
         6  -9.0051     25.6912      6.6942   6.8101202835e+01   7.1474372409e+01    0.1214781   0.07210016   6.57 0.0002494062    1.611    0.379
         7 -10.2830     46.2009    211.6068   1.0951731432e+02   2.3142091191e+01    0.2971625    0.2235147  15.93  0.001435726    1.597    0.374
         8 -12.8479      9.7204    230.0600   1.1912756047e+02   2.2718976997e+01     1.435682    0.7098832  78.85  0.006357278    1.924    0.480
         9 -11.3706     82.9168    215.8413   1.0096918023e+02   1.7395993415e+01    0.5028163    0.3160928 -88.81 0.0009082163    2.065    0.516
        10 -12.4469     47.4983    176.5676   1.0526837096e+02   3.1731385826e+01      1.08364    0.5903129 -28.18  0.001345614    2.969    0.663
        11 -11.7903     54.4537    170.7731   1.0251785268e+02   3.2418247014e+01     0.362991    0.2799242 -35.96 0.0005274061    1.459    0.315
        12 -14.7017    102.0754    228.9004   9.7997183670e+01   1.1713258868e+01     7.026528     1.255739  39.80   0.02021643    4.398    0.773
        13 -13.4225     81.3113    236.8244   1.0383169938e+02   1.2953420163e+01     1.229636     0.823271  38.10  0.003136518    1.314    0.239
        14 -10.8251     47.0172    218.5086   1.0998115794e+02   2.1425646598e+01    0.4287313     0.259531  18.09  0.002124559    2.040    0.510
        15  -9.3887     28.1846    218.8472   1.1437435350e+02   2.3424274379e+01    0.1956009      0.14394  63.38 0.0004980274    1.197    0.164
        16  -9.1470     73.5543    206.5738   1.0214540853e+02   2.0885552200e+01    0.2361113    0.1346491 -82.13 0.0007639675    2.170    0.539
        17 -10.0317    193.4147    194.7742   7.0994154159e+01   4.3126826603e+00    0.5639506    0.2567719 -56.57  0.001901623    3.919    0.745
        18 -14.0434     11.4250    205.3402   1.1722211260e+02   2.8184200202e+01     1.111234    0.6936198 -20.36  0.005602496    2.708    0.631
        19  -8.5449     99.6584    180.7283   9.1316190502e+01   2.3368581333e+01    0.1536083    0.1182498 -13.31 0.0002506862    1.611    0.379
        20  -8.3317    100.3186    177.7218   9.0603703561e+01   2.4014737692e+01    0.2091594    0.1318694 -55.85 0.0004171064    1.588    0.370
        21  -8.9402    187.4262    176.2724   6.8580853905e+01   8.9702514175e+00    0.2001912    0.1347384 -50.64 0.0009440352    1.591    0.371
        22 -10.2760    103.5222    172.2626   8.8715227113e+01   2.4858060083e+01    0.3435194    0.1692581  44.91  0.001288715    2.137    0.532
        23  -9.1533    110.9322    167.9184   8.5812536041e+01   2.4681966186e+01    0.2288527    0.2230038  70.16 0.0004008496    1.076    0.070
        24 -12.8449     51.9824    114.2282   9.3288375568e+01   4.7528788367e+01     1.760052    0.6118914 -67.49   0.00172449    4.312    0.768
        25 -13.0711     75.0034    155.1555   9.3873955343e+01   3.3780796074e+01     1.817797     1.020773  67.16  0.001408357    3.020    0.669
        26 -13.5430     68.0410    144.2070   9.3992137484e+01   3.7657539978e+01     2.019723     1.109837  72.82  0.003148803    3.839    0.740
        27 -11.1346     66.5010    161.4668   9.7547460591e+01   3.3315662109e+01     0.286918    0.2672232 -23.84  0.000276635    1.150    0.131
        28 -13.2507     52.1678    157.3737   1.0121118125e+02   3.6223537788e+01    0.5970575    0.3817209 -35.26  0.001720388    1.820    0.451
        29 -12.0421     32.4433    156.2656   1.0699569597e+02   3.8632219308e+01    0.5761707    0.3030055 -38.69  0.002476475    2.245    0.555
        30  -8.6192    134.4997    148.9883   7.5321174169e+01   2.4950176149e+01    0.2292508    0.1442636 -73.55 0.0008105523    2.648    0.622
        31 -14.3379     20.7311    249.1164   1.1796982416e+02   1.7608421635e+01      4.93531     1.177127  24.55   0.01494696    6.874    0.855
        32 -10.2346     91.3627    142.0788   8.6219761229e+01   3.4618820410e+01    0.3410603    0.3152795 -81.06 0.0007662322    1.163    0.140
        33  -9.7289     94.9729    138.9951   8.4426892696e+01   3.4791917551e+01    0.3957466    0.2773945 -14.26 0.0009706165    1.912    0.477
        34 -12.0984     78.8867    140.0200   8.9697114805e+01   3.7160375544e+01    0.3443195    0.2896549 -42.16 0.0004360712    1.158    0.137
        35 -10.8107     41.9960    215.6022   1.1089979757e+02   2.2681889448e+01    0.4082607    0.2707306  65.47  0.002181866    1.455    0.313
        36  -9.2181    141.2588    135.9459   7.0489590926e+01   2.6654084188e+01    0.4145828    0.2640022 -73.38  0.001096807    2.675    0.626
        37 -10.8283    242.5717    133.7337   4.9778212410e+01   7.7134806265e+00      0.36305   0.09922164 -45.37  0.001280618    3.195    0.687
        38 -10.5846     39.0082    162.7589   1.0590479084e+02   3.6269431419e+01     0.273903    0.1774202  88.54  0.001297323    1.672    0.402
        39 -10.6815    105.7529    130.8654   7.9240434566e+01   3.4888405403e+01     0.421829    0.3603512   9.54 0.0009759543    1.266    0.210
        40 -10.5776     91.7969    126.9653   8.2642894010e+01   3.8375696121e+01    0.3364944     0.270866 -15.96  0.000570957    1.395    0.283
        41  -9.4835    114.1965    124.3689   7.5117219448e+01   3.4839675735e+01    0.3999233    0.2365403  -8.52  0.001164372    4.092    0.756
        42  -9.7590     66.4865    125.3232   9.0637218689e+01   4.2793968467e+01    0.2623426    0.1410872  28.97 0.0007403527    1.952    0.488
        43  -9.7040    103.8609    119.1282   7.6902528083e+01   3.8092782976e+01    0.2255043    0.2186078 -13.76 0.0003143263    1.007    0.007
        44  -9.8051    204.7193    110.8947   5.0890319893e+01   1.8674939739e+01    0.3632305    0.2589718  28.53  0.001796609    1.890    0.471
        45  -8.8795     63.5473    102.4939   8.6246201130e+01   4.8891084983e+01    0.1482136    0.1383608 -29.56 0.0008084666    1.037    0.035
        46  -8.5335     88.7742    100.4160   7.6755858463e+01   4.5270745070e+01     0.197842    0.1457447  21.90 0.0002979292    1.441    0.306
        47 -11.4189     53.5193     91.7673   8.7226945302e+01   5.2789216843e+01    0.6191915     0.411506 -55.84  0.002756316    1.513    0.339
        48  -9.7015     41.5234     92.1855   9.2093340299e+01   5.4127630044e+01     0.232646    0.1914148   8.86 0.0004445854    1.250    0.200
        49 -10.0312    164.0141     84.7542   5.2048539586e+01   3.2256850423e+01    0.2192767     0.136404  43.49 0.0009498048    1.731    0.422
        50 -10.6939    160.4432     83.9397   5.2562099958e+01   3.3220266790e+01    0.3959443     0.214038 -61.02   0.00148366    2.662    0.624
        51  -8.2390     74.6609     81.2615   7.6083697334e+01   5.1933432200e+01    0.1388841    0.1164364  63.78 0.0002097973    1.587    0.370
        52  -8.7480    184.4897     77.4805   4.6427166094e+01   2.8874671799e+01    0.1378434    0.1308708 -73.66 5.227343e-05    1.053    0.050
        53 -10.8209     41.7947    208.8282   1.1031796183e+02   2.4308763403e+01    0.3755952    0.2083999  69.19 0.0006868797    1.987    0.497
        54 -10.3904     13.3413     60.3161   9.6079811432e+01   6.3732195610e+01    0.2387478    0.1865917 -35.92 0.0004688473    1.047    0.045
        55 -13.3245     55.5341    240.8694   1.1005761269e+02   1.5424340297e+01     1.257433    0.9476173  -7.07  0.002051622    1.979    0.495
        56 -10.8286      1.8341     50.6436   9.9145993672e+01   6.6409320222e+01    0.2665153     0.144074 -56.89  0.001126179    1.640    0.390
        57  -8.7416     94.5615     46.4979   5.7510173073e+01   5.4272287332e+01    0.1378697    0.1252615  32.80 5.190906e-05    1.043    0.041
        58 -11.1650      1.7908     38.0645   9.5394862388e+01   6.8877900107e+01    0.3582654    0.2366166 -66.51  0.002129565    1.963    0.491
        59 -11.0675      9.4094     42.0390   9.2518451172e+01   6.7650039581e+01    0.3603641    0.1830097  34.44  0.001311536    2.513    0.602
        60 -10.0305    121.0197     29.1603   4.4789810040e+01   5.0549773976e+01    0.2094375    0.1904429 -56.62            0    1.247    0.198
        61 -12.3490    206.5712     51.4984   3.7177326767e+01   2.7993460241e+01    0.8676312    0.4378064 -53.24  0.004265879    1.887    0.470
        62 -14.2878     31.8968    188.7580   1.1084412004e+02   3.0299281583e+01     2.679594     1.174191  69.57  0.009880207    3.235    0.691
        63 -15.4251      4.6407    179.1650   1.1696743195e+02   3.5085491144e+01     8.871728     1.398673 -73.91   0.02665022    4.708    0.788
        64 -13.9843     23.5744    195.2453   1.1354909361e+02   2.9505060289e+01     1.249254    0.9226617  86.51  0.002569627    1.219    0.180
        65  -9.7669    189.7841     15.1615   3.0861850641e+01   3.6104713807e+01    0.1875412    0.1409954 -74.63 0.0008998823    1.158    0.136
        66 -11.1208     59.2980    226.1363   1.0783069963e+02   1.8188262202e+01    0.4504105    0.2363992  89.64    0.0019964    2.440    0.590
        67  -9.4380     22.3367     10.6532   7.1980643188e+01   7.1428748061e+01   0.09976067   0.09285556  34.18  0.000396983    1.777    0.437
