#   1 NUMBER                 Running object number                                     
#   2 MAG_AUTO               Kron-like elliptical aperture magnitude                    [mag]
#   3 X_IMAGE                Object position along x                                    [pixel]
#   4 Y_IMAGE                Object position along y                                    [pixel]
#   5 X_WORLD                Barycenter position along world x axis                     [deg]
#   6 Y_WORLD                Barycenter position along world y axis                     [deg]
#   7 A_WORLD                Profile RMS along major axis (world units)                 [deg]
#   8 B_WORLD                Profile RMS along minor axis (world units)                 [deg]
#   9 THETA_WORLD            Position angle (CCW/world-x)                               [deg]
#  10 FWHM_WORLD             FWHM assuming a gaussian core                              [deg]
#  11 ELONGATION             A_IMAGE/B_IMAGE                                           
#  12 ELLIPTICITY            1 - B_IMAGE/A_IMAGE                                       
         1 -14.0841    166.8680     42.8109   7.5071988944e+01   3.8207870381e+01     1.217111     1.070781   8.78   0.00405488    1.358    0.263
         2 -14.1411    184.1626      9.7227   6.3585295211e+01   3.7822158726e+01     1.787896    0.9602182  66.73  0.006821003    1.581    0.368
         3  -9.9582    133.9246    245.9152   1.2778710926e+02   5.0131819329e+00    0.1777076    0.1678773  86.07  0.000387598    1.186    0.157
         4 -13.0416    196.5123    246.0441   1.1582133243e+02  -5.6871956949e+00    0.7200497    0.3701173  53.48  0.003336629    2.491    0.599
         5 -11.6562    177.0179    249.6562   1.2006692116e+02  -2.9588601800e+00    0.3797719    0.2038306  22.69  0.001699372    2.638    0.621
         6 -10.2425    139.1086    250.1186   1.2734510964e+02   3.4112700965e+00    0.2303085    0.1882637  57.79 0.0007801704    1.092    0.084
         7 -10.3383    138.2742    245.3560   1.2687833932e+02   4.3710393617e+00    0.4346118    0.2760811 -66.51  0.002374041    1.963    0.491
         8 -19.9474     65.0906    169.4488   1.3180695340e+02   3.2358028017e+01     19.71304     4.386683 -63.67   0.05956709    4.273    0.766
         9 -10.4641    131.1621    236.7594   1.2710824220e+02   7.1286902813e+00    0.2375146    0.1708164 -57.61 0.0003534175    1.577    0.366
        10 -11.3486    196.0082    236.5085   1.1437378360e+02  -4.1616341770e+00    0.2656352    0.1557593 -20.70  0.001268615    2.416    0.586
        11 -12.7841    175.9222    231.8347   1.1751836361e+02   9.9660994003e-02    0.6364645    0.2622234 -45.48   0.00273664    2.763    0.638
        12 -12.1241    125.0844    243.6388   1.2919123893e+02   6.9103518614e+00    0.4076983    0.1747332 -53.14 0.0008535595    2.685    0.628
        13  -9.0206     25.8343    229.7556   1.4614388495e+02   2.3933750198e+01    0.1228505    0.0667148 -73.64 0.0007416665    1.624    0.384
        14 -11.6410     11.7590    205.9751   1.4691192988e+02   3.0322505552e+01    0.2857577    0.2129366  45.34  0.001245173    1.541    0.351
        15 -11.2343    210.2281    203.3187   1.0567243258e+02  -1.2427549989e+00    0.3539717    0.1530963  32.07  0.001358441    2.700    0.630
        16  -8.8874    169.2947    201.6613   1.1367768021e+02   6.8110668548e+00    0.1417775    0.1118926  82.05 0.0007029425    1.652    0.395
        17 -10.1016    153.2533    200.6160   1.1690145153e+02   1.0117163384e+01    0.2589395     0.198082 -54.12  0.001293416    1.400    0.286
        18 -10.5229    138.7207    200.3555   1.1999702397e+02   1.2941861142e+01    0.4857068    0.2744723  62.51  0.001498284    2.261    0.558
        19 -10.2902    141.5677    198.7691   1.1910506716e+02   1.2734978693e+01    0.3013611    0.2701445 -83.82  0.000721615    1.157    0.135
        20  -9.6971    121.9337    198.5331   1.2336171077e+02   1.6439821505e+01    0.2413716    0.1915125 -44.85 0.0005717636    1.448    0.310
        21 -11.1355    180.5260    193.5013   1.0977889817e+02   6.2049654326e+00    0.3148858    0.2229776  84.22  0.001303647    2.368    0.578
        22 -11.0166    152.7076    192.8486   1.1561411160e+02   1.1820732278e+01    0.3154417    0.2581507 -82.86  0.001137196    1.423    0.297
        23 -11.6312    169.2736    182.0901   1.0992734531e+02   1.0743209701e+01    0.5548681    0.2404102  45.19  0.001796056    2.237    0.553
        24 -12.0830    172.4763    188.7623   1.1055885539e+02   8.7380955838e+00    0.6096145    0.4050161  17.85  0.002132614    2.121    0.528
        25 -10.0009    205.5425    189.5265   1.0388052522e+02   2.0784761730e+00      0.14111    0.1316395   6.76 7.503841e-05    1.006    0.006
        26 -11.7752    164.0933    187.5488   1.1212907821e+02   1.0662868150e+01    0.4654992    0.3504863   5.97  0.002185585    1.849    0.459
        27 -10.5969    152.8621    186.0508   1.1430444765e+02   1.3219826049e+01    0.2361301     0.201147  81.08 0.0008639206    1.299    0.230
        28  99.0000     15.4110    246.3790   1.4894655640e+02   2.1866210534e+01    0.1102416    0.0721033  73.32 0.0002047327    1.086    0.079
        29 -10.3240     29.7219    183.6615   1.4145810498e+02   3.3357668333e+01    0.2714283    0.1621003  56.74   0.00075047    1.633    0.388
        30 -10.4794      4.2160    180.3437   1.4635746224e+02   3.6537021464e+01    0.1913002    0.1681535   0.33  0.001418594    1.811    0.448
        31 -11.7795    204.6526    176.4957   1.0137463440e+02   4.6817348940e+00     0.502176    0.4260787 -62.13  0.001607323    1.386    0.278
        32 -11.9322    203.5250    165.9640   9.9346563479e+01   6.9364798391e+00    0.6509426    0.5155819 -20.56  0.001865549    1.362    0.266
        33 -10.3501    136.7116    179.5523   1.1670312642e+02   1.7826090234e+01    0.2621074    0.1434955  38.41 0.0005315654    1.888    0.470
        34  -9.5875    198.5213    177.4951   1.0282112916e+02   5.7188620602e+00    0.1445432    0.1395293   4.55 -4.919031e-06    1.013    0.012
        35  -9.7914    168.1581    176.6328   1.0906372569e+02   1.2106462385e+01    0.2421528    0.2001238 -63.31 0.0005973017    1.326    0.246
        36 -10.0935     10.6261    174.8711   1.4458450741e+02   3.7192282807e+01     0.158402    0.1071197 -80.76 0.0002534623    1.131    0.116
        37 -12.1714    193.4544    165.9584   1.0139706673e+02   9.0273245178e+00    0.8785902    0.4430031 -55.26   0.00231145    2.564    0.610
        38 -10.8502    190.2343    155.9935   9.9861070931e+01   1.1728431731e+01    0.4820731     0.451013 -73.49  0.002588853    1.149    0.129
        39  -9.5557    150.9032    243.5196   1.2418819100e+02   2.5161339538e+00    0.1722191    0.1632101  57.82 0.0004011765    1.126    0.112
        40 -10.1887     15.0777    164.0658   1.4258564508e+02   3.9233675514e+01    0.2529219    0.1847609   1.33  0.001565539    2.255    0.556
        41 -11.2566    120.9644    157.1719   1.1601279663e+02   2.6019574325e+01    0.2733347    0.2288776 -38.79 0.0009033348    1.312    0.238
        42 -13.2572    134.2150    146.3342   1.1042189799e+02   2.5896471177e+01     1.467583    0.4173792 -54.69   0.00377773    4.589    0.782
        43  -9.9493    174.5771    148.7688   1.0157102729e+02   1.6654993167e+01    0.3565848    0.2574494 -69.74  0.001556744    1.764    0.433
        44 -10.9023    168.0018    242.3121   1.2069846479e+02  -2.4879897001e-01    0.2476797    0.1896696 -48.14 0.0008299453    1.537    0.349
        45 -11.9526      4.8219    112.1753   1.3875452257e+02   5.1772537578e+01    0.4933332    0.2971877 -27.54  0.002927365    2.107    0.525
        46 -12.3188      3.0435    127.7143   1.4131165242e+02   4.8413430435e+01    0.8580891    0.2659718 -73.07  0.003673617    2.690    0.628
        47 -12.0370      6.4015    119.9720   1.3942871830e+02   4.9931027255e+01    0.3833975    0.2463604  13.35  0.002396693    2.135    0.532
        48 -12.1342      6.1814    137.9147   1.4176287366e+02   4.5895760478e+01    0.4954899     0.316873 -81.99  0.001839842    1.298    0.230
        49 -11.3696     13.3559    137.3695   1.3993567099e+02   4.5482480185e+01    0.2774745     0.193746  -5.85  0.001342493    2.189    0.543
        50 -10.1006    152.6825    139.1355   1.0430240404e+02   2.3590940335e+01    0.2563358    0.1975363 -67.74  0.001170233    1.466    0.318
        51 -12.5769    135.7028    127.5806   1.0562878291e+02   2.9866337872e+01     1.502146    0.2736407 -49.80   0.00315486    6.572    0.848
        52  -8.7220    168.6764    135.2884   9.9696074303e+01   2.0863968256e+01    0.1588371    0.1249702 -88.93 0.0005247338    1.606    0.377
        53 -10.6377    160.4845    127.9291   9.9753324094e+01   2.4308938109e+01    0.4286181    0.2839534 -61.01  0.001788305    1.761    0.432
        54 -11.7559    126.3762    128.8162   1.0829364690e+02   3.1539654765e+01    0.3869704    0.2903237  75.01  0.001746856    1.681    0.405
        55 -11.4292      9.0290    127.8012   1.3979459117e+02   4.7985101422e+01    0.2265597     0.139792 -69.10  0.001007372    1.240    0.194
        56 -11.9584    144.2097    145.7609   1.0786632955e+02   2.3933582889e+01    0.6237924    0.3668211 -69.85   0.00225145    2.610    0.617
        57 -11.5321    114.2579    117.9598   1.0878374710e+02   3.6444604580e+01    0.3192707    0.2540895 -55.50  0.000532348    1.235    0.190
        58  -9.6946    168.0352    113.0204   9.4251321557e+01   2.5716412208e+01     0.269417    0.1966231 -80.35   0.00114104    1.852    0.460
        59 -11.0417    134.6636    111.9981   1.0190673911e+02   3.3536381121e+01    0.4020442    0.1478626 -47.09  0.001306653    2.710    0.631
        60  -9.8470    205.5307    110.2167   8.5944526671e+01   1.7449450560e+01    0.2727808    0.2154956  55.57 0.0006710174    1.314    0.239
        61 -12.1089    117.8275    109.3702   1.0560265789e+02   3.7646011812e+01    0.5111266    0.2961461  60.99  0.001978682    2.376    0.579
        62 -11.0171     19.0650    108.6377   1.3416123899e+02   5.1572505745e+01      0.23456    0.1626667 -27.45  0.001362836    1.692    0.409
        63 -10.5287      6.6204    102.0829   1.3669074621e+02   5.3884746170e+01    0.1973266    0.1619436 -27.86 0.0007326883    1.383    0.277
        64  -6.2705     12.2915    243.2237   1.4925674965e+02   2.2798408411e+01   0.08523045   0.07372453  88.44 0.0003685004    1.447    0.309
        65  -8.6228     28.5021    240.4380   1.4644066230e+02   2.1524618342e+01    0.1138122   0.08166916  75.79 0.0003783558    1.008    0.008
        66  -9.1369    145.7132     81.3074   9.0632351839e+01   3.7208872689e+01    0.1506142    0.1191793 -76.73 0.0002275644    1.570    0.363
        67 -13.5269    154.9178     57.6283   8.1644599724e+01   3.9002952914e+01      1.32227     1.007563  51.88   0.00305437    1.248    0.199
        68  -9.2776    160.0000    246.3669   1.2283755428e+02   4.6999201810e-01    0.2452475   0.07445812 -48.91 0.0009317101    3.910    0.744
        69 -12.1265    170.9384     35.0346   7.2197918631e+01   3.8215231261e+01    0.3709137    0.3462575  36.99 0.0008422261    1.185    0.156
        70 -10.5872    100.7352     60.3238   9.5823384260e+01   5.0599200830e+01    0.4096629    0.2135311  51.54  0.001684218    2.125    0.529
        71 -10.0390     13.5023     59.9652   1.2561634536e+02   6.2150895356e+01    0.1687911    0.1591014  34.06 0.0004131066    1.436    0.304
        72  -9.6557    136.3744     30.8601   7.7258485268e+01   4.7035911504e+01     0.225922    0.1700049  67.67 0.0004954089    1.331    0.249
