#   1 NUMBER                 Running object number                                     
#   2 MAG_AUTO               Kron-like elliptical aperture magnitude                    [mag]
#   3 X_IMAGE                Object position along x                                    [pixel]
#   4 Y_IMAGE                Object position along y                                    [pixel]
#   5 X_WORLD                Barycenter position along world x axis                     [deg]
#   6 Y_WORLD                Barycenter position along world y axis                     [deg]
#   7 A_WORLD                Profile RMS along major axis (world units)                 [deg]
#   8 B_WORLD                Profile RMS along minor axis (world units)                 [deg]
#   9 THETA_WORLD            Position angle (CCW/world-x)                               [deg]
#  10 FWHM_WORLD             FWHM assuming a gaussian core                              [deg]
#  11 ELONGATION             A_IMAGE/B_IMAGE                                           
#  12 ELLIPTICITY            1 - B_IMAGE/A_IMAGE                                       
         1 -14.0063    242.7264    116.7543   7.5113546033e+01   9.3313808247e+00     7.846912     1.284742 -29.81   0.02031269    5.873    0.830
         2 -14.3494    210.4992     67.3754   6.7366480328e+01   2.3632896861e+01     8.652681     4.754277  87.98   0.02914871    3.597    0.722
         3 -15.1751    244.1415     26.0835   5.1677193305e+01   2.0671148241e+01     5.502446     2.983458  53.26   0.01356809    1.998    0.500
         4 -11.6102    172.3102     70.8565   7.5094514289e+01   3.2622300357e+01    0.6337337    0.5165772 -17.29  0.001475043    1.294    0.227
         5 -12.1783    232.1552      5.1145   4.7056097138e+01   2.5770821455e+01     2.389288     0.953531  40.42  0.008278277    3.843    0.740
         6 -12.4277    231.9153     14.2832   4.9601404247e+01   2.4910524291e+01    0.9963753    0.5008554 -14.27  0.003302259    2.248    0.555
         7 -12.3588    214.7622     30.0946   5.5920102196e+01   2.7492734059e+01    0.7762645    0.5788174 -32.45  0.001361888    1.267    0.210
         8 -12.7014    249.1320      4.1363   4.5506310051e+01   2.1771733280e+01    0.8852236    0.6669477  12.90  0.003226985    1.668    0.400
         9 -10.3882    179.7055     21.2544   5.7719652162e+01   3.7759598512e+01     1.094071    0.2035908 -31.84  0.003109086    3.972    0.748
        10  -9.2002    179.0005     12.5619   5.4880628155e+01   3.8894218770e+01    0.2627463    0.2062735 -24.68 0.0005463105    1.282    0.220
        11  -8.3780    195.6533     11.7572   5.2556681908e+01   3.4524148269e+01    0.2546645    0.1401604 -17.41 0.0009450863    1.923    0.480
        12 -10.7303    201.6375     17.0277   5.3515990945e+01   3.2387646575e+01    0.8894731    0.4889077 -52.91  0.002156771    1.967    0.492
        13 -11.3199    129.2053     20.4753   6.6382986930e+01   5.0996695889e+01    0.6544936    0.4367364   7.19  0.002987027    1.810    0.447
        14 -11.3350    134.9297     18.3846   6.4332950545e+01   4.9829363019e+01    0.9361812    0.4766454   1.30  0.003272447    3.161    0.684
        15 -10.4148    125.6265     14.2861   6.4598379880e+01   5.2618729659e+01    0.4822497    0.3009861 -49.82  0.002032537    1.909    0.476
        16 -11.3953    119.1475     10.1839   6.4255983282e+01   5.4653605582e+01    0.7373278    0.4590654  41.44  0.003423017    1.581    0.367
        17 -10.2333    142.0101     15.5311   6.1816784064e+01   4.8361663511e+01    0.5627322    0.2168926 -17.50  0.001922591    3.003    0.667
        18  -9.5245    143.4306      7.8527   5.8536879842e+01   4.8812070716e+01    0.5254667    0.2963482   0.49  0.002189733    2.195    0.545
        19  -9.1390    144.6765      2.9764   5.6404511629e+01   4.8956073449e+01    0.3118145    0.2763722 -49.41  0.001744035    1.208    0.172
        20  -9.5295    205.6022      8.2251   5.0377925026e+01   3.2249517996e+01    0.3586666    0.2350183 -57.35  0.001098298    1.579    0.367
        21  -9.2365    208.7813      5.9913   4.9385452819e+01   3.1635281629e+01    0.3981944    0.2603096 -30.10 0.0003151699    1.467    0.318
        22  -8.2764    159.3821      8.3778   5.6171278812e+01   4.4566693189e+01    0.3513508     0.116093 -27.77   0.00122465    2.772    0.639
        23  -8.5869    181.1656      6.2167   5.2464317780e+01   3.8943900403e+01    0.5220857   0.09186985  62.04  0.001503469    3.983    0.749
        24  -8.5810    135.5319      4.9313   5.8752771300e+01   5.1129868471e+01    0.2136273    0.1396892 -15.40 0.0005688221    1.564    0.361
        25  -8.1630    171.6817      3.2179   5.2617082230e+01   4.1769031877e+01    0.3125268    0.1015049 -29.52   0.00109817    2.770    0.639
        26  -7.3247    162.4771    135.4863   9.3890907912e+01   2.3300815014e+01    0.1397313    0.1326921  40.28 0.0001151932    1.027    0.026
        27 -11.9662    235.3197    248.0351   1.0006280498e+02  -4.0197063286e+00    0.2023853     0.152392  31.40 0.0003220499    1.159    0.137
        28 -10.5406     12.3511    236.8904   1.3363804563e+02   2.7118607912e+01    0.1790334    0.1736236  84.41  0.001780561    1.875    0.467
        29  -8.8349    203.6808    127.5211   8.4117208693e+01   1.5946008563e+01    0.2366873    0.1685609 -53.99 0.0009699328    1.758    0.431
        30  -8.8278    160.8094    128.6188   9.2740807454e+01   2.4895857216e+01    0.2152441    0.1305832  57.79 0.0009604383    1.787    0.441
        31  -8.9409    217.7001    125.7546   8.1245851625e+01   1.3247001344e+01    0.2370384    0.1842896  86.58   0.00104501    1.963    0.491
        32  -8.8282    183.4969    122.5014   8.6741564857e+01   2.1120739665e+01    0.2609552    0.1381782  49.15  0.001113372    1.838    0.456
        33 -10.3435    185.6451    118.0718   8.5270586647e+01   2.1401653121e+01    0.5839584    0.2427657 -48.34  0.001335187    2.994    0.666
        34  -8.4807    194.4967    119.4573   8.3917047535e+01   1.9220303295e+01    0.1448191    0.1344718  16.17 6.529641e-05    1.042    0.041
        35 -10.0265      4.4917    233.5248   1.3467782270e+02   2.8370372056e+01    0.1499223   0.06869961 -87.83 0.0001467227    1.861    0.463
        36  -9.8485    215.8475    140.4126   8.4841445290e+01   1.1491990531e+01      0.35249    0.2952071 -73.20  0.001271935    1.717    0.417
        37  -8.7126    216.4163    116.4824   7.9284905195e+01   1.4896787284e+01    0.3074135    0.1892659  31.90   0.00141474    1.785    0.440
        38  -7.7820      1.6854    117.3599   1.2943307292e+02   5.0301241673e+01    0.1193429   0.06219279  71.06 9.822924e-05    1.753    0.429
        39  -9.9573    167.6542    114.2140   8.7948069746e+01   2.6058060028e+01    0.3997233    0.3004753  49.51 0.0006591766    1.310    0.236
        40 -10.6017    206.8973    110.9599   7.9593672405e+01   1.7832252753e+01    0.6062741    0.3757342  68.90  0.002600636    2.254    0.556
        41  -8.3601    127.1400    112.2545   9.6540715096e+01   3.4989863881e+01    0.2785794    0.1802919 -72.80 0.0009568551    2.108    0.526
        42 -10.6200    226.0320    108.2762   7.5700385788e+01   1.4019195450e+01    0.5111668    0.1964062 -39.12  0.001925653    2.585    0.613
        43  -8.4628    147.9652    101.0218   8.8892640748e+01   3.2881424640e+01    0.2241731    0.2199202  -2.21 0.0005570732    1.063    0.059
        44  -9.6286    197.1872     96.7091   7.7695570092e+01   2.2321677148e+01    0.4158935     0.330248  33.96  0.001357698    1.303    0.232
        45 -12.3030    222.6938     55.3081   6.2181285549e+01   2.2308328722e+01      1.59577    0.8016453  45.67  0.005169671    2.179    0.541
        46  -8.6139    133.9883     97.2600   9.1168745141e+01   3.6638962043e+01    0.2016393    0.1903513  64.37 0.0003757428    1.070    0.066
        47  -9.0308    170.9829     94.0401   8.2043274533e+01   2.8936582057e+01    0.2155894    0.2136466 -26.97            0    1.015    0.014
        48 -11.6791    181.1711     80.2927   7.6158821927e+01   2.8864401737e+01     1.499813    0.5519822 -44.11  0.004920848    2.904    0.656
        49 -10.0469    147.4119    224.7157   1.1098964187e+02   1.1715221972e+01    0.2012854     0.168705  49.37 0.0004516588    1.088    0.081
        50 -10.3233    194.6936     72.2146   7.1352637846e+01   2.6825544236e+01    0.4296135    0.3538331  28.64  0.001082511    1.307    0.235
        51  -9.8489    158.4122     94.7784   8.4903584367e+01   3.1719300131e+01    0.4642369    0.2729939  41.43  0.001971729    1.805    0.446
        52  -9.0637    141.3697     90.8893   8.7689162718e+01   3.6302587547e+01    0.3043633    0.2636766 -47.31 0.0008497317    1.135    0.119
        53  -7.8280    217.3028     91.3108   7.2817129458e+01   1.8471655619e+01    0.1500979    0.1094304  16.01  0.000381801    1.609    0.378
        54 -10.1850    173.6920     85.2128   7.9034686173e+01   2.9842967061e+01    0.5189258    0.3417261  30.60   0.00147569    1.847    0.459
        55 -10.7990    156.5308     85.1582   8.2623147457e+01   3.3932485236e+01    0.5790729    0.3892207  53.37 0.0008114139    1.516    0.340
        56  -7.5665     20.5079    217.4633   1.3162759828e+02   2.9412500581e+01     0.099253   0.06716798  68.71 1.952802e-05    1.012    0.012
        57  -8.5286     12.3423    211.3084   1.3267208023e+02   3.1224766970e+01   0.08045617   0.07014517 -73.01 0.0007043895    1.692    0.409
        58  -7.4814    149.3011    209.7354   1.0885006531e+02   1.3505698250e+01    0.1128799   0.07769029  63.15 0.0002511994    1.519    0.342
        59  -8.5685    113.9192     75.8013   9.0226013109e+01   4.5138015705e+01    0.2022617    0.1912007 -21.74 0.0002582849    1.106    0.096
        60 -12.5310     10.5098    185.9630   1.3184497778e+02   3.5849403136e+01    0.7481947    0.5482073  79.98  0.004181221    1.103    0.093
        61 -10.7266    127.0155     53.6355   7.9544420458e+01   4.6506552628e+01    0.3594559    0.2920723 -34.55 0.0001974179    1.183    0.155
        62  -8.0643     96.0183    150.1733   1.1105568590e+02   3.2624502199e+01    0.1665923    0.1407742  70.79  0.001042413    1.053    0.050
        63  -9.7939    189.9823     74.9759   7.2985705181e+01   2.7560734614e+01     0.367323    0.2776039  30.55 0.0007492805    1.472    0.320
        64 -10.9160    124.2415     38.5566   7.4703481955e+01   4.9643221502e+01    0.4917743    0.4044353 -35.46  0.002279248    1.183    0.155
        65 -10.5449    144.3505     30.8251   6.7230826005e+01   4.5859415308e+01    0.6497783    0.3111843 -15.32  0.002326376    2.686    0.628
        66 -10.3440     68.3880    145.1416   1.1656363076e+02   3.7662725829e+01    0.5804039    0.3414973  72.94  0.002570437    1.841    0.457
        67  -8.6560     24.5221    176.0535   1.2870988250e+02   3.6394574568e+01    0.1568025   0.08475748 -82.03 0.0004642527    1.556    0.357
        68 -10.0664    241.9459    171.1070   8.6752144719e+01   2.6179682524e+00    0.3731444    0.2559353  62.57 0.0007921458    2.262    0.558
        69  -9.1270    197.3536     28.4888   5.7628153627e+01   3.2218759865e+01    0.4190619    0.2781239   3.71  0.001533363    1.902    0.474
        70 -11.2036     42.3735    166.9767   1.2452329224e+02   3.6314373190e+01    0.4097075    0.3416545  54.87  0.001477999    1.299    0.230
        71  -9.1528    202.9901     24.2687   5.5592102098e+01   3.1228423821e+01    0.4611257    0.2330065  59.09  0.001934358    1.929    0.482
        72 -11.2810     48.8959    162.1512   1.2274413087e+02   3.6547035851e+01    0.7382746    0.4372159  58.63  0.003562661    1.483    0.326
        73 -11.1442     54.8000    158.4906   1.2113280441e+02   3.6597360673e+01    0.6019143    0.3841811  72.68  0.001866606    1.415    0.293
        74  -9.0311     23.5768    167.7350   1.2834141571e+02   3.8097010920e+01    0.1553813   0.08042669  87.38 0.0009537986    1.625    0.384
        75  -9.7999    242.0685    165.9626   8.5745252870e+01   3.1995048086e+00    0.2759271    0.1847659  35.36 0.0003368267    1.334    0.251
        76 -10.5062    242.6641    161.1030   8.4698529501e+01   3.6734035096e+00    0.3706325    0.2235001  47.46 0.0005938541    1.688    0.407
        77  -7.9358    159.5506     17.0293   5.9319891566e+01   4.3611328846e+01    0.2226847    0.1428936 -24.43 0.0005595703    1.557    0.358
        78  -8.9148     97.0148    165.2703   1.1300419179e+02   2.9460472583e+01    0.1844683    0.1559206 -87.62 0.0003622354    1.122    0.109
        79  -8.4881    163.0856    162.9951   9.9166495576e+01   1.8390942334e+01    0.1939673    0.1742631  34.06 0.0003424995    1.092    0.084
        80 -10.1600    210.1651    158.8363   8.9647524920e+01   9.9861826618e+00      0.23232    0.1984394  38.75 0.0003206634    1.122    0.109
        81  -9.3559     13.3842    246.2051   1.3380391198e+02   2.5621787723e+01    0.1210357   0.05866864  77.68 0.0004899538    1.600    0.375
        82  -8.8052    157.8576    140.1539   9.5824360735e+01   2.3395664248e+01    0.2073298    0.1830503  84.17 0.0004217384    1.251    0.201
        83  -8.7906    188.7064    139.5746   8.9578118997e+01   1.7175129324e+01    0.2693262    0.1237456  43.43  0.001117394    2.073    0.518
        84 -10.7258    198.4476    133.7139   8.6473595254e+01   1.6082034976e+01    0.4411431    0.3701203  75.61  0.002419183    1.503    0.335
        85  -7.8401    180.6612    135.3478   9.0209205074e+01   1.9547766069e+01    0.1430646    0.1123967 -85.14 0.0005036924    1.786    0.440
