#   1 NUMBER                 Running object number                                     
#   2 MAG_AUTO               Kron-like elliptical aperture magnitude                    [mag]
#   3 X_IMAGE                Object position along x                                    [pixel]
#   4 Y_IMAGE                Object position along y                                    [pixel]
#   5 X_WORLD                Barycenter position along world x axis                     [deg]
#   6 Y_WORLD                Barycenter position along world y axis                     [deg]
#   7 A_WORLD                Profile RMS along major axis (world units)                 [deg]
#   8 B_WORLD                Profile RMS along minor axis (world units)                 [deg]
#   9 THETA_WORLD            Position angle (CCW/world-x)                               [deg]
#  10 FWHM_WORLD             FWHM assuming a gaussian core                              [deg]
#  11 ELONGATION             A_IMAGE/B_IMAGE                                           
#  12 ELLIPTICITY            1 - B_IMAGE/A_IMAGE                                       
         1 -14.9041    167.1137     47.8829   6.9530742000e+01   3.7364989127e+01     1.396596     1.149993  -5.11  0.004025123    1.356    0.263
         2 -15.2438    185.9638     15.5141   5.6408479333e+01   3.6512538073e+01     2.268887      1.41717  69.57  0.007254756    1.506    0.336
         3 -11.3546     90.6778    244.6835   1.2567338391e+02   1.5203348784e+01    0.2263256    0.1668209 -37.03  0.001512954    2.416    0.586
         4 -19.7940     70.0400    164.1971   1.2154624606e+02   3.3003472247e+01     15.79824      6.75528 -69.11   0.07206544    2.358    0.576
         5 -12.1100    134.3970    239.6464   1.1751242937e+02   9.6012316408e+00    0.2091362    0.1707507 -53.78 0.0009317889    1.577    0.366
         6 -10.6117    151.2187    236.2604   1.1409976990e+02   7.4648935596e+00    0.1834706    0.1449199  34.73 0.0008377814    1.155    0.134
         7 -13.1096    104.4361    249.2921   1.2371336714e+02   1.2592265802e+01    0.2927585      0.24769  -4.16  0.002129099    2.019    0.505
         8 -11.7293     36.3340    186.5709   1.3098490855e+02   3.2383057900e+01    0.2702942    0.2000989 -40.58  0.001570908    2.128    0.530
         9 -10.6992    114.8138    229.6692   1.1997460207e+02   1.4114128021e+01    0.1458898    0.1312786  34.75  0.001067186    1.313    0.238
        10 -12.6418    162.6383    181.4178   1.0384696803e+02   1.4188788106e+01    0.3173741    0.2349182 -64.69  0.001545309    1.756    0.431
        11 -13.5936    187.4461    175.0363   9.7665896237e+01   1.0565963519e+01    0.8175363    0.4426845 -48.35   0.00276907    2.248    0.555
        12 -11.2220    186.8392    165.2758   9.5889885958e+01   1.2305623078e+01     0.299678    0.2320686 -43.27 0.0008684997    1.434    0.303
        13 -11.6743    166.9331    176.1655   1.0202764995e+02   1.4295471687e+01    0.2031922    0.1737849  61.05 0.0003035026    1.261    0.207
        14 -12.6461    176.8665    169.3508   9.8710890761e+01   1.3566258381e+01    0.3932274    0.2134847 -52.81  0.001719681    2.372    0.578
        15 -12.1407    194.1520    171.6359   9.5691490454e+01   9.8303870135e+00    0.3161842    0.3042302  65.22 0.0009007003    1.250    0.200
        16 -12.9392    104.0342    236.6766   1.2262734663e+02   1.4586504093e+01    0.2676869    0.1893834  58.87  0.001250224    1.158    0.137
        17 -10.7929    140.1755    219.2162   1.1401018695e+02   1.1801988815e+01    0.3478462    0.1628578 -61.41  0.001645699    3.079    0.675
        18 -10.9207    152.4996    219.5453   1.1172080709e+02   9.7232530229e+00    0.2051829    0.1725686  45.13 0.0005002039    1.043    0.041
        19 -10.8332    217.6391    217.7937   9.9529587528e+01  -8.7142560876e-01    0.1469076    0.1113951 -38.40 0.0008737378    1.682    0.406
        20 -11.5551    230.3858    167.5615   8.8130079589e+01   3.6113752029e+00    0.2548102    0.1050066 -45.76 0.0009575836    3.490    0.713
        21 -12.6889    100.7385    245.5335   1.2401644427e+02   1.3679240777e+01    0.3481374    0.2497478  70.37  0.002516485    1.317    0.241
        22 -10.6286     23.9138    217.0459   1.3525426123e+02   2.7915166184e+01    0.1203071   0.09017852  84.32 0.0009498923    1.171    0.146
        23 -12.0776    139.7639    162.0380   1.0527730430e+02   2.2086724240e+01    0.2550026    0.1901443  44.14 0.0005813612    1.243    0.195
        24 -11.9919    130.9915    158.8252   1.0666763463e+02   2.4364541997e+01      0.32394    0.2106452 -47.45 0.0009879919    1.655    0.396
        25 -10.7132     16.8101    155.1113   1.3257407799e+02   4.0737604575e+01    0.2559247    0.1260611 -51.02  0.001391168    2.479    0.597
        26 -11.1808    187.4181    154.3961   9.3547786298e+01   1.4050176970e+01    0.5306833    0.2491671  36.64   0.00212585    2.202    0.546
        27 -10.7654    191.6642    151.6551   9.2110652056e+01   1.3654464206e+01    0.3390252    0.1934743 -53.03  0.001151074    2.340    0.573
        28 -10.0886      6.4724    155.5745   1.3484444472e+02   4.1473634694e+01    0.1089943   0.08451405  89.35 8.604145e-05    1.058    0.055
        29 -11.6180    161.8846    149.7649   9.7962980373e+01   2.0116655077e+01    0.2714639    0.1954465 -77.73  0.001230252    2.106    0.525
        30 -12.2762    102.2583    240.4015   1.2328983791e+02   1.4255929191e+01    0.2246214    0.1398412  59.43  0.001312959    1.374    0.272
        31 -11.3335    174.5013    149.0038   9.5084609720e+01   1.7664954387e+01    0.2779745    0.2333255  57.33 0.0006379066    1.263    0.208
        32 -11.4620    158.9156    212.1358   1.0946650111e+02   9.7884761076e+00    0.2077457    0.1659197 -79.31   0.00127828    1.711    0.415
        33 -13.3158      5.1399    112.4706   1.3155919570e+02   5.0855905492e+01    0.4701059    0.4031273 -30.80  0.003545563    1.499    0.333
        34 -12.5823     13.7913    142.6994   1.3222905835e+02   4.3638294736e+01    0.4644689    0.1875377 -62.07    0.0024555    2.139    0.533
        35 -13.0111      2.6669    126.2727   1.3347289049e+02   4.7992332033e+01    0.7012273    0.2877586 -82.01  0.003409296    2.019    0.505
        36 -13.3979      6.9544    120.4785   1.3187692962e+02   4.8978246755e+01    0.4131736    0.3018891  67.55  0.001592472    1.340    0.254
        37 -13.3010      7.3049    138.7721   1.3340467550e+02   4.4973980775e+01    0.4779887    0.3589836  88.46  0.001923807    1.041    0.039
        38 -11.1164      1.9391    139.9729   1.3473086871e+02   4.5093363247e+01    0.1791571    0.1467089 -78.20 0.0004266232    1.176    0.149
        39 -10.9110     12.7771    138.1512   1.3207158441e+02   4.4701141289e+01    0.1705845     0.116522 -51.06 0.0005025416    1.661    0.398
        40 -12.5818     11.6535    205.9710   1.3679523303e+02   3.1107682257e+01    0.2762591    0.1784626  41.56  0.001716376    1.584    0.369
        41 -12.8745    160.9165    128.3412   9.3441120529e+01   2.4460025218e+01     0.551399    0.4289223 -80.62   0.00260754    1.750    0.429
        42 -10.7627    113.3328    206.2284   1.1758505294e+02   1.8307070968e+01    0.1899158    0.1406929  43.10 0.0007627878    1.212    0.175
        43 -12.0538    168.4536    113.4366   8.8122163384e+01   2.5669889534e+01    0.4262631    0.3365717 -64.03 0.0008434383    1.526    0.345
        44 -11.0689    231.2629    113.7242   7.6090328340e+01   1.1535578822e+01    0.2574638    0.2286944   8.77 0.0007877176    1.104    0.094
        45 -11.0482    205.3850    110.1240   7.9762057630e+01   1.7815045962e+01     0.331873    0.2186584  44.00  0.001111255    1.518    0.341
        46 -10.6974    113.1544    195.0495   1.1620085922e+02   2.0371926774e+01    0.3570187    0.3092576 -18.15  0.001549061    1.634    0.388
        47 -11.2229      1.5473    106.2366   1.3189074089e+02   5.2440374732e+01    0.2742784   0.08173712 -71.72 0.0009813923    2.449    0.592
        48 -11.6665    219.4805    195.4649   9.5398050369e+01   1.6854181018e+00    0.2342347    0.1217385 -34.14 0.0007706038    2.095    0.523
        49 -11.7151      9.7451    102.1128   1.2914176756e+02   5.2860578322e+01    0.2627066    0.2148866  83.33  0.001025618    1.184    0.155
        50 -10.7098    133.9306    196.0988   1.1208871152e+02   1.6735822338e+01     0.188394    0.1593527  54.01  0.000382431    1.044    0.042
        51 -10.3135    146.4959     82.5061   8.4757832648e+01   3.6644976332e+01    0.1530465    0.1492047  12.30 0.0001636187    1.013    0.013
        52  -9.7232    120.3154     79.3164   9.0559539687e+01   4.3087609059e+01    0.1529222    0.1179378   2.32 0.0005626692    1.648    0.393
        53 -14.3064    155.1491     61.7045   7.6385359820e+01   3.8241552314e+01     1.285814     1.000461  39.88 0.0009732452    1.293    0.227
        54 -10.8914    163.4144    245.5973   1.1306838199e+02   4.2792456051e+00    0.2409293    0.1080702  43.42  0.001306908    1.702    0.412
        55 -13.2212    171.8292     39.8325   6.6112527345e+01   3.7276991943e+01    0.4605138    0.4405682  20.50 0.0009175472    1.079    0.073
        56 -11.0456     13.5294     60.0034   1.2114336703e+02   6.1879581504e+01    0.1784285    0.1568214  61.59 0.0004037142    1.418    0.295
