#   1 NUMBER                 Running object number                                     
#   2 MAG_AUTO               Kron-like elliptical aperture magnitude                    [mag]
#   3 X_IMAGE                Object position along x                                    [pixel]
#   4 Y_IMAGE                Object position along y                                    [pixel]
#   5 X_WORLD                Barycenter position along world x axis                     [deg]
#   6 Y_WORLD                Barycenter position along world y axis                     [deg]
#   7 A_WORLD                Profile RMS along major axis (world units)                 [deg]
#   8 B_WORLD                Profile RMS along minor axis (world units)                 [deg]
#   9 THETA_WORLD            Position angle (CCW/world-x)                               [deg]
#  10 FWHM_WORLD             FWHM assuming a gaussian core                              [deg]
#  11 ELONGATION             A_IMAGE/B_IMAGE                                           
#  12 ELLIPTICITY            1 - B_IMAGE/A_IMAGE                                       
         1 -15.3413     16.7035    109.5529   1.3145702354e+02   5.1665084032e+01     2.160713     1.135742 -71.22  0.005841459    1.765    0.433
         2 -14.4443     65.7779     52.2921   9.9663564487e+01   5.7907619917e+01     2.793342     1.022578 -28.49  0.009427289    4.275    0.766
         3 -15.5487      7.0290     69.7101   1.2678969448e+02   6.0841118884e+01     1.496309    0.7082908 -58.09  0.004399077    1.727    0.421
         4 -15.1557     43.0329     11.0395   9.2317691817e+01   6.6733622126e+01     1.893181    0.9734975 -31.18   0.01128983    1.972    0.493
         5 -15.0896      8.3030     29.4297   1.1470647196e+02   6.7970418668e+01    0.8678847    0.7286388  16.37  0.006816023    1.480    0.324
         6 -15.0603     14.2570     19.7882   1.0836754560e+02   6.8917505473e+01     0.893607    0.5083401 -10.41  0.002557536    1.657    0.397
         7 -14.6111     23.0196     13.6560   1.0185115196e+02   6.8878112074e+01    0.9594911    0.3987839  36.72  0.003628708    2.695    0.629
         8 -15.2758    119.5364     54.8527   8.4368341155e+01   4.7471040699e+01     1.605181    0.8641306  37.29  0.005464804    1.976    0.494
         9 -14.3731    111.5563     40.9316   8.1935689380e+01   5.1135021720e+01     1.372795    0.8732035   0.87  0.002529047    2.236    0.553
        10 -15.1357    122.2782     37.0089   7.8079953111e+01   4.9318344129e+01     1.479254    0.6719363  42.65  0.004702637    2.142    0.533
        11 -14.1672     26.7134     31.9559   1.0749889802e+02   6.5986762582e+01     1.176417    0.9150328 -35.59   0.00839349    1.351    0.260
        12 -14.4430    101.9734     50.5574   8.7666588671e+01   5.1770006133e+01    0.8458613    0.6643678  60.57  0.001579989    1.470    0.320
        13 -14.7125    166.8125     30.4052   6.7658891910e+01   3.9809147719e+01     1.024479    0.7286071  68.67  0.003123021    1.246    0.197
        14 -14.7728    147.1432     30.5515   7.1023707725e+01   4.4426486988e+01     1.417076    0.6190652  63.30   0.00473388    2.102    0.524
        15 -13.0707    187.2206     13.6102   6.0681670267e+01   3.6890255987e+01    0.5756206    0.4155594  43.75   0.00245877    1.675    0.403
        16 -14.9367    212.1426     41.0771   6.3994421218e+01   2.7817675996e+01     2.089382    0.9588889  71.00    0.0094847    2.124    0.529
        17 -13.3757    223.0495     21.3979   5.8565652898e+01   2.7893593555e+01    0.8749644    0.4601675  52.05  0.004032439    2.307    0.567
        18 -14.0664    219.0064     15.2469   5.7682074353e+01   2.9504735152e+01    0.8099143    0.5785437  36.32  0.004685991    2.236    0.553
        19 -13.6146    215.2293      9.7382   5.6894918035e+01   3.0953063786e+01    0.7187781    0.4657326  55.52  0.004294682    1.727    0.421
        20 -13.3627    231.8728      2.7128   5.4080550595e+01   2.8114215929e+01     1.254564    0.3786397  62.67  0.004921066    2.977    0.664
        21 -15.3386    190.4907     25.3359   6.3054077782e+01   3.4824159509e+01     2.101737     1.070071  72.64   0.01027011    1.793    0.442
        22 -13.6487      9.1442      3.2759   1.0381808370e+02   7.1506425130e+01    0.7693947    0.4714759  33.57  0.003606721    2.054    0.513
        23 -14.4280     86.3518     66.5001   9.7529063080e+01   5.2145838074e+01     1.560226    0.9139882 -13.15  0.004074904    2.650    0.623
        24 -15.7216     99.7311     12.9954   7.5416646130e+01   5.6693416876e+01      1.37297    0.6433424  52.48  0.002930506    1.775    0.437
        25 -11.8587    202.2733     11.3905   5.8517087940e+01   3.3675499546e+01    0.2360315    0.2191226  75.61 0.0006182406    1.264    0.209
        26 -11.0419    140.1106     10.8341   6.6574034018e+01   4.8090552379e+01     0.193791    0.1566806  87.89 0.0006759466    1.281    0.220
        27 -11.7850    153.5681      8.2207   6.3737230824e+01   4.5235190097e+01    0.2367139    0.1884915  65.37 0.0004662842    1.057    0.054
        28 -11.6934    125.8605      8.5384   6.8399968440e+01   5.1502137156e+01    0.2063221    0.1838438  -9.32  0.001402626    1.312    0.238
        29 -12.0925    120.4539      3.9451   6.7979446268e+01   5.3072574692e+01    0.3280245    0.1999542  76.67  0.001412162    1.800    0.444
        30 -10.8790    117.5536      1.4353   6.7731911032e+01   5.3899002002e+01      0.17904   0.08845999  53.42  2.57584e-05    1.596    0.373
        31 -11.0560    192.9181      3.0963   5.7640799529e+01   3.6644637915e+01    0.1924852     0.161878 -64.59 0.0008038759    1.207    0.171
        32 -11.4195     67.5936      3.7238   8.0688302093e+01   6.3587246265e+01    0.2564902    0.1710242  30.44  0.001597897    1.226    0.184
        33 -11.6756     26.3150      3.8724   9.6087472754e+01   6.9642601555e+01     0.238941    0.1375845  14.70  0.001087566    1.542    0.351
        34 -12.3199     80.3854      1.8951   7.6292803370e+01   6.1423971199e+01    0.5513935    0.1296532  51.03  0.002253097    3.073    0.675
        35 -10.9584     62.4782      1.5148   8.1383475904e+01   6.4647021444e+01    0.2074957    0.1342558  28.11 0.0006644088    1.271    0.213
        36 -11.2459     59.4869      1.5074   8.2345629604e+01   6.5146044049e+01    0.2307136    0.1320016  31.70  0.001058193    1.447    0.309
        37 -12.2430     85.3069    180.2061   1.2443229859e+02   2.6486143028e+01    0.4235683    0.3019295  78.88  0.002088115    1.557    0.358
        38 -14.6654     95.1849    236.2454   1.2995285173e+02   1.2234377704e+01     1.497114    0.8938019  67.05   0.00271293    1.819    0.450
        39 -13.2770     55.0457    247.1117   1.3894234483e+02   1.5847847688e+01    0.9217925    0.5297767  25.54  0.004678091    2.734    0.634
        40 -14.2520     23.6420    224.0967   1.4295786769e+02   2.4479180063e+01     1.188221    0.6340109 -79.63  0.006857817    1.598    0.374
        41 -13.7280      8.8305    210.7657   1.4477593417e+02   2.8892837380e+01     0.874393    0.6744935  75.39  0.006211734    1.097    0.088
        42 -13.1822     16.7377    196.2521   1.4206129988e+02   3.1355889279e+01      1.04647    0.2610342 -66.52  0.004243017    3.025    0.669
        43 -14.1034     30.4334    168.3945   1.3616964406e+02   3.6513893664e+01     0.836986    0.6970001 -61.29  0.002225262    1.216    0.177
        44 -14.9686      8.0289    183.6457   1.4279555403e+02   3.5042015197e+01     1.161305    0.9055536  86.25  0.007967283    1.055    0.052
        45 -15.2418     15.7088    175.4820   1.4036187493e+02   3.6250899368e+01     2.589547     1.243115  79.39    0.0118809    2.395    0.582
        46 -11.8615      2.6575    249.6973   1.4826791439e+02   2.1477516614e+01    0.3152206    0.1834152  60.04  0.002009337    1.341    0.254
        47 -14.0566      9.0538    245.4818   1.4697906670e+02   2.1642962727e+01    0.7641113    0.4042911  63.86  0.003208139    1.497    0.332
        48 -13.1169    124.0248    166.6439   1.1232595255e+02   2.2994996498e+01    0.7427508    0.4754865 -70.52  0.003119407    1.899    0.474
        49 -10.8474    177.4655    167.4866   9.9889898384e+01   1.2025561758e+01    0.1502097    0.1477429 -30.53 0.0001377788    1.004    0.004
        50 -10.4232    102.0035    161.0000   1.1681628810e+02   2.8412037468e+01    0.2466705   0.08595902  38.02 0.0008062103    2.969    0.663
        51 -12.4422    237.0952    159.7894   8.6466984573e+01   1.9371994681e+00    0.4433697    0.1121294  44.81  0.001399279    4.386    0.772
        52 -12.4434     77.2655    157.3059   1.2261672201e+02   3.3358859584e+01    0.6402904     0.474674  49.18  0.001855903    1.409    0.290
        53 -13.1101     74.1930    153.6039   1.2277132338e+02   3.4731968885e+01    0.7103664    0.5131476  33.77  0.002993664    1.534    0.348
        54 -11.5421     27.8055    158.3963   1.3558269658e+02   3.9180731033e+01    0.4482949    0.1960369 -68.20  0.002088122    1.878    0.467
        55 -12.1401     25.6774    155.6586   1.3576832186e+02   4.0042412687e+01    0.4798937    0.2912774 -34.22  0.002456911    2.253    0.556
        56 -12.9128    208.3499    154.7918   9.0700834200e+01   8.3810949637e+00    0.7267435     0.493201  42.29  0.003478583    1.566    0.361
        57 -12.2705    122.1402    155.9700   1.1060248788e+02   2.5917199660e+01    0.4582351    0.3270145  -8.45  0.001875242    2.292    0.564
        58 -12.3646    111.7770    155.8667   1.1325173267e+02   2.7904476185e+01    0.6267045    0.3804251  75.99  0.002247874    2.887    0.654
        59 -11.5547     55.2573    156.1383   1.2822713872e+02   3.6684617868e+01    0.3824366    0.2773439 -14.97  0.001922913    2.069    0.517
        60 -11.9486     85.4427    153.5254   1.1974421881e+02   3.3028690269e+01    0.5781283    0.2832138 -48.54  0.002346274    2.012    0.503
        61 -13.5839     22.5204    181.1182   1.3940356771e+02   3.4284602613e+01    0.6152732    0.5138332 -87.26  0.002621169    1.067    0.063
        62 -11.9771    103.4650    150.0397   1.1423226729e+02   3.0837868718e+01    0.4305716    0.3176745 -29.27  0.001915694    1.685    0.407
        63 -11.6767      5.6816    151.6755   1.4024246172e+02   4.2661051452e+01    0.2480589    0.1249429 -79.62  0.001158493    1.682    0.405
        64 -12.1506      7.3336    147.8814   1.3941773902e+02   4.3428165592e+01    0.4385616    0.2738312  58.99   0.00256398    1.783    0.439
        65 -11.7409    244.4088    147.2836   8.2619199435e+01   2.9243424847e+00    0.2807896    0.1202108 -37.90  0.001146507    2.135    0.532
        66 -11.5345     38.0711    145.9483   1.3120683331e+02   4.1162073841e+01    0.2065144    0.1734041 -65.02 0.0005995065    1.056    0.053
        67 -11.2441     44.7396    145.1908   1.2929169463e+02   4.0623615395e+01    0.2241729    0.1588515 -28.10 0.0006088105    1.826    0.452
        68 -11.1673    149.5853    141.3999   1.0047828489e+02   2.3724531317e+01    0.4478725    0.2509536  61.77  0.001615565    2.473    0.596
        69 -13.0352     43.3595    136.9498   1.2831918745e+02   4.2782332286e+01    0.7372047    0.5205039 -34.86  0.003994895    1.619    0.382
        70 -12.6165    246.4848    134.5516   7.9619631432e+01   4.8733501840e+00    0.4363287    0.3339547 -76.73  0.002348118    1.653    0.395
        71 -13.7538    232.1538    133.3784   8.1691211655e+01   7.8225437586e+00    0.7673053    0.5370675  64.19  0.003858277    1.738    0.425
        72 -13.3536    223.0138    128.4766   8.2171716159e+01   1.0588642162e+01    0.6779682    0.4911041  70.96  0.003349353    1.705    0.413
        73 -11.5853     62.0897    134.0733   1.2247813288e+02   4.1225087584e+01    0.4190665    0.2612563  41.44  0.001546512    1.755    0.430
        74 -11.5471     11.0852    134.1782   1.3677762355e+02   4.6369221913e+01    0.1962093    0.1447823 -71.24 0.0003392172    1.082    0.076
        75 -11.6634    137.8581    132.8179   1.0133984265e+02   2.8189386586e+01    0.3850776    0.2531692  27.09   0.00102727    1.934    0.483
        76 -11.8828    132.7223    129.8098   1.0192039269e+02   2.9961260200e+01    0.8758429    0.3030788 -45.23  0.002767143    2.867    0.651
        77 -12.0139    110.3472    132.0363   1.0839578047e+02   3.3915982070e+01    0.5588744    0.3838077  19.26  0.002402471    1.957    0.489
        78 -13.2079     97.8454     93.0100   1.0194178331e+02   4.5000256404e+01     1.207468    0.7613559 -50.80  0.003254391    1.629    0.386
        79 -13.4300    121.5485    102.2766   9.7785773032e+01   3.8397772702e+01     1.122818    0.4175037  42.32   0.00379739    2.763    0.638
        80 -14.2803    105.5166    122.8709   1.0754551157e+02   3.6978877629e+01     2.087585     1.178671  35.38  0.008693381    1.921    0.480
        81 -14.8667    106.9768    106.9474   1.0308622088e+02   4.0309622672e+01     1.779263     1.340694 -24.15  0.008522228    1.527    0.345
        82 -13.4122     84.7866    115.4974   1.1174965461e+02   4.2317579225e+01     1.028808    0.6387964  16.34  0.004201719    2.281    0.562
        83 -13.6248     92.6183    109.5973   1.0795278077e+02   4.2347390245e+01     1.501928    0.6818949  35.23  0.005805219    2.400    0.583
        84 -12.8131    136.0563    103.3793   9.4289387151e+01   3.5058132999e+01     0.704699     0.354132  46.53  0.001694925    1.996    0.499
        85 -13.2537    137.0185     96.4716   9.2172108793e+01   3.6259234065e+01    0.6014539    0.4231071 -37.77  0.002792026    1.459    0.315
        86 -11.8106     60.2073    125.4362   1.2130764035e+02   4.3556851892e+01    0.5226151    0.3208286 -22.13  0.002277937    2.439    0.590
        87 -14.3273     29.8701    119.0285   1.2912801153e+02   4.8402973912e+01     4.014824          nan -55.27  0.008691342    8.559    0.883
        88 -13.0774      5.4261    118.8227   1.3624258214e+02   5.0312709805e+01    0.7630783    0.5185754 -33.10  0.004757535    1.627    0.385
        89 -11.3615    235.9730    249.0000   1.0363372956e+02  -1.2639104386e+01    0.1929192   0.06028022  36.30 0.0008055915    2.964    0.663
        90 -13.9649      2.5321     97.0840   1.3374925994e+02   5.5353131480e+01     0.932117    0.3549906 -66.40  0.003552177    2.116    0.527
        91 -14.1789     20.5739     96.8656   1.2788170600e+02   5.4219981829e+01    0.9242557    0.5501617 -67.64  0.004362632    1.586    0.369
        92 -14.3552     28.9001     92.6287   1.2422529429e+02   5.4467730252e+01     1.077732     0.653947 -60.86  0.005396043    1.484    0.326
        93 -11.2735    184.8796    124.1448   8.8393772601e+01   1.9686686267e+01    0.2770828     0.217267  84.26 0.0007113428    1.553    0.356
        94 -12.4976    180.8210    121.0811   8.8498454556e+01   2.1234684510e+01    0.4487325    0.3112815  47.39  0.001199682    1.489    0.328
        95 -11.0512    192.9933    117.1907   8.5092364959e+01   1.9281134627e+01    0.2559796    0.1785801  87.34  0.001088236    2.016    0.504
        96 -11.3611    194.7792    113.1435   8.3776073209e+01   1.9684212007e+01    0.2058752    0.1863096   7.86 0.0004340178    1.333    0.250
        97 -12.5231    120.7690    111.5847   1.0047759982e+02   3.6550683116e+01    0.4884935    0.3677891  83.82    0.0014606    1.851    0.460
        98 -10.6078     42.6698    113.6681   1.2422034255e+02   4.8400382444e+01    0.2243532    0.1876312   2.15 0.0007459877    1.394    0.283
        99 -12.1815     46.5051    109.9182   1.2224610870e+02   4.8852170276e+01    0.4825142    0.4197579 -69.05  0.002958618    1.164    0.141
       100 -11.6792    176.4498    111.2444   8.6993363119e+01   2.4249006469e+01    0.3558016    0.3183428  -4.90  0.001820963    1.330    0.248
       101 -11.9723     61.6075    108.4991   1.1718022018e+02   4.7345492075e+01    0.6487721    0.3818073 -67.60  0.002948839    1.984    0.496
       102 -12.7666     62.2972     99.5622   1.1480528340e+02   4.9263292938e+01    0.6580121    0.4733195 -87.09  0.003063885    2.115    0.527
       103 -12.0742     43.0325     90.8141   1.1902127811e+02   5.3489700660e+01    0.6038691    0.2543585 -61.14   0.00250894    2.548    0.608
       104 -13.1358     49.8405     99.0803   1.1873925822e+02   5.0925211751e+01    0.8318812    0.5672296   0.14  0.003261656    1.851    0.460
       105 -11.6019     49.6272     95.2050   1.1787902132e+02   5.1802800317e+01    0.3432235    0.1895632 -56.96  0.001144706    1.690    0.408
       106 -11.1353     38.6991    109.9850   1.2471032187e+02   4.9662122920e+01    0.1964502    0.1518282 -56.18  0.000912415    1.104    0.094
       107 -11.2564    222.6903    109.5795   7.7997626139e+01   1.4232753640e+01    0.2599195    0.1377949  50.23  0.001130233    2.055    0.513
       108 -12.0162    249.1509     99.7028   7.1911280775e+01   1.0585011213e+01    0.2585294      0.16201 -52.40  0.001338941    1.411    0.291
       109 -11.3026    161.7067     97.0865   8.6535836358e+01   3.0493558904e+01    0.2679837    0.2653249  -6.41  0.001468654    1.083    0.077
       110 -12.1200    128.0887     95.8039   9.4271036477e+01   3.8349919822e+01    0.3871006    0.2447945  67.81  0.001552265    2.258    0.557
       111 -10.7814     76.0121     95.6456   1.0939568172e+02   4.8143086363e+01    0.1872266    0.1720169  12.82 0.0003650927    1.127    0.113
       112 -11.6284    144.3196     92.6940   8.9348201856e+01   3.5364450621e+01    0.2994008    0.2208655   8.41  0.001030502    1.981    0.495
       113 -13.8771    214.5992     78.3372   7.2143573263e+01   2.1572378482e+01     1.117406      0.65253  70.41   0.00518292    1.865    0.464
       114 -13.9633    198.0173     70.8866   7.2951811753e+01   2.6625967569e+01     1.327706    0.7256353  40.02  0.003772111    2.568    0.611
       115 -13.9280    188.2788     84.4974   7.7966938227e+01   2.6588568722e+01     1.308214    0.5501786  50.85  0.003188837    2.398    0.583
       116 -15.1325    165.6379     78.8458   8.0855366369e+01   3.2954834636e+01     2.441467    0.8940748  44.54  0.008066473    3.127    0.680
       117 -13.2955    164.2049     70.9567   7.9024284860e+01   3.4646535690e+01    0.7482648    0.3870363  43.31  0.001565938    2.139    0.533
       118 -11.6757     89.8455     87.5831   1.0282012524e+02   4.7547730375e+01    0.4460586    0.2438501  48.22  0.001932414    2.087    0.521
       119 -12.5906    131.4982     85.8143   9.0585629352e+01   3.9566648000e+01     0.575398     0.379338  63.34  0.002546487    1.802    0.445
       120 -11.7513    125.6153     86.9234   9.2417869649e+01   4.0638430213e+01    0.3294443     0.277899  61.62  0.001493009    1.270    0.212
       121 -12.7866    241.7607     83.8955   6.9570042297e+01   1.4763515895e+01    0.5032458     0.286852  66.12  0.002335308    1.917    0.478
       122 -13.3054    238.1250     80.1981   6.9259703776e+01   1.6134593101e+01    0.5602888    0.3170037  68.33   0.00225018    1.931    0.482
       123 -11.9001    100.2534     64.6919   9.2735777213e+01   4.9877798596e+01    0.4520375    0.3561842  29.53  0.001444718    1.239    0.193
       124 -13.5207    171.2291    242.5318   1.1512639494e+02  -1.6371706383e+00    0.8572287     0.482217  31.55  0.004254286    1.691    0.409
       125 -13.5403     56.6019     78.8597   1.1120186527e+02   5.4375373799e+01    0.6970337    0.4020025 -28.00  0.002369577    1.905    0.475
       126 -13.6597     60.8740     75.6914   1.0881172810e+02   5.4433800654e+01    0.6316531    0.3993679 -44.06  0.001176548    1.453    0.312
       127 -11.8357    113.8875     80.4062   9.3676536433e+01   4.4350272827e+01    0.4183951    0.3492931 -41.11  0.001495859    1.215    0.177
       128 -11.7133     90.6284     80.3699   1.0046793620e+02   4.8835167804e+01    0.4177901    0.3311584  -4.19  0.001793622    1.398    0.285
       129 -13.7933     27.7551    244.7303   1.4371074799e+02   1.9729538802e+01    0.9106442    0.4520473 -86.30  0.005179021    1.825    0.452
       130 -12.4980    147.2588    238.7953   1.1948404544e+02   3.0964392650e+00    0.3696909    0.2771271 -87.18 0.0009290538    1.812    0.448
       131 -13.3765     56.0001     27.5837   9.4155421233e+01   6.2936496278e+01    0.5095492    0.2877733  38.00  0.001359167    1.697    0.411
       132 -12.1627    144.6525    232.0028   1.1901062319e+02   4.8326737166e+00     0.380829    0.1977658 -49.78  0.001763726    2.134    0.531
       133 -10.4792    101.0003    176.0062   1.1984604649e+02   2.4923038018e+01     0.169855    0.1578418  88.87            0    1.001    0.001
       134 -11.8913    235.4960    229.4998   1.0033893533e+02  -9.7423105382e+00     0.125764    0.1055912  -0.40 -0.0001090622    1.017    0.017
       135 -13.2392    134.8555     79.5586   8.7958001422e+01   3.9981135013e+01    0.9184943    0.4307619  54.37  0.003356532    2.216    0.549
       136 -13.6373    134.0083     67.2290   8.4571775134e+01   4.2312138096e+01     1.160675    0.7074493  40.33  0.004714139    1.684    0.406
       137 -12.4805     45.5396    208.6506   1.3722413753e+02   2.5328592159e+01    0.4712251    0.2432478  81.82  0.002208754    2.191    0.544
       138 -13.2067     57.3803    203.8385   1.3416290173e+02   2.4908813208e+01    0.9419963    0.3313326 -70.17  0.003688829    2.820    0.645
       139 -12.9235     52.9016    214.2030   1.3625401425e+02   2.3137385700e+01    0.5096708    0.2739581  67.64  0.002508985    1.945    0.486
       140 -11.9382     41.8754     77.0531   1.1588285424e+02   5.6480372844e+01     0.304976    0.2315595 -40.11   0.00092482    1.123    0.110
       141 -13.9278     66.8540    223.2631   1.3431686285e+02   1.9231892885e+01    0.8690498    0.6464839  37.71  0.005146922    1.476    0.322
       142 -10.7728     98.1234     84.0674   9.9288806848e+01   4.6749259081e+01    0.2157551    0.1791264  86.44  0.000597048    1.660    0.398
       143 -14.2598     62.8153    214.8509   1.3423870238e+02   2.1660424819e+01    0.8400004    0.5853688  64.76  0.003881578    1.303    0.233
       144 -14.1877     39.5523     67.7145   1.1411045214e+02   5.8561500526e+01     2.034857    0.5241795  29.15  0.007558539    4.131    0.758
       145 -11.5167    158.1145     63.8962   7.8316711157e+01   3.7244980902e+01    0.3556277    0.1924139 -48.34  0.001528938    2.005    0.501
       146 -13.3240     79.5080     60.0260   9.7627278648e+01   5.4435676739e+01    0.7284162    0.4968226 -14.02  0.003801046    1.652    0.395
       147 -11.2239     85.9533     50.2985   9.2318364992e+01   5.4859896890e+01    0.3254719    0.1868557 -27.29  0.001541071    1.845    0.458
       148 -13.8836    178.0584     57.7940   7.2977125510e+01   3.3425779627e+01    0.7602791    0.5897365 -73.54  0.002282899    1.358    0.263
       149 -12.4834     39.0665     60.5702   1.1216491516e+02   5.9948975175e+01    0.3163351    0.2439869  47.55  0.001941636    1.828    0.453
       150 -12.3810     24.5513     59.9718   1.1757515073e+02   6.1461921565e+01    0.3085511    0.1899757 -40.92  0.001056866    1.316    0.240
       151 -11.4650     30.4905     58.3818   1.1479540328e+02   6.1218329051e+01    0.2712707    0.1733516 -48.51  0.001194747    1.450    0.310
       152 -12.5658    248.5121     52.3852   6.2288802715e+01   1.8307127834e+01     0.595531    0.3537671 -40.63  0.003278252    1.633    0.388
       153 -11.7182    231.2189     55.5624   6.4863691103e+01   2.1495520538e+01    0.3366545    0.1924193  72.80  0.001705694    1.758    0.431
       154 -13.7699     74.6623     74.3180   1.0374199030e+02   5.2671369227e+01     1.135972    0.6448886  19.61  0.005072675    2.268    0.559
       155 -10.5681     36.5074     53.4836   1.1092746299e+02   6.1487758903e+01    0.1231609   0.09913437 -20.33 -0.0001388544    1.009    0.009
       156 -10.7978     23.2005     49.9547   1.1511006683e+02   6.3389053827e+01    0.1636717    0.1417266 -30.50  0.000495629    1.198    0.165
       157 -13.7279    157.3859     44.5481   7.3094403106e+01   4.0257942062e+01      1.03949    0.5009788  43.21  0.004350258    2.325    0.570
       158 -12.7113    139.0991     21.5173   6.9868909538e+01   4.7282404391e+01      0.46129    0.2585084  63.88  0.000571935    1.587    0.370
       159 -11.3460    249.1999    225.3833   9.7117931648e+01  -1.1081513114e+01     0.165214    0.1096769  40.40  0.000960926    1.730    0.422
       160 -11.0597    204.7648    217.9903   1.0415700445e+02  -3.0248918434e+00    0.1753674    0.1094252 -39.63 0.0008831268    1.635    0.389
       161 -11.4665     85.2065    216.0325   1.2957035612e+02   1.8119880896e+01     0.305121    0.1778537  46.55  0.001522871    1.579    0.367
       162 -10.9015    157.5055    213.5189   1.1324898767e+02   6.1965634721e+00    0.1417045    0.1318548  44.76 9.642359e-06    1.030    0.029
       163 -11.2803    136.8362    211.3125   1.1743235385e+02   1.0417788761e+01    0.2412974    0.1955709 -72.54 0.0009588685    1.364    0.267
       164 -11.1508     39.3486    210.8047   1.3872416491e+02   2.5595637219e+01    0.3755891    0.1494332  38.86  0.001758826    2.439    0.590
       165 -11.2388     80.3196    208.4919   1.2967465569e+02   2.0568403699e+01    0.2864748     0.184703  77.25   0.00138723    1.702    0.412
       166 -10.7815    149.8537    206.8135   1.1376765756e+02   8.9852909160e+00    0.2186432    0.1943888  16.40 0.0009552397    1.218    0.179
       167 -13.9693     97.5083    217.0965   1.2702681094e+02   1.5939535021e+01    0.7494033    0.6337584  -7.17  0.004185974    1.738    0.425
       168 -11.4740     25.4627     43.2456   1.1200831745e+02   6.4328225429e+01     0.211351   0.09134796 -41.93 0.0005051466    1.932    0.483
       169 -11.1663    169.3616     42.9787   7.0571426282e+01   3.7616407145e+01    0.2726176    0.1824638  58.77 0.0009005881    1.362    0.266
       170 -13.1059     75.8511     37.3967   9.1001524903e+01   5.8479362696e+01     0.405501    0.2713288  30.73 0.0007955485    1.373    0.272
       171 -12.5444     70.5167     36.6126   9.2477207017e+01   5.9482115646e+01    0.5299346    0.3289747   7.69  0.002532498    1.935    0.483
       172 -11.8112    181.0714     40.7970   6.8147586375e+01   3.5115492815e+01    0.3632591    0.1748666  75.39  0.001507038    2.353    0.575
       173 -12.4827    245.3580     36.7103   5.9503012562e+01   2.1159777689e+01    0.4584701    0.2415103 -50.49   0.00192041    1.637    0.389
       174 -12.7463    241.0214     36.2350   5.9825589155e+01   2.2130578082e+01    0.5045201    0.3834163  56.98  0.003167653    1.600    0.375
       175 -11.9413    211.3701     33.4153   6.2380736601e+01   2.9008498368e+01    0.2525518    0.1852801 -74.61 0.0002136541    1.241    0.194
       176 -13.5193      9.2132     42.6941   1.1868057348e+02   6.5732944838e+01    0.7956037    0.5933243  37.48  0.005537571    1.910    0.476
       177 -10.3715     89.2706     30.3195   8.4335581761e+01   5.6942378884e+01     0.128196   0.08728916  16.66 0.0002024786    1.564    0.361
       178 -11.8537     97.6640     26.9822   8.0831380561e+01   5.5688446394e+01    0.2852086    0.1966733  50.27  0.001378142    1.334    0.250
       179 -11.8384     45.4028    197.8120   1.3610806495e+02   2.7839853846e+01    0.4432675    0.2338569 -70.37  0.002244898    1.677    0.404
       180 -10.9158    123.0460     23.0094   7.3479325277e+01   5.0749112353e+01    0.2019577    0.1536747 -74.93  0.001138173    1.744    0.427
       181 -12.4475     41.5153    201.0003   1.3729139658e+02   2.7570769399e+01    0.3105525     0.204819 -75.26  0.001342444    1.320    0.242
       182 -12.8011     39.5622    195.4574   1.3713187905e+02   2.9087642375e+01    0.4787351     0.378473  71.03  0.002561574    1.139    0.122
       183 -11.4789     70.7727     16.8679   8.4912662514e+01   6.1798425303e+01    0.2052056    0.1654246  32.40 0.0004334472    1.128    0.114
       184 -10.9183    212.4672    200.4943   9.9333140631e+01  -1.2216711116e+00    0.1393157    0.1240173  -4.41 0.0001719401    1.042    0.040
       185 -12.7568    164.3834    195.0581   1.0838425258e+02   8.7227541699e+00    0.7067437    0.4328727 -70.38  0.002808041    2.599    0.615
       186 -12.7163    201.2644    191.8627   9.9884233003e+01   2.3986589032e+00    0.4365142    0.3589641 -15.68  0.001690528    1.256    0.204
       187 -10.4302    107.6050    193.1707   1.2115989631e+02   1.9689698882e+01     0.205998    0.1303581 -48.31 0.0009452931    1.697    0.411
       188 -10.3951     81.2513    193.3918   1.2740189104e+02   2.3946177104e+01    0.2037862      0.11909  49.31  0.000956509    1.669    0.401
       189 -12.0567     98.6813    187.1192   1.2229886037e+02   2.2642250664e+01    0.4060316    0.3061604 -12.02  0.001897307    2.120    0.528
       190 -11.2805    109.3999    183.7163   1.1913414228e+02   2.1606338843e+01    0.2521729    0.1906748  15.18  0.001191372    1.797    0.444
       191 -12.0671    198.7402    182.5493   9.8522699198e+01   4.6936905424e+00    0.3085992     0.273104  -1.37   0.00156517    1.157    0.136
       192 -12.3806    194.8997    177.5137   9.8278436688e+01   6.4429440738e+00    0.4043304    0.3379818 -62.14  0.001559281    1.364    0.267
       193 -11.1790    122.4494    181.8537   1.1563937004e+02   1.9682204363e+01    0.5797233    0.3126154  78.28  0.001438683    6.368    0.843
       194 -12.2649     48.8609    181.1383   1.3335978624e+02   3.1370019476e+01    0.5399067    0.2846785 -58.78  0.002636341    1.741    0.425
