#   1 NUMBER                 Running object number                                     
#   2 MAG_AUTO               Kron-like elliptical aperture magnitude                    [mag]
#   3 X_IMAGE                Object position along x                                    [pixel]
#   4 Y_IMAGE                Object position along y                                    [pixel]
#   5 X_WORLD                Barycenter position along world x axis                     [deg]
#   6 Y_WORLD                Barycenter position along world y axis                     [deg]
#   7 A_WORLD                Profile RMS along major axis (world units)                 [deg]
#   8 B_WORLD                Profile RMS along minor axis (world units)                 [deg]
#   9 THETA_WORLD            Position angle (CCW/world-x)                               [deg]
#  10 FWHM_WORLD             FWHM assuming a gaussian core                              [deg]
#  11 ELONGATION             A_IMAGE/B_IMAGE                                           
#  12 ELLIPTICITY            1 - B_IMAGE/A_IMAGE                                       
         1 -15.2624      6.2826     69.1109   1.1509258064e+02   6.0851851310e+01     1.498123    0.8588312 -70.63   0.00552197    1.500    0.334
         2 -14.1225      6.9441     46.8875   1.0986803803e+02   6.5580932959e+01     1.015532    0.9436395  83.64   0.00768618    1.426    0.299
         3 -13.7316     58.4370     64.3567   9.3896647470e+01   5.7254190529e+01     1.565281    0.8369449 -26.16   0.00672976    2.385    0.581
         4 -14.7834    119.8492     54.5323   7.0148611232e+01   4.7898877172e+01     1.119547    0.8625785  20.57  0.002064409    1.415    0.293
         5 -13.4315    131.7764     32.6450   5.9296424687e+01   4.8339446102e+01    0.8308054     0.464711 -24.23  0.002942313    1.934    0.483
         6 -13.3174    139.3172     22.0536   5.3909874559e+01   4.7753582499e+01    0.7215635    0.3334598  55.28  0.001275868    1.893    0.472
         7 -14.9232    166.5626     30.1232   5.1606660653e+01   3.9839701218e+01     1.198695     1.173095  55.33  0.004119484    1.062    0.059
         8 -15.1710    147.2429     30.0906   5.5115508278e+01   4.4804291960e+01     1.686799     1.094923  54.72  0.008072088    1.412    0.292
         9 -14.3601    121.8038     37.6158   6.3519889135e+01   5.0060046899e+01     1.053152    0.5857015  28.34  0.002578634    2.287    0.563
        10 -12.2651    232.5872      2.2175   3.6392552288e+01   2.6529441825e+01    0.4296812    0.2387941  62.75  0.001617896    1.810    0.447
        11 -15.5987    218.4411     16.4961   4.1027208458e+01   2.8313426676e+01     2.229621     1.220586 -28.13   0.01089876    1.941    0.485
        12 -14.2252    188.9957     26.0116   4.6985772091e+01   3.4550785834e+01     1.840209    0.6769388 -56.71  0.005355573    4.764    0.790
        13 -13.1088      8.0165      2.7042   9.3117725190e+01   7.3560346266e+01      0.52694    0.3734703  25.73  0.002386519    1.748    0.428
        14 -13.3766      2.6691     10.7401   9.9962839254e+01   7.2637780659e+01    0.6362916    0.3376679 -52.02  0.003927824    1.733    0.423
        15 -13.3070     16.8600     10.5990   9.1956941287e+01   7.1611611259e+01    0.4375962    0.3151408 -53.89  0.001008946    1.919    0.479
        16 -16.0703     13.8508     20.0894   9.7744793429e+01   7.0284192243e+01     1.910908     0.961553 -33.11  0.009381397    1.605    0.377
        17 -13.0470    120.3429     26.6408   5.9774970796e+01   5.1847372730e+01    0.8194517    0.4585773  39.28  0.003703855    1.758    0.431
        18 -14.6055    189.7283     15.4395   4.3907658505e+01   3.5565301000e+01     1.500625    0.7357055 -54.43  0.006402376    2.286    0.562
        19 -12.6953     71.5757     17.1742   7.0309747709e+01   6.3270135489e+01    0.4928877    0.3057627 -28.18  0.002686988    1.577    0.366
        20 -15.4296     97.7377     12.3626   5.9871020132e+01   5.8594010189e+01     1.689081     0.765123  50.44   0.00517031    1.933    0.483
        21 -11.7058     60.0696     17.1632   7.4682388465e+01   6.5237985998e+01    0.3497611    0.1686688 -33.49  0.001727041    1.994    0.499
        22 -14.4880     42.4051      4.0177   7.5651101703e+01   6.9586177639e+01     1.219552    0.6252318 -21.85   0.00583283    1.812    0.448
        23 -15.2339    212.6055     41.0982   4.7988807891e+01   2.6678163846e+01     3.073009     0.872515  71.01  0.008708693    4.832    0.793
        24 -12.0942    153.2063      8.7389   4.6918958100e+01   4.5601376399e+01      0.29367    0.2562273  11.11 0.0009973914    1.289    0.224
        25 -10.9955     59.4214      6.6991   6.9830830667e+01   6.6632173937e+01    0.1962179     0.154082  38.30  0.001253135    1.355    0.262
        26 -10.9192    160.5793      6.2389   4.5017223622e+01   4.3948851377e+01    0.1750292    0.1323417   5.37 0.0005094128    1.618    0.382
        27 -11.1750     68.3041      5.2693   6.5806680500e+01   6.5228281262e+01    0.2425381    0.1337295 -42.99  0.001175027    2.599    0.615
        28 -12.2773    182.3766      2.4014   4.1106377075e+01   3.8735879998e+01    0.5221925    0.2643234 -89.28  0.002265034    2.224    0.550
        29 -11.1911    112.1335      1.8638   5.1982800558e+01   5.6309420049e+01    0.1944574    0.1821238  82.44  0.001232621    1.237    0.192
        30 -11.8040     78.1898      2.3246   6.1078011915e+01   6.3635135147e+01    0.3326258    0.2264476  39.30  0.001306391    1.267    0.210
        31 -11.0634     83.0096      1.2293   5.9095632562e+01   6.2764947373e+01    0.2546639    0.1188945  55.96  0.001198556    2.071    0.517
        32 -12.2747    118.6859      2.9536   5.1030053767e+01   5.4673405246e+01    0.5809659    0.3042007  82.94  0.002358019    2.897    0.655
        33 -11.9136     61.5978      2.0054   6.6614271543e+01   6.6762001483e+01    0.3164527    0.2027165  47.04  0.001324465    1.614    0.380
        34 -12.3706     48.9921      3.5134   7.2462393547e+01   6.8672110188e+01    0.2250559    0.1631299  32.08 0.0003375765    1.343    0.255
        35 -14.6390     24.1488     13.9680   8.9675942980e+01   7.0403553731e+01    0.7562369    0.4639264  14.24  0.002008194    1.639    0.390
        36 -11.4086     89.6628    169.6821   1.0751408094e+02   2.8084891818e+01    0.1340963    0.1097755 -23.54 0.0007048889    1.703    0.413
        37 -12.5583     57.0626    246.8471   1.2233300403e+02   1.6930615829e+01    0.5683089    0.1532973  37.85  0.002507435    3.290    0.696
        38 -13.7619     27.5084    245.0672   1.2721585868e+02   2.0712857620e+01    0.6823539    0.3008399  78.60  0.004006538    2.126    0.530
        39 -11.8698      2.6943    249.8380   1.3135190996e+02   2.2429577380e+01    0.3038193    0.1410441  45.42  0.001844294    1.734    0.423
        40 -13.9527      9.0664    245.6227   1.3020339849e+02   2.2535319718e+01    0.7098755    0.3414295  58.76  0.003310544    1.482    0.325
        41 -13.1828     14.7362    159.0813   1.2402711501e+02   3.9514215770e+01    0.5039787    0.3003649 -87.08  0.003025622    1.371    0.271
        42 -13.1226     22.5418    162.3416   1.2253582453e+02   3.8089679709e+01    0.3694209    0.2027491  74.84  0.002014374    1.767    0.434
        43 -11.4778     27.3688    158.6768   1.2107624470e+02   3.8480029670e+01    0.2054625    0.1185985  70.16  0.001118651    1.712    0.416
        44 -11.3692    154.9854    157.8110   8.9598420749e+01   1.8760624374e+01    0.2549423    0.1735921  67.21  0.001084386    1.993    0.498
        45 -12.0409     77.3601    156.9343   1.0859476597e+02   3.2915383934e+01    0.3979346    0.2848661  29.08  0.001556886    1.633    0.388
        46 -13.5338     73.9048    153.4367   1.0893013125e+02   3.4242799764e+01    0.6846377    0.5195972  39.66  0.002869187    1.393    0.282
        47 -11.4069    112.6554    157.1895   9.9731820977e+01   2.7103728676e+01     0.213568     0.184871  62.08  0.001146686    1.134    0.118
        48 -12.7756    208.5408    154.6639   7.7358171754e+01   8.3384944406e+00    0.6286672    0.4133253  44.24  0.003017378    1.545    0.353
        49 -12.1564    121.2949    156.7056   9.7487653677e+01   2.5632436124e+01    0.2930888    0.1864272  17.74  0.001173402    2.454    0.593
        50 -11.8970     86.0340    152.6709   1.0569051638e+02   3.2626108339e+01     0.457614    0.2454505 -49.31  0.002025131    1.937    0.484
        51 -11.5228    133.1096    152.6646   9.3756294410e+01   2.4277610675e+01    0.2611068    0.2146997 -45.57 0.0002501009    1.256    0.204
        52 -11.9794    103.3087    150.3111   1.0081245065e+02   3.0351882851e+01    0.4211923    0.2998175 -36.97  0.001862456    1.682    0.405
        53 -11.4903     24.3736    150.4865   1.2097145691e+02   4.0655227681e+01    0.2682441    0.1806762 -56.90  0.001620992    1.493    0.330
        54 -11.3938     60.3284    149.2942   1.1179653103e+02   3.7058803172e+01    0.1301921    0.1002982 -36.96 0.0003699157    1.628    0.386
        55 -11.5841     88.9698    139.5761   1.0256193835e+02   3.5299949042e+01    0.3004773     0.193729 -44.85  0.001404508    1.648    0.393
        56 -14.7044    230.0700    129.1777   6.7506285474e+01   8.4385344594e+00     1.333427     1.069675  60.39  0.007095438    1.503    0.335
        57 -12.9173    246.2605    133.2496   6.5718653903e+01   4.5739814158e+00    0.4932989    0.3464461 -31.03  0.002622698    1.266    0.210
        58 -12.5865    133.6949    102.8881   8.1578072903e+01   3.5310584586e+01     1.369377    0.3441903  49.34  0.003469559    4.588    0.782
        59 -13.6892    120.5144    102.2086   8.4982062526e+01   3.8286830038e+01    0.7471722    0.4078346  35.70  0.002658482    2.035    0.509
        60 -12.5919     76.9807    117.1164   1.0141784556e+02   4.2585822452e+01    0.6749411    0.4041678 -63.20  0.003102329    1.624    0.384
        61 -13.9002     86.0033    113.3948   9.7900207733e+01   4.2085927120e+01     1.739953     1.013045 -29.13  0.006583201    2.525    0.604
        62 -14.8267    105.2164    121.9245   9.4324923197e+01   3.6740917606e+01     1.807574      1.14584  35.08  0.008047045    1.700    0.412
        63 -15.2272    106.3776    106.0785   9.0065283976e+01   4.0227077367e+01     1.662841     1.404688 -13.42    0.0063966    1.365    0.267
        64 -11.2425     59.6208    125.6242   1.0817342457e+02   4.2884464764e+01    0.2602378    0.1806904   6.67  0.001237387    2.092    0.522
        65 -12.0939    181.2170    121.3927   7.5106046814e+01   2.0573594810e+01    0.3131557    0.2719509  67.37 0.0009734988    1.294    0.227
        66 -12.6351     28.4248    122.4618   1.1658272346e+02   4.6938257700e+01     0.354924    0.2125552 -75.31  0.001937383    1.426    0.299
        67 -11.8917      3.7204    119.9049   1.2309651111e+02   4.9343772286e+01    0.4133288    0.1785523  16.30  0.002090565    3.170    0.685
        68 -12.6538     22.7442     71.7476   1.0948106729e+02   5.9257872423e+01    0.3715056    0.2335808  12.00 0.0009253665    1.944    0.486
        69 -14.2423     17.7215    111.0476   1.1809076464e+02   5.0502782500e+01     1.157641    0.7334172 -20.59  0.006464303    2.208    0.547
        70 -14.1651    171.0533    243.1031   1.0084105665e+02   5.7627839570e-01    0.9546705    0.5348725  33.69  0.005319649    1.500    0.333
        71 -11.6340    108.9654    243.2966   1.1262909354e+02   1.0344367364e+01    0.1808417    0.1312286  47.90  0.001178471    1.102    0.093
        72 -14.0403     10.7232    101.7408   1.1890384715e+02   5.3155964423e+01    0.7642975    0.6599334 -71.81  0.005063416    1.103    0.093
        73 -13.4194      2.2181     97.1914   1.2089695612e+02   5.4688681096e+01    0.8232851    0.2215032 -73.66  0.003269735    3.028    0.670
        74 -14.5482     26.2973     94.3600   1.1279015546e+02   5.3800160092e+01     1.276768      1.11588  21.44  0.008564209    1.395    0.283
        75 -12.1089    121.1814    111.9899   8.7417923947e+01   3.5950486896e+01    0.3440471    0.2138866  54.94  0.001422616    1.843    0.457
        76 -11.8398     45.2620    110.3021   1.0966903072e+02   4.8257483836e+01    0.3654433    0.2866979 -67.44  0.002152128    1.104    0.094
        77 -11.4194     62.6457    111.1091   1.0448049289e+02   4.6026778631e+01    0.2418921    0.1909617  50.69  0.001333163    1.409    0.290
        78 -11.9695    176.9311    110.5586   7.3231273666e+01   2.3724778056e+01    0.4575009    0.3458264 -13.08  0.002048346    1.602    0.376
        79 -12.3325     45.0627    133.9436   1.1360382408e+02   4.2554857340e+01    0.4715942    0.3550123  76.81  0.002737621    1.349    0.259
        80 -11.1036     25.7382    127.2324   1.1796352885e+02   4.6028174498e+01    0.1770484    0.1268691 -53.66  0.001066304    1.354    0.261
        81 -12.7090     62.7569    100.0239   1.0202226733e+02   4.8668364095e+01    0.8667758    0.5226477  71.25  0.003520773    2.935    0.659
        82 -11.7128     43.1551     91.3155   1.0654974895e+02   5.2996897563e+01    0.6102984    0.2950971 -75.20  0.002458589    2.776    0.640
        83 -12.7815     51.5600     98.7891   1.0537980020e+02   5.0327024850e+01    0.8088617    0.5024802  -8.73  0.003240857    2.528    0.604
        84 -12.5669     48.9949     94.3848   1.0526269997e+02   5.1656401981e+01    0.4108617    0.3198738  71.11  0.001463143    1.598    0.374
        85 -13.4438    249.1051     96.0467   5.6694799108e+01   1.0028333925e+01    0.8642576    0.2490231 -36.68  0.002990481    2.925    0.658
        86 -12.9846    137.0142     95.8538   7.8712112653e+01   3.6069691438e+01    0.5266919    0.4122079  65.47  0.001934819    1.483    0.326
        87 -12.2477    125.3342     92.6484   8.0922031894e+01   3.9341307344e+01    0.4468049    0.2973681 -73.65  0.001709217    2.466    0.594
        88 -12.1951     89.9640     88.2344   9.0173085362e+01   4.7265032976e+01    0.4990394     0.355305  46.08  0.002083756    1.544    0.352
        89 -13.7386    237.0596     80.3780   5.4643458348e+01   1.5086109370e+01    0.9593953    0.4755989  77.14  0.003429778    3.570    0.720
        90 -12.9644    149.6733     85.0380   7.2331705524e+01   3.5302884129e+01    0.8602892    0.4531465  30.70  0.002912981    2.811    0.644
        91 -14.6168    164.2006     71.3983   6.4887637381e+01   3.4250523847e+01     1.691874    0.7740997  47.23  0.006208492    2.193    0.544
        92 -13.1894    159.3745     68.8001   6.5141649624e+01   3.5915363223e+01    0.6708801    0.4626633 -35.93   0.00294242    1.458    0.314
        93 -13.8690    160.8077     80.8816   6.8483122185e+01   3.3381415411e+01    0.9521069    0.6893519  18.57  0.003155833    1.815    0.449
        94 -14.7328    169.3602     77.0512   6.5477747002e+01   3.1954754877e+01     1.507501    0.6706752  52.56   0.00516408    2.215    0.549
        95 -13.1838    135.6042     79.9781   7.4331933974e+01   3.9619702206e+01    0.8290522    0.4743915  46.85   0.00339409    1.747    0.428
        96 -12.2423    126.9270     85.8150   7.8447061042e+01   4.0420687496e+01    0.5015305    0.4287882  27.24  0.002502543    1.224    0.183
        97 -12.8980    132.1638     86.1258   7.7123596634e+01   3.9182399782e+01    0.3563486    0.3388543 -15.35  0.001378889    1.046    0.044
        98 -11.2693     34.4006     86.8664   1.0858763139e+02   5.4870833752e+01    0.2193994     0.181208 -16.18 0.0007654348    1.372    0.271
        99 -13.2089    188.5123     84.2249   6.3667141536e+01   2.5903361321e+01    0.8446329    0.3823414  40.83  0.002780657    2.698    0.629
       100 -13.8143     80.4000     57.0483   8.3407814684e+01   5.5384514287e+01     1.356192    0.9315387  19.43  0.006769192    1.635    0.389
       101 -13.5561     96.6933    238.8585   1.1448750011e+02   1.2931121177e+01    0.5234087    0.3593741  49.50  0.002308969    1.165    0.141
       102 -13.8757     86.0381     66.5203   8.4734342184e+01   5.2558023975e+01     1.419654    0.8319892  -5.65  0.005029226    3.441    0.709
       103 -13.2703     70.8254     75.8198   9.2925818411e+01   5.3080107652e+01    0.5786783    0.4620781  -7.54  0.001546747    1.383    0.277
       104 -12.1310     77.1452     73.8451   9.0132217350e+01   5.2534510668e+01    0.3444002    0.2456023 -43.59 0.0009648017    1.285    0.222
       105 -12.9800     54.9578     82.0188   1.0024202997e+02   5.3832691113e+01    0.5707149    0.3511305 -39.17  0.002177072    1.542    0.352
       106 -13.9008     61.0491     75.5720   9.6312500516e+01   5.4503915523e+01    0.7111813    0.4419521 -37.58  0.001399721    1.521    0.343
       107 -13.3488    213.2011     78.3973   5.7732785037e+01   2.0895081833e+01     1.094991    0.6392525  78.90  0.004341462    2.486    0.598
       108 -12.9579    216.5460     73.3973   5.5899742372e+01   2.0912955675e+01    0.7138028    0.4867865 -75.77   0.00320379    1.897    0.473
       109 -12.1687    114.1540     80.2585   8.0351458184e+01   4.4322261135e+01    0.4476459     0.339299 -43.94  0.001112598    1.302    0.232
       110 -11.0591     90.3116     81.4705   8.8072276179e+01   4.8688504440e+01    0.3049553    0.2286872 -37.57  0.001529316    1.265    0.209
       111 -11.5016     96.7442     79.5655   8.5433131702e+01   4.7926535048e+01    0.7255962    0.1750766  45.67  0.001953517    4.827    0.793
       112 -10.6267     32.7809     81.3940   1.0796878752e+02   5.6275064166e+01    0.1543517    0.1194272  -8.92 0.0006226558    1.513    0.339
       113 -11.3419     42.1150     77.0838   1.0358094553e+02   5.6376111242e+01    0.2339418    0.2025492 -46.01  0.001453605    1.033    0.032
       114 -14.1711    198.9104     69.7308   5.7766970208e+01   2.5799895209e+01     1.166515    0.7109688  38.08  0.003933952    2.002    0.500
       115 -12.4541    199.8845     62.2375   5.5540135400e+01   2.6754464706e+01    0.4093406     0.343967 -58.96 0.0008635247    1.189    0.159
       116 -12.2575    242.0467     71.4564   5.1808822386e+01   1.5373414873e+01    0.4462415    0.2759029 -67.18  0.002054549    2.034    0.508
       117 -13.7078    133.4449     66.0280   7.0436900413e+01   4.2745898013e+01     1.030999    0.8416352  20.70  0.003588262    1.337    0.252
       118 -13.9360    101.1647     49.4038   7.3741628544e+01   5.2817889878e+01    0.7694265    0.7116366  60.72  0.002319914    1.278    0.217
       119 -12.0504    147.3263    239.0217   1.0482105015e+02   5.0200846132e+00    0.1676029    0.1504571  47.64  0.001099034    1.123    0.110
       120 -11.9252    142.6666    235.1868   1.0522740670e+02   6.3886089699e+00    0.2213481    0.1183928 -63.00  0.001095822    2.677    0.626
       121 -11.7231     14.4180    223.8229   1.2832550141e+02   2.5971950561e+01    0.3963143    0.1760225  61.47  0.001821337    1.779    0.438
       122 -14.0009     25.7489    227.4523   1.2655697756e+02   2.4117464679e+01     1.133524    0.3977207 -80.01  0.005837489    2.675    0.626
       123 -13.6841     20.9262    225.1134   1.2726684630e+02   2.5067145335e+01    0.4526402    0.3041435 -89.33  0.002390714    1.264    0.209
       124 -13.7543    112.0769     40.0481   6.7021323751e+01   5.1942646434e+01    0.8835868    0.5115209  21.03  0.003213252    2.415    0.586
       125 -13.0804    237.6851    230.8228   8.6672444041e+01  -8.1583778465e+00     0.300394    0.2013208  39.13  0.001879371    1.556    0.357
       126 -11.9141    100.4732     64.9859   7.9510375751e+01   5.0152660101e+01    0.4445381    0.3107669 -26.75   0.00212544    1.472    0.321
       127 -12.4865     38.2902     68.3869   1.0274941594e+02   5.8687004765e+01    0.5979787    0.2903797  29.24  0.002927667    2.342    0.573
       128 -14.3113    178.1378     57.5496   5.7946978925e+01   3.3000986201e+01     1.023345    0.7563155 -40.64  0.002875508    1.352    0.260
       129 -12.0418     24.3974     59.8928   1.0594706751e+02   6.1729638943e+01    0.3012957    0.1912368 -48.04 0.0008395498    1.240    0.193
       130 -10.5727     38.5037     60.0128   1.0030600125e+02   6.0465964449e+01    0.1741359     0.110895 -78.75 0.0008105504    2.577    0.612
       131 -10.8392     47.5330     57.0067   9.5771059540e+01   6.0120490986e+01    0.2086159    0.1154756 -51.22  0.001037544    1.634    0.388
       132 -12.6124    247.7057     53.7284   4.6919505059e+01   1.6737798819e+01    0.4940906    0.3474159 -66.71  0.002685755    1.452    0.311
       133 -12.6364    248.7654     49.1169   4.5729997202e+01   1.7151245731e+01     0.420283    0.3455938  66.64   0.00253272    1.324    0.245
       134 -11.8756    230.2251     55.4772   4.9415389742e+01   2.0432131738e+01    0.4674357    0.2222971  64.63  0.002003039    2.208    0.547
       135 -12.9998    135.5651     50.4561   6.4668411273e+01   4.4858601541e+01    0.6565266    0.3578426  33.15  0.002549139    2.271    0.560
       136 -13.3535     65.9418     48.9615   8.5755917185e+01   5.9233422314e+01    0.5054983    0.4842075 -88.77  0.003158039    1.428    0.300
       137 -11.7483     23.9698     49.5422   1.0321731514e+02   6.3930295321e+01    0.4110913    0.1425634 -34.23  0.001536109    3.315    0.698
       138 -11.8624     40.1833    243.7374   1.2502625961e+02   1.9519701728e+01    0.2621924    0.1336414 -88.33  0.001632995    1.876    0.467
       139 -13.8527     62.9167    214.4697   1.1869501148e+02   2.2241246881e+01    0.7118698    0.4059403  62.14  0.004069396    1.565    0.361
       140 -13.0789     66.6245    223.0628   1.1873698571e+02   2.0065599438e+01     0.652242    0.5233811  38.74  0.004450123    1.414    0.293
       141 -13.2714    157.7851     43.5548   5.7489300768e+01   4.0320203673e+01    0.8758322    0.5694245  27.52  0.003808039    1.954    0.488
       142 -12.2294    169.9862     43.7218   5.5241246564e+01   3.7155843233e+01    0.3656651    0.2881519  52.57  0.001622899    1.230    0.187
       143 -10.5509     55.5010     41.0887   8.6881149128e+01   6.2172025334e+01    0.1853028    0.1147817 -38.46 0.0003638913    1.442    0.306
       144 -12.5897     75.8154     37.4012   7.7557937657e+01   5.9622857694e+01    0.3350568    0.2383919  35.31 0.0008533928    1.405    0.288
       145 -12.1435     69.5231     36.7623   7.9626981957e+01   6.0792503479e+01     0.440898    0.2189189  33.84  0.001202177    2.078    0.519
       146 -13.8118    241.8347     34.5596   4.3055411357e+01   2.0641124312e+01    0.8502607    0.6269112  78.90   0.00298911    1.364    0.267
       147 -11.3193    104.4761     37.0211   6.8030147236e+01   5.4058683022e+01    0.2181244    0.1368089 -28.79  0.001037689    1.608    0.378
       148 -12.6265     94.4990    218.6218   1.1280100482e+02   1.6973242373e+01    0.3245266     0.203091  57.47  0.001514055    1.423    0.297
       149 -12.7211    185.6915    213.4425   9.3469171541e+01   2.6044156349e+00    0.2641402    0.1982519 -48.10  0.001524478    1.638    0.390
       150 -13.5159      9.1569    210.8953   1.2858298212e+02   2.8980776802e+01    0.8464788    0.5035554  68.30   0.00583296    1.285    0.222
       151 -12.9341      1.8863     21.6460   1.0463605867e+02   7.0763014804e+01    0.2784603    0.1504677 -57.06  0.001042955    1.672    0.402
       152 -13.0001     16.7568    195.7781   1.2629513582e+02   3.1326876831e+01    0.9379054    0.2267935 -70.01  0.004068818    3.271    0.694
       153 -11.7378     58.4446     35.4045   8.3409032632e+01   6.2738369419e+01    0.5083332    0.2226084  32.55  0.002277471    2.418    0.586
       154 -12.2979     46.1776     33.8466   8.7924021915e+01   6.4669264086e+01    0.4719302    0.2798183 -29.29  0.002570031    1.511    0.338
       155 -11.5823     27.5719     33.2510   9.6111906574e+01   6.6794012514e+01    0.3496419    0.2086244 -49.21  0.002027777    1.531    0.347
       156 -11.4422     31.4150     31.0773   9.3473445707e+01   6.6818549221e+01    0.2328744    0.1523319  12.38 0.0007158708    1.607    0.378
       157 -11.0949     91.0185     34.0198   7.0968633066e+01   5.7294234717e+01    0.2323081    0.1556973  14.29  0.001133218    1.695    0.410
       158 -13.4613     29.9619    169.4041   1.2150242984e+02   3.5775928413e+01    0.6862211    0.4065745 -47.78  0.002764268    2.145    0.534
       159 -10.8287     89.1757     30.1765   6.9984124860e+01   5.8211286207e+01     0.201427    0.1631661  13.03 0.0002453807    1.151    0.131
       160 -12.8981     56.7147     27.4912   8.0756602150e+01   6.4269251254e+01    0.6039926    0.2896936  42.71  0.001988721    2.377    0.579
       161 -12.8819     67.6909     24.5957   7.5120420418e+01   6.2955476293e+01    0.6831157    0.3341136  37.98  0.003275578    1.998    0.500
       162 -10.3600     38.6370     29.6955   8.9575942330e+01   6.6286244052e+01    0.1324349   0.08076774 -13.70 0.0007037601    1.734    0.423
       163 -13.4687     22.3142    181.2486   1.2415660565e+02   3.3892530755e+01    0.5630977    0.3960009 -68.98  0.002698957    1.382    0.276
       164 -10.9169     97.9434     27.1881   6.6027714120e+01   5.6814259493e+01    0.2018586    0.1910215  60.13  0.001217502    1.269    0.212
       165 -12.0730     46.4614     21.0347   8.2247455526e+01   6.6707994488e+01    0.3354641    0.2229602 -21.71  0.001232775    1.311    0.237
       166 -14.7853      8.3846    183.4977   1.2715946287e+02   3.4676599138e+01     1.009159    0.8075157  68.57  0.007566131    1.168    0.143
       167 -14.8893     16.0218    175.7241   1.2505967022e+02   3.5686820439e+01     2.010092    0.6152258  55.02  0.008630058    3.276    0.695
       168 -11.0725    157.3241    212.9916   9.9132335870e+01   7.6395096795e+00    0.1955937    0.1111353 -73.77 0.0007050672    4.321    0.769
       169 -11.6049    136.8341    211.3438   1.0313270107e+02   1.1494980962e+01    0.2135689    0.1814579 -82.88 0.0008144681    1.365    0.268
       170 -10.2734     54.7452     16.3389   7.6466174769e+01   6.6186571668e+01    0.1105699    0.0954455 -41.72 0.0003771578    1.575    0.365
       171 -12.3902     41.8731    206.9759   1.2220034276e+02   2.6355509934e+01    0.3001088    0.1455418  75.89  0.001544666    2.125    0.529
       172 -10.8159     80.4998    208.5057   1.1455300446e+02   2.1033387719e+01    0.1291529    0.1033655  67.15 0.0002382621    1.049    0.047
       173 -11.4712    151.1268    206.9041   9.9464829779e+01   9.8101844477e+00    0.3289558    0.1638675  32.17  0.001431753    2.098    0.523
       174 -12.5337     57.3383    203.1995   1.1878262530e+02   2.5261453435e+01    0.5021524    0.2267762 -83.92  0.002341845    2.510    0.602
       175 -12.8368     40.4919    195.2044   1.2152081983e+02   2.8972830556e+01    0.4579098     0.176731  89.38  0.001836581    3.433    0.709
       176 -13.1034    164.1924    194.3172   9.4597235398e+01   9.7386519932e+00    0.5937881    0.3094755 -55.70  0.002543655    2.505    0.601
       177 -12.6698    201.0510    192.1983   8.6603072395e+01   3.3040571816e+00     0.379976    0.2897558 -17.32  0.001639845    1.362    0.266
       178 -10.7201    212.4804    200.4897   8.5933448564e+01  -2.8542056018e-02     0.135584    0.1123149  12.38 5.496437e-05    1.044    0.042
       179 -13.2236    198.4600    181.6196   8.5062796338e+01   5.5611426202e+00    0.3469909    0.3076786 -52.10  0.001487338    1.379    0.275
       180 -11.8423     49.1025    181.5264   1.1842213245e+02   3.0954262232e+01    0.3513199    0.2288735 -56.05  0.002017738    1.689    0.408
       181 -12.3485     85.0969    180.4222   1.1013844446e+02   2.6353240298e+01    0.2855974    0.1725789 -87.10  0.001354157    1.965    0.491
       182 -13.1767    124.6085    167.8106   9.8771320949e+01   2.2531821221e+01    0.4448052     0.283481 -62.92  0.002049897    1.739    0.425
