#   1 NUMBER                 Running object number                                     
#   2 MAG_AUTO               Kron-like elliptical aperture magnitude                    [mag]
#   3 X_IMAGE                Object position along x                                    [pixel]
#   4 Y_IMAGE                Object position along y                                    [pixel]
#   5 X_WORLD                Barycenter position along world x axis                     [deg]
#   6 Y_WORLD                Barycenter position along world y axis                     [deg]
#   7 A_WORLD                Profile RMS along major axis (world units)                 [deg]
#   8 B_WORLD                Profile RMS along minor axis (world units)                 [deg]
#   9 THETA_WORLD            Position angle (CCW/world-x)                               [deg]
#  10 FWHM_WORLD             FWHM assuming a gaussian core                              [deg]
#  11 ELONGATION             A_IMAGE/B_IMAGE                                           
#  12 ELLIPTICITY            1 - B_IMAGE/A_IMAGE                                       
         1 -14.7603    158.2010     42.5638   8.4889360840e+01   4.0595810159e+01     1.353998     1.036583 -14.30  0.003979246    1.400    0.286
         2 -13.4013    168.4551     13.7520   7.3393328306e+01   4.1449104127e+01    0.8493174    0.4430303  74.64  0.003264302    2.041    0.510
         3 -14.2892    169.1016      7.2892   7.1161469304e+01   4.1913168818e+01     1.137173    0.7159269  66.94  0.004314692    1.478    0.323
         4 -11.6053    189.9426     14.5344   7.0659669061e+01   3.5734691956e+01    0.2185639    0.1958459 -29.82 0.0008088499    1.165    0.142
         5 -11.9172    168.0479    242.4132   1.2774230233e+02   4.1114029323e+00    0.2303707    0.1661158 -51.21 0.0008428252    1.826    0.452
         6 -12.1378    189.5416    250.1464   1.2515046479e+02  -2.3565747209e-01    0.3422478    0.1080246  41.62  0.001501792    2.401    0.584
         7 -12.0919    176.2386    249.5184   1.2725776267e+02   1.9251923017e+00    0.2195607     0.188244 -24.27  0.000802529    1.520    0.342
         8 -20.0388     81.3345    195.2568   1.3783445016e+02   2.5332216936e+01     12.84735     5.588008 -67.39   0.06473361    2.355    0.575
         9 -11.8837    161.3719    198.7662   1.2283570512e+02   1.1590529685e+01    0.4803231    0.2616744  69.04  0.001677114    3.810    0.738
        10 -11.2796    150.9694    242.3562   1.3061608050e+02   6.8398015861e+00    0.2876207     0.163949 -52.37  0.001243142    2.268    0.559
        11 -13.2450    137.9640    198.2869   1.2725143705e+02   1.5809532882e+01    0.6343008    0.3115954  57.45  0.002649056    2.242    0.554
        12 -12.4336    142.2339    194.1214   1.2580795187e+02   1.5787979941e+01    0.3921991    0.1935517  47.90  0.001529671    1.781    0.439
        13 -13.9767    167.0520    191.1333   1.2051436717e+02   1.1801670706e+01    0.6628273    0.5087771  79.68  0.003705516    1.731    0.422
        14 -13.1268    179.9987    192.4551   1.1826733025e+02   9.1911446643e+00    0.4296359    0.3111853 -60.19  0.001304604    1.839    0.456
        15 -13.9609    176.4919    188.2828   1.1821533670e+02   1.0508145755e+01     0.770842      0.41107 -59.35  0.003296891    3.038    0.671
        16 -12.3121    147.5438    189.2861   1.2401836593e+02   1.5686038330e+01    0.4071248    0.2125884  31.58  0.001796835    2.391    0.582
        17 -14.4461    207.3679    179.2304   1.1074643268e+02   6.0597751751e+00    0.8151987    0.7373893 -14.52  0.004640509    1.162    0.139
        18 -13.7346    196.7781    172.5906   1.1143545556e+02   9.1279749496e+00     0.716699    0.4131751 -45.97  0.002654302    2.015    0.504
        19 -11.3320     21.9183    240.4758   1.5129515491e+02   2.4495818881e+01    0.1451063    0.0989505  82.97 0.0004027148    1.192    0.161
        20 -13.2639    174.7065    193.2755   1.1940891129e+02   1.0040884186e+01    0.4690602    0.3596254 -75.81   0.00150165    1.869    0.465
        21 -10.0361      7.7658    238.0002   1.5325853824e+02   2.6306532613e+01    0.1202039   0.07175121  79.40  0.000438201    1.203    0.168
        22 -15.1095    146.9181    170.7935   1.2103920077e+02   1.9160188833e+01     1.022821    0.8010212 -41.78  0.005650787    1.432    0.302
        23 -12.3252    123.4831    166.4375   1.2523938872e+02   2.4312573935e+01    0.4406904    0.2589328  66.91 0.0006990014    2.194    0.544
        24 -14.1340    132.2834    171.8884   1.2428584094e+02   2.1661627982e+01     1.154282    0.5134094  62.15  0.003809031    4.121    0.757
        25 -12.9480    137.0874    171.3147   1.2318098650e+02   2.0895408812e+01    0.3551565    0.3316622  31.81  0.001148531    1.180    0.152
        26 -11.8759    168.6227    176.1534   1.1759190507e+02   1.4034706966e+01    0.2357811    0.1748171  53.13 0.0006756514    1.304    0.233
        27 -12.2294    202.0241    165.7367   1.0907327247e+02   9.1820548557e+00    0.3539791    0.3088481 -82.97  0.001364128    1.564    0.361
        28 -14.1407    178.1954    171.5418   1.1483126157e+02   1.2958877911e+01     0.729906    0.5055993 -48.73  0.003815127    1.634    0.388
        29 -11.5133    223.6785    163.6680   1.0467252449e+02   5.2326867133e+00     0.236693    0.2272679 -23.92 0.0005012145    1.224    0.183
        30 -12.9129    161.1053    157.1806   1.1549732819e+02   1.8944284592e+01    0.3480072    0.2652397  75.48  0.001561235    1.647    0.393
        31  -9.8305      3.4809    158.5184   1.4982228851e+02   4.1335738851e+01    0.1091489    0.0786223  87.18 0.0008100938    1.003    0.003
        32 -11.2862     29.0112    156.5052   1.4442693879e+02   3.9526674412e+01    0.2245573    0.1417011 -80.32 0.0005461535    1.278    0.217
        33 -13.4216    183.5569    232.7115   1.2382898709e+02   2.8377735116e+00    0.3258485    0.2911787  21.98  0.001858323    1.180    0.153
        34 -12.7409    126.2280    187.2056   1.2794316837e+02   1.9823812491e+01    0.5137483    0.2802919  62.32  0.001544611    2.154    0.536
        35 -14.4963    134.2201    146.1203   1.1912660633e+02   2.6451169472e+01     1.301824    0.4907898 -55.60  0.004530525    3.162    0.684
        36 -15.2901    136.7063    126.9991   1.1444520921e+02   2.9925397782e+01     1.987352    0.8087595 -56.84  0.006505697    3.327    0.699
        37 -11.8718     17.2073    153.5449   1.4664506627e+02   4.1236733049e+01    0.3079863    0.2103447 -46.16  0.001807852    1.990    0.497
        38 -10.9999     18.5230    148.4968   1.4592381429e+02   4.2188644495e+01     0.193418    0.1484408  21.70  0.001363804    1.872    0.466
        39 -10.5801    184.2372    151.1847   1.0949275265e+02   1.5269973272e+01    0.1930749    0.1719768 -88.00 0.0007116978    1.368    0.269
        40 -13.5846    143.6612    144.7346   1.1672622888e+02   2.4877771266e+01    0.6657469    0.4165696 -68.85  0.002861921    2.215    0.549
        41 -12.8233    174.1446    148.4499   1.1096121281e+02   1.7880799810e+01    0.4031676    0.3277803 -53.81  0.001701553    1.358    0.263
        42 -12.2387    196.3747    235.8880   1.2209370029e+02   3.4729425875e-01    0.2065983    0.1424134 -11.79  0.001303561    1.922    0.480
        43 -11.9512     27.3101    145.7941   1.4374434013e+02   4.1975678486e+01    0.2635948    0.2325681  72.35 0.0009254668    1.229    0.186
        44 -12.0360    177.1448    143.6348   1.0928884553e+02   1.8130291051e+01    0.2439054    0.2060753 -53.75 0.0006811202    1.298    0.229
        45 -10.5264     16.9048    225.2098   1.5132318239e+02   2.7542855037e+01    0.1198452   0.08077186 -83.50 0.0006764619    1.377    0.274
        46 -13.8888    118.7653    136.0546   1.2066156233e+02   3.1488717909e+01    0.6979097    0.4959777 -58.18  0.002095033    1.401    0.286
        47 -14.6543    121.9564    128.2992   1.1825434809e+02   3.2555389854e+01     1.016657    0.6442317  35.16  0.003574854    1.784    0.439
        48 -12.6952    199.1561    222.6494   1.1967665672e+02   1.5228452418e+00    0.3413305    0.1646391  42.69  0.001128733    1.689    0.408
        49 -12.8523     11.9740    206.2901   1.5115101475e+02   3.1353957194e+01     0.473583     0.220205  41.48  0.003140631    2.058    0.514
        50 -13.1017    160.7367    127.9921   1.0920215580e+02   2.4649848653e+01    0.4599178    0.3554915 -49.14   0.00184569    1.335    0.251
        51 -11.1006     30.7545    206.5480   1.4801603232e+02   2.9426525666e+01    0.2010905    0.1901249  62.43  0.001707541    1.564    0.360
        52 -14.5278    149.1614    148.7003   1.1633264146e+02   2.2983970162e+01     0.852956    0.5689346  49.16  0.000650876    1.445    0.308
        53 -12.2375     38.6565    123.9903   1.3844705376e+02   4.5679338644e+01    0.2413275    0.2062619 -69.24  0.001293479    1.139    0.122
        54 -12.3577    168.9055    202.5715   1.2201229458e+02   9.6328186136e+00    0.3006353    0.1918699  49.49  0.000322982    1.398    0.285
        55 -13.6875    157.3500    178.2766   1.2022761550e+02   1.5818276441e+01     0.729624    0.2559614 -50.46  0.002727126    3.342    0.701
        56 -13.5409    156.8100    200.4221   1.2395871367e+02   1.2137493064e+01    0.7048565    0.4104964 -71.54  0.003158259    3.115    0.679
        57 -12.0140    153.3409    194.5393   1.2371361939e+02   1.3736027047e+01     0.248568    0.1899341  60.14 0.0005955787    1.290    0.225
        58 -13.8927    153.3801    189.1308   1.2284493775e+02   1.4653176182e+01     0.545028    0.3924336 -41.47  0.001915284    1.619    0.382
        59 -10.6904    205.5501    110.1885   9.5613113449e+01   1.7731851163e+01    0.2744276    0.2112702  47.84  0.000679291    1.313    0.239
        60 -12.0348     25.6632    106.4294   1.3933697980e+02   5.0803554154e+01     0.351234    0.2266167   2.20   0.00202505    2.497    0.599
        61 -12.3073     41.0460     94.0843   1.3287909388e+02   5.2168962813e+01    0.4472153    0.3126025 -45.03   0.00221101    1.407    0.289
        62 -11.5598     50.2643     91.8633   1.2968207875e+02   5.1696359733e+01    0.2143421    0.1934298  12.29 0.0006195702    1.364    0.267
        63 -11.7157    125.8066     91.0773   1.0795795801e+02   3.9670472824e+01    0.3414043    0.2099574  57.79 0.0007784496    1.908    0.476
        64 -11.7894      6.6873     88.7939   1.4213059653e+02   5.6060795967e+01    0.4334627    0.2043143 -13.72  0.001987583    4.409    0.773
        65 -13.9284    158.6668    193.0905   1.2245353031e+02   1.3015529147e+01    0.7613285    0.4863099 -81.37    0.0033635    2.928    0.658
        66 -12.3753    163.3753    203.5669   1.2320169593e+02   1.0463997675e+01    0.3087606    0.2677141  77.39 0.0002449804    1.321    0.243
        67 -14.3490    147.9411     57.2898   9.2007558389e+01   4.0908388137e+01     1.092091    0.8213941  -2.17  0.001093195    1.587    0.370
        68 -11.5102    160.4379    246.9088   1.2956206840e+02   4.7403841041e+00    0.2608627    0.2028705 -27.54  0.001380998    1.812    0.448
        69 -13.0108    161.7452     33.8868   8.1280830481e+01   4.0864197126e+01    0.4396396    0.3964735   3.68 0.0008559904    1.152    0.132
        70 -11.1607     13.3749     59.8457   1.3480727545e+02   6.1886117523e+01    0.1628046    0.1531207 -89.72 0.0005268853    1.292    0.226
        71 -12.6915    197.0339    245.8171   1.2335119300e+02  -9.1795543282e-01    0.2930583    0.1310277  41.89  0.001285502    1.706    0.414
        72 -11.7266     28.9224    244.0838   1.5043284513e+02   2.3179036131e+01    0.2420943    0.1070749 -79.51   0.00163535    2.097    0.523
