#   1 NUMBER                 Running object number                                     
#   2 MAG_AUTO               Kron-like elliptical aperture magnitude                    [mag]
#   3 X_IMAGE                Object position along x                                    [pixel]
#   4 Y_IMAGE                Object position along y                                    [pixel]
#   5 X_WORLD                Barycenter position along world x axis                     [deg]
#   6 Y_WORLD                Barycenter position along world y axis                     [deg]
#   7 A_WORLD                Profile RMS along major axis (world units)                 [deg]
#   8 B_WORLD                Profile RMS along minor axis (world units)                 [deg]
#   9 THETA_WORLD            Position angle (CCW/world-x)                               [deg]
#  10 FWHM_WORLD             FWHM assuming a gaussian core                              [deg]
#  11 ELONGATION             A_IMAGE/B_IMAGE                                           
#  12 ELLIPTICITY            1 - B_IMAGE/A_IMAGE                                       
         1 -15.4798    247.5710     22.2494   3.5520773561e+02   2.3017154310e+01     4.469537     0.988903 -27.85   0.01631281    4.108    0.757
         2 -12.9109     11.9841     24.0672   5.4865366801e+01   7.3975514670e+01    0.6950801     0.310742 -32.39  0.002995455    2.517    0.603
         3 -13.0192      6.2611     11.6704   5.3036888664e+01   7.7022637789e+01    0.9010839    0.4043411 -35.57  0.004258759    2.175    0.540
         4 -11.9773     10.2346      2.2061   4.2777685846e+01   7.8318567389e+01    0.5315306    0.2155038  24.11  0.002310882    2.909    0.656
         5 -12.2415     15.7923      7.1531   4.1649769725e+01   7.6787374511e+01    0.4567904    0.2702069 -15.07  0.002300534    2.081    0.520
         6 -11.5890     19.7968     14.4656   4.3448071641e+01   7.4987694949e+01    0.3284643    0.1946855 -20.99  0.001637055    1.964    0.491
         7 -12.2686     25.6817      3.9238   3.1623354709e+01   7.5820225972e+01    0.4559331    0.2870558   7.16   0.00234475    1.982    0.496
         8 -10.5363     41.5072      2.4819   2.1118517250e+01   7.3094466183e+01    0.1310455    0.1125282  20.36 0.0001839579    1.044    0.043
         9 -11.7692     13.5498     12.8134   4.7374186989e+01   7.6055660176e+01    0.3077254    0.2001934 -17.64   0.00167119    1.626    0.385
        10 -10.1268     58.0000    242.1728   7.3224406319e+01   1.6950875735e+01    0.2113978    0.0861436  48.44   0.00108575    2.046    0.511
        11 -12.2918    234.2360    244.6757   4.0027214666e+01  -3.7378832681e+00    0.5813431     0.224009 -24.70  0.003297371    2.562    0.610
        12 -11.4305    240.0903    239.6002   3.8409993156e+01  -3.7743535151e+00    0.2573262    0.1390055 -15.53    0.0011507    1.577    0.366
        13 -11.8673    248.8526    225.3857   3.4999918519e+01  -3.1123987633e+00    0.4108596    0.1842666 -27.56  0.002592809    1.881    0.468
        14 -10.9467    243.5661    235.6905   3.7319215636e+01  -3.6995015848e+00    0.2748892    0.1229729 -20.80   0.00133647    2.047    0.512
        15 -11.5568    244.7725    230.6182   3.6391086057e+01  -3.2745788184e+00    0.2612594    0.1339907 -28.71  0.001196519    1.710    0.415
        16 -12.1280    243.0128    246.3267   3.8924461341e+01  -4.7530903946e+00    0.4916223    0.2304855 -19.22  0.003189151    1.914    0.478
        17 -11.5686    247.3112    239.5257   3.7317140088e+01  -4.4625078189e+00    0.3603753    0.1850537 -19.05  0.001696392    1.626    0.385
        18 -11.2683    249.9974    232.8063   3.5941301785e+01  -4.0188365227e+00    0.3299958    0.1588294 -23.02  0.001724999    1.735    0.424
        19 -11.1578    248.8457    250.1202   3.8587939905e+01  -5.6726664361e+00    0.3527045    0.1513138  21.25  0.002302997    2.007    0.502
        20 -10.6712    248.8737    245.1295   3.7885642657e+01  -5.1796825971e+00    0.2624708    0.1370284 -12.71  0.001837626    1.618    0.382
        21 -11.4435    225.4350    248.7112   4.1963107187e+01  -3.2964637663e+00      0.24055    0.1506997 -15.23  0.001551842    1.347    0.258
        22 -12.2661    212.2685    248.1621   4.4011230103e+01  -1.8931863241e+00    0.3870784     0.214228  -1.91  0.002501007    1.777    0.437
        23 -10.8405    168.1986    250.3159   5.1965084373e+01   2.7082842866e+00     0.227558     0.082084  24.84   0.00107912    2.593    0.614
        24 -10.5855     50.2276    250.1039   7.5308491964e+01   1.6397281036e+01    0.2704632    0.1148247  35.66    0.0015118    1.717    0.418
        25 -11.4755     36.8379    248.6655   7.7939344372e+01   1.8012549678e+01     0.444607    0.1606276  45.73  0.002383027    1.983    0.496
        26 -13.0691     25.7249    228.6632   7.9314684578e+01   2.2780049509e+01     1.005939    0.2674775  54.91  0.004179565    3.295    0.696
        27 -12.0808      3.6768    197.1582   8.2982625695e+01   3.1240210956e+01    0.5218809    0.2581092  71.73  0.002329957    1.777    0.437
        28 -13.0685      5.2689    190.6201   8.2355207898e+01   3.2560934115e+01     1.113721    0.3011957  67.59  0.003963449    4.036    0.752
        29 -12.7022      3.0192    179.9500   8.2488841224e+01   3.5172095127e+01    0.7988301    0.2809624  71.12  0.003344126    2.773    0.639
        30 -12.3836      2.3274    211.0951   8.3752472431e+01   2.8382137921e+01    0.8778626    0.2503331  88.98  0.003642897    3.604    0.723
        31 -12.4615     20.2479    249.0602   8.1267516900e+01   1.9534705652e+01    0.7613106    0.2200806  28.99  0.003668921    2.703    0.630
        32 -12.7238     15.9273    240.3528   8.1826207841e+01   2.1493036379e+01    0.8674685    0.2304769  46.43  0.004252397    2.404    0.584
        33 -12.1163     14.1655    232.0553   8.1898144333e+01   2.3201030371e+01    0.4804054    0.2201936  49.70  0.002220516    1.618    0.382
        34 -12.0286     10.9605    225.7275   8.2352364635e+01   2.4705658957e+01    0.4588685    0.2184195  49.28  0.001943959    1.566    0.361
        35 -12.0103     12.1465    248.8575   8.2852894223e+01   2.0303747718e+01    0.4819717    0.1725137  39.17  0.001863705    1.855    0.461
        36 -12.4002      6.6879    236.4150   8.3575398841e+01   2.3036127142e+01    0.5852824     0.252489  52.64  0.003440549    1.701    0.412
        37 -12.1847      4.9298    228.2908   8.3703603177e+01   2.4726726198e+01    0.5225253     0.240002  56.80  0.002055798    1.678    0.404
        38 -11.8827      2.2322    220.8885   8.4061290355e+01   2.6402223374e+01    0.4500613    0.2044888  79.08  0.001897503    2.042    0.510
        39 -11.5204      3.9003    250.0895   8.4484018226e+01   2.0803519831e+01    0.3663013    0.1459554  27.49  0.002074318    2.166    0.538
        40 -12.7016      3.4018    243.2461   8.4413817049e+01   2.2062910437e+01    0.5805758    0.2834444  66.76  0.003428539    1.726    0.421
        41 -10.6967     38.1279    240.2941   7.7260844698e+01   1.9376322917e+01    0.2742878    0.1053112  46.31  0.001445702    1.938    0.484
        42 -11.1009    214.6811    239.8293   4.2459486897e+01  -1.1997018765e+00     0.169781    0.1050057 -10.46  0.001100913    1.421    0.296
        43 -10.0298    220.2033    238.8054   4.1413122707e+01  -1.6680550579e+00    0.1539601   0.09512018  -4.84  0.001069218    1.380    0.275
        44 -10.5558    202.6835    249.3527   4.5767881031e+01  -1.0162494374e+00    0.2153237    0.1163109  -1.05  0.001306618    1.987    0.497
        45 -11.5775    231.5960    235.0946   3.9065554573e+01  -2.4353519010e+00    0.3198923    0.1610352 -24.99  0.001785301    1.761    0.432
        46 -13.1289     12.1796    205.5449   8.1319227941e+01   2.8719533070e+01    0.7497192     0.312626  48.58  0.003883541    1.853    0.460
        47 -11.0011    206.9821    234.4400   4.2976510835e+01   2.7979028190e-01    0.2161462    0.1257076 -15.74  0.001386656    1.651    0.394
        48 -10.4685    192.4071    234.7771   4.5545290851e+01   1.8997727408e+00    0.1538852   0.08918229 -22.77 0.0009546141    1.732    0.423
        49 -11.8918    236.7032    228.5003   3.7298908874e+01  -2.2249153986e+00    0.2908362    0.1679389 -22.86  0.001879122    1.463    0.317
        50 -11.2929    217.6998    231.7459   4.0800183087e+01  -5.8075435055e-01    0.2744389    0.1219358 -29.04  0.001594893    2.138    0.532
        51 -10.6969     39.6912    230.6616   7.6410279954e+01   2.1009380299e+01     0.260991    0.1114541  54.61  0.001342051    2.062    0.515
        52  -9.3654    225.4884    230.4970   3.9355418946e+01  -1.2751559552e+00    0.1094746   0.07795334  -0.35 -1.43143e-06    1.030    0.029
        53 -12.9504     11.9913    217.0605   8.1817012002e+01   2.6341929381e+01    0.8672698    0.2345583  48.57  0.003932138    2.570    0.611
        54 -10.1771    229.4817    227.4657   3.8269217036e+01  -1.3503365212e+00    0.2033257   0.08908103 -33.26  0.001199719    2.129    0.530
        55  -9.8942    223.5137    225.9155   3.8988161119e+01  -5.2481508474e-01     0.155605   0.08943728 -27.46  0.001002639    1.574    0.365
        56 -12.3009    239.1333    219.2422   3.5515474310e+01  -1.4260178877e+00    0.2876831    0.2078875 -12.70   0.00220489    1.123    0.109
        57 -12.3107    248.5841    215.1432   3.3459450103e+01  -1.9476051837e+00    0.4843123    0.1870219 -26.69  0.002687081    2.277    0.561
        58 -10.3911    227.7917    219.0680   3.7256056491e+01  -1.7737294520e-01    0.2481213    0.1183152 -26.42  0.001470211    1.890    0.471
        59 -10.5943     24.1730    217.2834   7.9118927941e+01   2.5182592587e+01    0.2482361    0.1087262  63.07   0.00125043    2.133    0.531
        60 -10.3930    233.2457    212.2550   3.5326168967e+01   3.8727516233e-02    0.2451785    0.1251343 -25.76  0.001505719    1.696    0.411
        61 -11.5836     21.6844    211.4355   7.9398610959e+01   2.6620384647e+01    0.3145224    0.1803181 -89.19  0.001826109    1.735    0.424
        62 -11.0195     28.9614    211.4214   7.7727009804e+01   2.5925906880e+01    0.2650346    0.1179487  73.30  0.001262065    2.426    0.588
        63 -11.2159    240.0783    206.9914   3.3429725815e+01  -8.5063837153e-02    0.2504413    0.1292512 -29.89  0.001215564    1.659    0.397
        64 -10.9768    246.9652    205.7297   3.2195365288e+01  -6.8845786282e-01    0.2429025    0.1255741 -29.08  0.001283024    1.615    0.381
        65 -10.5101    250.5287    200.3488   3.0794848291e+01  -4.3919687146e-01    0.2524518   0.08464561 -31.67  0.001281922    2.498    0.600
        66 -11.3699    243.3926    199.5665   3.1713649406e+01   4.4426322498e-01    0.3649375    0.1048919 -34.46  0.001691473    2.990    0.666
        67  -9.8474    229.6174    199.1868   3.3763364240e+01   2.0858920245e+00    0.1628621   0.08591233 -23.48 0.0009487299    1.681    0.405
        68 -10.2757    237.3977    197.2891   3.2237806518e+01   1.4115905268e+00    0.2100433   0.08753335 -30.25  0.001126173    2.067    0.516
        69 -12.0779     16.3659    196.2109   7.9906264835e+01   3.0376575610e+01    0.3455903    0.1424898  46.78  0.001704982    1.921    0.479
        70 -11.4506    246.3698    192.8578   3.0148864322e+01   9.2928206311e-01    0.3636461    0.1545417 -41.90   0.00186935    2.777    0.640
        71 -12.4472      9.0194    177.9740   8.0855451451e+01   3.5163326233e+01    0.3631775    0.2466219 -76.05  0.002151181    1.443    0.307
        72 -11.5873     11.3130    190.7773   8.0881050172e+01   3.2028053473e+01     0.285926    0.1611405  75.95  0.001533223    1.602    0.376
        73 -12.5412     11.6180    184.1800   8.0491414436e+01   3.3505214024e+01    0.4229476    0.1970053  87.95  0.002070599    2.047    0.512
        74 -12.7922      3.1267    128.4368   7.9726085203e+01   4.7990206116e+01    0.6539603    0.2171918  83.91  0.002294682    3.274    0.695
        75 -13.4281      3.6837    154.2046   8.1112193128e+01   4.1338708542e+01    0.8169922    0.2478259 -77.13   0.00319879    2.841    0.648
        76 -13.2728      4.3879    145.7041   8.0427037724e+01   4.3437082649e+01    0.8479396    0.2986626  58.99  0.003338358    2.799    0.643
        77 -11.8959     16.6797    189.2862   7.9476830730e+01   3.1900330376e+01    0.3717184    0.1568421  65.87  0.001702517    2.288    0.563
        78 -10.0834     24.4990    186.5048   7.7341347875e+01   3.1819890894e+01    0.1308824    0.1044079  61.15 -1.038069e-05    1.048    0.046
        79 -10.7246    249.6312    184.5093   2.8245924695e+01   1.5890630577e+00     0.219732    0.1103323 -32.87  0.001187208    1.668    0.401
        80 -11.4721     16.9000    181.3230   7.8986103598e+01   3.3714492595e+01    0.2342927    0.1496264  76.74  0.001321223    1.411    0.291
        81 -10.5015    241.7352    180.5177   2.8694197362e+01   3.0384729225e+00    0.2315266    0.1165345 -41.45  0.001279394    2.146    0.534
        82 -10.3960    248.2046    176.0134   2.6956373625e+01   2.8336269633e+00    0.1697533    0.1153311 -45.50  0.001071604    1.974    0.493
        83 -10.6916    246.4989    167.9509   2.5743687339e+01   4.0923537836e+00    0.1804281   0.09144569 -32.13  0.001034883    1.599    0.375
        84 -12.7409     10.9591    166.8197   7.9749954203e+01   3.7675917748e+01    0.3722271    0.1772823  64.77  0.001763793    1.950    0.487
        85 -10.1505     19.6460    164.3300   7.7170481077e+01   3.7555207636e+01    0.1497096   0.07767722  57.83 0.0007046015    1.779    0.438
        86 -10.8432    246.1008    157.6536   2.3889124309e+01   5.5152123906e+00    0.2092153    0.1284716 -35.94  0.001026717    1.436    0.303
        87  -9.7482    237.7500    158.0047   2.5143917081e+01   6.5825187526e+00    0.1627788   0.08375034 -32.53 0.0008905407    1.594    0.373
        88 -13.4470      4.6221    137.7880   7.9864067149e+01   4.5456370182e+01     1.048736    0.3180161  75.57  0.003295516    4.256    0.765
        89  -9.9954    242.1214    153.1852   2.3597167111e+01   6.6552641084e+00    0.1588674    0.1225669 -36.97 0.0006131358    1.337    0.252
        90 -11.0900    249.7518    150.7120   2.2074613892e+01   5.9676210008e+00    0.2429998    0.1254774 -37.27  0.001173669    1.646    0.392
        91 -11.0662    244.2382    148.5954   2.2418371582e+01   6.9985206028e+00    0.2356089    0.1308659 -32.15  0.001191225    1.440    0.305
        92 -10.1056    234.5871    146.2551   2.3320567330e+01   8.6840167621e+00    0.2389118   0.09598479 -38.15  0.001128068    2.110    0.526
        93 -10.7711    247.7585    144.0746   2.1064252480e+01   7.1359422956e+00    0.3505824    0.1215207 -42.21  0.001530942    2.845    0.649
        94 -13.1997      6.4906    171.4210   8.1203653777e+01   3.6916699040e+01    0.6188443    0.3092175  39.61  0.003215548    1.736    0.424
        95 -12.5654      2.7084    165.7294   8.1955967396e+01   3.8570139567e+01    0.4771422    0.2349929  40.14  0.002456713    1.774    0.436
        96 -10.9515    248.1942    129.9630   1.8220044315e+01   9.0150659594e+00    0.2893282    0.1845804 -40.49  0.001239715    1.418    0.295
        97 -10.8814    243.8317    139.5913   2.0711370813e+01   8.3026502782e+00    0.2441189    0.1409623 -36.57  0.001004143    1.445    0.308
        98 -10.5896    238.6993    140.3288   2.1560157280e+01   8.9349781411e+00    0.2122091   0.09165231 -40.20 0.0009990972    2.041    0.510
        99 -10.8281    242.3712    133.6535   1.9721428282e+01   9.3450222661e+00    0.2471321    0.1209515 -32.18  0.001037805    1.637    0.389
       100 -10.7697    248.8571    135.5226   1.9242357702e+01   8.1548657025e+00    0.2858067    0.1206562 -39.33  0.001145996    1.996    0.499
       101  -9.9572    233.1688    129.1822   2.0059393491e+01   1.1370080109e+01    0.1732937    0.1282318 -43.15  0.000802781    1.348    0.258
       102  -9.7588    220.6197    128.2296   2.1663478964e+01   1.3509488725e+01    0.1889673     0.105086 -27.50 0.0009127338    1.638    0.390
       103 -11.9009    241.9502    125.4805   1.8114757859e+01   1.0562274658e+01    0.3828338    0.1544819 -39.55     0.001509    2.060    0.514
       104 -12.6181    240.3211    109.2365   1.4923880314e+01   1.3123415768e+01    0.5788075    0.1056787 -37.18  0.001924327    3.950    0.747
       105 -11.9068    244.1927    114.6315   1.5584382655e+01   1.1751324727e+01    0.4294936    0.2116887 -57.71  0.001681937    4.251    0.765
       106 -10.6197    249.4922    123.9902   1.6853532190e+01   9.6510338914e+00    0.2465339    0.1723459 -33.59 0.0008793495    1.145    0.127
       107 -12.0042    248.5745    118.5349   1.5855154648e+01   1.0540406274e+01    0.4327702    0.1671054 -34.06  0.001496155    2.013    0.503
       108 -10.3334    227.5143    124.5086   1.9869842310e+01   1.2953933836e+01    0.2310949   0.09566183 -42.82  0.001026953    2.231    0.552
       109 -12.6294      3.9184    116.4675   7.8551269844e+01   5.1105188047e+01    0.4427921    0.1768555 -82.58  0.001825417    2.217    0.549
       110 -10.6055    243.3022    118.9078   1.6585024247e+01   1.1286229220e+01    0.2006584    0.1199589 -41.94 0.0007202011    1.487    0.328
       111 -10.5307    230.6728    116.1148   1.7638853342e+01   1.3689065751e+01    0.2887726    0.1211714 -41.96  0.001077299    2.091    0.522
       112 -10.0501    220.0000    114.9932   1.8875896427e+01   1.5647889887e+01    0.2244806   0.06335582 -35.58 0.0008052658    2.962    0.662
       113 -14.5047    244.8539     99.7336   1.2359864072e+01   1.3729744455e+01     2.095437    0.3933564 -41.55  0.006846873    4.352    0.770
       114 -14.3960    248.8187     80.4497   7.7950690320e+00   1.5703424418e+01     1.896717     0.454884 -33.94  0.007286544    3.077    0.675
       115 -13.2775    248.5277     63.5971   4.1652485536e+00   1.7951492357e+01    0.9621923    0.3891325 -34.34  0.004780203    1.871    0.466
       116 -11.7681    194.3710    246.3822   4.6791648143e+01   2.3744314656e-01    0.3319538    0.1686015 -16.39   0.00189709    2.332    0.571
       117 -11.9067      2.9346    105.1578   7.7940560154e+01   5.4176048188e+01     0.265403    0.1813556 -66.90  0.001439975    1.294    0.227
       118 -11.2644    236.9007     89.9305   1.1135358994e+01   1.6426532622e+01    0.2420081    0.1398472 -39.17  0.001183704    1.381    0.276
       119 -11.1786    238.5177    102.5360   1.3705763920e+01   1.4369697966e+01     0.260991     0.100398 -34.22  0.000886593    2.062    0.515
       120 -12.0688      6.2159     85.6747   7.4407335219e+01   5.9199553512e+01    0.3042136    0.1526025 -65.14  0.001415853    1.660    0.398
       121 -12.5580      2.9404     79.1291   7.5044675126e+01   6.1104079262e+01    0.5218811    0.1717739 -77.24   0.00195383    2.676    0.626
       122 -12.0347    239.4055     72.2266   6.9229345489e+00   1.8421911518e+01    0.2311892    0.1635573 -44.82  0.001018778    1.167    0.143
       123 -12.2203      2.0944     60.3178   7.2543888202e+01   6.6030574357e+01    0.5795041    0.1813819 -76.85  0.002097908    3.043    0.671
       124 -12.4634      2.9690     50.8520   7.0131048888e+01   6.8372607585e+01     0.631048    0.2439599 -63.95  0.002751021    2.054    0.513
       125 -11.5742      7.0314     62.9956   7.0331594960e+01   6.5091169387e+01    0.2348024    0.1293392 -43.66  0.001139065    1.698    0.411
       126 -11.4828    235.9607     95.5077   1.2476609062e+01   1.5798553013e+01    0.2593468     0.138029 -43.77  0.001071135    1.625    0.385
       127 -11.4620      8.1608     44.5175   6.5255791620e+01   6.9626349128e+01    0.2958429    0.1262803 -51.15  0.001330763    1.915    0.478
       128 -12.0798      2.0038     94.4720   7.7273762541e+01   5.7077313219e+01    0.3717944    0.1683218 -77.98  0.001643662    1.888    0.470
       129 -11.9943      2.4187     40.6225   6.7968819201e+01   7.0898765635e+01    0.5057923    0.1926657 -65.47  0.002193743    2.179    0.541
       130 -11.3683      3.0323     33.5472   6.5436537303e+01   7.2535698890e+01    0.2708505    0.1586415 -54.15   0.00131225    1.416    0.294
       131 -11.8625     12.5478     37.8395   6.0189825024e+01   7.0881214543e+01    0.2778239    0.1803224 -32.54  0.001474324    1.488    0.328
       132 -10.7073     44.6167    245.0547   7.6172094012e+01   1.7859771797e+01    0.2954117    0.1409573  46.88  0.001726659    1.608    0.378
       133 -11.3930      1.7423     25.1780   6.3479752803e+01   7.4516414752e+01    0.4247514    0.1607546 -65.34  0.001838942    2.451    0.592
       134 -11.3022    177.6018    244.2121   4.9476279690e+01   2.4083277855e+00    0.2258921    0.1400495  -3.92   0.00143043    1.687    0.407
       135 -11.4792    202.2845    241.5777   4.4779664702e+01  -5.9706442411e-02    0.3159422    0.1072169 -34.46    0.0016039    3.034    0.670
       136 -10.0809    163.6640    244.6799   5.2102990092e+01   3.9828943868e+00    0.1168194   0.07319461   1.19 0.0007049724    1.705    0.414
       137 -12.1654    225.8858    241.4496   4.0878351970e+01  -2.5537149460e+00    0.2846063    0.1522737 -18.58  0.001546962    1.693    0.409
       138 -10.7976    230.4609    103.7360   1.4968388804e+01   1.5546977780e+01    0.2499153   0.09909035 -37.95  0.001121916    2.015    0.504
       139 -12.1525     29.3983    240.6221   7.9083459349e+01   2.0180557174e+01    0.4249402    0.2051957  54.71  0.002127917    1.687    0.407
       140  -9.7035    183.4872    250.4695   4.9231446419e+01   9.5160758919e-01    0.1105031   0.08097707  10.15 0.0006951996    1.032    0.031
