#   1 NUMBER                 Running object number                                     
#   2 MAG_AUTO               Kron-like elliptical aperture magnitude                    [mag]
#   3 X_IMAGE                Object position along x                                    [pixel]
#   4 Y_IMAGE                Object position along y                                    [pixel]
#   5 X_WORLD                Barycenter position along world x axis                     [deg]
#   6 Y_WORLD                Barycenter position along world y axis                     [deg]
#   7 A_WORLD                Profile RMS along major axis (world units)                 [deg]
#   8 B_WORLD                Profile RMS along minor axis (world units)                 [deg]
#   9 THETA_WORLD            Position angle (CCW/world-x)                               [deg]
#  10 FWHM_WORLD             FWHM assuming a gaussian core                              [deg]
#  11 ELONGATION             A_IMAGE/B_IMAGE                                           
#  12 ELLIPTICITY            1 - B_IMAGE/A_IMAGE                                       
         1 -15.5973     69.1804    144.2912   9.8745752610e+01   3.7429925604e+01     5.263918     2.337574  63.58  0.009468314    5.714    0.825
         2 -13.8198    198.4774     43.1224   4.2530898804e+01   3.0624401828e+01    0.9494755    0.8236066 -67.68  0.003037083    1.057    0.054
         3 -14.3630    207.5337     34.4834   3.9423503667e+01   2.9718478643e+01    0.9618234    0.7756993 -15.83  0.001311687    1.719    0.418
         4 -13.9944    232.6744      7.9741   3.1466979739e+01   2.7458101747e+01    0.8472509    0.6587147 -71.48  0.004200583    1.030    0.029
         5 -11.6206     60.9048      7.9850   5.9716332376e+01   6.5745569163e+01    0.2131794     0.154431  39.98 0.0005331068    1.208    0.172
         6 -12.6312     59.3825      2.8921   5.7899065173e+01   6.6512878474e+01    0.4866766     0.171073  52.16  0.002197846    2.606    0.616
         7 -11.6628    203.5602    200.1126   7.6720578899e+01   1.4738180817e+00    0.2847992    0.1703349  19.21  0.001360013    1.982    0.495
         8 -12.5339    139.7612    247.0751   9.7221263283e+01   3.3447998292e+00    0.6346327    0.3652696 -62.46  0.003290232    2.324    0.570
         9 -14.3116     44.6387    195.9830   1.1224047825e+02   2.7839738463e+01     1.903991     1.053427  59.82  0.008583937    1.760    0.432
        10 -18.3266     12.1466    240.9361   1.2232627346e+02   2.1628594470e+01     8.758699     6.524295  85.52   0.03145889    1.179    0.152
        11 -12.4569    112.1072    196.6836   9.6176373440e+01   1.7842302340e+01    0.5750951    0.3668652  -2.55  0.002157664    3.396    0.706
        12 -10.8812     59.7784    197.1974   1.0879648055e+02   2.5643754096e+01    0.2143082    0.1890501  62.86 0.0003133922    1.083    0.076
        13  -9.9192     82.8234    194.8489   1.0296618723e+02   2.2934344986e+01    0.2024556     0.198302 -26.35  0.001061568    1.232    0.188
        14  -9.5603     24.1679    193.7122   1.1677070383e+02   3.0648539627e+01    0.1659877    0.1365576  65.99   0.00107265    1.106    0.096
        15 -11.7928    149.2943    191.4819   8.6601782905e+01   1.2487502653e+01    0.5207897    0.3242348 -74.39   0.00211733    2.656    0.623
        16 -11.3136    146.5875    185.8129   8.6194500421e+01   1.4183416663e+01    0.3085855    0.2086888 -50.98 0.0007240875    1.535    0.349
        17 -12.0314    118.5791    190.9820   9.3715876004e+01   1.8027020703e+01    0.4428875    0.2627293 -84.07  0.001703478    2.850    0.649
        18 -11.4952     43.5538    178.3914   1.1063632850e+02   3.2191789838e+01    0.6410868    0.3692378 -37.25   0.00287357    2.639    0.621
        19 -13.6071     56.9787    184.5360   1.0799846569e+02   2.9033861205e+01    0.8560603    0.7917342  52.28  0.004140606    1.170    0.145
        20 -12.1850    193.6767    196.0493   7.7922083836e+01   3.8205178112e+00     1.151065    0.6111376 -65.03  0.003544563    5.604    0.822
        21 -10.4024     79.6251    182.5756   1.0204923156e+02   2.6337098553e+01     0.295618    0.2020683 -88.99  0.001437692    1.613    0.380
        22 -11.2790     99.4201    180.8762   9.6783163710e+01   2.3620700074e+01    0.2695824    0.2619619 -80.19 0.0005996973    1.086    0.079
        23 -10.0023     37.9713    181.1119   1.1232124912e+02   3.2169408682e+01    0.1954731    0.1670258  86.98 0.0003655652    1.026    0.026
        24  -9.5373     89.0522    179.5052   9.9195400246e+01   2.5627906041e+01    0.2087011    0.1385095  38.37 0.0003914458    1.491    0.329
        25 -14.3519     48.6572    108.0923   9.8160657578e+01   4.9191729865e+01     2.072741     1.390904  79.55  0.009717716    2.091    0.522
        26 -13.6953     71.4422    152.8079   9.9582132338e+01   3.4945731269e+01    0.8057359      0.40876 -59.87  0.001071098    1.834    0.455
        27 -11.9271     83.7672    245.0509   1.0853820979e+02   1.2021743150e+01    0.3351505    0.2068651  54.05  0.001029354    1.410    0.291
        28 -12.1303     74.9543    166.0620   1.0078252878e+02   3.1096972066e+01    0.3245586    0.3023115  17.22  0.001855198    1.259    0.205
        29 -10.8154     49.4962    180.4978   1.0938677152e+02   3.0963370869e+01    0.2582652     0.189246 -88.02  0.000580968    1.262    0.207
        30 -11.1679    186.3980    174.1591   7.5181767403e+01   9.2591674491e+00    0.3575123    0.3288901  81.66  0.001410999    1.320    0.243
        31 -10.7762    240.4793    169.4799   6.4210435939e+01   8.6820227255e-01    0.1301649    0.1108098 -25.22 -1.051889e-05    1.013    0.013
        32  -9.3514     84.2817    173.6783   9.9514825778e+01   2.7795405676e+01    0.1495543    0.1056528  73.77 0.0002423198    1.589    0.371
        33 -10.3876    110.8573    168.0665   9.1650712296e+01   2.4727986506e+01    0.2357528    0.1996539  79.42 0.0004990277    1.257    0.204
        34 -11.0030     33.8005    165.8112   1.1171219318e+02   3.6381163499e+01    0.4566836    0.2448761  52.18   0.00221472    1.895    0.472
        35  -9.5707    120.7302    165.8010   8.8698537477e+01   2.3482315747e+01    0.2068162    0.1713259  73.88 0.0004688483    1.329    0.248
        36 -10.2302     35.8962    158.1817   1.1025221485e+02   3.8061318134e+01    0.2294818    0.1669758  52.26 0.0006830753    1.390    0.280
        37 -10.7847     32.1658    156.3433   1.1104103981e+02   3.8910536512e+01    0.2469356    0.2051143  85.65 0.0009306995    1.081    0.075
        38 -10.2882     64.1087    156.8282   1.0229232262e+02   3.4966431415e+01    0.2748023    0.1953713 -62.99 0.0007264969    1.312    0.238
        39 -12.4529     90.0763    151.2492   9.4075725631e+01   3.2435609840e+01    0.7278017    0.4892301 -24.28  0.003074594    2.241    0.554
        40 -11.4586    134.3129    147.3337   8.1451504978e+01   2.5220235466e+01    0.8632201    0.2617462 -54.27  0.002418341    3.869    0.742
        41 -10.9638    133.0000    140.5074   8.0267329973e+01   2.7072710946e+01    0.5100883    0.2132321 -54.43  0.001729115    2.589    0.614
        42 -12.3755     54.8339    147.0464   1.0337378544e+02   3.8672026563e+01     0.706472    0.6023777 -66.41  0.004023503    1.086    0.079
        43  -9.9882    174.8466    149.1619   7.2367879562e+01   1.6593014508e+01    0.2294726    0.2060641 -79.19 0.0005765352    1.253    0.202
        44  -9.6775    111.0432    149.5108   8.7986291155e+01   2.9185632353e+01    0.2239574    0.1235863  60.06 0.0005383829    2.491    0.599
        45 -11.1730     38.7411    146.2822   1.0789559910e+02   4.0752560900e+01    0.3231185    0.2293641  55.13 0.0007796908    1.473    0.321
        46 -11.0198    103.1195    138.0418   8.7739817691e+01   3.3441356392e+01     0.499341    0.3308924 -22.74  0.002006536    2.307    0.567
        47 -11.2506    105.9896    130.9872   8.5363115783e+01   3.4629190043e+01     0.461587    0.3277651 -57.05  0.001846281    1.393    0.282
        48 -12.3405     90.8695    137.2374   9.1062425710e+01   3.5798124534e+01    0.2958666    0.2680579 -45.26 0.0003891339    1.130    0.115
        49 -12.0747     43.8798    129.7798   1.0382372295e+02   4.4358268685e+01    0.3571135    0.2745427  89.73  0.001111284    1.343    0.255
        50 -11.1684    135.5503    128.5709   7.6836566457e+01   2.9301025917e+01    0.4444951    0.1517565 -51.40  0.001355122    3.102    0.678
        51  -9.6966    160.6459    127.3343   7.0497270977e+01   2.4217489243e+01     0.162661    0.1223387 -87.15 0.0007044518    1.791    0.442
        52 -11.0703     99.4102    124.6876   8.5799652365e+01   3.7371536040e+01    0.2901294    0.2470732 -13.25 0.0003989546    1.405    0.288
        53 -11.1924    117.8269    123.8600   8.0384721558e+01   3.4030605430e+01    0.2444416    0.2188041  -9.77 0.0008168148    1.286    0.222
        54  -9.7832     91.0146    123.9851   8.8118591646e+01   3.9040613894e+01    0.2338979    0.1794429  77.70 0.0005286377    1.612    0.380
        55 -10.9723     32.2838    130.9804   1.0758882665e+02   4.5273694711e+01    0.2281793    0.2057635  -0.38 0.0007434585    1.334    0.250
        56 -10.7016    112.3404    128.8564   8.3090343251e+01   3.3930717641e+01    0.2913844    0.2514717  11.14 0.0007307276    1.365    0.267
        57  -9.9498    108.1853    118.1212   8.1681870722e+01   3.7281101543e+01    0.2179366    0.2025925 -22.73  0.000300053    1.152    0.132
        58 -12.4319     70.7453    170.7342   1.0261541994e+02   3.0546048050e+01    0.5667526    0.3721686 -30.43  0.002539776    2.267    0.559
        59 -10.6031    231.3755    113.7694   5.4169423236e+01   1.2150082058e+01    0.2453832     0.224942 -47.79 0.0007397424    1.059    0.056
        60  -9.8828    135.0000    112.9620   7.3098292838e+01   3.2922342842e+01    0.2625862   0.08781444 -45.79  0.000803811    2.952    0.661
        61 -11.1942     18.8203    110.8224   1.0877420643e+02   5.1444409739e+01    0.1795583    0.1433679  79.85 0.0005453097    1.348    0.258
        62  -9.9786    205.5342    110.2197   5.7500629166e+01   1.7977572883e+01    0.2427388    0.2012164  57.99 0.0006096587    1.302    0.232
        63 -11.6435    115.6734    108.7882   7.7181439391e+01   3.7934736971e+01    0.3755385    0.3074721 -21.18  0.001818325    1.429    0.300
        64 -12.4187     32.0540    107.6368   1.0374741296e+02   5.1081274874e+01    0.4663074    0.2364903 -54.15  0.002216508    1.668    0.400
        65  -9.3069    138.8174    105.6071   7.0218060302e+01   3.3678929758e+01     0.208371    0.1466026  59.57 0.0004022924    1.545    0.353
        66 -10.6908     32.6585     99.9089   1.0203359797e+02   5.2887413630e+01    0.2501409    0.1979445  36.57  0.001462324    1.430    0.301
        67  -9.5283    127.2151     94.6170   7.0201311370e+01   3.8553002684e+01    0.2078896    0.1441401  38.95 0.0004266344    1.518    0.341
        68 -12.9218     82.8061    158.2994   9.7365998133e+01   3.1843087557e+01    0.9392276    0.7182859  80.36 0.0004585373    1.434    0.302
        69 -10.4422    156.0568     88.1088   6.1491203312e+01   3.3280196290e+01    0.3937834    0.2459128 -77.52  0.001477478    2.671    0.626
        70  -9.3885    116.1790     85.3377   7.0528450933e+01   4.2849235565e+01    0.2158459    0.1376758  55.77 0.0009366529    1.694    0.410
        71  -9.1551     74.5267     84.5396   8.3274705459e+01   5.0990071442e+01    0.1412444     0.135118 -30.13 0.0001393656    1.029    0.029
        72  -9.1685    158.3269     83.2897   5.9697559517e+01   3.3652814773e+01    0.1476956    0.1193371  19.32 0.0003021243    1.616    0.381
        73  -8.9132     70.7084     82.2687   8.3944671859e+01   5.2096107882e+01    0.1315197    0.1122092  77.66 0.0001758939    1.509    0.337
        74 -11.5364     13.4890     59.8979   1.0044263233e+02   6.3448439357e+01    0.2456668    0.1949482 -55.05 0.0004239812    1.183    0.155
        75 -13.3552    186.7995     52.0531   4.6332112467e+01   3.2073203465e+01    0.7201325    0.5320542  43.60 0.0007568592    1.632    0.387
        76 -10.3752    168.1531    232.7077   8.9354542253e+01   1.4403604378e+00    0.2364752    0.1838994  38.34 0.0009344005    1.202    0.168
        77 -10.9858    184.3848    212.2031   8.2695211534e+01   2.4409818948e+00    0.1815796    0.1264687 -53.29 0.0009564622    1.727    0.421
        78 -10.3133     31.9593     36.4736   8.4333140508e+01   6.6212598617e+01    0.1721275    0.1113446  25.15 0.0008447589    1.547    0.353
        79 -11.3953     25.2796     35.0439   8.6975304373e+01   6.7184590838e+01    0.2391371    0.1588632  28.09 0.0008552393    1.592    0.372
        80 -11.9606     15.0746     32.8023   9.1231325607e+01   6.8534913953e+01    0.3876835    0.1272491  28.11  0.001785394    3.091    0.676
        81  -9.6773    198.3625     23.7371   3.7903407812e+01   3.3143701225e+01    0.1600172    0.1219437 -25.56 0.0006168896    1.633    0.388
        82 -10.1260     88.6740    210.1053   1.0357316474e+02   1.8572465071e+01    0.2148397    0.1882896  55.96 0.0007738876    1.042    0.040
        83 -16.7375      6.2693    207.7453   1.2164858825e+02   2.9195549353e+01     3.276696      1.09167 -68.57    0.0121957    2.597    0.615
        84 -12.1583    122.5921    199.2968   9.4109135120e+01   1.5491672996e+01    0.3811835    0.2847244 -78.85  0.001938584    1.596    0.373
