#   1 NUMBER                 Running object number                                     
#   2 MAG_AUTO               Kron-like elliptical aperture magnitude                    [mag]
#   3 X_IMAGE                Object position along x                                    [pixel]
#   4 Y_IMAGE                Object position along y                                    [pixel]
#   5 X_WORLD                Barycenter position along world x axis                     [deg]
#   6 Y_WORLD                Barycenter position along world y axis                     [deg]
#   7 A_WORLD                Profile RMS along major axis (world units)                 [deg]
#   8 B_WORLD                Profile RMS along minor axis (world units)                 [deg]
#   9 THETA_WORLD            Position angle (CCW/world-x)                               [deg]
#  10 FWHM_WORLD             FWHM assuming a gaussian core                              [deg]
#  11 ELONGATION             A_IMAGE/B_IMAGE                                           
#  12 ELLIPTICITY            1 - B_IMAGE/A_IMAGE                                       
         1 -12.0573    205.9201     30.8027   4.7583885301e+01   2.9560077346e+01    0.9200776    0.8810533 -53.31  0.005518799    1.102    0.093
         2 -11.0089    212.8448     23.3006   4.4761040347e+01   2.8732395592e+01    0.5659127    0.4048043  38.11  0.001242621    1.751    0.429
         3 -11.8633    221.7463     13.2686   4.1281458621e+01   2.7687495892e+01    0.7422154    0.6229215 -69.76  0.002835423    1.052    0.050
         4  -9.7739      8.7676      5.7591   9.4913568136e+01   7.3154085702e+01    0.3355932   0.06303041 -45.60   0.00131764    3.857    0.741
         5  -9.2247     47.7059      2.4284   7.3446750068e+01   6.9102203419e+01    0.2077179    0.1108358  45.54  0.001124588    2.101    0.524
         6  -7.8498     49.3171    237.3311   1.2387756536e+02   2.0221758068e+01    0.0909307   0.08581367 -57.74 0.0007047081    1.686    0.407
         7  -9.7986    107.5754    249.8969   1.1465133453e+02   1.0100330241e+01    0.4213582    0.1459088  34.17  0.001670524    3.711    0.731
         8 -10.8251    100.4606    249.3953   1.1586911503e+02   1.1231041315e+01    0.5045109    0.3078721  84.05  0.003044848    1.994    0.499
         9 -10.0532     83.1044    249.3716   1.1891803772e+02   1.3711649132e+01    0.2149726    0.1331226  62.16 0.0009815325    1.324    0.245
        10 -11.6740      8.0583    187.3657   1.2818143081e+02   3.4382359926e+01    0.5447598    0.4791639  12.99  0.003321977    1.799    0.444
        11 -14.4622      2.8161    169.5081   1.2810774155e+02   3.8594411176e+01     12.56775    0.8514616 -76.39   0.03014282    9.962    0.900
        12 -10.4157     79.1078    221.6046   1.1718308595e+02   1.9191473054e+01    0.2967207    0.1820856  52.01  0.001788159    1.333    0.250
        13  -9.9858     45.4879    220.8505   1.2340722483e+02   2.3734640434e+01    0.2438089    0.1695283  88.73 0.0005128988    1.247    0.198
        14 -10.7788     48.8042    218.1591   1.2259822974e+02   2.3850370603e+01      0.47931    0.2597975 -87.75   0.00284014    1.752    0.429
        15 -10.9115    114.9624    232.2293   1.1144858989e+02   1.1890560249e+01    0.4396186    0.2597984 -87.66  0.002270979    2.492    0.599
        16 -13.2878      8.9457    207.4829   1.2914922582e+02   3.0245539148e+01     2.083521    0.9966723 -61.26   0.01244668    2.390    0.582
        17 -10.2589     65.4531    241.4241   1.2136876409e+02   1.7451655671e+01      0.32196      0.23687 -57.79   0.00135912    1.844    0.458
        18  -8.6537     74.0112    188.8490   1.1475905712e+02   2.6520226966e+01    0.2526522    0.1413722  78.99  0.001115541    2.113    0.527
        19  -9.4423     53.0118    183.5128   1.1869768719e+02   3.0459271005e+01    0.3655857      0.13308  64.63  0.001224445    4.587    0.782
        20 -10.1704     63.7872    182.2201   1.1622069603e+02   2.9359386611e+01    0.3630117    0.2647511 -30.97  0.001970912    2.303    0.566
        21 -10.0759     68.8662    176.3963   1.1440302835e+02   2.9959067493e+01    0.2934786    0.2296041 -48.03  0.000637849    1.584    0.369
        22  -9.4468     70.0474    241.9925   1.2060833348e+02   1.6744527068e+01    0.3934816    0.1645216  70.59  0.001784337    3.230    0.690
        23  -9.1419     94.7393    168.7539   1.0735320140e+02   2.7804495969e+01    0.2262021   0.09371548  49.30 0.0008880979    2.412    0.585
        24  -9.7089     78.4866    166.1869   1.1081834195e+02   3.0894847225e+01    0.2922318    0.2239113 -56.75 0.0005160052    1.370    0.270
        25 -11.6141     65.7930    162.5349   1.1333361687e+02   3.3519081092e+01     0.458533    0.2789575 -47.37  0.001443913    1.963    0.491
        26 -11.1290     84.6316    159.7991   1.0838391101e+02   3.1438573764e+01    0.6954935    0.4973094 -45.40  0.001831425    1.628    0.386
        27 -10.4817     75.4605    156.5535   1.1013399423e+02   3.3558083351e+01    0.4582117    0.2719173  78.33  0.002079629    2.137    0.532
        28  -8.8716     22.4801    156.5215   1.2282278338e+02   3.9785093550e+01    0.1216516   0.09525416 -88.83 0.0001570642    1.017    0.016
        29  -9.2574     52.9585    238.6848   1.2334117773e+02   1.9531314790e+01    0.1581289    0.1121728  65.46 0.0006864637    1.032    0.031
        30 -10.7992     70.3991    145.1902   1.0964173630e+02   3.6950987788e+01    0.4503629    0.4285409 -43.16  0.001588893    1.256    0.204
        31 -11.0722     67.6756    142.3387   1.0989041709e+02   3.8004328189e+01    0.4832956    0.3699425  45.75  0.001884772    1.367    0.268
        32  -9.3998     99.0402    144.2944   1.0207835472e+02   3.2715109982e+01    0.2527865    0.2047554  28.72  0.001006861    1.428    0.300
        33 -10.7234     86.8552    143.0327   1.0500156119e+02   3.5016955523e+01    0.4301048    0.2835635  40.58 0.0008539891    1.573    0.364
        34 -12.6207     37.7150    210.4681   1.2409125991e+02   2.6665829339e+01     1.013222    0.7315627 -38.87  0.005420852    2.511    0.602
        35  -8.8907    109.9474    132.5118   9.6825002731e+01   3.3525618403e+01    0.2909603    0.2023766 -38.52 0.0007934954    1.610    0.379
        36  -9.4960     58.8153    132.7927   1.1069640432e+02   4.1447695094e+01    0.2269084    0.1501063  74.50  0.001039653    1.736    0.424
        37  -9.0521     32.6576    132.1877   1.1762373683e+02   4.4476425061e+01    0.1894534   0.09127394 -61.88 0.0005402201    1.720    0.418
        38  -8.2416    105.7934    130.8055   9.7557176207e+01   3.4687310946e+01    0.2135827    0.1733268  77.81  0.001071835    1.371    0.271
        39  -9.1534     97.2275    128.7099   9.9416541146e+01   3.6698745836e+01    0.2587942    0.2371201 -30.10 0.0004026479    1.230    0.187
        40  -7.8644    107.2438    120.3640   9.4802628775e+01   3.6860211877e+01    0.1508551    0.1143883 -27.52 0.0003393642    1.607    0.378
        41  -8.4951    168.0484    113.0455   7.7579477165e+01   2.5357656970e+01    0.2595968    0.1978105 -77.44  0.001129067    1.762    0.433
        42 -13.7210     47.0913    200.0981   1.2147061464e+02   2.7664759978e+01      2.87497     1.126866  66.09   0.01230123    3.085    0.676
        43  -8.2263    205.2765    110.5427   6.9245859683e+01   1.7081028764e+01    0.2184605    0.1421692  39.54 0.0009551954    1.657    0.396
        44  -9.5487     33.0000     96.9568   1.1202551085e+02   5.2779155107e+01    0.5163697   0.06158451 -64.42  0.001248156    6.887    0.855
        45 -14.1007      7.1492    241.8280   1.3103153868e+02   2.4074901318e+01     2.021043     1.488171  65.15  0.003122185    1.186    0.157
        46  -8.6738     49.7886    233.7831   1.2355408789e+02   2.0803158340e+01    0.1618332   0.09576856  64.97 0.0004587493    1.334    0.250
        47  -9.9524     12.8856     59.8707   1.1142637796e+02   6.2642460094e+01     0.199652    0.1646276  38.80 0.0008997559    1.565    0.361
        48  -8.7451    145.2131     49.8094   6.3748000926e+01   4.2633496870e+01    0.2544364    0.1555573 -68.50 0.0008623379    2.739    0.635
        49  -9.0607    124.5171    229.0055   1.0924490288e+02   1.0918183762e+01    0.1639566    0.1229221 -63.01 0.0009139111    1.572    0.364
        50  -8.6143    143.5009     40.9858   6.1110573670e+01   4.4366707756e+01     0.268137    0.1970747 -66.90 0.0007764516    1.739    0.425
        51 -11.2575    196.5189     37.3049   5.0639476312e+01   3.1127917059e+01    0.6153622    0.4743929  73.42  0.002304932    1.262    0.208
        52 -10.1645    119.4027    247.9202   1.1232834444e+02   8.6253716924e+00    0.2603716    0.1637455  39.40 0.0008215041    1.383    0.277
        53 -10.4446    114.5394    245.5123   1.1295969033e+02   9.7519969633e+00    0.3091509    0.1918276 -81.91  0.001697123    2.143    0.533
        54 -10.3935     96.7795    225.3796   1.1417494311e+02   1.5905778684e+01    0.3870737    0.1764565  42.65  0.001967242    1.844    0.458
        55  -8.4261     37.4803    223.9142   1.2505742280e+02   2.4093169382e+01    0.1555398   0.09165757 -82.86 0.0005712644    1.530    0.347
        56 -10.4973    126.6377    246.3679   1.1084752444e+02   7.7492404803e+00    0.3366213    0.1791889  52.24  0.001896135    1.598    0.374
        57  -7.9937     71.0000    248.9613   1.2097666727e+02   1.5426769030e+01    0.1541928   0.05866722 -69.45 0.0007971025    2.906    0.656
