#   1 NUMBER                 Running object number                                     
#   2 MAG_AUTO               Kron-like elliptical aperture magnitude                    [mag]
#   3 X_IMAGE                Object position along x                                    [pixel]
#   4 Y_IMAGE                Object position along y                                    [pixel]
#   5 X_WORLD                Barycenter position along world x axis                     [deg]
#   6 Y_WORLD                Barycenter position along world y axis                     [deg]
#   7 A_WORLD                Profile RMS along major axis (world units)                 [deg]
#   8 B_WORLD                Profile RMS along minor axis (world units)                 [deg]
#   9 THETA_WORLD            Position angle (CCW/world-x)                               [deg]
#  10 FWHM_WORLD             FWHM assuming a gaussian core                              [deg]
#  11 ELONGATION             A_IMAGE/B_IMAGE                                           
#  12 ELLIPTICITY            1 - B_IMAGE/A_IMAGE                                       
         1 -15.1763     68.6148    144.3791   1.0629287600e+02   3.7223630423e+01     5.420651     2.653236  68.75   0.01755945    4.232    0.764
         2 -14.3861    215.8193     23.0078   4.0282695083e+01   2.8696007982e+01     1.485414     1.021312  33.34  0.007744429    2.029    0.507
         3 -14.3436    202.5134     36.4974   4.5293811372e+01   3.0234780785e+01     2.120819     1.432463  30.63  0.008598248    2.031    0.508
         4 -11.5141      2.0000      8.9929   9.6233249904e+01   7.3118452227e+01    0.5363615   0.09429502 -50.03  0.002022852    4.318    0.768
         5 -11.6831     55.8240      5.5895   6.7162221786e+01   6.7258024583e+01    0.3326408    0.2146932  57.21   0.00141887    2.303    0.566
         6 -11.7729    240.3693      1.9987   3.3330706100e+01   2.5443483697e+01    0.6233073    0.1957863  75.07  0.002445858    3.032    0.670
         7 -16.3653      9.2132    240.2161   1.2807884782e+02   2.2968274155e+01      3.22069     1.493803 -68.26   0.02041041    2.216    0.549
         8 -11.1188    139.8701    248.8559   1.0496050603e+02   4.5427193215e+00    0.3950678     0.226625 -65.71  0.002117787    2.589    0.614
         9 -11.0087    134.6340    248.4997   1.0592133081e+02   5.3965366222e+00     0.331942    0.1902255 -68.56  0.001759006    2.632    0.620
        10 -15.2915     48.5263    220.9183   1.1988590199e+02   2.2454870587e+01     2.197504     1.847113  63.72   0.01591691    1.132    0.116
        11 -14.8312     85.7044    229.2765   1.1335359445e+02   1.5998373682e+01     2.112967     1.328963  47.27  0.006593832    1.336    0.252
        12 -14.0028      8.3561    189.0172   1.2552783099e+02   3.3228684177e+01     1.832765    0.5240293 -54.06  0.001418267    4.833    0.793
        13 -15.8516      5.1643    169.2609   1.2487619732e+02   3.7827413543e+01     6.620974    0.9550571 -73.17   0.01650004    4.564    0.781
        14 -10.8591    209.5873    199.2072   8.3333087993e+01   1.0827867498e+00    0.2851296    0.2294346 -54.98 0.0009359148    1.759    0.431
        15 -11.4989    193.2952    195.0219   8.5787123633e+01   4.5899053043e+00    0.8537575    0.4573815 -62.26  0.002676942    5.534    0.819
        16 -10.5641    111.9948    197.2228   1.0385368717e+02   1.8437910473e+01    0.2284519    0.1967364 -64.99 0.0006474745    1.228    0.186
        17  -9.8963     82.0264    194.5073   1.1022702794e+02   2.3621073609e+01    0.2032567    0.1202212  40.16  0.001037806    1.608    0.378
        18 -14.5031     31.2086    247.4871   1.2477509534e+02   1.9400379351e+01    0.9816781    0.8530095  17.84  0.006167439    1.839    0.456
        19 -10.8496    146.7662    183.1650   9.3616991928e+01   1.5311642084e+01    0.2884827    0.2477114  66.58  0.001075574    1.309    0.236
        20 -10.3011     99.3718    180.8351   1.0431563150e+02   2.4033926734e+01    0.2754368    0.2251399  18.41 0.0006120123    1.485    0.327
        21 -12.2107     65.8290    177.9996   1.1188619505e+02   2.9558545195e+01    0.4156783     0.288895 -45.29  0.002249008    1.729    0.422
        22 -12.2505     70.7609    172.6416   1.1000743630e+02   3.0145590669e+01    0.3726988     0.332651 -28.79  0.001101492    1.424    0.298
        23 -13.6514     67.3265    158.9129   1.0892048218e+02   3.3863180618e+01    0.5894034    0.4766344 -42.98  0.001837078    1.409    0.290
        24 -12.8146     86.5717    156.3179   1.0353221402e+02   3.1746019042e+01    0.9648013    0.6837245 -57.51  0.001820665    1.352    0.261
        25 -12.8312     79.9269    162.9963   1.0632982197e+02   3.1137159984e+01    0.9550633    0.4239923  48.45 0.0005101495    2.378    0.580
        26  -9.9980    173.1696    244.6223   9.8002604771e+01   4.2062627315e-02    0.2341342    0.1508999 -64.79  0.001229388    2.783    0.641
        27 -10.8856     34.3248    171.7559   1.1854947196e+02   3.4668773809e+01    0.2385689    0.1909291  61.22 0.0008854519    1.200    0.167
        28 -15.5171      9.3943    208.1768   1.2645929251e+02   2.9127676312e+01     2.684258     1.417039 -49.75   0.01317112    2.841    0.648
        29 -11.4457    133.6861    143.6047   8.8738080661e+01   2.6433098356e+01     1.144567    0.2884458 -53.40  0.002758293    5.340    0.813
        30 -11.3846     31.5539    144.6410   1.1626119267e+02   4.1353503015e+01    0.3038643    0.2827244 -40.74  0.002050171    1.300    0.231
        31 -10.8132    101.2840    140.8768   9.6696721659e+01   3.3085830131e+01    0.6226494    0.3608916 -27.12  0.002292127    2.890    0.654
        32 -12.2506     88.3962    141.0128   1.0025376200e+02   3.5168207362e+01     0.289077    0.2518592 -47.91 0.0004859763    1.151    0.131
        33 -10.3787     81.5120    141.4677   1.0223797807e+02   3.6111058489e+01    0.2910847    0.2231957  73.47 0.0005500873    1.478    0.324
        34 -10.1232    174.9415    148.8782   8.0079041617e+01   1.6834497171e+01    0.2745373    0.2319572 -56.33 0.0006818345    1.329    0.248
        35  -9.4756     32.2616    138.0306   1.1524484665e+02   4.2887081453e+01    0.1808641    0.1450015 -80.05 0.0003484372    1.056    0.053
        36 -11.5963     25.8097    137.6430   1.1692849379e+02   4.3553613158e+01    0.3611163    0.1907295  38.65   0.00176345    2.061    0.515
        37  -9.8630     40.1191    134.3132   1.1257923725e+02   4.3037220229e+01     0.226109    0.1288886  13.91 0.0008721838    2.491    0.599
        38 -10.2182    110.5990    131.1122   9.2017888994e+01   3.3767631946e+01     0.354351     0.245599  15.33  0.001280116    1.964    0.491
        39 -10.2380    105.9975    130.9820   9.3262192019e+01   3.4633885278e+01    0.3359188    0.3041193 -68.45  0.001386116    1.110    0.099
        40 -12.1065     44.9354    129.3414   1.1046131426e+02   4.3761949332e+01    0.3410968    0.3347421  23.20  0.002233092    1.211    0.174
        41 -10.5822    135.6805    123.3515   8.3393767260e+01   3.0619350402e+01     0.239871    0.1649419 -61.63  0.001013799    1.720    0.419
        42  -9.9254    160.7602    127.7233   7.8262532319e+01   2.4273870948e+01    0.2577703    0.1246992 -51.90 0.0006083304    2.392    0.582
        43 -12.1101     54.1145    147.4100   1.1067848122e+02   3.8306483642e+01    0.6420767    0.2364668 -59.66  0.002616825    2.299    0.565
        44 -10.8664     98.0458    127.1431   9.4636392004e+01   3.6949325425e+01    0.3150235     0.253806 -17.29  0.001553102    1.506    0.336
        45 -11.3307    141.5487    173.5131   9.3014860122e+01   1.8296980983e+01    0.2781934    0.2561329 -80.17 0.0007149239    1.197    0.164
        46  -9.4506     91.1820    123.9870   9.5905020441e+01   3.8863282836e+01    0.2233349    0.1913226  87.88 0.0005305409    1.309    0.236
        47 -11.1129    136.2435    128.8586   8.4619426299e+01   2.9261881475e+01    0.5797997     0.123235 -47.38  0.001420909    4.716    0.788
        48 -10.2069    120.5764    120.9862   8.6840347087e+01   3.4236879454e+01    0.3117327    0.1861506 -38.13  0.001275833    1.756    0.430
        49 -10.4052    116.9311    125.2541   8.8894028634e+01   3.3956290070e+01    0.3175527    0.2242505 -51.76  0.001410829    1.388    0.280
        50  -9.8196    107.4480    119.7415   9.0208743816e+01   3.7040749072e+01    0.2356166    0.2045711  35.76 0.0003478573    1.204    0.170
        51  -9.6926    168.3667    113.3063   7.2770338316e+01   2.5575449245e+01    0.3121813    0.2289836 -78.93 0.0009851871    2.049    0.512
        52  -9.9093    135.0000    112.9622   8.0870772146e+01   3.3079300983e+01    0.2660055   0.08870631 -44.57 0.0008009778    2.932    0.659
        53 -11.2187    138.5939    171.7976   9.3383196422e+01   1.9216881425e+01    0.3191452     0.262968  74.15  0.001137113    1.438    0.304
        54 -10.0193    205.5194    110.2163   6.4294375843e+01   1.7741236918e+01    0.3147102    0.2160465  40.81 0.0009125365    1.566    0.361
        55  -9.6158    114.4988    110.0218   8.5712468054e+01   3.7956773623e+01    0.2491061    0.1486562 -45.50    0.0010375    1.612    0.379
        56 -10.8599     33.8643    109.0519   1.1041351949e+02   4.9799726119e+01    0.2729479    0.1482847 -49.24  0.001367424    1.629    0.386
        57  -9.9704    134.8337    105.1882   7.8794765246e+01   3.4814717781e+01    0.4196956    0.1139518 -41.15  0.001136195    3.745    0.733
        58 -11.0674    125.2202    173.5941   9.6909597496e+01   2.1272798027e+01    0.3518139    0.1795517  41.10  0.001477376    1.878    0.468
        59 -10.7829     36.0243    101.4442   1.0832447474e+02   5.1441815353e+01    0.2559354    0.1706608 -80.83  0.001348268    1.610    0.379
        60  -9.8037    128.6455     95.4450   7.7679952142e+01   3.8244771047e+01    0.2866021     0.154497  50.12  0.001106774    1.995    0.499
        61 -10.4921     41.7161     91.9799   1.0443959086e+02   5.3155039514e+01    0.2043155    0.1902483 -11.77 0.0004283116    1.194    0.163
        62 -10.3727     53.0577     90.6431   1.0018861679e+02   5.2244955154e+01     0.289526    0.1766786 -48.75  0.001370757    1.402    0.287
        63  -9.1903     74.8358     84.8662   9.1113811709e+01   5.0645682839e+01    0.1849789     0.170583 -82.77 0.0003975197    1.298    0.230
        64  -9.0971    115.3985     84.2317   7.8036542303e+01   4.3410661515e+01    0.2247213    0.1415746 -52.05 0.0009451403    1.747    0.427
        65  -9.2842    159.2716     81.3618   6.5844312094e+01   3.3963089399e+01    0.1595487    0.1223292   4.63 0.0006999774    1.654    0.396
        66  -9.0030     69.5033     81.4791   9.1975765616e+01   5.2191080547e+01    0.1423497     0.128942 -38.65 0.0001672122    1.052    0.050
        67  -9.1183    105.9937     76.5106   7.8395921574e+01   4.6908500631e+01    0.2016982    0.1360035  69.02 0.0008086496    2.420    0.587
        68 -10.5606    113.2199    207.5040   1.0504328132e+02   1.6130654376e+01      0.21868    0.1801447 -69.85  0.000556016    1.310    0.237
        69  -9.1599     51.9661     64.2761   9.3232353879e+01   5.8243673310e+01    0.1788067    0.1609395 -15.96 0.0004010204    1.100    0.091
        70 -10.3573     13.5247     59.8442   1.0756220789e+02   6.2674383134e+01    0.1919429    0.1765747 -56.82 0.0004276061    1.226    0.185
        71 -13.6791     39.7220    205.3752   1.2038588079e+02   2.6653781856e+01    0.6022101    0.5071425 -64.24  0.001275048    1.401    0.286
        72 -12.2065    194.2872     42.4280   4.8024496546e+01   3.1472561218e+01    0.5499608    0.5057308  48.92  0.001215651    1.163    0.140
        73 -10.0995    198.7729    222.8061   8.9661159981e+01  -7.8140155771e-01    0.1894325    0.1490222  12.37 0.0005174824    1.122    0.109
        74 -11.1507    140.9861     46.3090   5.8840414639e+01   4.4246343185e+01    0.3515022    0.2720242 -82.96 0.0009154078    1.693    0.409
        75 -10.3467    144.1862     41.1497   5.6407642952e+01   4.4186767592e+01    0.2471074    0.2189024 -72.41  0.000341519    1.281    0.220
        76 -15.9254     64.2731    247.5067   1.1900571338e+02   1.5504961081e+01     9.230433     2.869512  28.62  0.003992538   10.224    0.902
        77 -11.0639      1.9979     23.9177   1.0228130468e+02   7.0522382902e+01    0.3540203   0.08413739 -56.11  0.001442077    3.402    0.706
        78  -9.7712    189.6842     14.9684   4.1072731799e+01   3.5894458899e+01    0.1835845    0.1670304 -56.38 0.0005942944    1.117    0.104
        79 -15.0943     49.8554    194.6689   1.1732867347e+02   2.7792166819e+01     1.825829     1.318804  59.45   0.01140166    1.235    0.191
        80  -8.7357    135.3515     12.6794   4.8365385374e+01   4.9657345862e+01    0.1395117     0.101224 -69.08  0.000704787    1.746    0.427
        81  -9.5750     12.2253     52.5933   1.0624957401e+02   6.4296170789e+01    0.1552441    0.1010738 -15.33 0.0006378134    1.614    0.381
        82  -8.6982    130.7017    213.3032   1.0209996631e+02   1.2150515986e+01    0.1321191   0.09622151  66.09 0.0002311985    1.584    0.369
