#   1 NUMBER                 Running object number                                     
#   2 MAG_AUTO               Kron-like elliptical aperture magnitude                    [mag]
#   3 X_IMAGE                Object position along x                                    [pixel]
#   4 Y_IMAGE                Object position along y                                    [pixel]
#   5 X_WORLD                Barycenter position along world x axis                     [deg]
#   6 Y_WORLD                Barycenter position along world y axis                     [deg]
#   7 A_WORLD                Profile RMS along major axis (world units)                 [deg]
#   8 B_WORLD                Profile RMS along minor axis (world units)                 [deg]
#   9 THETA_WORLD            Position angle (CCW/world-x)                               [deg]
#  10 FWHM_WORLD             FWHM assuming a gaussian core                              [deg]
#  11 ELONGATION             A_IMAGE/B_IMAGE                                           
#  12 ELLIPTICITY            1 - B_IMAGE/A_IMAGE                                       
         1 -13.8158      2.2299     89.0346   1.4345750039e+02   5.6266168504e+01     4.305579    0.6916246 -74.77   0.01020121    9.626    0.896
         2 -14.2353      6.4115    145.3417   1.4824634354e+02   4.3840876529e+01     3.480549     1.117275 -87.31   0.01493674    3.296    0.697
         3 -13.6449    191.5253     25.5858   7.3813198383e+01   3.4096014911e+01     1.709529     1.528251  43.95  0.007176957    1.150    0.131
         4 -13.5020    207.3112      5.6072   6.6053064005e+01   3.2125840876e+01     1.388181    0.9303616  50.03  0.007142717    1.552    0.356
         5 -13.4237      2.2991     10.5486   1.2481683581e+02   7.2091978879e+01     1.851711    0.4274142 -56.79    0.0067873    4.813    0.792
         6 -10.0081     81.6957    249.4116   1.4267900767e+02   1.5996429925e+01    0.2088178   0.07143676  47.14  0.001133942    2.143    0.533
         7  -9.8239    249.1332    249.8728   1.1558704245e+02  -9.1802461445e+00    0.2196406    0.1151499  11.23  0.001280389    2.212    0.548
         8 -11.2865    174.3807    249.6524   1.2758059505e+02   2.2010346143e+00    0.3548228    0.1927217  55.26  0.002065667    1.907    0.476
         9 -11.7524    124.2197    249.7277   1.3585840911e+02   9.9331619232e+00    0.6102751    0.1711419  44.49  0.002814392    2.673    0.626
        10 -13.0379    140.4885    248.2560   1.3302837411e+02   7.6714675497e+00    0.7602352    0.4203702  51.95  0.004758616    1.451    0.311
        11  -9.3041     89.0692    250.4669   1.4159462246e+02   1.4846538745e+01    0.1618441   0.07934104  47.18  0.001019544    1.560    0.359
        12  -9.1949     63.9346    250.5743   1.4552459641e+02   1.8102484208e+01    0.1497595   0.07698144  46.77 0.0006282736    1.559    0.358
        13 -11.0139     29.9112    246.6730   1.5041445498e+02   2.2661496147e+01    0.4481692    0.2389112 -64.52  0.003229557    2.311    0.567
        14 -10.2187     37.4273    213.3330   1.4732907824e+02   2.7469614140e+01    0.4775873    0.2684372  55.45   0.00329298    1.420    0.296
        15 -12.8681     59.2240    212.9373   1.4355783010e+02   2.4976050340e+01     2.384652    0.6322411  60.22    0.0070189    7.551    0.868
        16 -12.4770     51.9486    218.8416   1.4526208718e+02   2.4812352909e+01    0.9705039    0.6134917  67.59  0.006731751    1.231    0.187
        17 -12.8400     38.7459    237.7846   1.4861579584e+02   2.3121465993e+01    0.2624813    0.2016192 -88.69 0.0007712543    1.334    0.250
        18 -13.9032     43.9519    230.5524   1.4736791754e+02   2.3731869297e+01     0.780677    0.4313973  55.56  0.003331061    1.374    0.272
        19 -11.6400    179.2908    245.7317   1.2627801045e+02   1.9016425888e+00    0.2985564    0.1945935  43.36  0.001991481    1.179    0.152
        20 -10.7069    238.0919    246.3193   1.1678819770e+02  -7.2559783707e+00     0.188072     0.104168  27.65 0.0008269193    1.459    0.315
        21 -11.1460    199.2335    245.3083   1.2292037156e+02  -1.2066715481e+00    0.2886742    0.1713555  21.13  0.001715769    1.917    0.478
        22  -9.4703     85.0048    246.4912   1.4192825870e+02   1.5999771724e+01    0.1556903   0.05981926  58.19 0.0008076142    2.366    0.577
        23  -9.2143     66.5946    243.0653   1.4460151072e+02   1.8942045593e+01     0.168326    0.1040277  62.89  0.000678542    1.207    0.171
        24 -11.9544    183.0638    235.1777   1.2425213275e+02   2.6044157153e+00     0.608172    0.3900529 -82.27  0.002689835    4.704    0.787
        25 -12.2215    119.6553    231.0480   1.3471035242e+02   1.3395626612e+01    0.5156289    0.2990624  65.44  0.002474105    1.811    0.448
        26 -14.1798    106.2878    230.4007   1.3695582381e+02   1.5516154761e+01     4.517585    0.1320703  45.30   0.01116512    8.954    0.888
        27  -9.4192      2.2496    249.7527   1.5447535813e+02   2.4966964466e+01     0.166545    0.0977788  68.80 0.0007539551    1.092    0.084
        28  -9.7308      3.8646    227.6881   1.5341409496e+02   2.8376398961e+01    0.2175684    0.1329093  52.26  0.001768449    1.411    0.291
        29  -9.8738     19.2591    247.5363   1.5200053257e+02   2.3643079925e+01    0.2529142    0.1831224  47.89   0.00192099    1.541    0.351
        30  -9.3877     27.8232    221.9734   1.4943500022e+02   2.6981017307e+01    0.1517299    0.1257745  41.65 0.0007787783    1.658    0.397
        31  -9.7552     83.6911    219.0437   1.3979532674e+02   2.0665762689e+01    0.3161854    0.1482441  63.25  0.001667877    2.166    0.538
        32  -9.4721     32.9968    218.4873   1.4839269117e+02   2.7037622822e+01     0.171675    0.1247948 -73.43  0.001185448    1.516    0.341
        33  -8.2256    221.6512    213.3386   1.1432098137e+02  -1.1053121392e+00    0.1116353   0.09496903  69.76 0.0007046231    1.788    0.441
        34 -11.3272      2.2004    203.7452   1.5262268087e+02   3.2706219119e+01     0.778707    0.1290186 -74.31   0.00338892    4.358    0.771
        35 -10.2169     21.0744    211.3040   1.4992725099e+02   2.9561964870e+01    0.2571393    0.1825202  46.55  0.001459877    1.508    0.337
        36 -12.5163     11.1711    206.8510   1.5131212109e+02   3.1327865733e+01    0.5700113    0.4127388  48.82  0.003436043    1.473    0.321
        37 -11.5942     64.0783    202.3940   1.4178538209e+02   2.6300732093e+01    0.2191481    0.1900941 -81.60 0.0005385742    1.309    0.236
        38  -9.3837    194.5413    198.0571   1.1652373453e+02   5.6742844531e+00    0.3108347    0.1948708 -61.08  0.001437293    2.744    0.636
        39  -9.2430    191.3448    192.0111   1.1606390991e+02   7.1548949153e+00    0.3974881    0.2264758 -67.21  0.001362702    5.328    0.812
        40  -9.7753     10.8672    195.8734   1.5077198714e+02   3.3377241257e+01    0.1440322    0.1166492  85.42  0.000777211    1.252    0.201
        41 -11.8962     70.1180    193.6594   1.3981687659e+02   2.7174180258e+01    0.2320902    0.1962813 -80.21 0.0004276861    1.242    0.195
        42 -10.2693     30.6469    188.4522   1.4677916071e+02   3.2862309597e+01    0.6308507     0.198634  68.44  0.002176646    5.686    0.824
        43 -10.8761      6.2401    189.0192   1.5118895228e+02   3.5085366237e+01    0.2896031    0.1935897 -82.87  0.002224469    1.257    0.205
        44 -10.9921      2.1850    182.0124   1.5151358148e+02   3.6773179245e+01    0.3381366    0.1489482  80.72  0.001693145    1.906    0.475
        45 -13.2847     66.8687    178.5184   1.3885240217e+02   3.0603899799e+01    0.4527525    0.2614048 -47.72  0.001778295    2.366    0.577
        46 -11.0443    161.3728    248.5820   1.2960344703e+02   4.3785100807e+00    0.2713099    0.1717511  68.63  0.001619913    2.178    0.541
        47 -12.0222    143.8787    243.2717   1.3191550293e+02   7.8298786330e+00    0.3634502    0.2841761 -68.25  0.002448834    1.622    0.384
        48 -10.1143     98.7905    154.2055   1.2865768592e+02   3.1043539748e+01    0.2890382    0.2523165 -60.13 0.0007484166    1.202    0.168
        49  -9.2912    101.8522    149.8229   1.2722113681e+02   3.1482413044e+01    0.1878406    0.1802686 -52.46 0.0003904412    1.212    0.175
        50 -11.9729     87.8213    153.4670   1.3103182620e+02   3.2915603529e+01    0.2632502    0.2384078 -46.54 0.0006792864    1.334    0.250
        51 -11.7670     87.0259    170.5425   1.3368383850e+02   2.9427597791e+01    0.5878984    0.4989825 -53.16  0.003767394    1.397    0.284
        52  -8.9095    134.9889    150.1719   1.1975782815e+02   2.5474846031e+01     0.241422    0.1587523  72.07  0.001079672    2.036    0.509
        53 -12.3757     66.9867    143.4619   1.3434175177e+02   3.8049323292e+01    0.6547551    0.4057753  67.90  0.003476358    1.773    0.436
        54  -9.8419    110.0192    138.5047   1.2323174161e+02   3.2535236088e+01    0.4033318     0.270832 -23.76  0.001580123    2.518    0.603
        55 -10.7804     79.9096    180.2204   1.3639964151e+02   2.8483478735e+01    0.2110624     0.178996  88.39 0.0003045925    1.084    0.077
        56  -9.2958     86.6184    136.4455   1.2849231418e+02   3.6827264890e+01     0.224539    0.1601427  65.12 0.0006133977    1.487    0.328
        57 -10.5490     97.6289    135.8108   1.2569679113e+02   3.5227853200e+01     0.232044    0.2227935 -56.01  0.000445429    1.163    0.140
        58  -8.9474    134.0000    145.0216   1.1895495848e+02   2.6719612283e+01    0.2305882   0.08069845 -49.18 0.0007995036    2.922    0.658
        59  -8.8988    116.3512    130.3048   1.2004295053e+02   3.3172513161e+01    0.2180942    0.1708778 -17.90  0.001080982    1.777    0.437
        60  -9.2265    107.1619    124.7374   1.2112063074e+02   3.6045854645e+01     0.178982    0.1749288  48.38 0.0003353603    1.124    0.111
        61  -9.6780     46.6218    124.1832   1.3645899474e+02   4.4805068666e+01    0.1879371   0.09342523 -58.44 0.0009563612    1.725    0.420
        62 -11.1008      3.2776    153.1217   1.4948565725e+02   4.2459077594e+01    0.5184081    0.2091007 -74.58  0.002468015    1.882    0.469
        63 -10.5710     24.0003    114.9746   1.4096564592e+02   4.9037422320e+01    0.1810131    0.1438811 -78.52 0.0003811282    1.021    0.020
        64  -9.9627    168.2155    113.3216   1.0393905418e+02   2.5832768187e+01    0.2877532    0.2538408 -75.94 0.0008827948    1.295    0.228
        65  -8.9230    203.3603    111.7722   9.6426025947e+01   1.7968283525e+01    0.2162807    0.1399989 -22.76 0.0007568462    1.688    0.408
        66  -9.6544    156.1983     75.2043   9.5870921055e+01   3.5826336798e+01    0.2138726    0.1853836 -70.11 0.0004687081    1.318    0.241
        67 -12.7180      5.2340    170.0414   1.5024356784e+02   3.8869121611e+01    0.9999607    0.5110255  89.83  0.006448268    1.530    0.346
        68 -11.3888      9.8969     63.7859   1.3686135599e+02   6.1268379133e+01     0.351519    0.1727079  42.75  0.001949914    2.720    0.632
        69 -10.0071     27.4008     60.1834   1.2986116356e+02   6.0792184637e+01     0.286015    0.1685855  43.37 0.0009669909    2.228    0.551
        70 -13.1811    133.3803    246.5073   1.3402143047e+02   9.0029536077e+00    0.8460244    0.3838426  49.80  0.004804762    1.723    0.420
        71 -10.5468     99.7607    249.2042   1.3978299294e+02   1.3556866827e+01    0.2445386    0.1125682  54.90  0.001455583    1.731    0.422
