#   1 NUMBER                 Running object number                                     
#   2 MAG_AUTO               Kron-like elliptical aperture magnitude                    [mag]
#   3 X_IMAGE                Object position along x                                    [pixel]
#   4 Y_IMAGE                Object position along y                                    [pixel]
#   5 X_WORLD                Barycenter position along world x axis                     [deg]
#   6 Y_WORLD                Barycenter position along world y axis                     [deg]
#   7 A_WORLD                Profile RMS along major axis (world units)                 [deg]
#   8 B_WORLD                Profile RMS along minor axis (world units)                 [deg]
#   9 THETA_WORLD            Position angle (CCW/world-x)                               [deg]
#  10 FWHM_WORLD             FWHM assuming a gaussian core                              [deg]
#  11 ELONGATION             A_IMAGE/B_IMAGE                                           
#  12 ELLIPTICITY            1 - B_IMAGE/A_IMAGE                                       
         1 -12.2634    125.4641     27.8819   4.3513681643e+01   4.9530338387e+01    0.5552532    0.5483834  16.77  0.003698463    1.148    0.129
         2 -10.9961    109.2488     42.4137   5.1929758145e+01   5.1494034761e+01    0.9318841    0.3134102 -35.61   0.00349913    3.147    0.682
         3 -12.5568    119.5334     37.0862   4.7703237709e+01   4.9832684925e+01    0.7671619    0.5097248 -60.58  0.002434762    1.997    0.499
         4 -13.1745    163.6808     19.1394   3.4931179312e+01   4.1529255867e+01    0.4225079    0.2818851  40.69  0.002360338    1.862    0.463
         5 -11.5388    105.9379     20.5785   4.5234552165e+01   5.4779912296e+01    0.4213939    0.3518999 -63.67  0.001709005    1.469    0.319
         6 -11.8414     27.2869     27.6099   7.6677923658e+01   6.8376812456e+01    0.5491513    0.3871688 -12.54  0.002748666    1.215    0.177
         7 -11.7988     36.0357     18.2879   6.8014649857e+01   6.8503072434e+01    0.7192466     0.331079 -28.93  0.003689792    2.210    0.548
         8 -12.2903     20.1452     21.9263   7.7963471664e+01   7.0050023817e+01    0.5837135    0.2374317 -36.99  0.002509372    2.283    0.562
         9 -10.7211     13.1286      9.3574   7.5929211579e+01   7.2570283319e+01    0.2941075    0.1866131 -25.64  0.001143167    1.413    0.292
        10 -12.7241     16.8573     13.3188   7.5732277263e+01   7.1630791944e+01    0.7808911    0.3719535  -7.50 0.0006693169    3.052    0.672
        11 -12.0322     23.0171     11.2601   7.1249214140e+01   7.1159254754e+01    0.4434997    0.2646785  14.10  0.001922479    1.480    0.324
        12 -11.8717    122.3886      6.4635   3.7343242326e+01   5.2288242761e+01    0.7735262    0.2196948 -24.76  0.003063116    4.037    0.752
        13 -11.5916    146.1861     23.8402   3.8664327142e+01   4.5109980511e+01    0.7455404    0.2487354  49.03  0.002865319    3.064    0.674
        14 -11.0417    147.9550     16.4831   3.6343778030e+01   4.5448168104e+01    0.5754778     0.221114  43.24  0.002221372    3.510    0.715
        15 -12.1070    136.1625     22.9055   4.0028629011e+01   4.7559926183e+01    0.7560285    0.3338802  54.00  0.003490939    1.953    0.488
        16 -10.2262    120.4525     11.5340   3.9279375718e+01   5.2306863147e+01    0.2274462    0.1954557 -74.57 0.0005233194    1.291    0.226
        17 -11.4060    134.4300     15.4052   3.8091085134e+01   4.8709389273e+01    0.5096357    0.3245236  61.76   0.00266186    1.320    0.243
        18 -12.1682    127.4797     15.2005   3.9190495368e+01   5.0347858738e+01    0.5748695     0.382145 -37.40  0.002177491    1.706    0.414
        19 -10.7380     86.8457      7.5218   4.5014106060e+01   6.0167497838e+01    0.5744348    0.2720677  58.42  0.002849871    1.775    0.437
        20 -11.4484     90.3263     20.0898   4.8914982147e+01   5.8272745218e+01     0.600836    0.3213397 -31.93  0.003077608    2.116    0.527
        21 -11.6118     86.0626     14.0339   4.7741031947e+01   5.9769544596e+01    0.4319866    0.2852474  -7.26  0.001828696    1.791    0.442
        22 -11.9289     68.1125     18.1766   5.4866279557e+01   6.3023685529e+01    0.4668683    0.3893963  42.14  0.002034288    1.167    0.143
        23 -10.4732     47.0121     19.4094   6.3526064948e+01   6.6668913749e+01    0.2780863    0.1941616 -14.57  0.001443494    1.409    0.290
        24 -12.1459    228.3202     15.8524   2.7956930280e+01   2.7956062457e+01     0.366798    0.2123604 -76.93 0.0009414406    1.526    0.345
        25 -11.7180    192.0408      8.8892   2.9457884390e+01   3.6211161568e+01    0.5194027    0.3148853 -12.30  0.002783923    2.818    0.645
        26 -10.0465    188.7131      4.3223   2.8745246953e+01   3.7379639839e+01    0.1898924    0.1350479 -73.94 0.0004468542    1.209    0.173
        27 -11.9260    244.1889     14.0547   2.6540367776e+01   2.5129515003e+01    0.2769568   0.09742449 -48.57  0.001449476    2.166    0.538
        28 -12.3170    104.7384     12.9819   4.2854188200e+01   5.5765490282e+01    0.4169945    0.3366586 -13.46  0.001271215    1.454    0.312
        29 -11.5035    211.3574     10.5593   2.8195745955e+01   3.1948534477e+01    0.3828064    0.2928215   5.42  0.002395635    2.410    0.585
        30 -12.1478     48.7290     12.9706   5.9811677949e+01   6.7108847287e+01    0.5485143    0.2420073  45.10  0.002740662    2.025    0.506
        31 -10.3037      6.0740     12.5298   8.1831702412e+01   7.2832931113e+01    0.3296937    0.1350055  27.46  0.001707422    2.338    0.572
        32  -9.6488      5.4363      9.4593   8.0727136241e+01   7.3327477409e+01    0.1586315    0.1111243  -9.72 0.0007535811    1.062    0.059
        33 -10.6611    163.0354      8.7949   3.2374238995e+01   4.2695413343e+01    0.3730876    0.1951669 -22.98   0.00194167    2.456    0.593
        34 -11.7029    247.8811      5.2708   2.4772965016e+01   2.5412092458e+01    0.2865352    0.2193939  66.96  0.002062873    1.635    0.388
        35 -10.2978    168.7233      9.8001   3.1985290481e+01   4.1305131639e+01    0.2968459    0.1466111  54.33  0.001527537    2.012    0.503
        36 -10.1090    145.3076      9.6412   3.4819186366e+01   4.6705778571e+01     0.213118    0.1771971  42.49 0.0005758315    1.346    0.257
        37 -11.2687    232.9769      7.4903   2.6068464104e+01   2.7963820428e+01    0.2102675    0.1435524 -52.05  0.001034739    1.284    0.221
        38  -9.4817      1.0000      7.8507   8.2794952587e+01   7.3942006879e+01    0.1634784   0.05428952 -43.69 0.0006763121    2.840    0.648
        39 -11.2086    183.9855      5.6076   2.9456490354e+01   3.8291170441e+01    0.3535852    0.1990031 -57.91  0.001515365    1.700    0.412
        40 -10.7826    157.8914      6.8869   3.2484789019e+01   4.4047318400e+01    0.2141789    0.1551165  61.62 0.0007613014    1.271    0.213
        41 -10.6694    157.0940      2.1989   3.1369923886e+01   4.4638109709e+01    0.2832189    0.2452432  88.34  0.001986644    1.078    0.072
        42  -9.7162     78.0521      7.4803   4.7330065015e+01   6.2027606682e+01    0.3201569    0.1861126  70.42  0.001340005    2.150    0.535
        43 -10.1056     76.7704      3.3933   4.6011729141e+01   6.2620597334e+01    0.2699071    0.1710778  39.13  0.000737588    1.319    0.242
        44 -10.2565     72.8420      3.1528   4.7012617561e+01   6.3447163960e+01    0.2636773    0.1863735  31.49 0.0009715597    1.244    0.196
        45  -9.8855     62.8833      6.8255   5.1699416865e+01   6.5122664920e+01    0.2027799    0.1328551  30.24  0.001224373    1.312    0.238
        46 -11.7187    237.2389      4.3378   2.5229484041e+01   2.7484669500e+01    0.3062269    0.1504066 -51.87  0.001917934    1.623    0.384
        47 -11.1736    241.9489      3.0235   2.4718872597e+01   2.6740092643e+01    0.2025017     0.135209  79.75 0.0009397201    1.422    0.297
        48 -11.1152    176.8512      5.8972   3.0201782446e+01   3.9844256880e+01    0.3308787    0.1704141  79.67 0.0009526404    1.696    0.410
        49 -11.1617    105.3673      1.7650   3.8839691516e+01   5.6529424755e+01     0.374011    0.1687939  74.21  0.001056653    2.369    0.578
        50 -11.6618    115.7871      2.5012   3.7199447763e+01   5.4112614997e+01    0.4111561    0.3450176  61.24  0.002778359    1.031    0.030
        51 -10.7250    137.6977      4.3385   3.4375513462e+01   4.8923524419e+01    0.2140619     0.181642  85.77 0.0004561879    1.093    0.085
        52 -11.6752    134.0064      2.4832   3.4357869759e+01   4.9925339820e+01    0.4217586    0.2058799  61.85  0.001912901    1.636    0.389
        53 -10.1855     41.6429      3.8748   5.8386313652e+01   6.9213041914e+01    0.3431557    0.1764606   0.97  0.001723385    2.525    0.604
        54 -10.7077    218.7690      3.4185   2.6240976913e+01   3.1177452486e+01    0.2227283    0.1743958 -49.92  0.001320162    1.316    0.240
        55 -11.1525    223.8344      2.1540   2.5663452123e+01   3.0298072491e+01    0.2353342    0.1651763  84.18  0.000924675    1.256    0.204
        56 -10.4704    207.3543      2.7206   2.6911546409e+01   3.3574581171e+01    0.2312415    0.1501033  88.88 0.0006928739    1.274    0.215
        57 -10.4469    204.4995      1.4787   2.6870051949e+01   3.4289001701e+01    0.2338039    0.1142595  73.29  0.001050907    1.769    0.435
        58 -11.0762      2.4754      1.9430   7.8744695978e+01   7.4614226889e+01    0.2888919    0.1524849   8.07  0.001544939    1.704    0.413
        59  -9.9653     13.0936      1.7177   7.1891034085e+01   7.3522700062e+01    0.2563377    0.1074208  27.62  0.001386219    2.081    0.520
        60  -9.7091    152.3018      1.3927   3.1708835965e+01   4.5801221234e+01    0.2305718   0.09274353  67.76 0.0007515036    1.981    0.495
        61 -11.4455    142.2796      3.7258   3.3582209892e+01   4.7914922680e+01    0.6727951    0.2045621  75.38  0.002463505    3.497    0.714
        62  -9.4320     82.0524      1.1449   4.3718418191e+01   6.1680863069e+01    0.1648215   0.06953613  58.48  0.000363135    1.919    0.479
        63 -13.0365    103.8596    122.4982   7.7741137712e+01   3.7160939852e+01    0.3706264    0.3463628 -12.38 0.0005511415    1.075    0.070
        64  -9.6309    249.5067    250.4770   7.0439596422e+01  -1.2203934834e+01    0.1175845   0.08249926  -9.12 0.0004515941    1.027    0.026
        65  -9.1155     84.9969    123.2177   8.3882538041e+01   4.0362907306e+01    0.1999095    0.1280593  32.87 0.0003196246    1.614    0.380
        66  -9.2395     77.4286    123.4318   8.6427209548e+01   4.1543763111e+01    0.1525347    0.1460891 -43.03  4.68879e-05    1.034    0.033
        67  -9.9672     49.5585    122.9891   9.5856775316e+01   4.5519105689e+01    0.2731598    0.2014599  -6.57 0.0006928027    1.589    0.371
        68  -9.3431     19.1661    122.4143   1.0631989849e+02   4.8585965010e+01    0.1688126    0.1238913  39.50 0.0003573186    1.566    0.361
        69 -10.5223     45.0291    120.0098   9.6839117267e+01   4.6809335659e+01    0.3343432    0.2633069  75.53  0.001022932    1.574    0.365
        70 -10.3613     43.5187    116.4842   9.6655335946e+01   4.7881272026e+01    0.2992687    0.2203472  16.15  0.001265849    1.494    0.331
        71 -11.3335      4.1005    105.2108   1.0900634944e+02   5.3886359182e+01    0.4075296     0.333175 -32.39  0.002007701    1.216    0.178
        72 -10.4559      6.9836    114.4851   1.0935375262e+02   5.1408795160e+01    0.2601287    0.2274292  41.07  0.001067138    1.358    0.264
        73 -12.0197      2.3780    111.7085   1.1057425244e+02   5.2353312943e+01    0.4306373    0.2672782 -81.45 0.0007536999    1.562    0.360
        74  -9.7519     79.1373    114.5877   8.3697406648e+01   4.3474471949e+01    0.2688882    0.1767844 -45.48  0.001195707    1.446    0.308
        75  -9.5459     67.4380    114.7811   8.7770612085e+01   4.5242154524e+01    0.2818428    0.1640654  52.40  0.001119558    2.298    0.565
        76  -9.9243     18.1201    106.1235   1.0396468989e+02   5.2803385966e+01    0.2130959    0.1788035 -43.29 0.0009514493    1.066    0.062
        77 -10.8728     35.5279    103.5178   9.6854328958e+01   5.1976731091e+01    0.7874143    0.2291766  19.30  0.002495705    4.267    0.766
        78 -12.0650     17.4094    100.9170   1.0327238215e+02   5.4146033228e+01    0.7406823     0.281725  25.21 0.0005699544    2.809    0.644
        79 -10.9245     21.5543    114.5228   1.0418846468e+02   5.0429271926e+01    0.9075085    0.3480535   2.10  0.003022586    4.426    0.774
        80 -11.1103     28.0518    113.0903   1.0158189132e+02   5.0264046818e+01     0.509219    0.2376355  10.16  0.001918895    2.711    0.631
        81 -10.6645     23.6732    109.0871   1.0244246727e+02   5.1640721349e+01    0.3360076    0.3083667  40.83  0.001541527    1.274    0.215
        82 -10.8224     27.0154    106.5182   1.0070378635e+02   5.2010732701e+01    0.4263122    0.3229028  72.57  0.001906009    1.706    0.414
        83  -9.9641     48.6601    112.4478   9.3932540739e+01   4.8319727749e+01    0.2613581    0.2315768 -62.62  0.001069314    1.140    0.122
        84  -9.2803     93.8227    112.5878   7.8326982010e+01   4.1410756948e+01    0.2178366    0.1454676  47.67 0.0009368581    1.646    0.392
        85  -9.6249    170.4893    110.4783   5.7421782068e+01   2.5817184862e+01    0.1499055    0.1432813 -44.75 7.510372e-05    1.023    0.023
        86  -9.8180     15.8356    109.3272   1.0537165849e+02   5.2159166462e+01     0.307309    0.1636803  49.14  0.001121027    2.495    0.599
        87  -9.2241    120.3009    109.3452   6.9429381981e+01   3.6938907787e+01    0.1629221    0.1241705  -7.79 0.0007038046    1.681    0.405
        88 -10.3218    102.0021    109.0044   7.4776549635e+01   4.0709878685e+01     0.253861     0.191383  -6.49 0.0005636233    1.667    0.400
        89 -11.5914     79.9175    108.0385   8.1741900628e+01   4.4933046748e+01    0.5679174     0.317942  27.82   0.00038047    1.937    0.484
        90  -9.1655    175.6998    106.6668   5.5411948537e+01   2.5442110822e+01    0.1477213    0.1186689  -1.40 0.0005040099    1.652    0.395
        91  -9.4961    143.3851    106.1416   6.2459810212e+01   3.2653459691e+01    0.2263705    0.1417037 -54.03 0.0009398563    1.739    0.425
        92 -10.2902     89.2122    104.5900   7.7678977892e+01   4.4128016860e+01    0.3249679    0.2288344 -31.90  0.001254243    1.489    0.328
        93 -10.4610     85.6976    103.6896   7.8605899052e+01   4.4964952019e+01    0.2406588    0.2073266 -22.19 0.0005716048    1.157    0.136
        94 -10.3281     52.3974     96.1860   8.8613860134e+01   5.1840526223e+01    0.3027587    0.2050773 -62.37  0.001449585    1.597    0.374
        95 -10.4350     50.5858    101.7258   9.0708978705e+01   5.0741405701e+01    0.4618081    0.2218374 -45.49  0.001617046    1.884    0.469
        96 -10.0957     47.6749    102.7215   9.2051878234e+01   5.0852061055e+01    0.3353342    0.1424664 -45.30 0.0009235457    2.132    0.531
        97 -10.1346    145.4844    100.0230   6.0312123937e+01   3.3444437255e+01    0.3057801    0.2361827 -18.17  0.000634961    1.566    0.362
        98 -11.8614      9.4135     97.3478   1.0570193179e+02   5.5532563561e+01    0.4722819    0.3849364  72.21 0.0008585169    1.515    0.340
        99  -9.2392     28.3162    100.2757   9.8929879017e+01   5.3446462670e+01     0.144574   0.09053101 -32.52 0.0003122494    1.567    0.362
       100 -10.7312     80.1844     98.0278   7.8916114196e+01   4.7227788231e+01     0.434844    0.2986973  47.86  0.001988888    1.658    0.397
       101 -10.3227     82.9879     93.4505   7.6631159958e+01   4.7767109664e+01    0.3230324    0.2027945  35.19 0.0006000227    1.604    0.377
       102 -10.8092     78.8411     92.3461   7.7755627930e+01   4.8736070354e+01    0.4467488     0.311781 -39.88  0.001884811    1.388    0.280
       103 -11.3777     68.5081     95.7769   8.2452123869e+01   4.9650728058e+01    0.4181786    0.3103556   1.75 0.0008808218    1.524    0.344
       104 -10.5316     30.7729     95.7249   9.6967672308e+01   5.4334488332e+01    0.3502001    0.2901996  78.27  0.001420166    1.566    0.361
       105 -11.3813     35.4751     92.8825   9.4427304237e+01   5.4563285688e+01    0.6186808    0.3813767 -61.33  0.002753768    1.593    0.372
       106 -10.7939     25.5362     87.4343   9.7172071163e+01   5.6770821352e+01    0.4742714    0.3646725 -89.89  0.001868335    1.742    0.426
       107 -10.5128     29.1718     85.0177   9.5074377768e+01   5.7014176485e+01    0.3743357    0.2889813  61.45  0.001108826    1.831    0.454
       108 -11.6440     44.7453     84.9787   8.8629438828e+01   5.5383530352e+01     0.625117    0.3584763   8.96  0.002490194    2.086    0.521
       109  -9.5334     40.1211     89.6121   9.1741756527e+01   5.4846258870e+01    0.1900514    0.1368612  15.34 7.982048e-05    1.460    0.315
       110 -10.4435     37.4641     85.9761   9.1879355368e+01   5.5974782224e+01    0.3180003    0.2137193  32.46 0.0007168042    1.644    0.392
       111 -10.7815     43.1934     94.4566   9.1750551912e+01   5.3363662695e+01    0.3578574    0.3031361 -12.36  0.001383651    1.156    0.135
       112 -11.4524     22.9611     94.7682   9.9863286924e+01   5.5233973665e+01    0.4347708    0.2811833  -6.63  0.001428235    1.732    0.423
       113 -11.8568     18.0969     90.6029   1.0093514994e+02   5.6601038177e+01    0.5637444    0.3070509 -56.69  0.001135614    1.525    0.344
       114 -10.2907    126.0133     94.1966   6.3635906650e+01   3.8945505070e+01    0.3025942    0.2608396  24.90 0.0006628745    1.225    0.184
       115 -10.1088    122.3018     93.6686   6.4493505377e+01   3.9863165108e+01    0.2686063    0.2135015 -52.14 0.0009654962    1.327    0.247
       116 -11.3432     98.3963     91.0393   7.0805184756e+01   4.5393131807e+01    0.2719708    0.2584502  -3.34 0.0002033004    1.007    0.007
       117 -11.8520     89.3054     89.6442   7.3356411201e+01   4.7441397216e+01    0.4585789    0.3276805 -32.39 0.0008232472    1.429    0.300
       118 -10.8278     49.1508     91.2169   8.8562982931e+01   5.3415931041e+01    0.3007651    0.2811255 -41.81  0.001759767    1.125    0.111
       119 -12.2810      7.2684     89.1683   1.0504505602e+02   5.7624725901e+01    0.5103569     0.360879   8.10 0.0008865839    1.586    0.370
       120 -10.1260     66.3606     88.8856   8.1282876232e+01   5.1543423224e+01    0.3339258    0.2293583  -2.56  0.001233372    1.778    0.437
       121 -10.4487    104.1061     87.6469   6.8007106298e+01   4.4946816218e+01     0.314508    0.1950908 -26.31  0.001304752    1.961    0.490
       122 -10.5927    143.3142     84.4281   5.6538879447e+01   3.6956188957e+01    0.2547245    0.2496601 -70.62 0.0005425288    1.022    0.021
       123 -10.7864    113.1663     82.9019   6.3886678417e+01   4.3984592583e+01    0.4452858    0.3526616  89.14  0.002105236    1.760    0.432
       124 -10.7907     80.3147     83.7537   7.4656341251e+01   5.0330441537e+01    0.4388734    0.3677912 -25.36  0.002324964    1.161    0.139
       125 -11.1347     77.1288     80.0065   7.4623987973e+01   5.1670162962e+01    0.7506458    0.3140886 -52.71  0.002663685    2.917    0.657
       126 -10.8394     72.9885     78.4995   7.5655775302e+01   5.2693407015e+01    0.4178818    0.3644275 -62.21  0.002270985    1.405    0.289
       127  -9.2230    165.3285     83.6680   5.1625186668e+01   3.2052715037e+01    0.1535859      0.11083 -75.77 0.0006837886    1.716    0.417
       128 -10.1591     67.2099     81.8185   7.8848706513e+01   5.2949225718e+01    0.3574079    0.2548858 -15.18  0.001734368    1.557    0.358
       129  -9.9439     60.2162     83.2187   8.1955007255e+01   5.3716852282e+01     0.266082    0.1894983 -42.58  0.001318717    1.325    0.245
       130 -11.7010     53.2149     76.3433   8.2650151655e+01   5.6190043624e+01    0.5964112    0.3811077 -52.19  0.002924926    1.622    0.384
       131 -11.1311     58.2994     77.7578   8.1045974112e+01   5.5169252526e+01    0.3204679    0.2692978 -27.62 0.0008547158    1.091    0.083
       132 -10.0767      1.2975     80.6520   1.0588088586e+02   5.9922956604e+01    0.2600687    0.1035215 -69.05            0    2.337    0.572
       133  -9.5451    102.6491     80.2387   6.6189151123e+01   4.6722964909e+01    0.2126666    0.1370046 -30.50 0.0007165794    1.693    0.409
       134 -11.7010     13.7762     74.5709   9.9141052814e+01   6.0615531961e+01    0.5048124    0.2967453 -67.66  0.002394704    1.808    0.447
       135 -10.4782     14.2746     67.6801   9.7177754674e+01   6.2103327947e+01    0.3255813    0.2023128  -1.59  0.001785045    1.671    0.402
       136 -10.0303     95.0135     76.4605   6.7397715997e+01   4.9007862552e+01     0.429206    0.3336426  60.97   0.00161205    1.569    0.363
       137 -10.1540     82.2173     48.0905   6.1898575824e+01   5.6434155717e+01    0.8279217    0.4204512 -16.98  0.003159801    3.176    0.685
       138 -11.6128     85.7429     73.0165   6.9355884166e+01   5.1479453213e+01    0.7351279    0.3398922  37.79  0.002932208    2.134    0.531
       139 -11.5126     79.2957     67.9901   6.9931370717e+01   5.3634066900e+01    0.7389951     0.528376 -86.45   0.00303156    3.068    0.674
       140 -10.8633     72.8120     47.4715   6.4953603872e+01   5.8329979115e+01      0.34378     0.227538 -41.35  0.001411914    1.692    0.409
       141 -12.0276     75.0268     54.4852   6.6740634518e+01   5.6796808122e+01    0.8103837    0.4134473 -49.53  0.002539159    2.589    0.614
       142 -10.2453    103.7192     74.7579   6.4143754599e+01   4.7541128598e+01    0.2965445    0.2443615  69.38  0.001504813    1.489    0.328
       143  -9.9426     24.6433     74.5054   9.4305837459e+01   5.9797549589e+01     0.247906    0.1381661 -51.61 0.0002072677    1.550    0.355
       144 -11.3485    187.0917     70.7627   4.4532051520e+01   2.9314407902e+01    0.5733379    0.2931954 -43.47  0.002362859    1.840    0.457
       145 -11.5256     35.0323     71.9986   8.9022202248e+01   5.9341208206e+01    0.7747364    0.2250769  27.69  0.002816843    3.409    0.707
       146 -10.1199     13.9460     54.0677   9.3464790187e+01   6.4974401718e+01    0.3484469     0.136991 -47.68 0.0002879311    2.022    0.506
       147 -11.3812      2.1210     71.5687   1.0365424464e+02   6.1954440508e+01     0.526139    0.1924784 -62.53  0.001831303    2.260    0.558
       148 -12.5002      4.5573     62.3745   1.0036997055e+02   6.3847008928e+01    0.7076834    0.3839273 -18.00  0.001902252    1.827    0.453
       149 -11.5936     10.1919     62.3041   9.7664892494e+01   6.3530691432e+01    0.2577061    0.1976134 -23.94 0.0007477944    1.120    0.107
       150  -8.8023    154.3401     72.2858   5.0769213505e+01   3.6549259778e+01    0.1443923    0.1119659  25.51 0.0005332617    1.636    0.389
       151 -11.2992    122.9105     68.9908   5.6988145664e+01   4.4363424731e+01    0.4800311     0.310894  43.63  0.001362825    1.498    0.332
       152 -10.0531     26.4653     67.8937   9.1642790189e+01   6.1070226900e+01     0.190482    0.1159266 -50.38 0.0003321879    1.481    0.325
       153 -10.9444    220.3059     66.6610   3.9050244194e+01   2.2898495123e+01    0.3839398    0.2241479  71.26  0.002033489    1.847    0.459
       154 -11.4511     59.1613     63.5843   7.6063742049e+01   5.7882649413e+01    0.3362922    0.2724982 -49.44 0.0004871033    1.430    0.301
       155 -11.2128     21.0088     64.9243   9.3293471439e+01   6.2179073769e+01    0.2387664     0.164578 -48.84 0.0004457805    1.303    0.233
       156 -11.7002     41.1133     72.2128   8.6445876188e+01   5.8612820144e+01    0.4559077    0.2892675 -54.07  0.001311745    1.625    0.385
       157 -11.5992     92.1837     62.8474   6.3830369919e+01   5.2055056064e+01     0.694016    0.3671639  54.84  0.002478314    2.258    0.557
       158 -10.7876     87.6710     56.6683   6.3164894513e+01   5.4000224094e+01    0.5582811    0.2065564 -32.34  0.001975277    3.211    0.689
       159 -10.4827     91.3656     57.2340   6.2167878871e+01   5.3160468234e+01    0.3507929    0.2947264  23.70  0.001408142    1.124    0.110
       160  -9.2566    202.7775     64.5300   4.0794382529e+01   2.6861279053e+01    0.2466581    0.1189126  57.30  0.001140965    2.136    0.532
       161 -10.2947    106.7177     63.6994   5.9703096671e+01   4.8854062767e+01    0.3549345    0.2153916  35.10  0.001598044    1.719    0.418
       162 -11.1673     33.2754     44.1256   8.0437009851e+01   6.4973878168e+01    0.4689719    0.3368502  -5.34  0.002793781    1.256    0.204
       163 -12.5121     43.4462     46.0226   7.6396079707e+01   6.3339102593e+01    0.6843362    0.6251807 -28.93  0.001726735    1.315    0.240
       164 -10.8102     52.7227     48.1287   7.3127185095e+01   6.1634461750e+01     0.514967    0.2103681  34.90  0.002197725    2.340    0.573
       165 -11.3798     40.5047     57.0442   8.1770197032e+01   6.1737898231e+01    0.4148272    0.2574496  41.23  0.001516018    1.978    0.494
       166 -11.8342     60.7712     47.8136   6.9682200660e+01   6.0398492963e+01    0.8944951    0.4415374 -42.05  0.004112243    2.172    0.540
       167 -10.1531     55.8315     50.9000   7.2868371797e+01   6.0684691008e+01    0.2138124     0.166853  16.97 0.0003278066    1.162    0.139
       168 -11.4028     43.5834     62.5356   8.2276341516e+01   6.0287569754e+01    0.2954639    0.2196008 -39.10 0.0001815919    1.270    0.212
       169 -11.1865     52.2520     61.8491   7.8314389170e+01   5.9244388410e+01    0.3733799    0.2174997  40.84  0.001792636    1.925    0.481
       170 -11.0870     46.3221     58.8453   7.9814519767e+01   6.0640910853e+01    0.3577465      0.28877 -54.75  0.001098005    1.547    0.354
       171 -11.2410    235.0397     60.9193   3.6222498952e+01   2.0856111618e+01    0.3234307    0.2796996  73.26    0.0016953    1.317    0.240
       172  -9.9734     65.0944     62.0064   7.3160809777e+01   5.7225855477e+01     0.208849    0.1885095  -1.75 0.0005099641    1.054    0.051
       173 -11.6159    117.4875     55.9425   5.4280523886e+01   4.7701119350e+01     1.182385    0.6007683 -60.96  0.003821576    4.365    0.771
       174 -10.1949     51.0081    250.0000   1.1191137113e+02   1.3833626434e+01    0.2021786   0.06241811  31.38 0.0008015865    2.937    0.659
       175 -10.2191    242.7773    247.8061   7.1181305668e+01  -1.1140480268e+01    0.2082097    0.0978962  -8.73 0.0009582094    2.830    0.647
       176 -11.1657    113.9105     38.1599   4.9354313356e+01   5.0989091215e+01    0.2487946    0.2334999 -40.85 0.0002994362    1.194    0.163
       177 -12.3292    118.7598     43.8985   5.0087155188e+01   4.9134281103e+01    0.9271507    0.5111482  54.72   0.00355011    1.632    0.387
       178 -11.6520    126.7836    242.0149   9.4160244022e+01   5.1371775662e+00    0.3652416     0.256818  43.67  0.001996623    1.378    0.274
       179  -9.8251     51.0057     56.6856   7.7027019531e+01   6.0388920557e+01    0.2718017    0.1761168  24.90  0.001142721    1.486    0.327
       180 -11.1053     32.8280     52.8395   8.3847468569e+01   6.3445415898e+01     1.526305    0.8106694   5.60   0.00706762    2.276    0.561
       181 -10.7865     24.5062     59.5015   9.0017213905e+01   6.2994870340e+01    0.5329525    0.2055654  26.55  0.002255983    2.616    0.618
       182 -10.9286     25.2186     56.1689   8.8610439446e+01   6.3595174647e+01    0.5234195    0.2738251  -6.88  0.002402109    2.353    0.575
       183 -10.6989    107.0674     58.7728   5.7987366891e+01   4.9583876297e+01    0.2138834    0.1947901  73.55 0.0006279373    1.242    0.195
       184 -10.2833    238.0172     55.9297   3.4930206108e+01   2.1001723246e+01    0.1778569    0.1447076 -61.52            0    1.051    0.048
       185  -9.7322    157.2814     54.7988   4.5409826789e+01   3.8596803364e+01    0.3591664    0.1988828 -48.52   0.00165165    1.898    0.473
       186  -9.5523    135.5480     58.4285   5.0775640918e+01   4.3156908453e+01    0.2510478    0.1421037 -20.12  0.001026256    2.527    0.604
       187  -9.7007     67.0173     55.0402   6.9927758379e+01   5.8135590879e+01    0.2373395    0.1722897 -33.15 0.0008009259    1.384    0.277
       188  -9.6474      7.3421     54.3263   9.6841658383e+01   6.5372162113e+01    0.2492919   0.08632297 -52.95  0.001119401    2.244    0.554
       189 -10.7831    248.7167     53.0030   3.3369088897e+01   1.9425973985e+01    0.1734799    0.1275933 -55.65  0.000610191    1.085    0.079
       190  -9.2490    201.4378     53.4500   3.8445834769e+01   2.8775139473e+01    0.1285021    0.1122111 -73.96 0.0001554493    1.029    0.028
       191  -9.9775    245.3295     51.3033   3.3348651577e+01   2.0278438740e+01   0.09969674   0.09381898  18.95 0.0003454682    1.651    0.394
       192 -10.0084    240.5092     50.5063   3.3633021858e+01   2.1284419293e+01    0.1192267   0.09582062 -64.00 0.0006244173    1.039    0.038
       193 -10.0206    175.7120     48.6677   4.0794902343e+01   3.5181969970e+01    0.2311235    0.1964184  49.41  0.001041672    1.318    0.241
       194 -10.2703     26.0878     48.2666   8.5489468328e+01   6.5024958892e+01    0.2424672     0.139668 -31.92 0.0005477881    1.538    0.350
       195 -10.8332     12.7953     47.7806   9.2053584091e+01   6.6300179837e+01    0.4068851    0.1640405 -29.85  0.001798682    2.494    0.599
       196  -9.8089      2.5076     48.9970   9.7763318040e+01   6.6731299134e+01    0.2134794    0.1508801  22.93  0.001168739    1.646    0.393
       197  -9.4177    201.6980     48.6718   3.7332353240e+01   2.9386232690e+01    0.1171597    0.1008064  29.53 0.0007032551    1.645    0.392
       198 -10.7517    145.9581     46.4179   4.5138782487e+01   4.2437946334e+01    0.4092467    0.1985985 -34.22  0.001809519    2.212    0.548
       199 -11.1303     20.7075     46.0339   8.7396365039e+01   6.5964683859e+01    0.3520297    0.2214301 -36.45 0.0009561193    1.351    0.260
       200  -9.7274     18.0057     41.5134   8.7164686306e+01   6.7041457515e+01    0.2293992    0.1428672  10.88  0.001330183    1.529    0.346
       201 -10.6773    137.1590     44.7850   4.6364231066e+01   4.4730124147e+01    0.6958157    0.1990516  48.33   0.00231332    3.426    0.708
       202  -9.4992      6.2312     43.2161   9.4012478100e+01   6.7639421002e+01    0.3471868    0.2006315 -68.83  0.001772634    2.562    0.610
       203  -9.1812      3.7011     39.3133   9.4095477430e+01   6.8538853721e+01    0.1830816    0.1265353 -35.37 0.0006838865    1.141    0.123
       204 -10.9358      4.6784     36.0325   9.2423123072e+01   6.9082410329e+01    0.2853011    0.2061325  16.34 0.0008071364    1.475    0.322
       205 -10.0671    235.4147     42.2275   3.2482989934e+01   2.3363924935e+01    0.2173142    0.1051975 -36.10  0.001137952    2.078    0.519
       206 -10.8185    155.6533     42.4105   4.2299901760e+01   4.0686300955e+01    0.2646127    0.2469738  72.63 0.0008455864    1.074    0.069
       207 -10.4744     26.4411     43.0795   8.3412722516e+01   6.5930077081e+01    0.1952591    0.1474151   5.84 0.0008089563    1.190    0.159
       208 -10.6351     93.2272     41.4771   5.6010428548e+01   5.5124047187e+01    0.4460205    0.2061577  44.70  0.001952244    1.930    0.482
       209 -11.6195     79.5505     35.3758   5.7997512555e+01   5.8753006648e+01    0.6869817    0.4298532 -27.73  0.003015355    1.726    0.421
       210 -11.2172     61.1054     36.1579   6.4951384955e+01   6.2108393888e+01    0.4179624    0.2734855 -11.12  0.001447211    1.685    0.406
       211 -10.6326     23.3496     37.5001   8.2846593385e+01   6.7227448948e+01    0.4193143    0.2290525  41.34  0.002096768    2.609    0.617
       212  -9.7025    183.5116     38.0568   3.7108718520e+01   3.4808474628e+01    0.1742817    0.1197459 -42.86  0.000368439    1.458    0.314
       213 -10.4983    176.6309     36.1312   3.7533139906e+01   3.6612297410e+01    0.2885435    0.1970015 -49.05  0.001634517    1.443    0.307
       214  -9.0159    206.3741     37.2530   3.4271977329e+01   2.9895483719e+01    0.1156906   0.08948862  48.94 0.0006961296    1.644    0.392
       215 -10.8023    153.1482     36.3030   4.1032631039e+01   4.2046831147e+01    0.2513046    0.2114671  71.94 0.0003972519    1.063    0.059
       216  -9.9536    133.1567     37.0913   4.4843249840e+01   4.6657193500e+01    0.2651539    0.1696557 -87.41  0.001234876    2.134    0.531
       217  -9.4285     94.0351     35.8149   5.3723135681e+01   5.5692330935e+01    0.2034751    0.1501608  79.62 0.0007592719    1.913    0.477
       218 -11.0720    158.1578     20.2289   3.5938567921e+01   4.2694155963e+01    0.3724995      0.18893  69.64  0.001385755    1.726    0.421
       219 -11.9095    160.1289     29.8199   3.8203425790e+01   4.1182546895e+01    0.4881563    0.4352259  76.69  0.002351047    1.058    0.055
       220 -11.6551    164.3981     27.5659   3.7010976792e+01   4.0447675581e+01     0.273199    0.2244074  82.74 0.0006439816    1.063    0.060
       221 -10.8396    161.9959     23.2740   3.6220962105e+01   4.1480176183e+01    0.1915911    0.1400853  61.32 0.0002883674    1.269    0.212
       222 -10.8230     67.9739    240.9921   1.0741524959e+02   1.3603106169e+01    0.1950328    0.1579712 -19.48  0.001138667    1.688    0.407
       223 -11.0002    146.7218    237.5996   8.9006325050e+01   3.0390214792e+00    0.4240586    0.2198065  45.70  0.001897401    2.159    0.537
       224 -12.0398    107.1124     31.5825   4.8767591206e+01   5.3326021068e+01    0.6478437    0.3653902  14.84  0.002680147    3.044    0.672
       225 -12.3779    114.5570     25.0914   4.4861010211e+01   5.2355023904e+01    0.6623886     0.279513  59.07  0.001838281    2.027    0.507
       226 -10.6854    239.6362     32.7496   3.0306157866e+01   2.3771388447e+01    0.2271221    0.1792129  77.45 0.0005109885    1.348    0.258
       227  -9.3090    138.3175     33.3048   4.2730341691e+01   4.5899525088e+01    0.1353552   0.09443843  36.75 0.0006029422    1.627    0.385
       228 -10.3552     67.9179     32.2690   6.0791115410e+01   6.1405363388e+01    0.2572316    0.2174949  26.95  0.001103231    1.061    0.058
       229 -10.2701     59.7792     23.7512   6.0265537892e+01   6.3958151758e+01    0.2182718    0.1562403 -15.56 0.0004878718    1.433    0.302
       230 -12.0737     57.8943     30.2856   6.3791073001e+01   6.3469113052e+01    0.3851522     0.249055   4.79  0.001066213    1.729    0.422
       231 -11.9050     49.3899     30.3091   6.7335130910e+01   6.4881064138e+01    0.6130564    0.2375498  36.48  0.001547043    2.350    0.574
       232 -10.4845     86.7504     30.2270   5.3770384710e+01   5.7919658074e+01    0.3853294    0.2195004  23.86  0.001392704    2.169    0.539
       233  -9.4028     15.0000    233.9998   1.1833917137e+02   2.1185058886e+01    0.1885032   0.06098178 -77.06 0.0007966296    2.902    0.655
       234 -11.0670    247.3920    230.6549   6.7490406058e+01  -9.1884280423e+00    0.2942511    0.1303868  23.34  0.001513639    2.385    0.581
       235 -10.1687    248.8388    223.9806   6.6088094539e+01  -8.3589010757e+00    0.2093583    0.1059902 -18.34  0.001072493    2.028    0.507
       236  -9.1150    120.4802    219.5391   9.2377762063e+01   1.0718439111e+01    0.1420493    0.1308268  20.74 0.0006430086    1.025    0.024
       237 -10.3075    164.6939    211.9850   8.0701261638e+01   5.2869519228e+00    0.2444392    0.1941004  24.19 0.0006748596    1.187    0.158
       238 -10.4251    152.6005    206.9639   8.2596723363e+01   8.2663718430e+00    0.3418597    0.2514751 -80.45  0.001566427    2.222    0.550
       239  -9.2801     99.5356     30.4765   5.0292714014e+01   5.5141692557e+01    0.1324153    0.1175044  47.30 9.420832e-05    1.052    0.049
       240 -10.2546    198.4051     28.8548   3.3259327165e+01   3.2641985508e+01    0.3563054    0.1597183  56.68   0.00173177    2.312    0.567
       241 -10.6894    189.1282     27.4876   3.3945935524e+01   3.4837515613e+01    0.2811117    0.2526335  51.24  0.001783157    1.376    0.273
       242  -9.1602     61.4869    206.4843   1.0525279948e+02   2.2323845880e+01    0.1390984    0.1263876  70.18 0.0002648576    1.011    0.011
       243 -10.3623    139.5938    198.8031   8.4252489524e+01   1.2195879635e+01    0.2063181     0.145423 -62.86 0.0009541038    1.707    0.414
       244 -10.1787    233.8495    196.4069   6.3721008262e+01  -2.0997853682e+00    0.2747937    0.1387614 -27.56  0.001314761    1.901    0.474
       245 -10.0539    170.4019    191.1066   7.5503601821e+01   8.6351648581e+00    0.3906031    0.2000113  15.30  0.001323733    3.350    0.701
       246  -9.6254    162.6254    191.3000   7.7327824532e+01   9.9177387167e+00     0.146465    0.1186887  69.37 0.0007028136    1.753    0.430
       247 -11.6059      4.5178    185.7386   1.1747970770e+02   3.3390689370e+01    0.4795553    0.3771467 -89.98  0.002411807    1.057    0.054
       248 -10.5914      2.5271    181.4849   1.1765397335e+02   3.4594196720e+01    0.2668723    0.2107288 -33.09  0.001500207    1.601    0.375
       249  -9.8729    150.1906     27.2077   3.8983902258e+01   4.3804072012e+01    0.2292136    0.1535675  59.16 0.0003353175    1.337    0.252
       250 -11.5592    152.8780     24.0473   3.7708249840e+01   4.3520319777e+01    0.4513944    0.2407071  76.71   0.00219618    1.854    0.461
       251 -11.0805    241.2198     26.1014   2.8939806798e+01   2.4285951714e+01     0.217513    0.1398147 -86.68 0.0009823469    1.396    0.284
       252  -9.8185    230.7031     26.5803   2.9838355419e+01   2.6245682501e+01    0.1550059   0.09338575 -87.96 0.0009410842    1.542    0.351
       253  -9.0261     97.3139     26.3145   4.9373199824e+01   5.6099367088e+01    0.1377441   0.08854537  30.02 0.0007034079    1.640    0.390
       254  -9.6261    214.2312     24.6199   3.0831841626e+01   2.9791037210e+01     0.161696   0.09654057  66.38 0.0009520814    1.652    0.395
       255  -9.9535    169.4214     23.6505   3.5350678877e+01   3.9725546744e+01     0.264013    0.1350382  65.66  0.001337149    1.710    0.415
       256  -9.4789     86.2359    185.5785   9.5859749422e+01   2.4071493694e+01    0.2056308    0.1462515  17.26 0.0009470757    1.622    0.383
       257 -10.1231    239.9764    184.5159   6.0411205461e+01  -8.9521104349e-01      0.16806    0.1242879  27.51  0.000474512    1.526    0.345
       258  -9.6794    175.5045    180.0874   7.2154186926e+01   1.0073705841e+01    0.2259229    0.1392465 -43.37  0.001019962    1.551    0.355
       259 -10.0842     13.8133     23.2851   8.2145256320e+01   7.0500835316e+01    0.1646385    0.1315556  -4.95 0.0006962409    1.122    0.109
       260  -9.2428    223.6760     22.2924   2.9564318646e+01   2.8142285680e+01    0.1233295   0.06895658 -68.10 0.0004352076    1.615    0.381
       261 -10.7895    178.6646     20.9220   3.3573915630e+01   3.7919002698e+01    0.3977258    0.1969476  45.20  0.001754765    2.710    0.631
       262 -11.1980    183.0293     25.6680   3.4207196836e+01   3.6408137331e+01    0.3547022    0.2455634  60.40  0.002114067    1.434    0.302
       263  -9.4918    250.3245    177.3240   5.7347365591e+01  -1.0683938188e+00    0.1309014   0.08397795 -14.87 0.0007048099    1.687    0.407
       264  -9.7751     74.3582     19.4829   5.3353453651e+01   6.1656738386e+01    0.2405708    0.1092267  50.81 0.0006580942    1.907    0.476
       265  -9.4670    216.6758     20.6659   2.9813562012e+01   2.9745883537e+01    0.1058818   0.08789689  45.89 0.0006213097    1.711    0.415
       266  -9.9792     51.8310    173.7856   1.0367482815e+02   3.1825748533e+01     0.201505    0.1591786  69.02 0.0004285462    1.311    0.237
       267  -9.3354    170.4861    171.5702   7.1522938332e+01   1.2785846443e+01    0.1514425    0.1388089 -13.93 0.0002291556    1.021    0.021
       268 -10.6497    187.1882     15.2567   3.1342022920e+01   3.6620980865e+01    0.3860061    0.1887334  89.13  0.001899774    2.136    0.532
       269  -9.6991    198.2563    167.9522   6.4809080116e+01   8.6166298176e+00    0.2085707     0.171588 -30.06 0.0006340098    1.085    0.078
       270 -11.1861      9.5435    167.0414   1.1464204437e+02   3.7713773296e+01    0.2946626    0.2395931 -83.37  0.001175027    1.040    0.038
       271  -9.6403    156.5462    166.4722   7.3705527522e+01   1.6485631547e+01    0.1547514    0.1451363 -18.27 0.0002492318    1.006    0.006
       272 -11.1359    238.6966     15.0449   2.7079575325e+01   2.6046736606e+01    0.1581849    0.1201513 -62.39  0.001042398    1.106    0.096
       273  -9.0684    152.2956    166.6652   7.4778433449e+01   1.7237939937e+01    0.1522567    0.1258549  88.06 0.0004936012    1.646    0.392
       274  -9.4138     80.4670    165.4517   9.4096665311e+01   3.0134374802e+01    0.1518718    0.1456691 -46.37 0.0002429568    1.048    0.046
       275  -9.8480     18.9483    164.8387   1.1184378151e+02   3.7532705956e+01     0.223871    0.1379588 -33.23   0.00108369    2.038    0.509
       276 -10.8532    205.0769    163.1402   6.2459281264e+01   8.4004982903e+00    0.2471469    0.2120187 -28.67 0.0006714783    1.021    0.021
       277 -11.0591    246.9850    160.9092   5.4727027514e+01   2.1996792563e+00    0.2671335    0.2357435  20.64  0.001779972    1.335    0.251
       278 -11.0615     13.9634    158.8693   1.1261580916e+02   3.9483656520e+01    0.4011484    0.1527475 -76.72  0.001591728    2.395    0.582
       279  -9.4403     53.4772    156.0124   1.0055308938e+02   3.6327911875e+01    0.2332517    0.1370159 -64.96   0.00102901    1.581    0.368
       280 -10.5069    104.8069    154.3954   8.4841841851e+01   2.9011336993e+01    0.3868226    0.2874651 -15.34  0.001694179    1.701    0.412
       281  -9.9988      3.2717    153.1435   1.1507178408e+02   4.1716341006e+01    0.2533336    0.1351025  53.02  0.001228681    2.064    0.515
       282  -9.9470     65.8851     10.4446   5.2292057411e+01   6.4217406528e+01    0.2902228   0.09702098  50.30  0.001255995    2.416    0.586
       283  -9.8437    140.9548    152.4788   7.4511823153e+01   2.2707148011e+01    0.2455477    0.1567178  38.39 0.0007258723    1.601    0.376
       284 -11.8128     23.1169    148.8335   1.0876677461e+02   4.1368864244e+01    0.5398701    0.2612666 -40.00  0.001941573    2.356    0.576
       285  -9.8132     63.8084    150.3830   9.6418179499e+01   3.6499963503e+01    0.2114395    0.1471135   9.58 0.0009514327    1.767    0.434
       286 -11.2153     48.0978    146.5558   1.0067932113e+02   3.9483683680e+01    0.5596671    0.3871595 -13.65  0.002613712    1.871    0.465
       287 -10.3220     16.1117    147.8780   1.1076365985e+02   4.2182263149e+01    0.2755913    0.2021249  21.85 0.0006197502    1.581    0.367
       288 -10.4296      3.1459    147.6493   1.1457240615e+02   4.3135826309e+01    0.1977428    0.1613832  87.50  0.001084213    1.140    0.123
       289 -11.9826      2.3540    141.9160   1.1422194686e+02   4.4657700394e+01    0.4638403    0.3229254  85.06  0.001464615    1.390    0.281
       290  -9.4562     78.5769    159.8351   9.3641422373e+01   3.1892454269e+01    0.2213563    0.1465372 -75.47  0.000945919    1.728    0.421
       291  -9.7630    239.6666    146.6937   5.3059762081e+01   5.7945253879e+00    0.1311538   0.09426694 -12.77 0.0007039786    1.666    0.400
       292  -9.2985     74.3988    145.8236   9.2251223830e+01   3.6207184303e+01    0.2227948    0.1323204 -48.09 0.0005127193    1.614    0.380
       293 -11.0007     33.1290    144.5322   1.0508160037e+02   4.1601867408e+01    0.2778125    0.2565343  85.09 0.0006849295    1.110    0.099
       294  -9.7741    233.6677    143.3374   5.3321933094e+01   7.3531609433e+00    0.1333032   0.09837389 -65.96 0.0007052007    1.740    0.425
       295  -9.9990    217.0839    138.8046   5.5113017287e+01   1.1007906961e+01    0.2057491    0.1785731 -55.63 0.0005667004    1.192    0.161
       296  -9.7455     40.9743    138.7385   1.0166220283e+02   4.2346381124e+01    0.2171621    0.1549576  81.76  0.001041568    1.655    0.396
       297 -11.4993     12.3695    137.0672   1.1059916575e+02   4.5272043441e+01    0.5778773    0.2705152 -56.20   0.00266089    1.769    0.435
       298 -11.1830     22.4944    135.6465   1.0718189968e+02   4.4885106084e+01    0.4262221    0.3744497  43.36  0.002539376    1.280    0.219
       299  -9.7104     32.5243    137.9748   1.0428291732e+02   4.3393326017e+01    0.2384629    0.1937445  45.51 0.0008363284    1.361    0.265
       300 -10.2710      7.0711     30.5739   8.9045201524e+01   6.9882109270e+01    0.3774599    0.1540445   4.75  0.001701154    2.932    0.659
       301 -11.2691     30.0100    133.0110   1.0432814497e+02   4.4932629682e+01    0.4258847    0.2450841 -49.58 0.0005634042    1.564    0.360
       302  -9.8686     73.4361    133.7151   9.0059807874e+01   3.9520301045e+01    0.3060287    0.1504204 -61.70  0.001145817    2.100    0.524
       303  -9.4956     38.4560    133.2125   1.0155786340e+02   4.4067116040e+01    0.1993504    0.1320857 -80.40  0.000734372    1.618    0.382
       304  -9.6480    103.9014    130.7400   7.9765879692e+01   3.5135637904e+01    0.2176423    0.2017786  28.03 0.0003835491    1.100    0.091
       305  -9.4068     93.1760    129.3871   8.2746239361e+01   3.7410906831e+01    0.2309917     0.143702  45.58  0.000951594    1.739    0.425
       306 -10.8553     22.8780    126.9470   1.0576043418e+02   4.7125569127e+01    0.2178797    0.1872544 -55.98 0.0003006365    1.031    0.030
       307  -9.4905     79.4905    138.4658   8.9130913213e+01   3.7357909917e+01    0.1552563    0.1480851 -43.98 0.0003307328    1.003    0.003
       308  -9.4860      2.3850    126.1977   1.1245222626e+02   4.8685352618e+01    0.1909543    0.1098902 -84.76 0.0006256307    1.678    0.404
