#   1 NUMBER                 Running object number                                     
#   2 MAG_AUTO               Kron-like elliptical aperture magnitude                    [mag]
#   3 X_IMAGE                Object position along x                                    [pixel]
#   4 Y_IMAGE                Object position along y                                    [pixel]
#   5 X_WORLD                Barycenter position along world x axis                     [deg]
#   6 Y_WORLD                Barycenter position along world y axis                     [deg]
#   7 A_WORLD                Profile RMS along major axis (world units)                 [deg]
#   8 B_WORLD                Profile RMS along minor axis (world units)                 [deg]
#   9 THETA_WORLD            Position angle (CCW/world-x)                               [deg]
#  10 FWHM_WORLD             FWHM assuming a gaussian core                              [deg]
#  11 ELONGATION             A_IMAGE/B_IMAGE                                           
#  12 ELLIPTICITY            1 - B_IMAGE/A_IMAGE                                       
         1 -12.3623    197.9243     39.5226   4.5793895308e+01   3.1093034027e+01     1.026137     0.919187  67.65  0.003747881    1.122    0.109
         2 -12.5106    207.7594     29.3739   4.1957901488e+01   3.0022123694e+01    0.8270087    0.7267048  28.85    0.0016725    1.430    0.301
         3 -10.3089     33.2088     11.5844   7.9214765881e+01   6.9771264383e+01    0.4427167   0.08366948 -40.84  0.001406447    5.770    0.827
         4 -11.0290    235.0020      4.4059   3.3632697277e+01   2.6645132373e+01    0.4946522    0.4520047  50.13   0.00304747    1.427    0.299
         5 -10.9481    228.9195      4.0863   3.4014513083e+01   2.8003880325e+01    0.4753847    0.3713593 -54.40  0.003142847    1.160    0.138
         6  -8.5619     61.5128      8.4514   6.5325205968e+01   6.5887079901e+01    0.1253648     0.101774  14.52 0.0001373433    1.020    0.020
         7  -8.3677     54.3146    221.6512   1.1770707600e+02   2.1583885262e+01    0.1243543    0.1017776  68.84 0.0008418292    1.025    0.025
         8  -8.2739    128.2923    250.3458   1.0593734135e+02   5.9289452797e+00    0.1140127   0.09017055   3.99 0.0007028709    1.663    0.399
         9 -13.8230     50.9399    194.7391   1.1595727091e+02   2.7703904403e+01     4.355096     2.461106 -39.78   0.02054792    2.869    0.651
        10 -16.0036      5.5917    211.5024   1.2645593006e+02   2.8800272283e+01      19.4958    0.8230811 -76.33   0.02798065   11.848    0.916
        11  -9.5111     63.4729    200.9943   1.1383740599e+02   2.4771925656e+01    0.3722703      0.18693 -54.81  0.001259681    2.168    0.539
        12  -8.8488     66.7274    195.6589   1.1253282591e+02   2.5519528802e+01    0.3108037    0.2185736  80.15   0.00123266    1.405    0.288
        13  -9.5725    194.8598    198.2476   8.4436636550e+01   3.8635766780e+00    0.4005123    0.2286265 -58.00  0.001666634    3.019    0.669
        14 -10.5089     49.6228    216.8769   1.1824871865e+02   2.3124210843e+01    0.5840033    0.3466978  77.54   0.00330762    1.637    0.389
        15  -8.0929    115.0000    183.0019   9.9482351820e+01   2.1048308262e+01    0.2314591   0.08081119 -55.51 0.0008082991    2.983    0.665
        16  -8.5033     99.6182    180.8442   1.0283825009e+02   2.4066011212e+01    0.2315325    0.1842008  29.69 0.0007138485    1.353    0.261
        17  -8.3386    144.4051    178.9691   9.1808450514e+01   1.6688604256e+01    0.3170347    0.1416739 -48.72  0.001235477    2.339    0.572
        18  -8.0775    149.6703    177.8252   9.0368879298e+01   1.5949461171e+01    0.1978791    0.1366381 -57.27 0.0004738357    1.643    0.391
        19  -8.4017     40.7040    177.9682   1.1659064559e+02   3.2673635292e+01    0.1785225    0.1401611 -86.65 0.0003353231    1.095    0.087
        20 -10.5900     70.4155    174.5022   1.0905047577e+02   2.9860489668e+01       0.4857    0.2969451 -42.62  0.002150662    2.039    0.510
        21 -10.4760     74.8998    169.5495   1.0724079320e+02   3.0411431293e+01    0.3693883     0.274989 -52.21   0.00167078    1.398    0.285
        22  -9.1735    114.5213    173.5013   9.7982448476e+01   2.3256519902e+01    0.2575231     0.141437  26.27   0.00103525    2.286    0.563
        23 -10.2848    102.1536    171.2420   1.0066133945e+02   2.5858037337e+01    0.5266686    0.2049854  41.00  0.001989203    2.450    0.592
        24 -14.6026     31.4507    249.6974   1.2389306511e+02   1.8864409301e+01     9.095358     2.824872  26.13   0.01205136   15.094    0.934
        25 -12.3652     58.1696    130.0402   1.0544625002e+02   4.2256705748e+01     1.959002    0.7464509 -76.64  0.005157566    5.821    0.828
        26 -12.0539     71.5090    155.7577   1.0602758419e+02   3.4196814357e+01    0.5747629    0.4501097 -39.90  0.001444709    1.458    0.314
        27 -12.2935     68.7925    144.3206   1.0489084621e+02   3.7365142951e+01    0.9238172    0.6318932  89.67  0.003369666    1.697    0.411
        28 -10.6402     89.9972    153.8074   1.0077218849e+02   3.1945093531e+01    0.6230516    0.4399368 -21.17  0.002788153    2.072    0.517
        29  -7.7039    112.6394    151.2960   9.4284386171e+01   2.8732241192e+01    0.1567224    0.1153134  72.11 0.0007032501    1.707    0.414
        30 -11.2862     52.4436    147.0888   1.0982880870e+02   3.8738651355e+01    0.5816528     0.382116 -84.02  0.002988246    1.547    0.353
        31  -9.3343     40.8376    146.8738   1.1293525986e+02   4.0066534825e+01    0.2064217    0.1906352 -15.43  0.001164557    1.348    0.258
        32  -8.4579     44.1632    144.3650   1.1169395675e+02   4.0329640631e+01    0.1841162    0.1683077  74.90  0.000477718    1.119    0.106
        33  -9.2848    134.1047    146.0576   8.7613767242e+01   2.5902288362e+01    0.4956041    0.2041178 -56.61  0.001606429    3.028    0.670
        34  -9.6237    103.0595    139.7079   9.4473850088e+01   3.3184712357e+01    0.5076785    0.3153335 -23.46  0.001960807    2.598    0.615
        35 -10.6338     90.8509    139.1885   9.7763309829e+01   3.5357322051e+01    0.2843651    0.2583211 -32.54  0.000364722    1.182    0.154
        36  -8.4473     44.9206    138.4883   1.1063842439e+02   4.1690049812e+01    0.1896273     0.133421  31.45 0.0005983754    1.603    0.376
        37  -8.9252    106.0906    130.9830   9.1725149761e+01   3.4737173846e+01    0.3442781    0.2523274 -64.41  0.001544078    1.453    0.312
        38  -9.2143    112.0102    130.0377   8.9856413318e+01   3.3876680281e+01    0.2384221    0.2290797 -23.48  0.000948864    1.067    0.062
        39  -8.2386    157.0102    159.1801   8.4878048339e+01   1.8463226175e+01    0.2574044    0.1839106  74.00  0.001094182    2.130    0.531
        40 -10.3336     43.8181    128.9580   1.0948756216e+02   4.4150838122e+01    0.3393349    0.1882082  57.97   0.00155165    2.269    0.559
        41  -8.3234    135.4673    126.4901   8.2684015352e+01   3.0061765171e+01     0.154881    0.1527651 -48.06 0.0001246184    1.027    0.026
        42  -9.2896     99.2604    126.0217   9.2539498963e+01   3.7133780717e+01    0.3334137    0.2529884 -16.73 0.0007476451    1.690    0.408
        43  -8.4551    108.3024    118.9866   8.8261547479e+01   3.7169540544e+01    0.2118942    0.1889532 -46.92 0.0002616906    1.083    0.077
        44  -8.1516    168.4994    113.0567   7.1187233076e+01   2.5716898459e+01    0.2460761    0.1512061 -42.09  0.001029878    1.593    0.372
        45 -11.5249     17.0180    191.5974   1.2298807520e+02   3.1970350860e+01    0.3437705    0.2458091  56.00  0.000482912    1.280    0.219
        46 -11.0766     43.0160    109.0510   1.0624863271e+02   4.9105963409e+01    0.3782839    0.3464293  30.74  0.001412752    1.256    0.204
        47  -8.1843    205.8534    110.1804   6.2838837645e+01   1.7885655068e+01    0.2251119     0.198724 -62.10 0.0005472953    1.224    0.183
        48 -11.1738     82.8974    160.8879   1.0385761330e+02   3.1325159086e+01    0.8132644    0.4403058  59.18 0.0005344884    2.315    0.568
        49  -9.4669    116.5164    106.1711   8.2586820839e+01   3.8515090611e+01    0.3852636    0.1989927  26.39   0.00131677    2.866    0.651
        50 -15.4393      6.8047    245.3468   1.2783705539e+02   2.2174411828e+01     2.470349     1.547761  26.25   0.01697992    2.201    0.546
        51  -9.9157     51.6532     92.8874   9.9869934570e+01   5.2027164316e+01    0.3809436    0.2757396  52.07  0.002016908    1.727    0.421
        52  -8.3314    233.6264     86.1943   5.2505139820e+01   1.6000188278e+01    0.1993178    0.1240611 -27.04 0.0008841315    1.677    0.404
        53  -8.9855     58.9577     67.7271   9.0255717317e+01   5.6704788641e+01    0.2327654    0.1867997  44.40  0.001111242    1.516    0.341
        54 -12.0796    187.0820     47.4935   4.9513792304e+01   3.2656713379e+01    0.8644432    0.7793568  44.75  0.002767576    1.193    0.162
        55  -9.1285     92.4227    216.6136   1.0930849293e+02   1.7471947880e+01     0.272706    0.1836693  74.21  0.001493696    1.640    0.390
        56  -9.5857     44.5215    230.1567   1.2028134647e+02   2.1060924620e+01    0.2712786    0.1845824  66.24  0.001285587    1.201    0.168
        57  -8.2944     72.8110     54.3774   8.0514507553e+01   5.7250350161e+01     0.194816    0.1236655  24.63 0.0009498835    1.676    0.403
        58  -9.9527    146.1324     50.5052   5.7928320634e+01   4.2347673199e+01    0.5182011    0.3332532 -81.95  0.001838365    2.607    0.616
        59  -8.4453    113.4804    206.4968   1.0341584690e+02   1.6294460760e+01    0.1355575    0.1200092  55.63 -4.387275e-05    1.030    0.029
        60  -8.4578    147.8822     44.0837   5.5494573260e+01   4.2842204600e+01    0.2165383    0.1885377 -73.91 0.0004255417    1.285    0.222
        61 -13.2074     57.3904    240.2523   1.1860486552e+02   1.7584064632e+01     1.020787    0.6468866  63.67  0.004593137    1.338    0.252
        62  -9.5926    109.6837    201.4912   1.0355727097e+02   1.7940228590e+01    0.2832717    0.2002411 -47.59  0.001061062    1.594    0.373
        63  -8.6482     77.2948    226.2707   1.1349746869e+02   1.7685225617e+01    0.2185818    0.1470846 -88.89 0.0007756171    1.566    0.361
        64 -11.2679     84.4907    221.7595   1.1155484609e+02   1.7580481691e+01    0.7583983    0.3055662  45.28  0.001412592    2.114    0.527
        65  -8.9129     58.6050    220.5490   1.1675010849e+02   2.1276077566e+01    0.3073621    0.1806043  36.76  0.001369917    1.662    0.398
