#   1 NUMBER                 Running object number                                     
#   2 MAG_AUTO               Kron-like elliptical aperture magnitude                    [mag]
#   3 X_IMAGE                Object position along x                                    [pixel]
#   4 Y_IMAGE                Object position along y                                    [pixel]
#   5 X_WORLD                Barycenter position along world x axis                     [deg]
#   6 Y_WORLD                Barycenter position along world y axis                     [deg]
#   7 A_WORLD                Profile RMS along major axis (world units)                 [deg]
#   8 B_WORLD                Profile RMS along minor axis (world units)                 [deg]
#   9 THETA_WORLD            Position angle (CCW/world-x)                               [deg]
#  10 FWHM_WORLD             FWHM assuming a gaussian core                              [deg]
#  11 ELONGATION             A_IMAGE/B_IMAGE                                           
#  12 ELLIPTICITY            1 - B_IMAGE/A_IMAGE                                       
         1  -8.2285     38.5877     17.5540   9.4990795617e+01   6.6761704646e+01     0.283062   0.09680459 -30.22  0.001326667    2.952    0.661
         2  -7.8893    112.6435     16.7972   7.2117631987e+01   5.3628076028e+01    0.1520634    0.1140805 -36.77 0.0004122267    1.570    0.363
         3  -8.5660     55.7991     10.1674   8.5389765089e+01   6.5039531079e+01     0.157962    0.1423076  15.40 0.0007231271    1.281    0.219
         4  -7.7622     47.4878     10.2375   8.8421420303e+01   6.6311452557e+01    0.1365485   0.09968493 -30.11 0.0009019419    1.612    0.380
         5  -7.9800     28.1493     10.2513   9.6270547190e+01   6.8906287180e+01    0.1337354    0.1150801  -1.33 0.0005108034    1.353    0.261
         6  -8.1029     90.7978      9.0046   7.4544989104e+01   5.8842819543e+01    0.1740057    0.1300132 -56.70 0.0009538809    1.973    0.493
         7  -7.6987    101.4619      8.4391   7.1812628545e+01   5.6727655642e+01    0.1202727    0.1010816  49.41 0.0001309156    1.061    0.058
         8  -8.7191     33.4246      5.0832   9.1727693321e+01   6.8792509157e+01    0.2437517    0.1587462 -47.02  0.001449698    2.933    0.659
         9  -8.5063     79.1009      3.8009   7.5670554590e+01   6.1526328728e+01    0.2266759    0.1485851 -39.73  0.001097693    2.029    0.507
        10  -7.6153     44.6616      3.3044   8.6494086631e+01   6.7391844397e+01   0.09174866   0.08836959  46.28 0.0007039775    1.673    0.402
        11  -7.5207    115.4606      2.4667   6.6960412558e+01   5.4234321036e+01    0.1198368     0.100457  61.57 0.0002386596    1.082    0.075
        12  -8.3849     62.3343      1.5974   7.9689418248e+01   6.4713096667e+01    0.1796201    0.1206885  53.87 0.0004862343    1.592    0.372
        13  -7.3385     39.3003      1.6236   8.7804470109e+01   6.8321342031e+01    0.0912949   0.08627088 -33.68 0.0007026881    1.758    0.431
        14  -8.2566     67.4795    244.9772   1.3527156974e+02   1.4460893735e+01    0.1806439    0.1145663 -74.10 0.0006175196    1.569    0.363
        15  -8.6927    248.9935    249.2368   9.9583178536e+01  -1.4524022517e+01    0.3227094    0.1375507 -29.87  0.001611897    2.316    0.568
        16  -9.2861    248.6359    242.4472   9.8483155111e+01  -1.3535389219e+01    0.2744905    0.2087315 -45.65  0.001422096    1.753    0.430
        17  -9.5947    211.4765    247.3322   1.0623240182e+02  -9.0402273883e+00    0.3992862    0.2652342 -61.77  0.001999668    2.754    0.637
        18  -8.5597    191.5296    249.6945   1.1053520810e+02  -6.3471366761e+00     0.208527    0.1430432  51.11  0.000779599    1.730    0.422
        19  -8.3982     93.6199    249.0446   1.3047436628e+02   9.7427577438e+00    0.2886696    0.1670427  78.83  0.001186283    2.238    0.553
        20  -7.4166     86.2773    250.6320   1.3212113326e+02   1.0550691902e+01    0.1345024   0.08328833  70.78 0.0007008751    1.681    0.405
        21  -8.9361    201.8898    243.0759   1.0739430520e+02  -6.9065112704e+00    0.2757683    0.1751084 -51.96 0.0009667599    2.044    0.511
        22  -8.7102    169.0732    243.2306   1.1406152817e+02  -1.6075224440e+00    0.2121885    0.1961126  85.04 0.0006087768    1.330    0.248
        23  -7.8265     34.4877    244.4554   1.4154214959e+02   1.8921306596e+01    0.1211056   0.09213332  74.07 0.0002312317    1.007    0.007
        24  -9.7455    160.3626    240.6987   1.1547522695e+02   3.1489182151e-01    0.4099087    0.2852263 -88.40  0.001309715    2.500    0.600
        25  -8.8188     77.5799    242.9781   1.3305177409e+02   1.3409520006e+01    0.2378255    0.1451789  89.58  0.001245109    1.798    0.444
        26  -9.3718    194.3143    239.9790   1.0838429972e+02  -5.1983521117e+00    0.3390318    0.2182543 -58.27  0.001015417    2.249    0.555
        27  -9.4902    183.0546    240.0522   1.1067735307e+02  -3.3761230248e+00    0.4386083    0.3195374  71.98   0.00186236    2.280    0.561
        28  -8.0143    146.0437    239.5306   1.1830818153e+02   2.9748153814e+00    0.2036608    0.1194706  41.37 0.0003888473    1.507    0.337
        29  -8.1003     88.1915    242.2020   1.3080660762e+02   1.1968560477e+01    0.1839345    0.1312515  75.30 0.0006134227    1.377    0.274
        30  -8.7151    240.5247    240.0792   9.9532753645e+01  -1.2113890682e+01    0.2518449    0.1076175 -37.58   0.00122531    2.261    0.558
        31  -8.8158    209.1729    238.6497   1.0521146402e+02  -7.3255947523e+00    0.2031348    0.1715503 -41.86 0.0006180957    1.383    0.277
        32  -9.2159    135.6413    238.9588   1.2042827480e+02   4.8619925655e+00    0.3060782    0.1922966  57.94  0.001245805    1.728    0.421
        33  -8.1154    129.1647    238.9030   1.2179589012e+02   5.9739691883e+00    0.2119906    0.1662573  65.88 0.0007880124    1.321    0.243
        34  -7.8141     40.5523    239.4964   1.4001052915e+02   1.9208284352e+01    0.1238628   0.09565617  75.26 8.545863e-05    1.006    0.006
        35  -9.3429    230.7851    237.2307   1.0083084545e+02  -1.0327415616e+01    0.2503551    0.2212842 -78.98  0.001131404    1.941    0.485
        36  -9.1482    247.8217    235.0678   9.7339675074e+01  -1.2367230542e+01    0.3115998    0.2157464 -52.30  0.001482263    2.158    0.537
        37  -9.1857    246.5142    229.5534   9.6594222278e+01  -1.1372072654e+01    0.3024302    0.1884019 -45.19  0.001048124    1.861    0.463
        38  -9.4703    203.2800    234.0203   1.0557555586e+02  -5.6397960111e+00    0.4564689    0.2192496 -47.75   0.00157285    2.413    0.586
        39  -8.8946    216.9931    235.5163   1.0314897651e+02  -8.0227070102e+00    0.2601966    0.1981383  56.10 0.0008667015    1.890    0.471
        40 -10.2230    213.6621    231.7105   1.0312705197e+02  -6.8948840398e+00    0.5629578    0.2508211 -46.25  0.002509567    2.532    0.605
        41  -9.9747    175.8333    233.5373   1.1108878376e+02  -1.0142054368e+00    0.4829899    0.2532489 -57.75  0.002089332    2.668    0.625
        42  -7.9726     57.9625    237.0000   1.3638824674e+02   1.7461850490e+01    0.1987855   0.06505935  37.20   0.00080028    2.928    0.658
        43  -9.4779    108.7102    234.4812   1.2555354631e+02   1.0298654339e+01    0.4496099     0.247445  55.86 0.0009718838    1.830    0.454
        44  -8.4586     99.8308    234.7012   1.2747563968e+02   1.1699533654e+01    0.2544873    0.1572368  78.48  0.001025727    2.036    0.509
        45  -8.8484     78.7255    234.4981   1.3189366926e+02   1.5025188015e+01    0.2630259    0.1632566  80.25 0.0008889153    1.765    0.433
        46  -8.3290    122.9092    233.9984   1.2243975309e+02   8.0202540649e+00    0.2229056     0.152773  70.68 0.0007558623    1.729    0.421
        47  -9.0826     68.5891    232.5798   1.3378488046e+02   1.6924365933e+01    0.4504856    0.2144707  72.21  0.001833396    2.917    0.657
        48  -8.6788    194.3734    232.5153   1.0710316789e+02  -3.9400223022e+00    0.2386962    0.1593857 -37.77 0.0007286589    1.566    0.362
        49  -8.2640    145.0203    233.5162   1.1761297137e+02   4.3113586139e+00    0.3250484    0.1718969  66.15  0.001111102    3.959    0.747
        50  -8.6670    140.1121    230.1904   1.1815915942e+02   5.8249678091e+00    0.2620177    0.1726387  56.79 0.0009102383    1.615    0.381
        51  -8.2345    132.7654    232.9577   1.2016532012e+02   6.5439946451e+00    0.2193378    0.1525053  82.55   0.00106355    1.972    0.493
        52  -9.2315    236.1430    231.0517   9.8745731057e+01  -1.0148661902e+01    0.2243879    0.1829565 -29.10 0.0006650675    1.240    0.193
        53  -9.4572    186.5215    230.7856   1.0840890624e+02  -2.3300843522e+00    0.3479937    0.2577351 -79.39  0.001259674    2.330    0.571
        54  -7.8949    157.5924    231.8042   1.1465293865e+02   2.4549863556e+00     0.177661    0.1338046 -66.22 0.0005047091    1.644    0.392
        55  -8.3052     92.5186    231.8713   1.2867836170e+02   1.3466071083e+01    0.3531394    0.1688576  59.71  0.001475839    2.417    0.586
        56  -8.9681      2.0376    231.2342   1.4654144214e+02   2.5241476921e+01    0.2761646    0.1204113  73.39  0.001038952    2.102    0.524
        57  -9.1038    151.3161    228.9783   1.1554550389e+02   4.1017212697e+00     0.305231    0.2039984  86.39  0.001120364    2.612    0.617
        58  -9.5613    148.6518    224.6585   1.1542634077e+02   5.4322296600e+00    0.4648728    0.3179445 -86.47  0.001551948    2.303    0.566
        59  -8.2147    229.7534    228.9209   9.9552768814e+01  -8.8876774890e+00    0.1779589    0.1464084 -61.69 0.0007205228    1.851    0.460
        60  -8.8872    162.5981    228.1704   1.1299024077e+02   2.2764582453e+00    0.3683907    0.2467881  69.81  0.001141257    2.315    0.568
        61  -9.0395    127.9999    227.5786   1.2040110963e+02   8.4678976395e+00    0.3066697     0.220056  65.69  0.001022462    1.536    0.349
        62  -8.3065    120.1983    228.0069   1.2217121851e+02   9.7226731974e+00    0.2279128    0.1514937  82.69  0.001065738    2.028    0.507
        63  -8.2575    223.3404    226.8109   1.0038679511e+02  -7.5862638081e+00    0.2338783    0.1515413 -27.92 0.0009074793    1.505    0.336
        64  -9.0274    206.0575    225.7429   1.0356447954e+02  -4.6834328154e+00    0.3495761    0.1888645 -43.46  0.001141058    1.935    0.483
        65  -8.4774    200.3440    226.1102   1.0477428158e+02  -3.8113524657e+00    0.3082177    0.1583705 -43.04  0.001044324    2.027    0.507
        66  -8.1322    170.3423    236.0726   1.1265214404e+02  -5.3933964729e-01    0.1744711     0.126973 -61.70  0.000559132    1.756    0.430
        67  -8.0746     49.6314    227.2719   1.3713501653e+02   2.0682996577e+01     0.220038    0.1205306  69.85   0.00110963    1.830    0.453
        68  -8.9837     94.1976    224.3333   1.2735914180e+02   1.4834797797e+01    0.4406265    0.2223145  67.86  0.001704022    2.911    0.656
        69  -9.0572    180.8480    224.3160   1.0846670080e+02  -1.8349655630e-01    0.3064492    0.2430457  70.29 0.0009950605    1.732    0.423
        70  -8.9173    104.8680    223.8112   1.2494552094e+02   1.3207962804e+01    0.3500216    0.2251291  85.92  0.001644146    1.990    0.497
        71  -7.7139     38.4422    224.9445   1.3917960377e+02   2.2608120770e+01    0.1820301   0.08553448  80.17 0.0006533526    2.459    0.593
        72  -9.2807    216.5752    223.1745   1.0103201555e+02  -5.9330785996e+00    0.3567597    0.2237674 -37.71  0.001579146    1.577    0.366
        73  -8.9894    173.1851    223.2215   1.0989358859e+02   1.3619210293e+00     0.269718    0.2230867 -61.62 0.0007421399    1.440    0.306
        74  -7.9163    113.8276    223.8445   1.2297180299e+02   1.1694906065e+01    0.1908108    0.1509997  75.36 0.0004481539    1.310    0.237
        75  -9.4004    192.4590    221.4488   1.0554691326e+02  -1.6560303252e+00    0.3349637    0.2664244 -84.52  0.001044502    1.992    0.498
        76  -9.1869    239.0945    221.7097   9.6518040793e+01  -9.1130889946e+00    0.2259629    0.1946315 -61.66 0.0008684591    1.729    0.421
        77  -9.2073    225.6495    221.7710   9.9033135852e+01  -7.1137893339e+00    0.2409214    0.2248393  61.83  0.001311416    1.491    0.330
        78  -9.0910    160.2895    221.3754   1.1234672989e+02   4.0120160341e+00    0.5018145    0.2141982  53.61  0.001570132    3.346    0.701
        79  -9.2488    120.7946    219.5897   1.2079296883e+02   1.1415144307e+01    0.5326574    0.2854023  66.43  0.002005744    2.944    0.660
        80  -8.5935     82.6440    220.6037   1.2941200976e+02   1.7478234065e+01    0.2765815    0.1618921  72.00  0.001068394    2.003    0.501
        81  -8.3005     73.3625    221.1642   1.3150032430e+02   1.8749199408e+01    0.1904837    0.1150229 -82.96 0.0009389102    1.743    0.426
        82  -8.3811     27.5206    220.5400   1.4098032185e+02   2.4866770647e+01    0.2538212    0.1019162 -72.77  0.001208771    2.170    0.539
        83  -8.4528    202.7567    220.3571   1.0325363405e+02  -3.1991181097e+00     0.177108    0.1644732 -16.18 0.0006060363    1.108    0.097
        84  -8.6566    249.3666    218.5185   9.4088095057e+01  -1.0075717186e+01    0.2713182    0.2016203  69.04  0.001393084    2.954    0.662
        85  -8.6062    210.1016    218.6503   1.0147536207e+02  -4.1136024575e+00    0.2898426    0.1751939 -40.22  0.001345828    1.657    0.397
        86  -9.2455      7.5337    222.1162   1.4495592111e+02   2.6640373981e+01    0.2693383   0.08100981  48.79  0.001244235    2.795    0.642
        87  -9.2918    133.0040    216.0433   1.1749650034e+02   1.0022520982e+01    0.5567176    0.3321488  77.01  0.002095439    3.097    0.677
        88  -8.5929     62.2105    217.5686   1.3349571611e+02   2.1161050938e+01    0.3060858    0.1745145  69.48  0.001323957    1.864    0.463
        89  -8.9001     51.5182    217.0983   1.3573034939e+02   2.2712796162e+01    0.3154252     0.181266  86.44  0.001087233    1.790    0.441
        90  -7.9336    179.2809    217.6325   1.0761493319e+02   1.3529078596e+00    0.1356438    0.1118708  84.63 0.0007014035    1.688    0.408
        91  -8.7393    169.2986    216.4209   1.0953544136e+02   3.3746775803e+00    0.2802851    0.2310068 -87.87 0.0008654447    1.612    0.380
        92  -8.6113    142.8743    216.5730   1.1537199639e+02   8.1324089105e+00    0.2740197    0.1911748 -79.73 0.0009094251    1.966    0.491
        93  -7.8191    111.9943    217.4922   1.2245399565e+02   1.3393607055e+01      0.20706    0.1038029  58.16 0.0008086347    2.404    0.584
        94  -8.8263    232.3941    214.4934   9.6421650589e+01  -6.9413620935e+00    0.3525593    0.2315959 -39.56  0.001629678    1.484    0.326
        95  -8.5955    154.3879    215.3493   1.1260727417e+02   6.2961446374e+00    0.2725758     0.195957  75.19 0.0009095108    1.957    0.489
        96  -8.3214    185.6796    214.4044   1.0568024541e+02   8.3573297903e-01    0.2292174    0.1731214 -57.92  0.000701199    1.591    0.371
        97  -9.5542    214.0633    212.3625   9.9527060045e+01  -3.6591933606e+00    0.3700034     0.285209  66.61  0.001487889    2.008    0.502
        98  -8.8711     92.9673    213.8597   1.2622826793e+02   1.7378321336e+01    0.3023077    0.2007958  78.76  0.001301108    1.723    0.420
        99  -9.5259     73.3263    212.2238   1.3042703199e+02   2.0792751378e+01    0.6506755    0.2578481  60.42   0.00217807    3.801    0.737
       100  -8.4433    224.7163    212.7255   9.7535973057e+01  -5.4468542987e+00    0.2269892    0.1482917 -34.59 0.0006803756    1.449    0.310
       101  -8.7191    161.7303    212.5589   1.1050016169e+02   5.5268674464e+00    0.2580863    0.2259875 -88.15 0.0006626471    1.362    0.266
       102  -8.2267    106.4707    212.9800   1.2303698463e+02   1.5342503151e+01    0.2033375     0.137505 -68.03 0.0008136245    1.551    0.355
       103  -9.1533    204.4065    210.9285   1.0117829065e+02  -1.7782621135e+00     0.329006    0.2569113 -69.72 0.0009864095    1.875    0.467
       104  -9.5352    175.7366    210.2926   1.0704167097e+02   3.4226041295e+00    0.4912628    0.3428046  81.74  0.001582271    2.600    0.615
       105  -8.8653    148.0859    210.8160   1.1322719317e+02   8.3976630908e+00    0.3173898    0.2395826 -86.01  0.001536078    1.753    0.430
       106  -9.2408      6.9492    209.8244   1.4420500442e+02   2.9392619669e+01    0.5623887    0.1830565  79.96  0.001740268    5.751    0.826
       107  -8.5169    192.4056    210.7622   1.0360241494e+02   3.3869208935e-01    0.2541084    0.1954144 -67.99 0.0009941551    1.794    0.443
       108  -8.8686    116.1410    210.1697   1.2039509619e+02   1.4308709407e+01     0.338971    0.2264288  83.24 0.0009781219    1.988    0.497
       109  -8.2788     32.6063    210.8163   1.3909221316e+02   2.6474788980e+01    0.2683355    0.1199931  79.91  0.001032272    2.792    0.642
       110  -8.6814     85.6887    209.6300   1.2730058627e+02   1.9509886085e+01    0.3649557    0.1882183  66.63  0.001441434    2.621    0.618
       111  -8.3103     46.6501    209.4899   1.3597856553e+02   2.5084927087e+01    0.2678221    0.1321731  78.20  0.001146717    2.510    0.602
       112  -9.0613    236.4804    208.4182   9.4527014781e+01  -6.5508120392e+00    0.2821164    0.2283529 -58.47  0.001022561    1.680    0.405
       113  -9.8980    124.4082    206.3785   1.1787782168e+02   1.3693169153e+01    0.3887862    0.2488088  72.65            0    2.160    0.537
       114  -9.2814    246.4484    207.3044   9.2520961847e+01  -7.8627825615e+00    0.2738594    0.1996949 -36.55 0.0006618705    1.285    0.222
       115  -9.3668    250.0742    202.1096   9.0902851732e+01  -7.5416628013e+00    0.3759688    0.1792614 -36.64   0.00119001    1.863    0.463
       116  -8.2035    228.8214    208.1034   9.5888246954e+01  -5.3039115311e+00    0.2947558     0.146176  18.26  0.001101637    3.459    0.711
       117  -8.2973    139.0000    208.0213   1.1480132629e+02   1.0670917001e+01    0.2335203    0.1730252  77.51 0.0006341437    1.711    0.416
       118  -9.2386     99.5211    206.3870   1.2365534602e+02   1.8021151646e+01    0.4329819    0.2605981  80.67  0.001276726    2.346    0.574
       119  -8.6328     56.6090    205.5658   1.3335785551e+02   2.4703580640e+01    0.3509446    0.1663847  65.41   0.00139029    2.630    0.620
       120  -8.1165     11.6806    206.6960   1.4302945110e+02   2.9636855060e+01    0.1120746   0.08299098 -54.72 0.0002792231    1.630    0.386
       121  -9.6543    195.1200    203.7016   1.0170445986e+02   1.2048408353e+00    0.4335722      0.36496 -73.90  0.001606871    1.574    0.365
       122  -9.2698    192.3459    197.5196   1.0108614074e+02   2.9145442156e+00    0.3768092    0.2728913 -64.50  0.001244986    1.824    0.452
       123  -9.1035    183.8607    203.3459   1.0400220682e+02   3.3178520502e+00    0.4495028     0.306554 -51.94  0.001344743    1.599    0.375
       124  -8.8608    131.1586    204.2285   1.1595367077e+02   1.2949249139e+01    0.3733715    0.2370252  72.08  0.001112767    2.280    0.561
       125  -8.1900    109.1755    205.2574   1.2123675819e+02   1.6640765149e+01    0.2058514    0.1569135  70.00 0.0005665202    1.369    0.269
       126  -8.0617     92.4187    205.3004   1.2514426108e+02   1.9443713628e+01    0.1977204       0.1298 -79.28 0.0009398825    1.654    0.395
       127  -7.9957     25.0000    205.0150   1.4015299618e+02   2.8652060046e+01    0.2022736   0.06028194 -72.22  0.000752638    2.882    0.653
       128  -9.7429    164.0310    203.0180   1.0825851099e+02   7.0751296952e+00    0.4793727    0.3192916  60.32  0.001174518    1.871    0.465
       129  -8.2972    211.1101    202.1914   9.8172758027e+01  -1.3212465033e+00    0.2379005    0.1789518 -68.34 0.0006303494    1.975    0.494
       130  -9.1818    243.0436    200.7988   9.1891562754e+01  -6.2697295530e+00    0.3165857    0.1720154 -42.56 0.0008774236    1.747    0.428
       131  -7.8529    222.4358    201.9487   9.5920823688e+01  -3.1897392371e+00    0.1805774    0.1167951 -62.22  0.000702945    2.482    0.597
       132  -8.8223    140.4060    201.0790   1.1326395936e+02   1.1938265160e+01    0.3240313    0.2327706 -89.51 0.0008946976    1.913    0.477
       133  -8.6457     79.8283    201.2263   1.2749759033e+02   2.2393009549e+01    0.3706182    0.2054625  76.03  0.001501329    2.517    0.603
       134  -7.7393     73.2552    202.5931   1.2920815239e+02   2.3058311700e+01    0.1477516    0.0947614  78.97 0.0005887171    1.723    0.419
       135  -8.3578     48.3873    202.1979   1.3480801462e+02   2.6569165543e+01    0.1975145     0.109706 -85.04 0.0009475349    1.804    0.446
       136  -7.6128     10.3329    202.6913   1.4298673078e+02   3.0672421791e+01    0.1292255   0.07151262  69.13 0.0002571054    1.671    0.401
       137  -9.0814    124.0437    199.3801   1.1678532683e+02   1.5349652387e+01    0.3742445    0.2348226 -77.37  0.001206334    2.148    0.534
       138  -9.0694    237.0843    198.7366   9.2567913878e+01  -4.9927088922e+00    0.3674768    0.2053071 -50.59  0.001316992    2.101    0.524
       139  -8.9508    177.2694    199.1057   1.0460906534e+02   5.3981954346e+00    0.2936904    0.2225977 -78.54 0.0007802098    1.884    0.469
       140  -9.6032    149.5666    198.6995   1.1072377754e+02   1.0736411467e+01    0.4739057    0.3294983  89.91  0.001456774    2.210    0.547
       141  -9.3322    112.9118    198.4702   1.1926469866e+02   1.7561628310e+01    0.4945512    0.3080492  73.80   0.00172782    2.243    0.554
       142  -9.1650     88.6136    198.4822   1.2503807001e+02   2.1668184478e+01    0.4194249    0.2590272  87.80  0.001843838    2.054    0.513
       143  -8.3349    202.4508    198.0874   9.9112686030e+01   9.7129431062e-01    0.2178617    0.1973893  67.80 0.0008998797    1.362    0.266
       144  -9.2131     61.6846    197.3938   1.3121093401e+02   2.5952766307e+01    0.4158197    0.2314391  64.38   0.00171599    1.996    0.499
       145  -8.3307     12.8447    197.7869   1.4206796478e+02   3.1551667678e+01     0.249796    0.1214482  77.55  0.001225885    2.104    0.525
       146  -8.6587    215.8664    195.6458   9.5961335241e+01  -9.2858279869e-01      0.25877    0.1770365 -58.18 0.0007847078    1.887    0.470
       147  -8.8948    185.2461    194.7523   1.0204473359e+02   4.7883984178e+00    0.3314602    0.2226458 -61.08 0.0009096966    1.876    0.467
       148  -7.9862    133.0011    196.0012   1.1408290872e+02   1.4467821235e+01    0.2288831    0.1757393  80.69 0.0004599591    1.570    0.363
       149  -9.3419    245.7259    193.7487   9.0061104681e+01  -5.4811469421e+00    0.3162146    0.2448075 -74.09  0.001341011    2.189    0.543
       150  -7.4508    209.2979    195.6486   9.7256161412e+01   2.1890881774e-01    0.1352085    0.1133821 -80.99 0.0007035572    1.689    0.408
       151  -9.0237    160.8893    194.1963   1.0729658414e+02   9.5522085647e+00    0.3526185    0.2720239  89.62 0.0008769394    1.760    0.432
       152  -8.1364    230.5519    194.0275   9.2850860166e+01  -3.1119523303e+00    0.2040811     0.122212 -41.16 0.0008852349    1.562    0.360
       153  -8.7555     76.9163    193.7558   1.2713265928e+02   2.4627549908e+01    0.2633042    0.1904551 -80.36 0.0005350061    1.346    0.257
       154  -9.0367     43.7111    193.1106   1.3483608913e+02   2.9309785408e+01    0.4266101    0.2192691  75.64  0.001859634    2.398    0.583
       155  -8.9754      6.0800    191.9835   1.4300382668e+02   3.3509530815e+01    0.3915575    0.2095379 -57.70  0.002180138    1.866    0.464
       156  -8.7111    224.4353    194.2596   9.4042098912e+01  -2.1359330852e+00    0.3028096    0.1993589 -53.47  0.001160004    1.799    0.444
       157  -7.9402    205.3768    192.1223   9.7343350480e+01   1.5943207743e+00    0.1981707    0.1295194 -52.37 0.0006807503    1.699    0.412
       158  -8.2792    199.0045    191.8280   9.8581572404e+01   2.8136789081e+00    0.2080945    0.1931478 -86.79 0.0006007289    1.310    0.237
       159  -8.4955    179.1038    191.6938   1.0276512546e+02   6.5818404985e+00     0.249314    0.1981602 -56.55 0.0005628009    1.371    0.271
       160  -8.6292    172.3175    191.7504   1.0426428131e+02   7.8732111120e+00    0.3013928    0.2394031  83.75  0.001095989    1.699    0.411
       161  -9.1059    139.4921    190.7661   1.1159297933e+02   1.4434269607e+01    0.3698633    0.2703679  85.22 0.0009844353    1.832    0.454
       162  -9.0520     21.8967    191.7392   1.3958516062e+02   3.2063684610e+01    0.3904401    0.1094365  55.91   0.00122269    5.281    0.811
       163 -10.4447     92.3803    188.8503   1.2264706181e+02   2.3374441291e+01     1.047484    0.3082611  48.68  0.003129533    3.951    0.747
       164  -9.0989    216.6999    188.2959   9.4340213920e+01   3.0356866221e-01    0.3333645    0.2526474 -50.56  0.001083709    1.412    0.292
       165  -8.2249    148.5957    189.4856   1.0921466925e+02   1.2969812275e+01     0.247968    0.1810982 -75.69 0.0007545812    1.734    0.423
       166  -8.9723    129.3765    188.8590   1.1364686998e+02   1.6796626027e+01    0.3655148    0.2604096  74.49  0.001107894    1.778    0.438
       167  -8.6428    237.1498    188.5379   9.0566725161e+01  -3.2121428317e+00    0.2469709    0.1704217 -37.42 0.0005857616    1.307    0.235
       168  -9.3617    155.9735    187.5260   1.0712439707e+02   1.1969842920e+01    0.4011911    0.2549043 -61.94 0.0009974455    1.853    0.460
       169  -9.8480    120.9508    186.8515   1.1531614011e+02   1.8842859254e+01    0.5974682    0.3284118 -74.89  0.002150706    2.820    0.645
       170  -8.8438     34.2848    188.0884   1.3643102032e+02   3.1610715600e+01     0.344707    0.1716046  79.08 0.0009833501    2.461    0.594
       171  -8.1034    230.5852    187.7535   9.1607013595e+01  -1.9860437787e+00    0.1861395    0.1210415 -48.76 0.0005214468    1.607    0.378
       172  -8.7605    191.5761    187.6148   9.9281087959e+01   5.0443624097e+00    0.3262499    0.2591673  84.64  0.001331686    1.805    0.446
       173  -8.8563    165.0064    186.9079   1.0494061261e+02   1.0335343895e+01    0.3144564    0.2471597 -68.28  0.001394289    1.489    0.328
       174  -9.1926     54.6951    186.9942   1.3152047059e+02   2.9406371974e+01    0.4172003    0.2232083  73.89  0.001672891    2.424    0.587
       175  -8.7442    249.3857    185.6740   8.7857665323e+01  -4.6573557787e+00    0.2853636    0.1945256 -51.40 0.0008737457    1.636    0.389
       176  -8.9458    182.7949    185.0968   1.0064288888e+02   7.2475972626e+00    0.3747906    0.2311033 -39.49 0.0008453222    1.642    0.391
       177  -9.1559    109.5531    186.2652   1.1799897924e+02   2.1053802718e+01    0.3999676     0.274278  76.30  0.001274876    1.831    0.454
       178  -8.7029    210.2272    184.4794   9.4837945943e+01   2.1956169989e+00    0.2551527    0.1831466 -40.09 0.0004886542    1.326    0.246
       179  -8.5461    202.7732    184.9045   9.6417911731e+01   3.4849506391e+00    0.2484242    0.1950535 -62.10 0.0007046087    1.530    0.347
       180  -9.0047     66.5878    184.3469   1.2828343250e+02   2.8436347165e+01    0.3873894    0.2494208  80.90  0.001309831    1.762    0.432
       181  -8.6073    224.1470    183.6615   9.1986889907e+01  -1.3080790585e-01     0.233851    0.1777897 -47.56 0.0005979777    1.337    0.252
       182  -8.9435    174.2845    183.6714   1.0221402708e+02   9.2121772444e+00    0.2975057    0.2382948  89.43 0.0007777925    1.660    0.398
       183  -9.0818     44.5677    182.5040   1.3336983051e+02   3.1770242003e+01    0.3714891    0.2137949  69.21  0.001191844    1.955    0.488
       184  -8.3617     19.7603    182.7496   1.3917981189e+02   3.4399550240e+01    0.3161426    0.1236646  82.95  0.001062465    4.280    0.766
       185  -8.0869      1.7830    183.5979   1.4322588745e+02   3.5808963326e+01    0.1574683   0.09573227  50.59 0.0009429944    1.671    0.401
       186  -8.7165    240.7667    181.6126   8.8552231871e+01  -2.5663602427e+00    0.2821018    0.1670756 -47.67  0.001218248    1.690    0.408
       187  -9.1669    147.6618    180.8575   1.0774585725e+02   1.5110873493e+01    0.3969009    0.2853045  83.95  0.001140885    1.979    0.495
       188  -9.4355     25.5391    178.7000   1.3742684796e+02   3.4794738935e+01     0.652591    0.2647268  81.41  0.002132401    4.565    0.781
       189  -8.7455    137.5635    179.3956   1.0987013777e+02   1.7436083329e+01     0.331922    0.2346593  85.06 0.0009785639    1.996    0.499
       190  -9.5105    191.5605    178.4088   9.7399954754e+01   6.9361300037e+00    0.3296668    0.2750806  79.76 0.0005527613    1.542    0.351
       191  -8.0866    169.3075    178.8712   1.0234251496e+02   1.1239479411e+01    0.2337251    0.1849826 -71.44  0.000600272    1.513    0.339
       192  -9.1658     35.8844    176.7685   1.3475035252e+02   3.4168848378e+01    0.6092955    0.2636085  85.41  0.002067585    3.992    0.749
       193  -9.4192    248.4159    176.6547   8.6248067818e+01  -2.9253682719e+00    0.4511257    0.2557817 -55.95  0.002059988    2.318    0.569
       194  -8.5152    250.5166    172.8923   8.5149127802e+01  -2.5974068511e+00    0.1933062    0.1450066 -35.63 0.0005284488    1.147    0.128
       195  -8.4275    217.6451    177.2645   9.1919336812e+01   2.2419363824e+00    0.2502461    0.1611543 -51.33 0.0006262747    1.641    0.391
       196  -8.6911    205.2728    177.8158   9.4459075669e+01   4.4267506814e+00    0.2637942    0.2178749 -70.76 0.0009413356    1.511    0.338
       197  -8.6070    129.1635    177.3790   1.1152176878e+02   1.9542371980e+01    0.3181232     0.224725  86.18  0.000962326    1.938    0.484
       198  -8.5267     97.7148    177.6017   1.1943057183e+02   2.5231848725e+01     0.276385    0.2220855 -21.35 0.0009708065    1.675    0.403
       199  -9.1358     89.0757    176.9095   1.2150087052e+02   2.6845886968e+01    0.3229634    0.2254405  89.66  0.000845624    1.660    0.398
       200  -8.4512    231.1681    176.8501   8.9311728344e+01  -8.0574567709e-02    0.2448292    0.1652653 -48.17 0.0007523131    1.476    0.322
       201  -9.1572    183.2286    176.3639   9.8750385205e+01   9.0033685993e+00     0.313895    0.2485864 -65.82 0.0004524812    1.475    0.322
       202  -9.3714    158.9855    175.2638   1.0395457741e+02   1.4116812551e+01    0.4478053    0.3122165  86.74  0.001347291    2.272    0.560
       203  -9.5047    104.6285    175.0405   1.1721777030e+02   2.4659105243e+01    0.6130555    0.3343905  68.48  0.002100097    3.139    0.681
       204 -10.0232     57.3704    173.3964   1.2899538400e+02   3.2402603939e+01    0.8499463    0.4091309  81.24  0.002718433    4.246    0.765
       205  -8.9625     12.5385    176.5345   1.4020614570e+02   3.6543640756e+01    0.2782222    0.1378496  68.85 0.0007862512    2.266    0.559
       206  -7.6723    211.4836    176.4819   9.2951637313e+01   3.5274824291e+00    0.1427861    0.1339674 -30.24 0.0004084837    1.037    0.035
       207  -8.5835     79.0640    158.4646   1.2087312001e+02   3.3039625158e+01    0.2829535    0.2232145  15.16 0.0009484253    1.610    0.379
       208  -9.4248     81.5589    154.7072   1.1949871469e+02   3.3591263220e+01    0.4893667    0.3083207  76.80  0.001325579    2.299    0.565
       209 -10.7015     76.1074    171.1292   1.2385316692e+02   3.0321731398e+01     1.167621     0.481403 -76.68  0.003261138    4.817    0.792
       210  -9.1124     74.4642    160.4795   1.2246970116e+02   3.3232903991e+01    0.2772294    0.2105227 -31.34 0.0009899366    1.640    0.390
       211  -8.6231    224.6660    174.4403   9.0014548165e+01   1.5164816191e+00    0.2481152    0.1591664 -50.50 0.0006815802    1.612    0.380
       212  -7.6830    241.4916    174.4886   8.7002095118e+01  -1.4030400040e+00    0.1357352    0.1191805 -31.63 -4.414306e-05    1.033    0.032
       213  -9.3603    175.7019    172.4697   9.9578012495e+01   1.1349730838e+01     0.337143    0.2542302 -54.32 0.0008805715    1.373    0.271
       214  -8.5692    142.8761    172.7508   1.0725005851e+02   1.7938224055e+01    0.2864762    0.2029735 -85.27 0.0007640165    1.983    0.496
       215  -8.4069    134.7661    172.0338   1.0908004163e+02   1.9719078334e+01    0.2447602    0.2067675 -88.42 0.0008209149    1.313    0.238
       216  -9.6367    121.4486    170.5779   1.1210408004e+02   2.2653278008e+01    0.4513378    0.3062372 -79.18  0.001117486    1.903    0.474
       217  -9.2542     44.9852    170.8634   1.3175668602e+02   3.4576849883e+01    0.4433677     0.227775 -85.20   0.00134259    2.268    0.559
       218  -8.9389    243.4795    169.9265   8.5742073622e+01  -9.0850262670e-01    0.3400444    0.2378985   7.67  0.001223724    1.941    0.485
       219  -8.8505    230.4934    170.3195   8.8101360308e+01   1.2587623991e+00    0.2438973    0.1860321 -54.28 0.0007080656    1.407    0.289
       220  -8.5201    205.7747    170.1220   9.2750915771e+01   5.8747380831e+00    0.2934541     0.187953 -53.62 0.0007966367    1.682    0.405
       221  -8.4027    198.5110    170.4722   9.4291772240e+01   7.2154429862e+00    0.2472296    0.1989063 -81.05 0.0006446978    1.648    0.393
       222  -8.2399    237.1695    169.4962   8.6745973942e+01   2.4475005947e-01    0.2130316    0.1741773 -54.85 0.0005829082    1.319    0.242
       223  -9.1296    167.3165    168.8922   1.0069931266e+02   1.3847225043e+01    0.3946246    0.2814179  74.80  0.001188969    1.983    0.496
       224  -8.5292    149.8395    169.6062   1.0492506211e+02   1.7263324106e+01    0.2982125    0.2067054 -71.58 0.0007313582    1.834    0.455
       225  -8.8743    111.6343    167.4870   1.1399325496e+02   2.5247600449e+01    0.4046874    0.2758113  88.61  0.001109517    2.014    0.503
       226  -8.5681     88.8507    168.6005   1.2011048839e+02   2.8947126562e+01    0.2970966    0.1883199 -80.43 0.0009175338    1.900    0.474
       227  -8.3749    218.9296    168.2362   8.9803525308e+01   3.7570725425e+00    0.2097817    0.1900803 -64.20 0.0006094346    1.233    0.189
       228  -9.0003    192.0364    166.9315   9.4877033404e+01   9.2357740177e+00    0.3348858    0.2300866 -57.65 0.0006927947    1.621    0.383
       229  -8.6215    185.1680    166.8908   9.6323401248e+01   1.0631801247e+01     0.306382    0.1999662 -57.10 0.0006901015    1.706    0.414
       230 -10.1599     95.0469    162.9920   1.1744997927e+02   2.9308538827e+01    0.9171392    0.5104806  79.93  0.002860046    3.980    0.749
       231  -9.0462     20.3605    165.8724   1.3723082713e+02   3.8385984846e+01    0.3766598    0.1912895  71.23   0.00149049    2.430    0.589
       232  -8.2333     12.8274    167.5925   1.3923266072e+02   3.8643772280e+01     0.165085    0.1031969  49.07  0.000750782    1.704    0.413
       233  -9.9144    136.8717    164.5602   1.0701375458e+02   2.1072207611e+01    0.6996354    0.3375512  57.58  0.002310916    2.951    0.661
       234  -7.8746    250.6393    164.8588   8.3526424736e+01  -1.1861598478e+00    0.1955655     0.108875 -47.96  0.000939186    1.705    0.413
       235  -8.2101    233.8651    165.0703   8.6420233951e+01   1.6476847229e+00    0.2124059    0.1742915 -56.87 0.0007916979    1.317    0.241
       236  -8.7377    159.5913    164.5381   1.0154271596e+02   1.6421032365e+01    0.2908153    0.2578939 -82.57 0.0007529316    1.237    0.192
       237  -9.3335     33.6073    163.4769   1.3364136625e+02   3.7664482828e+01    0.5460171    0.2175839  54.90  0.002089656    3.348    0.701
       238  -8.7847    246.0266    163.1149   8.3936625427e+01  -1.0024161052e-01    0.2408534    0.1985946 -50.24 0.0006848792    1.210    0.174
       239  -7.9660    242.3978    160.2500   8.3961044812e+01   1.0464165598e+00    0.1811033     0.151808 -61.65 0.0004008896    1.337    0.252
       240  -8.2051    240.0278    164.2768   8.5186148475e+01   7.1468435190e-01    0.1842904    0.1698973 -34.06 0.0005189326    1.062    0.058
       241  -8.6200    212.8804    163.5443   8.9966674957e+01   5.8254173615e+00    0.3242849       0.1904 -46.29 0.0008066422    1.620    0.383
       242 -10.2455    211.2253    158.4571   8.9197324656e+01   7.1640500588e+00    0.2970289    0.2462289 -47.02 0.0002422795    1.148    0.129
       243  -8.2541     57.4410    163.7989   1.2753388737e+02   3.4782615747e+01    0.3957334     0.186435  22.51  0.001545368    3.069    0.674
       244  -8.5160    204.9166    162.9328   9.1391880505e+01   7.4987654817e+00    0.2571831    0.1928704 -50.95 0.0004537512    1.328    0.247
       245  -9.3488      3.3411    162.3764   1.4095025741e+02   4.0645254159e+01    0.3766041    0.1807689  58.79  0.001878927    2.371    0.578
       246  -9.1461    177.4110    160.7028   9.6663434614e+01   1.3565795452e+01    0.3374061    0.2683547 -71.43 0.0009016916    1.482    0.325
       247  -8.8889    151.8081    161.2988   1.0267732402e+02   1.8778921235e+01    0.3704835    0.2680958 -85.84  0.001145237    1.942    0.485
       248  -7.7270    221.9772    161.7637   8.7875790767e+01   4.4488459042e+00    0.1721165    0.1213816  43.12 0.0003660909    1.545    0.353
       249  -8.8080     60.8003    160.3547   1.2609828614e+02   3.5198772888e+01    0.3701423    0.2235578  70.99   0.00120494    2.164    0.538
       250  -8.5229    227.4660    159.1461   8.6326367648e+01   3.9326626821e+00    0.3172725    0.2028843 -61.00  0.001084296    1.984    0.496
       251  -9.6998    105.8043    157.8175   1.1358354585e+02   2.8696681515e+01    0.5340461    0.3557859 -89.78  0.001372862    2.146    0.534
       252  -9.7657    250.1726    157.8661   8.2195610105e+01   1.5038106052e-01    0.3543932    0.1689281 -40.76 0.0008089524    1.806    0.446
       253  -8.2163    236.7984    158.9183   8.4639528658e+01   2.2794189529e+00    0.2239178    0.1462791 -60.40 0.0007684509    1.892    0.471
       254  -8.4868    128.2173    158.9841   1.0800111832e+02   2.4136437776e+01    0.3086692    0.2293859  89.00 0.0009393982    1.743    0.426
       255  -7.9020    245.2896    158.6719   8.3156804222e+01   8.3631121972e-01    0.1331726      0.10122 -65.42 0.0003037443    1.618    0.382
       256  -8.5085    196.3396    157.8240   9.2012007666e+01   1.0272205560e+01    0.2765468    0.2196565 -69.20 0.0008100132    1.482    0.325
       257  -8.5565    188.0560    157.8093   9.3730185273e+01   1.1978047282e+01    0.2771189    0.1857646 -57.98 0.0005796287    1.652    0.395
       258  -9.2675    167.5098    157.2782   9.8123537651e+01   1.6400930331e+01    0.3812415    0.2853396 -78.87 0.0009566184    1.755    0.430
       259  -8.3923    218.0400    156.5519   8.7499255849e+01   6.2188244738e+00    0.2800301    0.1841618 -55.61 0.0007489195    1.642    0.391
       260  -9.0705    157.6434    156.0500   1.0013524744e+02   1.8762900187e+01    0.3613219    0.2590377 -68.05  0.001051628    1.666    0.400
       261  -9.5372    119.5688    155.3317   1.0944630430e+02   2.6718676272e+01    0.5448785    0.3255531 -73.20  0.001911421    2.376    0.579
       262  -9.2654     49.6244    155.2534   1.2827152053e+02   3.7894129488e+01     0.374777    0.2316748  68.79  0.001634532    2.005    0.501
       263  -8.6080    242.7296    155.0168   8.2833265242e+01   1.9543223719e+00    0.2295695    0.1940497  76.00 0.0003835113    1.514    0.339
       264  -7.8976    239.7197    153.3199   8.2985292714e+01   2.8037759036e+00    0.1879711    0.1542171 -17.46 0.0004501327    1.315    0.240
       265  -7.8853    204.6631    155.2398   8.9777000674e+01   9.1195061662e+00    0.2074961    0.1313656 -37.54 0.0007779243    1.543    0.352
       266  -8.6595    144.4938    154.8134   1.0302099047e+02   2.1809934502e+01    0.3028979    0.2401219  80.10 0.0009163549    1.531    0.347
       267  -9.7042    132.8192    153.1203   1.0555769222e+02   2.4616135355e+01    0.5020108    0.3555494  78.72  0.001191327    1.961    0.490
       268  -9.0754    133.4683    148.4917   1.0435801537e+02   2.5584930771e+01    0.4419195    0.2435893 -44.34  0.001620194    1.839    0.456
       269  -9.7225     68.0249    153.8857   1.2304614529e+02   3.5821483123e+01    0.4647283    0.2901994  74.60  0.001455133    2.197    0.545
       270  -8.0856    232.6062    153.7973   8.4297424525e+01   4.0059510059e+00    0.2011124    0.1198521 -50.29 0.0004753533    1.637    0.389
       271  -8.1991      9.2019    153.4053   1.3857173755e+02   4.2324041148e+01    0.1600143    0.1072069  46.61 0.0009512104    1.669    0.401
       272  -9.7191     29.4961    150.7731   1.3299230612e+02   4.1191373543e+01    0.4666831    0.2415504  68.42  0.001907063    2.733    0.634
       273  -9.3707     19.9643    152.0430   1.3566385750e+02   4.1763436015e+01    0.2482153    0.1534945 -79.76  0.001162859    1.431    0.301
       274  -9.1552      2.6701    150.2041   1.3985251772e+02   4.3565225106e+01    0.4848915    0.1158227 -71.46   0.00180067    3.224    0.690
       275  -9.7773    248.8302    149.6127   8.0735917701e+01   1.8794182814e+00    0.3477296     0.191748 -40.05 0.0008351851    1.571    0.363
       276  -8.9324    243.0812    150.3416   8.1813086359e+01   2.7570435171e+00    0.2675849    0.1757534 -46.50 0.0006763185    1.362    0.266
       277  -8.9303    189.4092    150.3101   9.1778242679e+01   1.3291730451e+01     0.337724     0.240457 -61.56 0.0008928668    1.584    0.369
       278  -7.9778    182.4108    151.3087   9.3485180934e+01   1.4556833125e+01     0.212713    0.1427387 -55.57 0.0006131257    1.567    0.362
       279  -8.5434    162.6845    150.4550   9.7696878844e+01   1.8960652313e+01     0.374399    0.2095045 -63.00   0.00132347    2.422    0.587
       280  -8.9996     97.9958    150.6324   1.1420643042e+02   3.1869432430e+01    0.3474833    0.2476568  64.64  0.001170901    1.656    0.396
       281  -7.8503    237.4261    150.4755   8.2779550656e+01   3.7507417537e+00    0.1399983    0.1222043 -42.23 8.193985e-05    1.020    0.020
       282  -9.1514    233.8018    147.7110   8.2813319573e+01   4.9408201045e+00    0.3118792     0.208798 -56.13 0.0007442016    1.571    0.363
       283  -8.1362    212.8456    149.8391   8.7022770237e+01   8.5730576091e+00    0.1972758    0.1632673 -61.96 0.0003449302    1.279    0.218
       284  -9.8984     39.7732    147.6084   1.2975115826e+02   4.0913235379e+01    0.6126232    0.3506857  80.19  0.002699113    2.407    0.585
       285  -8.5792    198.7834    148.8024   8.9524872781e+01   1.1648231887e+01    0.2932005    0.1946732 -54.63 0.0006539063    1.563    0.360
       286 -10.5038    149.1204    145.1314   9.9692230819e+01   2.3083486369e+01    0.6712928    0.4423808  86.15  0.001756076    2.648    0.622
       287 -10.0121     89.1866    146.2291   1.1572122216e+02   3.4467886955e+01     0.746842    0.4331149 -86.72  0.002585763    3.202    0.688
       288  -8.2373     89.3069    137.9686   1.1394027930e+02   3.6483211181e+01    0.3476137    0.2291471 -16.71  0.001390087    2.492    0.599
       289  -9.1904     78.1668    147.1199   1.1897489707e+02   3.6012420093e+01    0.3571497     0.239795  88.89 0.0009993997    1.971    0.493
       290 -10.3855     54.8873    144.6450   1.2505765883e+02   3.9881620282e+01    0.8617435      0.46788  79.16  0.003008052    3.433    0.709
       291  -9.4313     56.8292    135.6713   1.2285900294e+02   4.1849306281e+01    0.4711358    0.2267964  13.19  0.001637991    3.993    0.750
       292  -8.2423    223.4216    147.0421   8.4478626993e+01   7.0442756957e+00     0.224077    0.1962354 -80.53 0.0007694943    1.307    0.235
       293  -8.9665    150.3006    136.6875   9.7419370444e+01   2.4761508574e+01    0.6001836    0.3860359   0.67  0.001918965    3.689    0.729
       294 -10.3351    106.4561    144.0031   1.1048285132e+02   3.1972965475e+01    0.8235937    0.5211012 -82.77  0.002157339    2.488    0.598
       295  -9.2967     13.3636    146.4306   1.3667673243e+02   4.3663718031e+01    0.3445365    0.1928965  60.80  0.001195914    2.139    0.532
       296  -8.0481    206.7480    146.5903   8.7470305890e+01   1.0461136201e+01    0.1899178    0.1439921  61.66 0.0004554226    1.514    0.340
       297  -8.0458    175.4136    146.2081   9.3848542645e+01   1.7164019989e+01    0.2252224    0.1435258 -57.06 0.0007483575    1.705    0.414
       298  -9.5216    240.8131    144.6693   8.1008632722e+01   4.2199012107e+00    0.3364943    0.2394799  19.33  0.001617083    2.014    0.503
       299  -8.8440    165.7681    144.1926   9.5547892295e+01   1.9699939444e+01    0.3291636    0.2389898  72.02 0.0008270887    1.755    0.430
       300  -9.9493    124.8760    142.4404   1.0519775252e+02   2.8777006085e+01    0.6426104    0.4048297 -76.94  0.001806687    2.458    0.593
       301 -11.0263     69.0776    140.3454   1.2021987245e+02   3.9042504222e+01     1.075324    0.4606544 -57.69  0.003863675    2.103    0.524
       302  -9.6790    247.0619    143.6939   7.9804537549e+01   3.2734725166e+00    0.3045612    0.1958024 -34.71 0.0005404272    1.457    0.314
       303 -10.0291    139.2159    144.9049   1.0208601079e+02   2.5236828143e+01    0.5457121    0.3185934 -65.27   0.00124427    2.246    0.555
       304  -8.0790    194.4209    143.9226   8.9307969240e+01   1.3580191963e+01    0.2088036    0.1265724 -65.23   0.00046613    2.298    0.565
       305  -9.3303      2.8007    141.9858   1.3889750498e+02   4.5492238917e+01    0.3745815    0.1875281  74.05   0.00176426    2.596    0.615
       306  -8.6055    230.4539    141.1761   8.1997263846e+01   6.8198171022e+00    0.3480072    0.1245334 -44.38  0.001272023    2.497    0.600
       307  -8.3534    181.8599    141.6083   9.1391588254e+01   1.6766302386e+01     0.299046    0.1941499 -60.72  0.000570452    1.778    0.438
       308  -9.9133     23.3754    138.1112   1.3284695619e+02   4.4829388638e+01     0.524074    0.2855044  76.55  0.002159421    2.616    0.618
       309  -8.8114     14.4323    140.3721   1.3561391702e+02   4.5027848692e+01    0.2091727    0.1124027  -6.44 0.0009475503    3.265    0.694
       310  -8.2622    218.3737    138.7876   8.3589490416e+01   9.6608353468e+00    0.1952633    0.1811711 -77.92 0.0005332959    1.133    0.117
       311  -8.7406    172.2279    138.4250   9.2746062313e+01   1.9560869453e+01    0.3236884    0.2371784 -66.49 0.0008779163    1.579    0.367
       312  -8.7270    241.2724    137.5597   7.9451683199e+01   5.4594489220e+00    0.2463107    0.1611183 -25.42 0.0009579319    1.813    0.448
       313  -8.1728    207.4807    138.0191   8.5422651412e+01   1.2047527459e+01    0.2279123    0.1377409 -46.26 0.0006731399    1.546    0.353
       314  -8.5922    197.4398    137.7019   8.7290747395e+01   1.4231761698e+01    0.2773004    0.2226841 -78.27 0.0007680322    1.467    0.318
       315  -8.7645     80.6722    137.6842   1.1634763810e+02   3.7957384417e+01    0.2328132    0.2113495 -29.21  0.001272846    1.188    0.158
       316 -10.3531     83.4294    132.9483   1.1453312258e+02   3.8675753806e+01    0.6218162     0.362585 -67.67  0.001311462    1.977    0.494
       317  -8.7338     84.0289    123.4660   1.1221075797e+02   4.0858143142e+01    0.4820685    0.2864191   9.44  0.001782172    3.058    0.673
       318  -9.4589     39.1567    136.2735   1.2809035555e+02   4.3756317298e+01    0.3171254    0.2083297  87.16 0.0009562353    1.829    0.453
       319  -8.8982    250.7486    130.1686   7.6463802871e+01   5.0768032741e+00    0.4655617    0.1108979 -42.12    0.0013023    3.557    0.719
       320  -9.5991    248.2795    135.3671   7.7902943923e+01   4.5791992397e+00    0.3604118    0.1944893 -44.46 0.0006955024    1.589    0.371
       321  -8.4563    246.9944    130.4958   7.7093653956e+01   5.7034367569e+00    0.2394557    0.1609913 -50.38 0.0006623854    1.324    0.245
       322  -8.1104    187.7103    135.5497   8.8760497546e+01   1.6782163766e+01    0.2787073    0.1330448 -44.39 0.0005861842    2.007    0.502
       323  -8.2723    162.6600    136.3843   9.4426702379e+01   2.2118249577e+01    0.2385813    0.1854312  90.00 0.0007980205    1.629    0.386
       324  -8.7073    179.5046    134.0255   9.0126397747e+01   1.8907705319e+01    0.3208848     0.238161 -67.83 0.0008296951    1.561    0.359
       325  -8.1462    231.4858    134.0027   8.0290346634e+01   7.9885121131e+00    0.2172504    0.1270173 -42.38 0.0004407798    1.527    0.345
       326  -9.2396    112.9110    133.3297   1.0628054701e+02   3.3321905834e+01    0.3650505    0.2678919  84.74 0.0009280986    1.872    0.466
       327  -8.0608    237.3910    133.2848   7.9174226163e+01   6.9869818725e+00    0.2041987     0.116135 -50.18 0.0006633314    1.632    0.387
       328  -9.3355    143.1064    131.5800   9.7952803843e+01   2.7486383977e+01    0.3685444    0.2521451 -59.42 0.0007542829    1.581    0.368
       329 -10.1848    132.0533    131.2487   1.0067695939e+02   2.9926424807e+01    0.6067377    0.3870273 -71.87  0.001492264    2.250    0.556
       330 -11.0675    131.6677    120.0202   9.7984937344e+01   3.2562686452e+01    0.9630387    0.5533751 -67.68  0.003063554    2.745    0.636
       331 -10.4863     98.1148    130.2763   1.0969924798e+02   3.6818325043e+01    0.7749535    0.3174949 -54.57   0.00161392    2.425    0.588
       332  -8.8354     98.8393    120.7635   1.0721277132e+02   3.8934737372e+01    0.8215339    0.3891581  19.85   0.00205619    6.142    0.837
       333  -9.6205    153.0227    129.3096   9.4981233871e+01   2.5822680738e+01    0.5246751    0.2613679 -53.85 0.0008663252    2.192    0.544
       334  -9.9804     12.8862    129.1251   1.3449185094e+02   4.7814773769e+01    0.5153599    0.2788371  89.33  0.002131692    2.239    0.553
       335  -8.1262    204.4644    130.2975   8.4247393735e+01   1.4241927010e+01     0.208798    0.1341011 -53.92  0.000930917    1.561    0.360
       336  -8.0349    192.5518    130.0002   8.6487525442e+01   1.6881043449e+01    0.2327034     0.143486 -45.85 0.0005179575    1.544    0.352
       337  -9.4419    168.4672    129.4368   9.1443284761e+01   2.2351002618e+01    0.3746041    0.2751785 -74.21 0.0009490103    1.703    0.413
       338  -8.4694    161.6925    129.7220   9.3048536677e+01   2.3803199325e+01    0.3295412    0.1852432 -63.74  0.001170482    2.508    0.601
       339 -10.2191     73.0729    128.3733   1.1657747966e+02   4.1389746104e+01    0.6130162    0.3818821 -62.24  0.001850165    1.580    0.367
       340  -9.5834     71.3545    119.9789   1.1522615085e+02   4.3650441172e+01    0.5074233    0.3003137 -68.90  0.001886041    2.026    0.506
       341  -7.9846      1.4258    130.1944   1.3783611661e+02   4.8340727274e+01    0.1736248   0.09755924 -83.06 0.0009358032    1.670    0.401
       342  -7.8025    220.5025    129.5563   8.1185215217e+01   1.1034147075e+01    0.1448706    0.1320352 -52.82 0.0001136692    1.007    0.007
       343  -8.0179    211.6404    129.3395   8.2706083366e+01   1.2913078888e+01    0.2258082    0.1647014 -73.45 0.0008195695    1.680    0.405
       344 -10.4320     59.9883    125.2146   1.1983363266e+02   4.3981401312e+01    0.7113937    0.4342182  82.83  0.002335228    2.913    0.657
       345 -10.7092     44.9373    123.7214   1.2410720100e+02   4.6163090509e+01     1.058719    0.5862424  79.95  0.003853337    3.821    0.738
       346 -10.0670    118.0821    125.5238   1.0298244048e+02   3.4132452179e+01    0.5509908    0.3848412  75.99  0.001596031    2.077    0.519
       347  -7.2458    228.3077    125.6613   7.9016916426e+01   1.0201159032e+01    0.1476973    0.1044759 -70.29 0.0007042751    1.682    0.405
       348  -8.7880    179.3439    124.8377   8.7974415465e+01   2.0890118667e+01    0.2880193    0.2303322 -84.25 0.0007546569    1.472    0.321
       349 -10.3659     28.1126    121.1820   1.2875360911e+02   4.8452537719e+01    0.9380785    0.4346815 -80.43   0.00366882    3.113    0.679
       350  -8.0179    188.5558    123.8083   8.5833271389e+01   1.9040612799e+01    0.2189696    0.1385536 -54.74 0.0006116411    1.628    0.386
       351  -7.8023    195.1445    122.1301   8.4138697469e+01   1.7918758733e+01    0.2128021    0.1686612 -66.82 0.0004493512    1.332    0.250
       352  -8.5515    172.0680    121.6381   8.8755141964e+01   2.3206383305e+01     0.255174    0.2075793 -61.30 0.0004271134    1.257    0.204
       353  -9.3940    158.4654    121.5421   9.1783048832e+01   2.6307996478e+01     0.369674    0.2550739 -58.02 0.0008073616    1.552    0.356
       354  -7.2223    202.7291    121.6819   8.2596438373e+01   1.6341868083e+01    0.1427456    0.1188667  -7.51 0.0002077586    1.562    0.360
       355 -10.1133    141.4595    118.0326   9.4985795699e+01   3.0873937703e+01    0.6334794    0.3110677 -52.56  0.001653058    2.192    0.544
       356  -8.4540    119.9802    119.3464   1.0091888165e+02   3.5162426222e+01    0.2560456    0.1301121  22.66 0.0007050085    4.449    0.775
       357  -9.4942      2.8687    117.3680   1.3569619002e+02   5.1214916490e+01    0.4596026    0.2388394  84.14  0.002168342    2.669    0.625
       358  -7.5401    231.5427    117.5344   7.6738138234e+01   1.1077481216e+01    0.1434463    0.1232047 -59.87  9.79305e-05    1.062    0.058
       359  -9.9460    109.2895    114.3234   1.0259493225e+02   3.8436356704e+01    0.5084067    0.3505669 -74.51   0.00130549    2.036    0.509
       360  -9.0092    109.2641    107.8747   1.0091295111e+02   3.9872463111e+01    0.4623568     0.290516   8.91  0.001664054    3.028    0.670
       361  -7.7371    219.3237    116.6872   7.8533620857e+01   1.3754539644e+01    0.1494691    0.1069784 -74.03 0.0002441397    1.659    0.397
       362  -8.3332    193.0584    115.3224   8.2934285707e+01   1.9751192322e+01    0.2719957     0.194788 -66.11 0.0006370338    1.562    0.360
       363  -8.2427    185.6649    116.0577   8.4560920803e+01   2.1272797228e+01    0.2194223    0.1846407 -48.80 0.0003566529    1.144    0.126
       364  -8.8647     58.8656    115.5053   1.1808303984e+02   4.6431721430e+01    0.3595308     0.215661  -8.22  0.001468642    2.846    0.649
       365  -9.9346    250.0027    115.0155   7.3462818123e+01   7.9378009900e+00    0.4337863    0.2579038 -68.98  0.001991378    2.240    0.554
       366 -10.7848    247.9776    105.4154   7.1769165942e+01   1.0022359766e+01    0.6558568    0.2891597 -39.79  0.002855068    2.071    0.517
       367  -7.8869    153.2878    115.6353   9.1506315065e+01   2.8746110961e+01    0.1630266    0.1223712 -79.24 0.0007023236    1.697    0.411
       368 -10.2945     92.8769    111.2616   1.0657948972e+02   4.2184800640e+01     1.007728    0.4013137 -47.83  0.002778934    2.385    0.581
       369  -9.9919     78.8358    112.5293   1.1116144323e+02   4.4247209115e+01    0.5358429    0.3843339 -85.70  0.001793475    2.030    0.507
       370  -9.0945     77.7138    105.6123   1.0977368678e+02   4.5990957831e+01    0.4061639    0.2597695   8.93  0.001648426    2.277    0.561
       371  -8.2120    167.0770    114.5029   8.8080712940e+01   2.5839114812e+01    0.2356036    0.1531008  51.19 0.0006790041    1.557    0.358
       372  -9.9660    122.2251    112.7806   9.8618451950e+01   3.6165249436e+01    0.3801126    0.3001721 -79.41 0.0009358142    1.579    0.367
       373  -9.9455    119.8346    106.5989   9.7630550310e+01   3.8007688091e+01    0.5000996    0.3508866 -15.26  0.002127506    2.028    0.507
       374 -10.7748    109.5415     99.2414   9.8494211043e+01   4.1666858700e+01    0.9599652    0.5176365  64.77  0.002070477    3.648    0.726
       375  -8.7018    159.2559    111.9960   8.9197362589e+01   2.8154133733e+01    0.3046691     0.236553 -65.63  0.000626269    1.413    0.292
       376 -10.1193    133.4864    109.3653   9.4754262639e+01   3.4501432344e+01    0.7225967    0.3653824 -53.51  0.002135833    2.208    0.547
       377  -9.7054     14.1451    111.0858   1.3129896523e+02   5.1917262720e+01    0.4147509    0.2477538  79.56  0.001694637    2.445    0.591
       378  -8.5462    174.7658    111.8985   8.5779474696e+01   2.4608302530e+01    0.2870865    0.1993729 -60.92 0.0006094898    1.576    0.366
       379 -10.3025     66.3197    109.9431   1.1444445426e+02   4.6710968563e+01    0.5946191    0.3330432 -59.95  0.001950078    1.821    0.451
       380  -8.9471     43.1514    109.3328   1.2173019819e+02   4.9735471278e+01    0.2794172    0.1649617   8.25  0.001323846    2.300    0.565
       381  -8.1704    189.2621    108.0188   8.1914312906e+01   2.2055958595e+01     0.219548    0.1812325 -50.94 0.0005399022    1.160    0.138
       382  -9.4749    140.0490    104.6950   9.1859474341e+01   3.4034294282e+01     0.396594    0.2894559 -80.13  0.001006146    1.880    0.468
       383 -10.5967     45.6138    102.3641   1.1937423663e+02   5.1047486015e+01    0.7349522    0.4616394  81.83  0.003081267    3.182    0.686
       384  -8.6458     46.0420     92.6568   1.1690283913e+02   5.3134087107e+01    0.3814312    0.1918618   8.58  0.001548587    3.174    0.685
       385 -10.5363     22.7147    102.4474   1.2697028820e+02   5.3226814657e+01     0.691821    0.4049354  83.86  0.003049004    3.027    0.670
       386  -8.4675    166.5543    104.2862   8.5612247477e+01   2.8043522676e+01    0.2681581    0.2053609 -64.24 0.0005965873    1.411    0.292
       387  -9.5300    150.6264    103.2146   8.8916896380e+01   3.1941179211e+01    0.4881942    0.3096729 -65.61  0.001409073    2.103    0.524
       388 -10.1560    128.7649    101.2341   9.3798435096e+01   3.7240249293e+01    0.6110183    0.3608504 -35.47  0.001851851    1.850    0.459
       389  -8.9319      6.6979    102.9410   1.3225958982e+02   5.4246864980e+01    0.2423543    0.1790733  59.73  0.001477981    1.754    0.430
       390  -8.0217    175.5168    102.0777   8.3172378902e+01   2.6393928587e+01    0.2255801    0.1465026 -45.06 0.0006268683    1.512    0.339
       391  -8.4078    159.8719    101.1144   8.6257242735e+01   3.0228667459e+01    0.2386654    0.2011944 -76.42 0.0004807173    1.285    0.222
       392  -9.4544     82.1637     99.7749   1.0684658170e+02   4.6557687831e+01     0.473234     0.287442 -58.90  0.001761271    1.859    0.462
       393 -10.3386     63.9703     96.4313   1.1182333970e+02   5.0051972786e+01    0.6871327    0.4165558 -71.46  0.001887114    2.535    0.605
       394  -8.8495     64.9709     87.5850   1.0910604516e+02   5.1781641426e+01    0.5358599    0.2369499  19.07    0.0018231    3.992    0.750
       395  -9.2676     94.9108     97.0480   1.0217604944e+02   4.4924470502e+01    0.3137357    0.2557124 -69.57 0.0007444057    1.480    0.324
       396  -9.0104    107.6861     92.8399   9.7232371021e+01   4.3354650464e+01    0.6609321    0.3319135  25.13  0.002182491    3.486    0.713
       397  -8.5022    151.2686     95.6845   8.6769866689e+01   3.3294006423e+01    0.3859852     0.251786  -5.52  0.001386725    3.099    0.677
       398  -8.1933    165.0652     94.4538   8.3397371336e+01   3.0313381184e+01    0.2519709    0.1987517 -68.01 0.0006490839    1.378    0.275
       399  -9.3154    139.2269     92.5680   8.8779551641e+01   3.6659021012e+01     0.450294    0.3032618 -88.35  0.001504982    2.466    0.595
       400 -10.3774    123.9464     91.6089   9.2400090649e+01   4.0226375366e+01    0.6364703    0.4716373  39.94  0.001788557    1.357    0.263
       401  -7.5301    188.4840     93.4685   7.8519677970e+01   2.5009727631e+01    0.1502226    0.1366728 -78.30 0.0004160772    1.035    0.033
       402  -8.2570    176.4034     93.2734   8.0773951643e+01   2.7872146130e+01    0.2154038    0.1348052 -52.40 0.0008937003    1.634    0.388
       403  -9.4894      5.0277     91.8262   1.3082458304e+02   5.6784058268e+01    0.3640898    0.2336382  86.58  0.001553341    2.163    0.538
       404  -8.0622    157.8244     91.8227   8.4267726743e+01   3.2511889717e+01    0.2085463    0.1733718 -76.50 0.0003795066    1.319    0.242
       405  -9.0153     23.1789     90.2504   1.2426273761e+02   5.5870690813e+01     0.295833    0.2005644  15.39  0.001319588    1.693    0.409
       406  -9.6754     34.8853     89.7608   1.2006052268e+02   5.4932095373e+01    0.4283625    0.2568398 -77.25  0.001720434    2.559    0.609
       407  -9.9230     86.3724     86.6322   1.0185282570e+02   4.8584056814e+01    0.4598884    0.3493912 -83.51  0.001228434    2.079    0.519
       408  -8.6884     86.3492     81.3226   1.0029903247e+02   4.9631135249e+01    0.2894037    0.1819382  13.88 0.0009746052    2.214    0.548
       409  -7.9682    163.6681     87.1913   8.1791394542e+01   3.2003057701e+01    0.2021917    0.1403084 -32.27 0.0004211155    1.611    0.379
       410  -9.7182     48.5710     84.4125   1.1388850361e+02   5.4579407925e+01     0.458915    0.3193405  72.30  0.002149652    2.731    0.634
       411  -8.9323    228.1256     85.7598   7.0357374606e+01   1.7483482128e+01    0.2062961    0.1663613 -76.30 0.0004949739    1.165    0.142
       412  -8.0252    179.3347     85.2739   7.8185323514e+01   2.8647498205e+01    0.2105276    0.1277988 -50.05 0.0005113161    1.656    0.396
       413  -9.8480    104.9445     83.3634   9.5281343400e+01   4.5762898442e+01    0.4680828    0.3279059 -66.90  0.001069623    2.030    0.507
       414  -8.3836    157.8551     84.1154   8.2204506288e+01   3.3935000631e+01    0.2292452    0.1943235 -75.61 0.0003788808    1.262    0.207
       415  -9.2213    140.9724     82.6984   8.5619831198e+01   3.8122566086e+01    0.4026071    0.2265294 -50.39  0.001101195    1.954    0.488
       416  -7.6942    185.3190     82.6588   7.6429273661e+01   2.7700388244e+01    0.1560667    0.1080081 -74.93 0.0007049548    1.715    0.417
       417  -9.5269     24.5631     80.4030   1.2148027952e+02   5.7831234906e+01    0.4102265    0.2502959 -76.66   0.00138308    2.437    0.590
       418  -9.4138      9.6867     80.9547   1.2700985630e+02   5.8806880941e+01    0.2777019    0.1943928  62.58  0.001043299    2.213    0.548
       419  -8.4522    150.3543     80.9532   8.2983834257e+01   3.6264697845e+01    0.2605578    0.2038088  88.26 0.0008666156    1.516    0.340
       420  -9.2901    119.4350     80.0178   9.0265488150e+01   4.3398837199e+01    0.4469648    0.2597799 -41.46  0.001440614    1.763    0.433
       421  -8.8787     74.4242     80.2853   1.0384619831e+02   5.1822953426e+01    0.3268153    0.2250018 -65.53  0.001094463    2.074    0.518
       422  -8.3040    166.8293     79.8211   7.9206554391e+01   3.2577294635e+01    0.2042745     0.199237  54.42 0.0003895902    1.109    0.099
       423 -10.1515     63.6585     74.5989   1.0579478460e+02   5.4547856634e+01    0.6741547    0.3085269 -57.96  0.002550802    3.354    0.702
       424  -7.6447    184.2401     78.3544   7.5551139547e+01   2.8701961131e+01    0.1350099    0.1160756   2.38  0.000415135    1.582    0.368
       425  -7.8757    174.7789     78.0572   7.7206288439e+01   3.0995151435e+01    0.1900865    0.1177004 -42.10 0.0007237116    1.632    0.387
       426  -9.7958    128.0958     74.8861   8.6520050041e+01   4.2426723572e+01    0.5350462    0.2764426 -43.85  0.001658823    2.029    0.507
       427  -7.5857    157.2539     76.6204   8.0311899488e+01   3.5403563665e+01    0.1514242    0.1096406 -69.68 0.0005818309    1.658    0.397
       428  -8.7547    140.5867     75.7290   8.3746573391e+01   3.9452400896e+01    0.2493196    0.1806487 -50.33 0.0006692452    1.472    0.321
       429  -9.4204    115.4155     73.3994   8.9377154097e+01   4.5438653389e+01    0.4423096    0.2190736 -34.23  0.001814121    2.207    0.547
       430  -9.9785     82.5579     71.5757   9.8534127483e+01   5.2111237135e+01    0.8105317    0.3584823 -39.34  0.002872899    2.249    0.555
       431  -8.3025    163.5146     73.2674   7.8132815301e+01   3.4490042367e+01    0.2624828    0.1363245 -44.58 0.0007071078    1.968    0.492
       432  -8.3654    151.3680     73.2235   8.0632820992e+01   3.7372098343e+01    0.2085597     0.131702 -49.50 0.0006293738    1.689    0.408
       433  -9.5126    105.9396     71.9016   9.1546681690e+01   4.7660567795e+01     0.305937    0.2012184 -49.21 0.0005677972    1.703    0.413
       434  -9.5201     95.0531     71.1239   9.4496593491e+01   4.9928485181e+01    0.3918919    0.2396105 -56.04  0.001054775    2.192    0.544
       435  -8.3832     42.7534     72.9035   1.1278832876e+02   5.7556512720e+01    0.2224993    0.1701421 -62.13 0.0007260625    1.582    0.368
       436  -9.2570     29.5909     70.3015   1.1698508332e+02   5.9413378755e+01    0.5823763    0.2648034 -15.09  0.002157086    4.264    0.765
       437  -7.6550    175.5061     72.5499   7.5657586734e+01   3.1754630409e+01    0.1451031    0.1333467  86.04 6.347374e-05    1.005    0.005
       438  -9.4387     51.4743     69.5895   1.0861208660e+02   5.7145965637e+01    0.4078528    0.2447904 -62.59  0.001564889    2.468    0.595
       439  -8.9034     16.5955     69.9696   1.2185697903e+02   6.0560421523e+01    0.2360726    0.1779064 -80.29 0.0009327637    1.868    0.465
       440  -7.8956    157.0082     69.9895   7.8561854679e+01   3.6580397835e+01    0.1736102    0.1645959 -62.72 0.0004374436    1.085    0.078
       441  -9.0959    147.0998     67.7623   8.0032217161e+01   3.9279874852e+01     0.430422     0.205568 -37.28  0.001549114    2.215    0.548
       442  -7.9494    171.6920     66.9177   7.4901059719e+01   3.3583374915e+01    0.1936359    0.1763812 -57.26 0.0004241716    1.122    0.109
       443  -9.1551    138.5337     66.1031   8.1463919110e+01   4.1537819068e+01    0.3444626    0.1944074 -40.71   0.00126603    1.859    0.462
       444  -7.3586    203.3201     66.7350   6.9647973168e+01   2.6158748212e+01    0.1416105   0.09754774 -77.93 0.0002409989    1.555    0.357
       445  -9.1953    121.5141     65.2768   8.5323833086e+01   4.5496214794e+01    0.3980511    0.2224315 -41.07   0.00113614    1.887    0.470
       446  -8.6599     63.5558     64.4630   1.0267851289e+02   5.6423217681e+01    0.3025745    0.1788067 -10.17  0.001287074    2.427    0.588
       447  -8.6104     37.3512     64.1543   1.1224933176e+02   5.9807574269e+01    0.2743378    0.2045652 -80.04  0.001076691    2.403    0.584
       448  -8.9530    110.1816     63.7187   8.7832409426e+01   4.8168624444e+01    0.2624704    0.2306267 -70.47 0.0006098418    1.398    0.285
       449  -7.6542    187.6781     63.3398   7.1250230147e+01   3.0348165693e+01    0.1506726    0.1003254 -73.70 0.0007050543    1.719    0.418
       450  -8.4184    158.0986     62.0665   7.6185005296e+01   3.7587843762e+01     0.205312    0.1884664  33.67  0.000380626    1.213    0.175
       451  -9.5784     97.8123     60.6732   9.0364930099e+01   5.1157580897e+01     0.335973    0.2346111  54.05  0.001060938    1.562    0.360
       452  -9.6981     73.2047     59.3516   9.7683715490e+01   5.5799078592e+01    0.3779589    0.2338004 -49.17  0.001077662    1.913    0.477
       453  -8.6828    146.2633     58.7261   7.7657692325e+01   4.0893339669e+01     0.278865    0.1808906 -61.75  0.001284231    1.960    0.490
       454  -9.8565     23.5145     56.4889   1.1538824859e+02   6.2550572155e+01    0.3975125    0.2866294 -85.52  0.002133104    2.924    0.658
       455  -8.2496    130.7812     57.8283   8.0821964100e+01   4.4598934097e+01    0.2532678    0.1748289 -63.74 0.0005992207    1.932    0.483
       456  -9.3093    127.6474     53.3742   8.0215078804e+01   4.5963268039e+01    0.2510443    0.2359743 -83.17  0.000516775    1.169    0.144
       457  -9.5344      7.3338     56.9515   1.2210551290e+02   6.3683381255e+01    0.3022062    0.1915289 -64.67  0.001479685    1.828    0.453
       458  -9.4782     54.3600     55.7272   1.0313347413e+02   5.9229140723e+01    0.3160632    0.2128008 -52.78  0.001287785    1.868    0.465
       459  -8.0545    140.1610     56.2262   7.8241779669e+01   4.2688983423e+01    0.1897882    0.1589749 -71.76 0.0004482688    1.354    0.262
       460  -9.3929    119.0051     55.3018   8.2900811574e+01   4.7593310615e+01    0.3824518    0.2119197 -45.35  0.001283108    2.053    0.513
       461  -8.8032     44.0336     55.5438   1.0696877021e+02   6.0585478534e+01    0.2108792    0.1661411 -51.29 0.0006556899    1.527    0.345
       462  -8.8014    105.8135     53.4185   8.5758752298e+01   5.0668504240e+01    0.2446702    0.2112754 -74.60 0.0008500526    1.513    0.339
       463  -9.6043     92.3766     50.5682   8.8650115411e+01   5.3758785504e+01    0.4009287    0.2216303 -43.86  0.001564172    2.078    0.519
       464  -8.4825     92.8132     42.7812   8.5886179957e+01   5.4767446493e+01    0.2701811    0.1678555  -9.05  0.001321805    2.092    0.522
       465  -8.4593    144.8416     48.8892   7.5148055805e+01   4.2648088701e+01    0.1865082    0.1560864 -71.05 0.0005349467    1.325    0.246
       466  -8.2580    129.5580     49.0202   7.8458268450e+01   4.6149169120e+01    0.1932216    0.1367748 -32.04  0.000441753    1.550    0.355
       467  -8.7538    120.8759     47.5975   8.0046467781e+01   4.8282793864e+01    0.2318871    0.1949629 -38.75 0.0005173744    1.306    0.235
       468  -8.2083    112.1941     46.9866   8.2002898693e+01   5.0247254951e+01    0.1926656    0.1787834 -72.90 0.0005888075    1.284    0.221
       469  -9.4001     81.9234     46.2289   9.0371757128e+01   5.6326507720e+01    0.3050284    0.1779604 -38.47  0.001040831    1.830    0.453
       470  -8.5838     45.0266     44.8153   1.0292169225e+02   6.2216617250e+01    0.2071319    0.1562567 -31.56 0.0007111004    1.258    0.205
       471  -8.6920     16.6551     44.8296   1.1460402283e+02   6.5162485987e+01     0.181902    0.1659348 -62.16 0.0006693522    1.597    0.374
       472  -8.8550    132.8810     43.4712   7.6056520204e+01   4.6140928205e+01    0.2666663    0.1961114 -66.09 0.0007933162    1.726    0.421
       473  -9.2240     69.6929     41.9964   9.2883233713e+01   5.9032323179e+01    0.3029676    0.2419455 -69.89  0.001159818    2.220    0.549
       474  -9.1033     58.0215     42.3983   9.7141689776e+01   6.0798544335e+01    0.2526453    0.1706115 -49.77  0.001126279    2.004    0.501
       475  -9.6082      5.2380     42.2653   1.1874980383e+02   6.6430022931e+01     0.238174    0.1800153 -63.74  0.001121503    1.777    0.437
       476  -8.6206    105.9900     41.4599   8.1810659999e+01   5.2290516539e+01    0.2317308    0.1782223 -48.95  0.000623184    1.580    0.367
       477  -8.0596    140.4721     41.5079   7.3900447872e+01   4.4648347408e+01    0.1360881    0.1215309  57.38 -1.76709e-05    1.019    0.018
       478  -8.7234     36.8540     41.0111   1.0482165007e+02   6.3793138276e+01    0.1669541    0.1513525 -23.26 0.0006667266    1.330    0.248
       479  -8.6391     95.4031     38.0728   8.3537302485e+01   5.4873861188e+01    0.2462001    0.1881418 -51.88 0.0008520223    1.715    0.417
       480  -8.5732    223.3654     37.2580   6.0598023290e+01   2.5931740235e+01    0.2306993    0.1196299 -33.54  0.001052178    2.249    0.555
       481  -8.2949     80.4941     36.7693   8.7486327215e+01   5.7866315834e+01    0.2161553    0.1177696 -37.30 0.0006917646    2.007    0.502
       482  -9.3174     26.2450     35.6820   1.0732940818e+02   6.5754919037e+01    0.2469134     0.184142 -47.66 0.0008447377    1.667    0.400
       483  -7.6581    133.3028     36.6436   7.3926303834e+01   4.6905199011e+01    0.1344013    0.1000937 -74.07 0.0006819566    1.713    0.416
       484  -8.2313    125.9795     35.6957   7.5190788295e+01   4.8676636858e+01    0.1873003    0.1515055  54.84 0.0003165017    1.098    0.089
       485  -8.8069    111.9412     34.9213   7.8170800518e+01   5.1848116849e+01    0.2152408    0.1670629 -49.18 0.0006315043    1.560    0.359
       486  -8.9164    119.1339     32.8284   7.5815326688e+01   5.0534201502e+01    0.3113238     0.152415 -39.47  0.001128395    2.312    0.568
       487  -8.9865     48.5145     33.5434   9.7423445433e+01   6.3403451357e+01    0.2088481    0.1921803  -2.66 0.0006418597    1.310    0.236
       488  -8.8732     72.1878     31.4097   8.8182429778e+01   6.0005119507e+01    0.2142143    0.1533279 -45.73  0.000668468    1.861    0.463
       489  -8.9725     12.9356     30.1290   1.1120131493e+02   6.7817677459e+01    0.2729038    0.1490811 -53.39  0.001570267    2.379    0.580
       490  -8.4241    101.4958     29.5095   7.8980092668e+01   5.4667362215e+01    0.1982955    0.1675544 -81.88 0.0006099267    1.619    0.382
       491  -8.5305     60.7781     32.7248   9.2567767778e+01   6.1712048381e+01     0.211474    0.1560861 -37.27  0.000427119    1.561    0.360
       492  -9.0756     81.5543     27.3740   8.3762650227e+01   5.8808169520e+01    0.2944203    0.2071986 -52.00 0.0009855626    2.119    0.528
       493  -8.8681      3.6485     27.8253   1.1468336526e+02   6.8871919333e+01    0.1709068    0.1567367 -51.15 0.0009564374    1.659    0.397
       494  -8.7939     91.8567     26.5544   8.0515034048e+01   5.6933511300e+01     0.217419    0.1752526 -31.22 0.0006236247    1.415    0.293
       495  -7.6695    145.6424     25.8042   6.8432457189e+01   4.5304547748e+01    0.1722216    0.1143196 -44.92 0.0008397501    1.691    0.409
       496  -8.4897    104.5762     22.7733   7.5936871783e+01   5.4753202196e+01    0.1549371    0.1178742 -38.38 0.0004413845    1.553    0.356
       497  -8.1461     34.6481     23.3457   9.8999237927e+01   6.6549050529e+01    0.1425953    0.1365872  28.96  0.001077107    1.664    0.399
       498  -9.0197     63.6630     21.2932   8.7163534891e+01   6.2618675358e+01     0.230169     0.185334 -36.39 0.0009545115    1.570    0.363
       499  -8.8605     48.2465     21.6719   9.2869926477e+01   6.4953016226e+01    0.2043074     0.166081 -12.21 0.0006143118    1.200    0.167
       500  -8.0685    120.4419     21.2230   7.1873486489e+01   5.1500007847e+01    0.1624921    0.1167325 -43.67 0.0009405314    1.650    0.394
       501  -7.9721     19.5591     21.4958   1.0485936019e+02   6.8454493957e+01    0.1106771   0.08363039  -9.31 0.0001124376    1.029    0.028
       502  -8.7618     74.0330     19.4998   8.3114833488e+01   6.1028797284e+01    0.2031784    0.1602719 -38.01 0.0006694708    1.600    0.375
       503  -8.1964     87.9477     17.9383   7.8504511077e+01   5.8590179591e+01    0.1681459    0.1466991 -68.70 0.0005505168    1.634    0.388
       504  -9.0831    175.6129    247.7565   1.1343159668e+02  -3.4718490705e+00    0.3068919    0.2457484 -88.36  0.001117218    1.913    0.477
       505  -9.2116    156.2224    248.1509   1.1746772175e+02  -3.3324220349e-01    0.2599384    0.2098783 -86.75 0.0008749668    1.661    0.398
       506  -7.9241      7.5849     15.7831   1.0819223643e+02   7.0309305503e+01    0.1327357   0.08948155 -41.65 0.0005330841    1.664    0.399
       507  -8.2499     17.0352     14.3208   1.0306377505e+02   6.9639997157e+01    0.1498689    0.1129834   2.19 0.0009841314    1.112    0.101
       508  -7.9936     29.9960     16.0572   9.7967649034e+01   6.8012915678e+01    0.1415486    0.1345734 -11.26 0.0005790133    1.653    0.395
       509  -7.7978     83.5369     11.4582   7.7333500913e+01   6.0043854445e+01    0.1183981   0.09984124  36.44 0.0001681527    1.070    0.065
       510  -7.4326     76.6380     10.3153   7.8835300628e+01   6.1439196702e+01    0.1072101   0.09303928 -87.53 0.0007041753    1.760    0.432
       511  -8.8357    132.3053    247.9132   1.2238826217e+02   3.7072759246e+00    0.2705559    0.1909994  73.83 0.0006094494    1.773    0.436
       512  -8.2313    112.9775    248.7100   1.2648733754e+02   6.7356721099e+00    0.2242689    0.1594291 -84.62 0.0008207545    1.658    0.397
       513  -9.2839    103.8993    247.0517   1.2814903634e+02   8.5223917976e+00    0.4845556     0.264717 -85.08  0.001958984    2.799    0.643
       514  -8.9653    242.8022    246.5445   1.0023432329e+02  -1.3346439656e+01    0.3490672    0.1386435 -31.21  0.001321101    2.564    0.610
       515  -9.0275    232.5400    247.3235   1.0224396985e+02  -1.2069969164e+01    0.1990998    0.1836784 -54.65 0.0007302839    1.647    0.393
       516 -10.1300    224.1561    243.8812   1.0322557827e+02  -1.0379501249e+01    0.5397044    0.2497746 -42.79  0.002313194    2.345    0.574
       517  -8.2147    218.5442    248.0617   1.0499789201e+02  -1.0193371352e+01    0.1734656    0.1153863 -35.37 0.0006983125    1.557    0.358
       518  -9.6963    147.3611    245.4510   1.1890769312e+02   1.6423937754e+00    0.5333472    0.2964874 -50.60  0.001937957    2.043    0.511
       519  -8.9537    120.3964    245.7345   1.2457155195e+02   6.1007993079e+00    0.3678038    0.2286646  76.42  0.001529467    2.284    0.562
       520  -9.0611      9.5277    243.5566   1.4596399473e+02   2.1935540474e+01    0.2879984    0.1103372  86.85  0.001366988    2.641    0.621
