#   1 NUMBER                 Running object number                                     
#   2 MAG_AUTO               Kron-like elliptical aperture magnitude                    [mag]
#   3 X_IMAGE                Object position along x                                    [pixel]
#   4 Y_IMAGE                Object position along y                                    [pixel]
#   5 X_WORLD                Barycenter position along world x axis                     [deg]
#   6 Y_WORLD                Barycenter position along world y axis                     [deg]
#   7 A_WORLD                Profile RMS along major axis (world units)                 [deg]
#   8 B_WORLD                Profile RMS along minor axis (world units)                 [deg]
#   9 THETA_WORLD            Position angle (CCW/world-x)                               [deg]
#  10 FWHM_WORLD             FWHM assuming a gaussian core                              [deg]
#  11 ELONGATION             A_IMAGE/B_IMAGE                                           
#  12 ELLIPTICITY            1 - B_IMAGE/A_IMAGE                                       
         1 -15.2706      9.6650    151.5541   1.3802071936e+02   4.1511592369e+01       4.3755     1.447109 -88.89   0.01968655    2.975    0.664
         2 -13.1488    195.9162     32.8545   6.2103802131e+01   3.1933881710e+01     1.208542     1.104766  45.88  0.006196398    1.095    0.087
         3 -13.9751    209.0711     16.9924   5.5813304749e+01   3.0328185733e+01     1.717654     1.152413  26.55  0.008430949    1.836    0.455
         4 -10.6077      2.1596      3.5956   1.1713054642e+02   7.4605366331e+01    0.3923872    0.1245279 -52.42  0.001927477    2.155    0.536
         5 -11.1501      2.0154     14.0005   1.2118903350e+02   7.2555314569e+01     0.381305    0.1695825 -69.74  0.001889977    2.413    0.586
         6 -14.1277     10.0187    206.4603   1.4059689983e+02   3.0791575181e+01     1.871772     0.797258 -89.68  0.005197381    2.122    0.529
         7 -11.9608    139.2872    248.0941   1.1999274866e+02   8.8975687696e+00    0.3720818    0.3020091 -79.53  0.002835177    1.778    0.437
         8 -11.9231    108.0023    244.8932   1.2528673977e+02   1.3588511546e+01    0.3329068    0.2010527  46.83  0.001392476    1.257    0.204
         9 -12.4505    101.3277    248.3674   1.2676543795e+02   1.3963232814e+01    0.5623565    0.4058519  89.52  0.004224317    1.722    0.419
        10 -11.9817     92.8232    249.5190   1.2834694331e+02   1.4877938178e+01    0.3680001     0.319516 -52.67 0.0008070482    1.616    0.381
        11 -11.1202     89.2999    244.6446   1.2859438545e+02   1.6027101956e+01    0.2542214     0.142071  59.88  0.001365803    1.692    0.409
        12 -11.7124     31.2073    248.9422   1.3867971623e+02   2.1861796222e+01    0.6566133     0.200557  42.36    0.0039894    2.137    0.532
        13 -11.6521     39.2975    245.8916   1.3723292024e+02   2.1517701904e+01    0.6234412    0.2972452  66.38  0.004023786    1.831    0.454
        14 -12.1665     17.5152    241.3759   1.4059559238e+02   2.4316847182e+01    0.4953943     0.222189  53.95  0.001809379    1.545    0.353
        15 -11.5722     12.7172    240.3961   1.4133079303e+02   2.4901112654e+01    0.3990797    0.1289184  57.25  0.002463568    2.193    0.544
        16  -9.3800     17.0758    249.9191   1.4095013000e+02   2.3050873123e+01    0.1152737    0.1125448   2.07  0.001125415    1.741    0.426
        17 -11.3193      3.8924    250.2493   1.4298310843e+02   2.4165003061e+01    0.3811288    0.1145386  38.85 0.0008382433    2.307    0.567
        18 -11.2967      2.7515    245.9872   1.4304824257e+02   2.4903557367e+01    0.7244002    0.1599921 -88.68  0.003450544    4.979    0.799
        19 -11.4454     19.4572    228.8251   1.3981790628e+02   2.6143887242e+01    0.2350896    0.1821158  33.89  0.001976414    1.523    0.344
        20  -8.7045     60.6477    228.2821   1.3256480840e+02   2.2009969846e+01    0.1143133   0.05796598  57.27 0.0007016035    1.655    0.396
        21 -11.0779     21.1511    235.5366   1.3979238797e+02   2.4902704810e+01    0.2490817    0.1408121  41.99  0.001149336    1.446    0.308
        22  -9.8746     51.8318    234.1737   1.3449995588e+02   2.2034567810e+01    0.1362123     0.125203 -16.09 0.0006814915    1.744    0.427
        23  -9.5674     24.1383    213.5002   1.3835152781e+02   2.8304385194e+01    0.1472314   0.08344427  39.19 0.0005312014    1.560    0.359
        24 -10.9609    227.3946    203.4669   9.7752855386e+01   1.2443095913e+00    0.2925797    0.2265874 -43.87 0.0007967764    2.039    0.510
        25 -10.1367     53.1872    228.7362   1.3393910963e+02   2.2768628757e+01    0.2337979    0.1226705  85.68  0.001143676    2.074    0.518
        26 -13.8078     42.4706    216.4631   1.3515896879e+02   2.5984842595e+01    0.8478426    0.5475463  56.92  0.003644843    1.194    0.162
        27  -9.8479    192.4830    193.9648   1.0256455188e+02   8.0795122801e+00    0.4006701    0.2193309 -59.63  0.001380419    6.020    0.834
        28 -11.6358     62.0523    192.9017   1.2962442608e+02   2.8107444326e+01    0.3143704     0.243701 -41.21  0.001397425    1.806    0.446
        29  -8.5762     27.6834    234.2679   1.3865327222e+02   2.4489566848e+01    0.1036543   0.04968086  57.48  0.000272152    1.554    0.356
        30  -8.5004    181.5149    192.4728   1.0445987549e+02   1.0141016019e+01    0.1319087    0.1068924  23.97 1.475179e-05    1.014    0.014
        31 -11.7654     67.8446    185.6998   1.2773494752e+02   2.8802066662e+01     0.252281    0.2166639 -54.14 0.0007456381    1.416    0.294
        32 -11.0221     77.6658    173.8732   1.2429453082e+02   2.9913428869e+01    0.2175343    0.2004558 -82.62 0.0004513327    1.150    0.131
        33 -13.1982     64.7020    171.2322   1.2697558399e+02   3.2082019461e+01     0.444944    0.2550606 -45.84  0.001835496    2.278    0.561
        34  -9.4982    105.1852    173.4167   1.1790527359e+02   2.6104387640e+01    0.1958303    0.1047714  47.02 0.0009532832    1.720    0.419
        35 -12.0289     84.9503    165.2088   1.2152338200e+02   3.0709013606e+01    0.8597183    0.4695319  51.21  0.004339668    1.780    0.438
        36 -13.0280     66.0540    142.5713   1.2319787778e+02   3.8074037370e+01     2.004911    0.9533662  81.81  0.004254516    4.431    0.774
        37 -10.0152    230.8289    167.6744   9.0499625700e+01   5.1170392901e+00    0.2629433    0.1444532 -49.26  0.001104727    3.469    0.712
        38 -14.9541     51.0112    207.3423   1.3296380582e+02   2.6685089593e+01     8.192011          nan  43.68   0.02405738    7.083    0.859
        39  -9.6671     98.0687    149.9321   1.1606260325e+02   3.2012673483e+01    0.2418872    0.2197631  37.07 0.0007679387    1.108    0.098
        40  -8.9922    101.0146    145.9820   1.1465586422e+02   3.2398886106e+01    0.3301177    0.1940728 -29.19  0.001348372    2.786    0.641
        41 -12.0886     86.6763    148.6598   1.1875224313e+02   3.3979548138e+01    0.2615635    0.2297849 -43.57 0.0006212645    1.275    0.216
        42  -9.4111    109.6003    135.4852   1.1051443122e+02   3.3253533237e+01    0.3008764    0.2053922 -14.44 0.0009908134    2.326    0.570
        43 -10.4566     96.9610    132.4973   1.1331165801e+02   3.5980797534e+01    0.2563943    0.2292026 -19.38 0.0007514595    1.283    0.221
        44  -8.9077    106.8221    122.8181   1.0868668560e+02   3.6491951333e+01    0.1919043    0.1844757 -14.73 0.0003059029    1.086    0.079
        45 -10.4274    167.9212    112.8952   9.0743495498e+01   2.6276313510e+01    0.3477974    0.2944413 -82.60 0.0009153758    1.634    0.388
        46  -9.2997    204.3891    111.0466   8.2651861215e+01   1.8564464793e+01    0.3455658    0.1643035  33.10  0.001287067    2.509    0.601
        47  -9.0592     42.5554    231.6828   1.3598491975e+02   2.3421944038e+01    0.1233522     0.118091 -49.75 0.0006314819    1.591    0.372
        48 -10.5801    242.9822     93.5126   7.1779745412e+01   1.2955597170e+01    0.1978158    0.1365491  51.37  0.001033675    1.595    0.373
        49  -9.8597    247.9852    250.0000   1.0160250343e+02  -6.2897392055e+00    0.1742769   0.04461188  37.15 0.0006785968    2.971    0.663
        50 -12.7167     35.2511    225.4012   1.3694346267e+02   2.5200390113e+01    0.2787212    0.2489975  60.15 0.0007632702    1.305    0.234
        51 -10.4333    198.8331    246.1521   1.0924277374e+02   6.8840459929e-01    0.1611354     0.102855  19.44  0.001083922    1.328    0.247
        52  -9.1391     29.0214    240.6875   1.3869866430e+02   2.3343059690e+01    0.1354207   0.09311733  54.97 0.0004225307    1.061    0.058
        53 -10.7244     54.6909    238.6886   1.3426115569e+02   2.1006337607e+01    0.2116165    0.1894664  53.34 0.0008603561    1.315    0.240
        54 -10.2508    189.8436     15.7931   5.7707678440e+01   3.5371323294e+01    0.2183772    0.1877536  43.52 0.0006886803    1.178    0.151
