#   1 NUMBER                 Running object number                                     
#   2 MAG_AUTO               Kron-like elliptical aperture magnitude                    [mag]
#   3 X_IMAGE                Object position along x                                    [pixel]
#   4 Y_IMAGE                Object position along y                                    [pixel]
#   5 X_WORLD                Barycenter position along world x axis                     [deg]
#   6 Y_WORLD                Barycenter position along world y axis                     [deg]
#   7 A_WORLD                Profile RMS along major axis (world units)                 [deg]
#   8 B_WORLD                Profile RMS along minor axis (world units)                 [deg]
#   9 THETA_WORLD            Position angle (CCW/world-x)                               [deg]
#  10 FWHM_WORLD             FWHM assuming a gaussian core                              [deg]
#  11 ELONGATION             A_IMAGE/B_IMAGE                                           
#  12 ELLIPTICITY            1 - B_IMAGE/A_IMAGE                                       
         1 -10.9470     39.4952      8.2667   5.5651848903e+01   6.7628575673e+01    0.4911684    0.1997477 -32.93  0.002500755    2.136    0.532
         2 -13.0851     45.0063     22.7534   5.9645236669e+01   6.4845438158e+01    0.9700411    0.6771287 -51.32  0.005864263    1.845    0.458
         3 -11.8263     77.9078     14.1067   4.4166151978e+01   6.1117431366e+01    0.5419177    0.2748213 -12.36  0.002468646    2.408    0.585
         4 -10.7908     75.0342     26.1946   5.0116785515e+01   6.0000624901e+01    0.4161277    0.2410606 -20.88  0.002127837    1.748    0.428
         5 -10.2095    128.3469     18.4530   3.2449334021e+01   5.0190199294e+01    0.3234384    0.2512667  46.63   0.00133676    1.178    0.151
         6 -10.3457     20.6246     14.1590   6.6394451220e+01   6.8749253810e+01    0.4212521    0.1561346 -32.70  0.002042615    2.517    0.603
         7 -12.1589    155.9296     11.6490   2.4788108374e+01   4.4222523822e+01    0.5772884    0.4183798  80.63  0.003004454    1.493    0.330
         8 -12.2492    158.8470      3.8378   2.1790621463e+01   4.4237436480e+01    0.9663398    0.3634682  54.59  0.003926913    2.212    0.548
         9 -12.8009    177.1033      3.6590   1.9129209180e+01   3.9645426899e+01    0.9957085    0.6715858 -79.51  0.005039453    1.692    0.409
        10 -12.6651    168.7139      5.9439   2.0982409662e+01   4.1557986338e+01    0.9476323    0.4789183 -31.20   0.00434529    2.065    0.516
        11 -10.1690    116.2297     16.4444   3.4477181826e+01   5.3168738118e+01    0.3597733    0.1832207 -44.18  0.001554853    2.502    0.600
        12 -10.6507    192.9955      5.8319   1.7749570625e+01   3.5409546292e+01    0.3046052      0.18828 -41.56  0.001084411    1.665    0.399
        13 -11.8606     83.8608      3.6714   3.7827900143e+01   6.1192496537e+01    0.7788101    0.3311758  51.06  0.003453831    2.261    0.558
        14 -11.1940     71.5954      5.7699   4.2559725500e+01   6.3189426810e+01    0.4174738    0.2475304  50.32   0.00230112    1.882    0.469
        15 -11.4211    143.6157      3.8483   2.4285607246e+01   4.8007173843e+01    0.5370631    0.4255926 -81.87  0.002998034    1.503    0.335
        16 -11.0133    208.5077      4.1670   1.5554983426e+01   3.1681310191e+01     0.332052     0.236265  61.43  0.001237737    1.330    0.248
        17 -10.9060    204.0529      4.5060   1.6122438114e+01   3.2757994283e+01    0.3201109    0.2546722 -88.78  0.001736381    1.187    0.158
        18 -10.9830    131.3601      3.7682   2.6505232472e+01   5.0961996074e+01     0.664732    0.2119656  50.53   0.00256484    2.536    0.606
        19 -10.8659    121.0826      4.1696   2.8731644638e+01   5.3317548711e+01    0.4586994    0.3614164  42.95  0.002698239    1.115    0.103
        20 -10.6939    106.2288      4.6450   3.2279037694e+01   5.6569156134e+01    0.3737584    0.2480646  78.12  0.001867237    2.198    0.545
        21 -10.8926     61.3994      2.1088   4.4343148265e+01   6.5287484094e+01    0.4594357    0.1718076  35.47  0.002072276    2.690    0.628
        22 -10.1174    217.9770      1.9995   1.4044854817e+01   2.9563027094e+01    0.2081921    0.1804263 -89.29 0.0008775049    1.031    0.031
        23 -11.6574    165.2720     12.3240   2.3487918100e+01   4.1804395930e+01    0.4599175     0.286089 -31.61   0.00227134    1.698    0.411
        24  -8.9248      1.6791      1.6822   7.0167430192e+01   7.2143659346e+01    0.1124294   0.05756463 -25.41 0.0007042471    1.664    0.399
        25 -13.0946    244.9187    111.2029   3.7740412594e+01   8.3679787658e+00     1.512927     1.001671 -63.38  0.006887988    2.242    0.554
        26  -9.3238    208.7987    123.2003   4.6840710232e+01   1.4248294042e+01    0.2068608    0.1704197  11.80 0.0006380815    1.320    0.242
        27 -11.0211     10.4967    121.0015   9.3913899373e+01   4.8103686859e+01    0.2093099    0.1361666 -20.16  0.001275796    2.447    0.591
        28 -10.7687    189.1971    116.0927   4.8929999936e+01   1.9948955902e+01     0.562254    0.3402454  -5.57  0.001964414    3.139    0.681
        29 -11.2191    222.7962    107.0169   4.0374535973e+01   1.3847690867e+01    0.4587184    0.2947892  40.19  0.002072542    1.643    0.391
        30  -9.9716    148.6644    110.9932   5.6502222184e+01   3.0105665242e+01    0.3737655    0.1816529 -48.36    0.0014232    2.158    0.537
        31  -9.6950     94.7299    111.6967   7.0293656936e+01   4.0432248632e+01     0.225447    0.1156766 -63.95 0.0008987299    2.357    0.576
        32 -10.7547     17.4916    104.4811   9.0014677676e+01   5.1172949528e+01    0.3379348    0.2284236  66.66  0.002146345    1.709    0.415
        33 -10.7276    213.1393    113.3426   4.3642327841e+01   1.4966140101e+01    0.4367903    0.2753792 -33.42  0.001991352    1.558    0.358
        34  -9.9003     30.6410    102.0024   8.6030282344e+01   5.0652134171e+01    0.2176118    0.1497737 -36.57  0.001328797    1.642    0.391
        35  -9.3087    113.0000    100.4913   6.2713144084e+01   3.9610883835e+01    0.3344898   0.08043119 -46.86  0.000943443    4.005    0.750
        36 -10.2713     18.0730    127.5111   9.2839552827e+01   4.6121018186e+01    0.1469376    0.1133457  36.12  0.001028618    1.578    0.366
        37  -9.4166    208.8031     94.6838   3.9726537506e+01   1.9131586366e+01    0.2116635    0.1847057 -21.17 0.0006959267    1.153    0.133
        38  -9.4353    178.9636     93.0252   4.5027682132e+01   2.6557735018e+01    0.1897855    0.1864254  29.79  0.001019731    1.012    0.012
        39 -10.6056     11.9563    125.5027   9.4068157193e+01   4.7027794426e+01    0.1442077    0.1121874  34.48 0.0008029389    1.599    0.375
        40 -10.8963      2.3246     88.4341   9.1912603631e+01   5.5604807259e+01    0.5445186    0.1641004 -69.30  0.002518213    2.518    0.603
        41 -12.5957      5.0592     76.4629   8.9240404829e+01   5.7975184389e+01    0.6442769    0.4597468 -85.00  0.003820179    1.424    0.298
        42 -12.9142     14.7343     73.0875   8.5584979279e+01   5.8089314186e+01    0.8005177    0.6103719  46.18  0.005587399    1.672    0.402
        43  -9.7816    193.4958     87.0025   4.0519876107e+01   2.4105084997e+01    0.2943337    0.2223764  78.19  0.001021639    1.625    0.385
        44 -12.5069     42.7186     80.6296   7.8284038890e+01   5.4159152364e+01    0.9259268    0.6579228 -20.90   0.00548812    1.692    0.409
        45  -9.7311    144.9038     80.9120   4.9174646310e+01   3.6813704411e+01    0.2437886    0.2113334   8.50  0.001241244    1.266    0.210
        46  -9.6971    215.0543     79.4241   3.4682465924e+01   2.0139341267e+01    0.3888371    0.1542851 -46.43  0.001334173    2.811    0.644
        47  -9.7006    220.9094     77.9870   3.3360897328e+01   1.8968220753e+01    0.2422623    0.1732555 -67.21  0.001127275    1.738    0.425
        48 -10.0309    169.7177     76.4501   4.2314197322e+01   3.1729285039e+01    0.3030119    0.2909874 -29.46  0.001327059    1.046    0.044
        49  -9.5156    227.1335     71.7007   3.0787654548e+01   1.8460020941e+01    0.2343328    0.1855648 -86.38   0.00119828    1.478    0.323
        50  -9.1809    238.0000     69.9780   2.8786424228e+01   1.6185421731e+01    0.2343976   0.07654913 -31.97 0.0007961157    2.899    0.655
        51 -10.0031     74.8126     69.6783   6.5263712756e+01   5.2456429939e+01    0.2981227    0.2180729  39.30  0.001627273    1.521    0.343
        52  -9.5200     83.3994     69.2346   6.2462021577e+01   5.1220980427e+01    0.1978868    0.1229694 -53.04 0.0009555963    1.668    0.400
        53 -11.1219    214.9870     66.7456   3.1358106821e+01   2.2125834073e+01    0.3612827     0.191302 -19.47   0.00131208    2.428    0.588
        54  -9.3476    179.1724     66.1742   3.7436019406e+01   3.1109155479e+01    0.2154314    0.1834515 -77.14  0.001080543    1.344    0.256
        55 -11.4343    232.9596     64.2300   2.8051934883e+01   1.8197512363e+01    0.3725822    0.2670698  51.06  0.001905645    1.464    0.317
        56 -11.8610    228.5941     59.6768   2.7505923717e+01   1.9888942980e+01     0.601263    0.3164348 -88.82  0.002035841    3.769    0.735
        57  -9.1686    200.0000     63.9769   3.3048825828e+01   2.6246125666e+01    0.2452602   0.08413065 -31.95 0.0007984583    2.915    0.657
        58  -9.0069    132.4516     63.5031   4.6910976267e+01   4.2765052786e+01    0.1470668    0.1418661  -0.54 0.0002401316    1.014    0.014
        59 -10.7841     25.3218     65.1139   8.0390279460e+01   5.8974455322e+01    0.3727758    0.1791897 -56.33  0.001873359    1.627    0.385
        60 -10.8119    209.8126     60.1224   3.0399574366e+01   2.4389756088e+01    0.4186517    0.2173082 -40.81  0.001755627    1.875    0.467
        61  -9.3926    248.7451     58.4257   2.4555896081e+01   1.5397638556e+01    0.1902198    0.1235172  50.54 0.0009531637    1.678    0.404
        62  -9.4041    137.6857     56.3349   4.3333976518e+01   4.2778045606e+01    0.1496961    0.1175422 -70.82 0.0007046508    1.689    0.408
        63 -10.6130    198.7831     52.8830   3.0166357985e+01   2.8205454463e+01    0.3823386    0.2450303  -0.45  0.001576804    2.351    0.575
        64  -9.7562    164.8361     53.7278   3.6544648640e+01   3.6640298404e+01    0.2929203    0.1843338 -11.63  0.001217881    2.083    0.520
        65  -9.1959     35.1872     52.5966   7.3678626832e+01   6.0627837736e+01      0.15503    0.1086926  -0.46 0.0009484838    1.676    0.403
        66 -11.0311    215.1401     50.7087   2.7076079674e+01   2.4430522435e+01    0.3618333    0.2412834  48.98  0.001744485    1.555    0.357
        67 -11.3511     81.2741     39.2425   5.3098312704e+01   5.6966820406e+01    0.5930416    0.3161871 -42.43  0.002847591    1.891    0.471
        68 -10.6988     85.1025     48.0793   5.5054812001e+01   5.4848108137e+01     0.464297    0.3288839  51.07   0.00247838    1.709    0.415
        69  -9.5849    181.1559     46.7183   3.1359209042e+01   3.3555135428e+01     0.323454    0.1810469   0.65  0.001097834    3.445    0.710
        70 -10.1148    197.1373     43.8357   2.7886536177e+01   2.9893311056e+01     0.206342    0.1704678  34.04 0.0008460688    1.326    0.246
        71  -9.4649    242.2959     43.3530   2.1682747393e+01   1.8914973364e+01    0.1346814    0.1049742  21.04 0.0005834564    1.688    0.408
        72 -11.5261      3.2589     40.9720   8.2510388505e+01   6.5221552772e+01    0.4267448    0.3332424 -57.34  0.002536182    1.172    0.146
        73 -11.0212      6.2620     35.3822   7.9828076623e+01   6.6109720465e+01     0.276362    0.2039617  14.83  0.002042331    1.645    0.392
        74 -10.5915    181.0015     39.9682   2.9382134856e+01   3.4524778717e+01    0.3569865    0.2257974 -53.12  0.001601205    1.811    0.448
        75  -9.9922    159.3199    231.6649   7.6906844600e+01   5.8789080849e+00    0.1205655   0.08480378  67.30 0.0007049512    1.703    0.413
        76 -11.8560     40.1289     29.7768   6.4300325166e+01   6.4277264286e+01    0.5098379    0.2548922 -43.39  0.002338359    1.719    0.418
        77 -10.6261      3.5298    230.4519   1.0312180525e+02   2.7194931856e+01    0.2197132   0.08295126  48.80  0.001440062    2.032    0.508
        78 -10.2622    197.8158     33.7935   2.4956401605e+01   3.1042842770e+01    0.2082928    0.1654379 -67.47  0.001086487    1.342    0.255
        79 -10.7651     86.2957     31.1734   4.8449394847e+01   5.7330167982e+01    0.2759622    0.2112306  -1.69  0.001511825    1.282    0.220
        80  -9.6219     89.8995     27.6998   4.5988771985e+01   5.7165511322e+01    0.3023042    0.2097676  -8.53  0.001628467    1.490    0.329
        81 -11.1046    185.3948     40.7933   2.8891821027e+01   3.3293566566e+01    0.3915665    0.2496181 -73.68  0.001656521    2.180    0.541
        82 -10.0560    145.7776     28.5665   3.2303268557e+01   4.4840216227e+01    0.2077399    0.1371801  73.36 0.0009575073    1.772    0.436
        83 -11.2778    240.1018    228.7723   6.2333344003e+01  -7.0699366979e+00    0.2650497    0.1211757  42.68  0.001402019    1.946    0.486
        84 -11.2175    248.8628    224.4423   6.0157663259e+01  -7.9400531117e+00    0.3855868    0.2840973 -24.53  0.002634481    1.494    0.331
        85 -11.7440    178.6908     23.9196   2.4956918096e+01   3.7125482130e+01    0.4617939    0.4085418  70.65  0.002626661    1.075    0.070
        86 -11.3377    173.0711     20.8355   2.4901122423e+01   3.8912134546e+01    0.3838792    0.2258364  64.56  0.001170452    1.590    0.371
        87 -10.0365    187.2028     19.4678   2.2384960225e+01   3.5457271232e+01    0.2566442    0.1992651  57.10  0.001382826    1.214    0.176
        88  -9.5613     31.5086    227.4870   9.8653193741e+01   2.4872862169e+01    0.1032961   0.07585634  73.91  0.000809958    1.051    0.049
        89  -9.9593     94.4697     16.9929   4.0371276606e+01   5.7673284763e+01    0.2412315    0.1885333  66.88  0.001363336    1.704    0.413
        90  -9.8998    227.3850     15.6119   1.6500486888e+01   2.5844183868e+01    0.4809121    0.1658774  73.11  0.001785255    3.021    0.669
        91 -12.5671    203.3305    221.7756   6.7555401393e+01  -2.1742322962e-01    0.5755491    0.3542127  23.01  0.003191031    1.711    0.416
        92 -12.5663    182.3967    216.7380   7.0554042797e+01   4.1052062643e+00    0.6200493    0.3032752  30.06  0.002829392    2.352    0.575
        93 -10.7351     50.6895    218.1185   9.4826082178e+01   2.4336663669e+01    0.2021422    0.1188778  57.41  0.001340787    1.377    0.274
        94 -10.0820     67.1188    216.8743   9.1858110444e+01   2.2497358891e+01    0.1843994    0.1237662  70.22  0.001217046    1.250    0.200
        95  -9.4775    123.8430    206.0072   8.0082008825e+01   1.6010547914e+01    0.1583138    0.1386556  63.00            0    1.042    0.040
        96 -11.2804    243.8690    202.3477   5.7126807926e+01  -4.5575497706e+00    0.4814678    0.4454084  41.79  0.003331926    1.434    0.302
        97  -9.7719    202.7106    197.0043   6.3492688612e+01   3.3683099417e+00    0.1816784    0.1648486  15.79  0.001162633    1.081    0.075
        98 -10.6971    196.5317    186.0101   6.2653751870e+01   6.2040370154e+00    0.2627032    0.1818958  55.04   0.00130913    1.593    0.372
        99  -9.8664     37.0593    185.5099   9.4610605400e+01   3.2118862514e+01    0.1582435    0.1017706  43.36  0.001036349    1.602    0.376
       100 -10.5886    101.0191    175.9643   8.0509631021e+01   2.5513439331e+01      0.18333    0.1619715  74.81            0    1.005    0.005
       101  -9.9854     62.5165    170.5074   8.7961383833e+01   3.2196168392e+01     0.122935     0.102346  84.71 0.0008104188    1.002    0.002
       102 -10.7843    247.8326    158.4023   4.7808379700e+01   6.7119299714e-01    0.2983861    0.1375748 -45.26   0.00123002    2.777    0.640
       103 -10.8982    220.0424    156.2722   5.2245697372e+01   6.3461954797e+00    0.4677401    0.2559264  55.18  0.002038132    2.186    0.543
       104  -9.5134     20.5020    155.4946   9.5210741790e+01   3.9930482854e+01    0.1143067   0.08785641 -89.11 0.0008106632    1.006    0.006
       105  -9.6970     53.8381    143.3453   8.6390813115e+01   3.9116020221e+01    0.2248978    0.1500766 -79.90   0.00130287    1.380    0.275
       106 -12.0803     10.6979    140.4144   9.5889643435e+01   4.3935574737e+01    0.4145659    0.2049575 -83.78  0.002385075    1.728    0.421
       107  -9.8670     39.7534    140.6007   8.9319494970e+01   4.1275447590e+01    0.2402398    0.1197596 -59.50  0.001283194    1.748    0.428
       108 -13.7554    241.0272    125.3214   4.1650957803e+01   6.9799162370e+00     1.383761     1.171073  58.93   0.00781865    1.371    0.270
       109 -11.0653    191.0761     37.4769   2.7017606838e+01   3.2284580204e+01    0.4758317     0.156808 -38.73  0.001649401    2.913    0.657
