#   1 NUMBER                 Running object number                                     
#   2 MAG_AUTO               Kron-like elliptical aperture magnitude                    [mag]
#   3 X_IMAGE                Object position along x                                    [pixel]
#   4 Y_IMAGE                Object position along y                                    [pixel]
#   5 X_WORLD                Barycenter position along world x axis                     [deg]
#   6 Y_WORLD                Barycenter position along world y axis                     [deg]
#   7 A_WORLD                Profile RMS along major axis (world units)                 [deg]
#   8 B_WORLD                Profile RMS along minor axis (world units)                 [deg]
#   9 THETA_WORLD            Position angle (CCW/world-x)                               [deg]
#  10 FWHM_WORLD             FWHM assuming a gaussian core                              [deg]
#  11 ELONGATION             A_IMAGE/B_IMAGE                                           
#  12 ELLIPTICITY            1 - B_IMAGE/A_IMAGE                                       
         1 -14.9205      3.8981    128.6297   1.4245789559e+02   4.6344762980e+01     4.400921    0.6184325 -78.28   0.01476272    5.681    0.824
         2 -13.6732    197.9627     25.4458   6.7503402372e+01   3.2141506934e+01     1.667071     1.383436  16.51   0.00678394    1.217    0.178
         3 -13.4867    213.1366      7.3199   5.9989198795e+01   2.9961211704e+01     1.000988    0.8717655  46.47  0.005679769    1.146    0.128
         4 -11.3247      2.8204      4.0700   1.2328120087e+02   7.3211637046e+01    0.2663052    0.2389235  55.91  0.002035759    1.630    0.387
         5 -12.2659    238.4100    246.4193   1.1061490321e+02  -2.6544081481e+00    0.3982792    0.1891036  43.48  0.002496498    1.950    0.487
         6 -11.4816    174.5876    249.7075   1.2104191186e+02   5.9266835766e+00    0.2631655    0.1869954  54.32  0.001999038    1.599    0.375
         7 -12.7926    143.0186    249.4148   1.2607480356e+02   1.0306993892e+01    0.7139453    0.1768746  41.35  0.003402414    2.819    0.645
         8 -13.2075    136.3844    244.7866   1.2670934761e+02   1.1744750526e+01    0.6899784    0.1592167  41.32  0.003142403    3.050    0.672
         9 -12.7555    123.2797    249.1882   1.2921570550e+02   1.2955143012e+01    0.4275691    0.3167229  22.01  0.003369149    1.668    0.401
        10 -12.0222     19.5508    247.9888   1.4494952955e+02   2.4618415180e+01    0.3272568    0.1894875  36.62  0.002780884    1.740    0.425
        11 -11.9992    179.4951    245.5768   1.1979245473e+02   5.6601942965e+00    0.3023885     0.173713  27.77  0.002048577    1.525    0.344
        12 -11.0327    249.4593    244.7348   1.0870902446e+02  -4.0106691269e+00    0.2473802   0.09186637 -27.20  0.001454512    3.208    0.688
        13 -10.7637    198.7958    246.4075   1.1679718064e+02   2.8479574400e+00    0.1607886   0.07043141  33.75 0.0009573491    1.692    0.409
        14 -11.0842     29.4878    249.5092   1.4358371420e+02   2.3502365541e+01    0.1830684    0.1407921 -61.01  0.001722386    2.006    0.501
        15 -10.1585     81.6650    249.3366   1.3577873821e+02   1.8064661822e+01     0.157451   0.07867644  59.31  0.001109529    1.726    0.421
        16 -11.0576    185.0974    238.6081   1.1806233879e+02   5.5780584786e+00    0.1562784    0.1436735  35.68  0.001323774    1.379    0.275
        17 -11.5373     36.4229    215.0976   1.4104627984e+02   2.7869724947e+01    0.4630938    0.3984712 -43.74  0.004049252    1.904    0.475
        18 -12.7452     47.4139    217.0135   1.3933067266e+02   2.6470643430e+01    0.4730744    0.3373803  60.21  0.002287423    1.028    0.028
        19 -12.4110    121.1550    232.1684   1.2804767987e+02   1.5389537562e+01     0.459059    0.1231153  40.08  0.002154604    2.802    0.643
        20  -9.7328     54.4103    230.2439   1.3893000115e+02   2.3741953930e+01    0.1698732    0.1007725 -61.22  0.001284689    2.169    0.539
        21 -12.3165     91.4438    227.8366   1.3268437925e+02   1.9836164083e+01    0.7144625    0.1091046  45.77  0.002825944    4.287    0.767
        22  -9.7253    173.0183    222.3112   1.1806711689e+02   9.1719676203e+00    0.1890146    0.0700633  28.55 0.0007042346    4.216    0.763
        23 -14.4887     36.0221    230.6287   1.4184615359e+02   2.5548902419e+01    0.6750883    0.6223577 -47.52  0.006467661    1.811    0.448
        24 -10.2782     56.8282    224.1170   1.3818697001e+02   2.4393139686e+01    0.2008306    0.1503869  56.81  0.001708552    1.067    0.063
        25  -9.7404     20.1259    211.9246   1.4356000321e+02   2.9881532425e+01     0.192074    0.1304712  24.64  0.001515164    2.054    0.513
        26 -12.0349     10.3357    206.9320   1.4494938810e+02   3.1515564208e+01    0.4473873    0.2674655  29.02  0.002813774    2.044    0.511
        27 -12.2086    106.5533    230.9881   1.3040166745e+02   1.7479242880e+01    0.3911083    0.1297712  44.50  0.002057039    2.196    0.545
        28 -11.8396     59.3487    200.7881   1.3622866454e+02   2.7805967079e+01    0.2046444    0.1741472  76.10   0.00056218    1.161    0.138
        29  -9.6180     12.2330    195.9942   1.4421554977e+02   3.3152110212e+01    0.1592136    0.1076519  52.78 0.0006401939    1.232    0.188
        30 -12.0669     65.9583    192.1500   1.3434854490e+02   2.8518265742e+01    0.2065467    0.1792502  72.49 0.0004005028    1.133    0.117
        31 -10.9054     76.6125    178.8050   1.3106873629e+02   2.9592390419e+01    0.1986481    0.1751509  78.19 0.0003843564    1.104    0.094
        32 -13.2283     63.0178    177.1056   1.3362891362e+02   3.1518407643e+01    0.3918009    0.2355189 -47.51  0.001777457    2.283    0.562
        33  -9.3063     98.5054    175.1916   1.2621392594e+02   2.7356679485e+01    0.1540758    0.1134634 -69.31 0.0009907203    1.472    0.321
        34 -12.0602     84.3645    169.7136   1.2850654777e+02   3.0266632039e+01    0.5746391    0.4507248  19.14  0.003760398    1.657    0.396
        35 -13.0835     10.3758    157.0520   1.4273246426e+02   4.0277109126e+01     1.003362    0.3608956  83.52  0.005117669    2.806    0.644
        36  -9.6546    215.3133    249.6497   1.1459764339e+02   2.4641126858e-01   0.09289285   0.07132223  48.72 0.0007046221    1.724    0.420
        37  -8.6586    135.3070    150.6542   1.1466696915e+02   2.6036994346e+01    0.1323509    0.1013904  75.90 0.0005790726    1.697    0.411
        38  -9.4294    134.0000    146.4473   1.1420185718e+02   2.7030000074e+01    0.2781505    0.0765515 -48.59 0.0009360937    3.946    0.747
        39 -12.0135     67.4666    143.6173   1.2912700208e+02   3.7480870290e+01    0.5852442     0.341852  61.05  0.003017929    1.807    0.447
        40 -10.0175    109.1314    137.8333   1.1840516597e+02   3.2842748100e+01    0.3596407    0.2484691 -12.83  0.001714014    2.478    0.596
        41 -10.5408     96.0535    135.3382   1.2111904472e+02   3.5355601240e+01    0.2125496    0.1902921 -55.20 0.0003238786    1.165    0.142
        42 -10.9354     29.8987    130.7366   1.3657477457e+02   4.3997953249e+01    0.2538066    0.1560726  57.23 0.0006051107    1.565    0.361
        43  -8.9346    115.3305    129.9954   1.1548403697e+02   3.3392046420e+01    0.2194114   0.09759779 -33.63 0.0007050791    4.331    0.769
        44 -11.8089     21.2796    126.0495   1.3820912597e+02   4.5673988895e+01    0.4344468    0.1774067  49.78  0.001619289    2.409    0.585
        45  -9.1032    106.2780    124.2534   1.1661641773e+02   3.6047913959e+01     0.166996    0.1445987  74.60 0.0003388873    1.232    0.188
        46 -10.5293     96.8513    153.4755   1.2371680235e+02   3.1631031009e+01    0.2578132    0.2527359 -56.99 0.0008651942    1.174    0.148
        47 -10.4370    241.1920     89.3917   7.9463961583e+01   1.3876033720e+01    0.1856882    0.1402967  64.84  0.000954085    1.718    0.418
        48 -10.1304    158.0226     76.2669   9.1503373719e+01   3.5117560302e+01    0.2222799    0.2015754  33.35 0.0005149455    1.090    0.082
        49  -9.5557     99.9533    149.0546   1.2236594850e+02   3.2038111916e+01    0.1831864    0.1702354  62.55 0.0003273787    1.028    0.027
        50 -12.0741     85.4908    152.4786   1.2613692485e+02   3.3408272147e+01    0.2506878    0.2205155 -47.13 0.0006124343    1.330    0.248
        51 -11.6023    101.8839    248.0759   1.3252892762e+02   1.5810081744e+01    0.2651688    0.1549471  59.59  0.001970234    1.542    0.351
        52 -10.3963      2.3684    248.3972   1.4735569233e+02   2.6035975948e+01    0.1613544    0.1161542 -81.62  0.001367897    1.632    0.387
