#   1 NUMBER                 Running object number                                     
#   2 MAG_AUTO               Kron-like elliptical aperture magnitude                    [mag]
#   3 X_IMAGE                Object position along x                                    [pixel]
#   4 Y_IMAGE                Object position along y                                    [pixel]
#   5 X_WORLD                Barycenter position along world x axis                     [deg]
#   6 Y_WORLD                Barycenter position along world y axis                     [deg]
#   7 A_WORLD                Profile RMS along major axis (world units)                 [deg]
#   8 B_WORLD                Profile RMS along minor axis (world units)                 [deg]
#   9 THETA_WORLD            Position angle (CCW/world-x)                               [deg]
#  10 FWHM_WORLD             FWHM assuming a gaussian core                              [deg]
#  11 ELONGATION             A_IMAGE/B_IMAGE                                           
#  12 ELLIPTICITY            1 - B_IMAGE/A_IMAGE                                       
         1 -15.2894      9.3977    152.3795   1.4442970785e+02   4.2226545951e+01     9.562526     4.268939  73.21   0.04494564    2.869    0.651
         2 -13.5047    194.2177     29.4344   6.9714927773e+01   3.3340118943e+01     1.322551     1.274673  86.93  0.006905288    1.125    0.111
         3 -13.7169    209.0792     10.3087   6.3134686387e+01   3.1917674131e+01      1.28571    0.9515846  42.83  0.007417175    1.663    0.399
         4 -12.3469      2.3413     13.4416   1.1841769799e+02   7.0467158590e+01     1.203602    0.1393345 -48.96  0.003738746    7.531    0.867
         5 -10.0263    198.5135    246.4677   1.1800703017e+02  -5.5371907556e+00    0.1253021    0.1024453  30.81 0.0002102704    1.013    0.013
         6 -12.1866    245.8544    247.6864   1.0971114924e+02  -1.3183871915e+01    0.7314171     0.373175  33.75   0.00415364    1.665    0.399
         7 -11.7573    139.6907    249.5125   1.2934946785e+02   4.0300458305e+00      0.43106    0.2593555  52.97  0.002437596    1.418    0.295
         8 -11.1313    124.7982    250.1588   1.3215973008e+02   6.4098978954e+00     0.514482    0.1370328  40.65  0.001890456    3.471    0.712
         9  -9.4386    111.7385    250.6047   1.3457561254e+02   8.4584452048e+00    0.1751843   0.09070963  52.53 0.0006549345    1.584    0.369
        10 -11.5127     97.9704    247.3968   1.3670455345e+02   1.1196628979e+01    0.4310264    0.2627075 -83.54  0.002496986    1.836    0.455
        11 -11.4102    101.2415    245.9847   1.3596940480e+02   1.0939210384e+01     0.305231    0.2418675 -83.95 0.0008760199    1.288    0.224
        12 -11.3133     30.2152    250.2888   1.4833759621e+02   1.9929567426e+01    0.4692852    0.2412885  44.65  0.003003014    1.841    0.457
        13 -11.5653     35.5514    244.4400   1.4711149998e+02   2.0369233744e+01    0.5125375    0.3489012 -89.93  0.003731095    1.216    0.177
        14 -11.1855     15.3942    249.4932   1.5056599901e+02   2.1743836308e+01    0.3324513    0.1910888  41.29  0.002306601    1.945    0.486
        15 -11.3751      2.6515    248.2206   1.5239651409e+02   2.3306296882e+01    0.5003378    0.1844087 -80.37  0.002984514    2.220    0.550
        16 -10.6345     22.5886    244.8710   1.4919652620e+02   2.1792367711e+01    0.2384085    0.1239683  70.27 0.0007950354    1.498    0.332
        17 -10.8769    126.3570    243.8289   1.3111621428e+02   7.2383936462e+00    0.3054133    0.1090834  52.96  0.001234472    2.752    0.637
        18 -11.9120     11.3375    239.3624   1.5062643209e+02   2.4029652824e+01    0.4421183    0.1736177  69.14  0.001608152    2.238    0.553
        19 -10.6376    235.0010    239.2519   1.1020492460e+02  -1.0489093904e+01    0.2504094    0.1648344 -51.85  0.001364548    2.420    0.587
        20 -11.2043    119.9102    238.3563   1.3165495488e+02   9.2881307047e+00    0.3642008    0.1968992 -76.03  0.001742684    2.575    0.612
        21  -9.4665    186.2973    239.3293   1.1917977094e+02  -2.4034409873e+00    0.1258216     0.092257  11.88 0.0002313166    1.637    0.389
        22 -12.8655     55.8613    225.4116   1.4215601897e+02   2.1477645141e+01     2.257982     1.078387 -56.93    0.0119095    2.437    0.590
        23 -10.7631     81.6902    249.1797   1.3974858777e+02   1.3333580068e+01    0.2075124    0.1454124  56.23  0.001030885    1.163    0.140
        24 -11.8864    147.4955    229.5126   1.2516998226e+02   6.1023591142e+00     1.080816    0.2153579  38.43  0.002569822    7.308    0.863
        25 -10.8429      6.7733    226.7866   1.5063052867e+02   2.6872132443e+01     0.294337    0.2328601 -12.43   0.00197191    3.124    0.680
        26 -13.2638      9.0214    207.3780   1.4904670808e+02   3.0487443781e+01    0.8786533    0.6895448 -66.98  0.004146649    1.522    0.343
        27  -9.3007     92.0531    213.9863   1.3406850782e+02   1.8563625430e+01     0.258094    0.1476499  80.79  0.001226263    2.149    0.535
        28  -8.9486    152.6580    212.8971   1.2160459063e+02   8.2087701324e+00    0.1765669    0.1643877  85.72 0.0003462506    1.129    0.115
        29  -9.4649     34.7936    202.4711   1.4400095312e+02   2.8801248005e+01    0.1921408    0.1300065 -83.36 0.0002861127    1.201    0.167
        30 -11.6773     62.8561    197.9714   1.3805150654e+02   2.6267536889e+01     0.319917    0.2487172 -46.24 0.0007781843    1.750    0.429
        31  -9.6802    192.0247    193.0465   1.1001807043e+02   4.3270468053e+00    0.3490441    0.1805527 -63.47  0.001135576    4.293    0.767
        32 -11.9211     68.6816    190.0040   1.3590159581e+02   2.7215373978e+01    0.2844079    0.2348427 -63.79  0.000507009    1.304    0.233
        33 -10.0496    172.7839    222.4038   1.1910219414e+02   2.7590440966e+00    0.1972666    0.1144343  34.76 0.0009522788    1.679    0.404
        34 -14.1960     42.4128    224.0091   1.4443679041e+02   2.3469389954e+01     1.192508    0.8097426 -56.89  0.005388231    1.888    0.470
        35 -10.8914     78.5206    177.3822   1.3206978805e+02   2.8641492948e+01    0.2427708    0.2137893 -83.22 0.0003040222    1.081    0.075
        36 -13.2040     65.3806    175.4017   1.3472902745e+02   3.0968841082e+01    0.4954836    0.2774836 -46.66  0.001532774    2.214    0.548
        37  -9.1061     99.2155    175.7975   1.2713825417e+02   2.5724907117e+01    0.2386417    0.1353751  77.13 0.0009332824    2.692    0.628
        38 -11.9555     86.0131    167.9537   1.2892113099e+02   2.9673390703e+01    0.6738017    0.5911245  70.09  0.004007096    1.098    0.089
        39 -10.0676     98.4839    152.0051   1.2313446319e+02   3.1373998577e+01    0.3124583    0.2574196 -57.27 0.0007435147    1.175    0.149
        40  -9.3317    101.3041    147.9786   1.2165590498e+02   3.1836031169e+01    0.2187586    0.1926273 -33.94 0.0003867325    1.323    0.244
        41 -12.0203     86.9906    151.3487   1.2585841183e+02   3.3411554597e+01     0.297949    0.2452288 -48.83 0.0005652634    1.279    0.218
        42 -12.8599     66.5620    143.0533   1.2951859782e+02   3.8358164232e+01      1.24166    0.6970959  81.45  0.003655443    2.849    0.649
        43  -8.1841    134.2962    148.6532   1.1367820827e+02   2.5437035527e+01    0.1584593    0.1186758  89.08 0.0003797785    1.674    0.403
        44 -10.4102    230.7027    232.0311   1.0974070147e+02  -8.8452874257e+00    0.2530077    0.1939586 -57.26  0.001134808    2.053    0.513
        45  -8.5001    192.2348    143.9916   9.9541566231e+01   1.3842944469e+01    0.1929267    0.1271389 -42.10 0.0003811513    1.506    0.336
        46 -10.1690    228.4820    227.9906   1.0944029173e+02  -7.9238502730e+00    0.2775417    0.2143024 -60.28  0.001609432    2.073    0.518
        47  -9.8250    109.8881    137.2121   1.1725466331e+02   3.2822967184e+01    0.3646309     0.255819 -16.45  0.001268948    2.340    0.573
        48 -10.5975     97.1389    134.4209   1.1995250603e+02   3.5736141537e+01    0.2681697     0.218696 -43.41 0.0005037666    1.266    0.210
        49 -11.0521     34.5437    133.2474   1.3609153878e+02   4.4356352531e+01     0.262104    0.2150982  68.67 0.0004879529    1.305    0.234
        50  -9.0107     81.0442    132.7623   1.2384529517e+02   3.8715438830e+01    0.1807999    0.1710306 -86.68 0.0002806121    1.073    0.068
        51  -9.0266    106.9493    123.9547   1.1503444183e+02   3.6432931455e+01    0.2090679    0.1978795 -62.20 0.0003103046    1.009    0.009
        52 -10.6434     53.6191    119.5773   1.2869358275e+02   4.5473560580e+01    0.3368942    0.1193304 -64.97  0.001251021    2.879    0.653
        53 -10.2469    167.9080    112.9113   9.7164862888e+01   2.5844273561e+01    0.3421432    0.2839927 -83.02 0.0007391549    1.398    0.285
        54  -9.4153    203.3969    111.7258   8.9523148666e+01   1.7673148032e+01     0.213039    0.1460032 -29.29 0.0005623197    1.595    0.373
        55 -12.7881     36.4990    232.0693   1.4608246523e+02   2.2600359323e+01    0.2869608    0.2366012 -85.92 0.0007570292    1.319    0.242
        56  -9.7947     69.8229     84.3794   1.1575335446e+02   5.1186817529e+01    0.3574834    0.2273475  61.94  0.001628274    2.621    0.618
        57  -8.7220    184.5494     77.4664   8.4216948154e+01   2.8582076331e+01    0.1493873    0.1463831  61.88 0.0001510629    1.067    0.063
        58  -9.5387    157.2318     76.6095   8.9596340064e+01   3.5440954662e+01    0.2206459    0.1369927  43.89 0.0007151947    1.647    0.393
        59 -10.4658     26.5156     59.8042   1.2359590160e+02   6.0877559786e+01    0.3838154    0.1756265  40.18  0.001924478    3.059    0.673
        60 -10.5176     19.0398     56.9393   1.2553722880e+02   6.2002624361e+01     0.347049    0.1459786  36.76  0.001759369    3.173    0.685
        61 -10.7289     46.1636    248.4517   1.4567172817e+02   1.8323142929e+01    0.3215909      0.13799  68.16 0.0009024554    2.246    0.555
        62 -10.9152    106.2857    247.6408   1.3523628666e+02   9.8474228264e+00    0.3052528    0.1771085  74.06  0.001631415    1.977    0.494
