#   1 NUMBER                 Running object number                                     
#   2 MAG_AUTO               Kron-like elliptical aperture magnitude                    [mag]
#   3 X_IMAGE                Object position along x                                    [pixel]
#   4 Y_IMAGE                Object position along y                                    [pixel]
#   5 X_WORLD                Barycenter position along world x axis                     [deg]
#   6 Y_WORLD                Barycenter position along world y axis                     [deg]
#   7 A_WORLD                Profile RMS along major axis (world units)                 [deg]
#   8 B_WORLD                Profile RMS along minor axis (world units)                 [deg]
#   9 THETA_WORLD            Position angle (CCW/world-x)                               [deg]
#  10 FWHM_WORLD             FWHM assuming a gaussian core                              [deg]
#  11 ELONGATION             A_IMAGE/B_IMAGE                                           
#  12 ELLIPTICITY            1 - B_IMAGE/A_IMAGE                                       
         1  -9.5899     71.4158     26.1885   9.0317686821e+01   6.0635654782e+01    0.3628448     0.205755  33.52   0.00157079    1.612    0.380
         2 -10.0773      9.3333     19.6653   1.1247337457e+02   6.9186886503e+01    0.3752455     0.198741   9.28  0.000573361    1.903    0.475
         3  -9.1318     50.3167     15.4527   9.3426527447e+01   6.5176880741e+01    0.3199858    0.1808364   6.76  0.001762628    2.033    0.508
         4 -10.1299     24.5426     16.6061   1.0438888315e+02   6.8228384027e+01    0.3242135    0.2270207  23.42 0.0006650946    1.452    0.311
         5  -9.9115     31.7437     10.7158   9.8797133401e+01   6.8157776222e+01    0.3039724    0.1708433 -15.81  0.001080541    1.661    0.398
         6  -9.7697     63.9382     14.3028   8.8134569862e+01   6.3215308878e+01    0.3387063    0.1979006  27.39 0.0009284887    1.555    0.357
         7  -8.8721     74.8374     13.8233   8.4453795664e+01   6.1413694018e+01    0.3364072    0.2019265  22.32  0.001339379    1.654    0.395
         8  -8.5945     80.0726     12.6772   8.2448308902e+01   6.0584493578e+01    0.2564728    0.1900294  36.21  0.001056354    1.138    0.121
         9  -8.4701    134.2510     13.7406   7.0182507651e+01   4.9185605174e+01    0.3085442    0.1401196  40.56  0.001267479    2.341    0.573
        10  -8.7368     97.3745     11.9779   7.7521362539e+01   5.7318391222e+01    0.2314882    0.1470558  43.65 0.0006229065    1.317    0.241
        11  -8.2603    106.3084     10.5614   7.4888874276e+01   5.5610826494e+01    0.2075275    0.1739278  43.78 0.0008662114    1.023    0.023
        12 -10.6429     20.1884      8.8141   1.0302824888e+02   6.9659646757e+01    0.2623755    0.1551091  14.24 0.0003773798    1.521    0.343
        13  -8.1305      2.1426      8.1425   1.1129667710e+02   7.1330832633e+01    0.1710181    0.1421269 -13.85  0.001435514    1.344    0.256
        14  -8.5533    128.0260      7.9376   6.9546568544e+01   5.1119928451e+01    0.2050752    0.1274812  34.26 0.0006118599    1.694    0.410
        15  -7.8832     39.5476      8.0833   9.4449656118e+01   6.7475533583e+01    0.1958776    0.1166404  13.62 0.0007213037    1.562    0.360
        16  -8.1489    118.6778      6.8306   7.0994336275e+01   5.3284800706e+01     0.181171    0.1294135  48.76 0.0006336761    1.169    0.145
        17  -8.3004     76.5768      7.1786   8.1333325805e+01   6.1732869422e+01    0.2222329    0.1376325  44.35 0.0005887917    1.380    0.275
        18  -8.8304     56.7151      4.7453   8.6635178624e+01   6.5320043136e+01    0.3435051     0.169139  17.32  0.001741715    2.451    0.592
        19  -9.8490     49.0861      4.6682   8.9310916360e+01   6.6491395081e+01    0.2296539    0.1552258  11.99 0.0003827004    1.260    0.206
        20  -8.2835     12.6606      4.6700   1.0469661526e+02   7.0895703768e+01    0.2358326    0.1415021 -28.89  0.001678747    1.424    0.298
        21  -8.6955    110.9240      4.4207   7.1785475669e+01   5.5157813372e+01    0.2651733     0.167782 -31.51  0.001379252    1.842    0.457
        22  -8.6551     68.6939      4.2192   8.2515409511e+01   6.3387910369e+01     0.262107    0.1223297  -1.05  0.001184862    3.212    0.689
        23  -8.5620    125.2206      4.0101   6.8838087355e+01   5.2076182367e+01     0.195067    0.1390932  36.85 0.0006843938    1.363    0.266
        24  -8.2395    103.9849      3.5282   7.2978981428e+01   5.6690317702e+01    0.2855576    0.1313398 -15.91  0.001402532    2.643    0.622
        25  -7.7415    153.5231      3.0464   6.3942660399e+01   4.5695448315e+01    0.1572652    0.1270646 -23.51 0.0003760321    1.504    0.335
        26  -7.9553    182.3003      2.1310   6.0030028190e+01   3.9048135977e+01    0.1659399    0.1386582 -85.11 0.0003413508    1.092    0.085
        27  -7.7809    143.2182      2.1668   6.5236038491e+01   4.8153129789e+01    0.1599656    0.1303975 -87.78 0.0003079464    1.279    0.218
        28  -7.6067      3.0406      1.1649   1.0783025463e+02   7.2154922542e+01    0.1212426   0.06236015  19.04 0.0003379148    1.828    0.453
        29  -7.0476    226.6680    229.7135   1.0409375530e+02  -8.6157251361e+00    0.1305026   0.08779481   5.51 0.0007013553    1.620    0.383
        30  -7.8678    249.2050    249.8008   1.0346467317e+02  -1.4687705255e+01    0.1645839    0.1122079   4.07 0.0005238992    1.325    0.245
        31  -8.9744    218.5036    247.5143   1.0867670372e+02  -9.9788738550e+00    0.4117365    0.2324474 -57.98  0.001802547    3.841    0.740
        32  -8.8860    150.8196    249.8087   1.2218559987e+02   7.0969154588e-01     0.193495    0.1608699  27.14 0.0006151916    1.225    0.184
        33  -7.7407    123.2510    250.5888   1.2772221768e+02   5.1844982870e+00    0.1797525    0.1098447  34.36 0.0009438627    1.655    0.396
        34  -8.0001    195.0733    229.0010   1.1008457260e+02  -3.3287848713e+00     0.215649    0.1505366   5.06  0.000630944    1.756    0.431
        35  -8.6342    237.4665    226.4479   1.0150850778e+02  -9.7798584374e+00    0.3035761    0.1990447 -52.71   0.00161518    2.252    0.556
        36  -7.6005    175.0098    228.4763   1.1404780775e+02   2.5319400729e-01    0.1800243    0.1106785  17.74 0.0003737174    2.217    0.549
        37  -7.5275     92.6604    227.6871   1.3104624767e+02   1.4631554121e+01    0.1197346    0.1063269 -11.37 0.0005890897    1.696    0.411
        38  -8.9122    247.7907    225.7162   9.9510207417e+01  -1.1198027013e+01    0.3472174    0.2183536  29.69  0.002025896    1.514    0.339
        39  -7.6213    230.4726    226.4859   1.0280697720e+02  -8.7163415847e+00     0.128014    0.1077792   4.46 -2.60349e-06    1.012    0.012
        40  -8.3931    187.1540    226.1776   1.1118929684e+02  -1.4784508565e+00    0.2057502      0.16664  16.90 0.0005424019    1.227    0.185
        41  -7.3613    142.4542    226.4903   1.2049210365e+02   6.4240309913e+00    0.1366616    0.1226894  47.96 5.564813e-05    1.024    0.023
        42  -7.9701     70.1646    225.8585   1.3540034681e+02   1.8419789110e+01    0.1585898    0.1516213 -75.27 0.0006145856    1.360    0.264
        43  -7.6105    223.4573    224.7775   1.0381764693e+02  -7.3488990844e+00     0.174579    0.1126682 -21.79 0.0009308632    1.639    0.390
        44  -6.9489    133.6726    229.2998   1.2274929307e+02   7.4260511665e+00    0.1398667   0.09686258  67.68 0.0007029328    1.638    0.390
        45  -7.4819    206.5091    222.4929   1.0667986319e+02  -4.1885616796e+00    0.1352707    0.1156808  10.11 -7.006833e-05    1.077    0.071
        46  -8.1312    216.4503    220.3789   1.0436218360e+02  -5.5061054494e+00    0.2615848    0.1765045   7.45 0.0009887599    1.726    0.421
        47  -7.7033     51.4881    221.5204   1.3867000102e+02   2.1914587759e+01    0.1229671    0.1031864  83.11 0.0002325715    1.108    0.098
        48  -8.4729    182.4975    219.5075   1.1098417720e+02   5.2883692442e-01     0.290948    0.2010243  17.53 0.0008378828    1.693    0.409
        49  -7.6490     40.0038    220.4985   1.4081286783e+02   2.3585916549e+01     0.144755    0.1112852  -2.99  0.000810685    2.633    0.620
        50  -8.1588    240.5458    218.8069   9.9555301948e+01  -9.0942817326e+00    0.2361593    0.1622596  50.57  0.001303322    1.950    0.487
        51  -7.6932    173.5712    219.2009   1.1277865798e+02   2.1965373861e+00    0.1784872    0.1304415 -30.36 0.0007039601    1.572    0.364
        52  -8.2870    227.2600    218.0922   1.0188312000e+02  -6.9021712933e+00     0.199983    0.1561746  -5.77 0.0006654785    1.232    0.188
        53  -8.0377    203.3312    216.6406   1.0625292287e+02  -2.6516690153e+00    0.2709035    0.1508704  20.32  0.001157403    2.389    0.581
        54  -8.4143    193.3181    215.4118   1.0804308969e+02  -6.7229562939e-01    0.2717296    0.2233908  24.47  0.001168453    1.144    0.126
        55  -9.5125    160.1501    215.4120   1.1495752192e+02   5.3752960374e+00    0.2278352    0.2249245  20.19 0.0002253407    1.081    0.075
        56  -7.2649    210.3778    215.3033   1.0461572249e+02  -3.6389354788e+00    0.1425389   0.09746726   5.87 0.0007026786    1.770    0.435
        57  -7.9660    130.4982    220.4697   1.2211216427e+02   9.7491591586e+00    0.1390652    0.1241184  56.43  7.70056e-05    1.007    0.007
        58  -7.6674     84.0070    214.7656   1.3126552534e+02   1.8749538483e+01    0.1727411    0.1029218  43.07 0.0006435417    1.594    0.373
        59  -8.0342    122.3907    213.2634   1.2277170711e+02   1.2686177298e+01    0.2442361    0.1665737  31.99 0.0006369111    1.607    0.378
        60  -8.6348    249.0574    211.6949   9.6704738549e+01  -9.2938008354e+00    0.3021425    0.1383982  33.47  0.001432139    2.242    0.554
        61  -7.9792    169.5049    211.9910   1.1237708972e+02   4.3087385988e+00    0.2031661    0.1402117 -45.41 0.0005776892    1.559    0.359
        62  -7.8515    233.0612    211.3284   9.9539766071e+01  -6.7509566487e+00    0.1800195    0.1518711  20.93 0.0005048626    1.134    0.118
        63  -7.6109    186.3204    210.3356   1.0855506308e+02   1.5172751058e+00    0.1441199    0.1063294   1.06 0.0004822422    1.705    0.414
        64  -7.9245    162.9649    208.0052   1.1306989146e+02   6.3125290824e+00    0.2238249    0.1721798   4.85 0.0005738648    1.693    0.409
        65  -8.0759    216.0641    205.3652   1.0164112144e+02  -2.9142369910e+00    0.2279456    0.1763752 -13.73 0.0009688492    1.327    0.246
        66  -7.9558    247.0272    204.9389   9.5789103463e+01  -7.9326911129e+00    0.2118255    0.1411566  -2.24  0.001130405    1.706    0.414
        67  -7.6402    117.9722    205.0000   1.2247268730e+02   1.5253933759e+01    0.2326556   0.07642845  40.13  0.000455216    2.886    0.653
        68  -8.2132    237.3052    203.2900   9.7229220123e+01  -6.1293796661e+00    0.2342151    0.1479182  24.90  0.000522445    1.665    0.399
        69  -7.9619    250.4295    199.2316   9.4094322008e+01  -7.5515314269e+00     0.251382     0.111693 -33.75  0.001136339    2.117    0.528
        70  -7.6826    196.0764    200.4382   1.0468939133e+02   1.5644461187e+00    0.2171275    0.1320323  38.01 0.0008017277    1.591    0.371
        71  -7.6007    184.8217    200.3366   1.0700464322e+02   3.6910581797e+00    0.2101799    0.1252008  32.14 0.0008819933    1.743    0.426
        72  -8.1276    243.7765    198.1686   9.5068089213e+01  -6.3321634662e+00    0.3302606    0.1356188 -31.23  0.001349428    2.590    0.614
        73  -7.5468    222.6138    198.7556   9.9102444172e+01  -2.9018023853e+00    0.1391871   0.09770289   9.69 0.0006938668    1.654    0.395
        74  -7.3235     99.7000    198.6779   1.2561653320e+02   1.9827895069e+01    0.1327088     0.112622 -24.75 0.0007025468    1.627    0.385
        75  -8.3583    166.0737    197.1515   1.1041886224e+02   7.9151850846e+00    0.3560273    0.1964027  31.03  0.001199715    2.062    0.515
        76  -7.3787      1.4790    194.4981   1.4615772222e+02   3.3290893200e+01    0.1167547   0.08694462 -88.99 7.882282e-05    1.043    0.041
        77  -7.7458    150.5079    193.4451   1.1317780627e+02   1.1709871418e+01    0.1476815    0.1380731  59.33 0.0003949408    1.035    0.033
        78  -7.5632    124.5031    193.4587   1.1910260900e+02   1.6640114698e+01    0.1443749    0.1374782  63.79 7.370162e-05    1.058    0.055
        79  -7.0980    133.4376    192.5208   1.1688731758e+02   1.5182533435e+01    0.1447919    0.1392128  62.69 0.0002993253    1.047    0.045
        80  -7.3570    231.3420    191.2853   9.5986564535e+01  -3.1091539814e+00    0.1389009    0.0991347   1.99 0.0004850271    1.639    0.390
        81  -7.2906    246.3382    190.3084   9.3075958480e+01  -5.4469787472e+00    0.1366336   0.09451742  -1.97 0.0004538778    1.682    0.406
        82  -8.3097    193.0307    193.7275   1.0401488440e+02   3.4111698064e+00     0.336175    0.1911391 -25.69  0.001372828    2.372    0.578
        83  -7.3734     94.2864    189.6889   1.2549513269e+02   2.2804981937e+01    0.1460931    0.1018976  76.18 0.0006991404    1.577    0.366
        84  -7.9193     64.5544    189.3272   1.3229559989e+02   2.7413118040e+01    0.2108321    0.1746699   2.06  0.001183062    1.837    0.456
        85  -7.3168    179.5433    188.4724   1.0582620328e+02   7.0605800333e+00    0.1460838    0.1390145  12.41 9.741776e-05    1.041    0.040
        86  -7.3211    149.2792    185.6317   1.1198883154e+02   1.3647500218e+01    0.1532768    0.1167124  86.59 0.0007011452    1.686    0.407
        87  -7.2873    140.2927    184.3314   1.1380977303e+02   1.5696887690e+01    0.1474328    0.1202437 -11.29 0.0002491803    1.632    0.387
        88  -7.9863    130.3493    183.1368   1.1590768729e+02   1.7885126903e+01    0.2303334    0.1851291 -35.43 0.0007675503    1.451    0.311
        89  -7.5632    202.6676    194.7195   1.0223627374e+02   1.4113117275e+00    0.1434458    0.1066533   4.98 0.0002891927    1.609    0.378
        90  -7.1602    183.3214    180.3230   1.0337461500e+02   7.9752774935e+00    0.1523258    0.1168091  -0.78 0.0007046054    1.677    0.404
        91  -7.6148    156.6917    180.6514   1.0932892499e+02   1.3264647727e+01    0.1535386    0.1207255  -7.18 0.0007043903    1.708    0.414
        92  -7.5001     96.5870    178.4413   1.2314345557e+02   2.5081413259e+01    0.1440136    0.1317836 -89.16  9.57003e-05    1.020    0.020
        93  -6.9436     68.7066    178.3218   1.2982276372e+02   2.9442831110e+01    0.1435294   0.09612907  76.41 0.0003395535    1.613    0.380
        94  -7.1547    173.3202    177.3160   1.0493011999e+02   1.0619480965e+01    0.1528605    0.1195715  -0.91 0.0004210376    1.658    0.397
        95  -7.1573    121.6835    177.6602   1.1695261163e+02   2.0791107288e+01    0.1493498    0.1206024 -16.07 0.0007048478    1.706    0.414
        96  -7.2822    138.3289    175.3164   1.1253613323e+02   1.8124049678e+01    0.1519237    0.1229595  -6.57 0.0007045798    1.679    0.404
        97  -7.6797     47.8068    175.3935   1.3435737549e+02   3.2898029661e+01    0.1629731    0.1308529  15.99 0.0009441328    1.728    0.421
        98  -8.0118    148.9227    174.5286   1.0989251996e+02   1.6186256621e+01    0.2307868    0.1480984  41.14 0.0005784116    1.545    0.353
        99  -8.1287    183.8333    171.7188   1.0147527586e+02   9.6505668526e+00    0.2406003    0.1901273  17.84 0.0008678003    1.470    0.320
       100  -8.3410    177.5169    166.5978   1.0175548367e+02   1.2034159372e+01    0.3013613    0.2100023 -12.54  0.001256468    2.126    0.530
       101  -7.7753    150.6426    165.7003   1.0767303068e+02   1.7827015892e+01    0.1568967     0.124586   0.64 0.0003641997    1.708    0.415
       102  -7.4735    168.5171    163.9789   1.0319111864e+02   1.4482865468e+01    0.2275311    0.1510619 -45.52 0.0007069435    1.510    0.338
       103  -7.5670    122.2538    162.6440   1.1391181563e+02   2.4223576480e+01    0.2072029    0.1447522  33.13 0.0005798574    1.584    0.369
       104  -9.0123    220.7910    147.6300   8.8806096389e+01   6.9448849361e+00    0.2544264    0.2297793 -40.48 0.0003116616    1.035    0.034
       105  -8.0235    133.4872    147.4958   1.0788767486e+02   2.5568493856e+01     0.280544    0.1429074 -39.93 0.0008432279    2.217    0.549
       106  -9.5024     67.0749    144.8568   1.2483332031e+02   3.7807116560e+01    0.4992618    0.3364604  73.80    0.0023974    1.851    0.460
       107  -8.1287    139.0708    138.9118   1.0453143878e+02   2.6399824645e+01    0.2575934    0.2013212  -6.60  0.001139224    1.778    0.438
       108  -7.7297     41.9990    139.7544   1.3072462381e+02   4.2135052764e+01     0.160136     0.114939  31.16 0.0008967107    1.635    0.388
       109  -7.8418    107.0661    137.4315   1.1249121516e+02   3.3130042069e+01    0.2122969    0.1384197  11.70 0.0008066254    2.627    0.619
       110  -7.5271    124.4762    136.0180   1.0756793689e+02   3.0093005022e+01    0.2267175    0.1314304 -29.29 0.0008100761    2.564    0.610
       111  -8.3715      4.8146    134.3107   1.3974971462e+02   4.6670615597e+01    0.2450118    0.1305983 -17.06  0.001195162    3.282    0.695
       112  -7.6883    225.5620    131.5011   8.4369822623e+01   9.0733869982e+00    0.1464137    0.1324587 -51.09 0.0002787847    1.039    0.037
       113  -8.2317     23.8000    130.0914   1.3416082710e+02   4.6193615213e+01    0.3386169    0.1662747 -27.28  0.001401895    3.597    0.722
       114  -7.4337    193.0018    127.2635   8.9511635415e+01   1.6959258936e+01    0.1970706     0.134624  50.52 0.0005425526    1.512    0.339
       115  -7.3447    144.3252    126.3114   1.0019682212e+02   2.8130942319e+01    0.1588993    0.1277508  -0.49 0.0006690354    1.659    0.397
       116  -7.7886    132.9741    124.7716   1.0266971741e+02   3.0926114160e+01    0.2110057    0.1302841  44.09 0.0008765674    1.647    0.393
       117  -9.1498     12.1868    121.5431   1.3609619466e+02   4.9086090776e+01    0.2647785    0.1084589 -54.72  0.001105022    1.905    0.475
       118  -7.7017    100.6131    118.5972   1.0987321634e+02   3.8743570336e+01     0.289782    0.1419163  24.63 0.0009485521    3.431    0.709
       119  -8.0224    118.5651    119.6065   1.0516883733e+02   3.5077035038e+01    0.3034355    0.1418329  29.23 0.0009557523    3.365    0.703
       120  -7.5076    131.2957    113.3265   1.0020058442e+02   3.3835893769e+01    0.1559605    0.1246796  -5.86 0.0001978891    1.627    0.385
       121  -9.1117      2.7107    109.4718   1.3701370671e+02   5.2426589393e+01     0.387926    0.1726665 -39.05  0.001970473    2.374    0.579
       122  -9.2609     15.3641    104.8226   1.3252206924e+02   5.2644460429e+01    0.4876229    0.2212855 -28.69  0.002176709    3.120    0.679
       123  -7.2375    108.6889    106.6655   1.0455967627e+02   3.9917993807e+01    0.1544639    0.1184994 -10.63 0.0007044168    1.680    0.405
       124  -7.6004     93.7449    103.6024   1.0805838634e+02   4.3349762556e+01    0.2018698    0.1379266  49.00 0.0009493683    1.618    0.382
       125  -8.3728    133.9215    107.3573   9.7956514594e+01   3.4560218867e+01    0.5137113    0.2011718 -41.63  0.001731174    2.610    0.617
       126  -8.0799    129.3581     97.6404   9.6505692131e+01   3.7588322513e+01    0.3150561    0.1822434  26.75  0.001167968    2.535    0.606
       127  -9.6014      9.2877     96.1139   1.3287108436e+02   5.4970548762e+01    0.3152049    0.1485002   2.18  0.001543417    3.147    0.682
       128  -9.5323     19.3858     92.8506   1.2902690044e+02   5.4986386049e+01    0.3822662    0.1711356 -47.35  0.001945468    1.800    0.444
       129  -7.0685     83.3141     93.3484   1.0846088320e+02   4.7330354270e+01    0.1492281    0.1062708 -16.72 0.0007046947    1.721    0.419
       130  -8.0077     95.2083     90.8747   1.0415802143e+02   4.5802364813e+01    0.2042224    0.1671949 -10.55 0.0005395671    1.354    0.262
       131  -7.9058     56.9847     91.7593   1.1642962763e+02   5.1480818592e+01    0.1582009     0.113336  26.56 0.0003288694    1.540    0.351
       132  -8.5384     45.2657     91.4522   1.2020636888e+02   5.2923114881e+01    0.2101579    0.1295127  18.61 0.0006565869    1.917    0.478
       133  -7.9027    110.1896     90.6249   9.9734399103e+01   4.3010832061e+01    0.2160058    0.1360739  31.91 0.0009463584    1.768    0.435
       134  -8.4092     67.1988     85.9660   1.1155458174e+02   5.1335185875e+01    0.4685262    0.1896325  25.14  0.001697083    3.512    0.715
       135  -9.4124     35.7218     81.9801   1.2111260592e+02   5.5907221574e+01    0.5912326    0.2567993 -31.01  0.002449569    2.980    0.664
       136  -8.0959    126.4332     83.8835   9.3380453061e+01   4.0948650394e+01     0.290623    0.1940508  12.33   0.00117593    2.372    0.578
       137  -7.5714     21.7015     83.7009   1.2632749369e+02   5.6763567240e+01     0.126377   0.07426938 -35.77 0.0002157688    1.577    0.366
       138  -8.5749     89.0443     79.0331   1.0259416325e+02   4.9263052403e+01    0.5457698    0.2383545  25.38  0.001723308    4.216    0.763
       139  -9.5821      8.2787     77.1734   1.2953004829e+02   5.9040175435e+01    0.3543284     0.158842 -37.75  0.001696291    2.014    0.504
       140  -7.9755    184.1423     77.9014   7.8946300288e+01   2.8510852772e+01    0.2318147    0.1888768 -77.39 0.0004792764    1.289    0.224
       141  -8.9752     48.4473     76.8232   1.1535348162e+02   5.5611568309e+01    0.3188632    0.2457304 -21.83  0.001340684    1.244    0.196
       142  -9.7003    235.0264     73.8022   6.9996185442e+01   1.7390748086e+01    0.2622817    0.2562374 -70.65 0.0003280336    1.229    0.187
       143  -8.4535    239.5891     70.1449   6.8611758587e+01   1.6991508472e+01    0.1979165    0.1774049 -32.18 0.0007342303    1.347    0.258
       144  -9.6673     24.2440     72.9014   1.2289348020e+02   5.8780459056e+01     0.788745     0.308431 -27.80  0.002999012    3.998    0.750
       145  -8.4787     23.4625     69.4794   1.2231030016e+02   5.9524592865e+01    0.2080851     0.187102 -36.16 0.0005465053    1.153    0.132
       146  -8.0955     74.7006     74.7931   1.0588049911e+02   5.2448887807e+01    0.2486566      0.16888   5.45 0.0006925355    1.859    0.462
       147  -9.0975     62.0000     67.0064   1.0777441472e+02   5.5784418348e+01    0.7005334    0.1442884 -42.87  0.002155021    4.456    0.776
       148  -9.4605     65.3771     61.3136   1.0481456788e+02   5.6334092646e+01    0.4224834    0.2959678 -18.48  0.002352595    1.453    0.312
       149  -7.6265    121.1362     68.1324   9.0079795967e+01   4.4945225612e+01    0.1801607    0.1676165 -87.07 0.0002883724    1.231    0.188
       150  -7.7033     80.4833     68.0022   1.0191373065e+02   5.2785840370e+01    0.2212258    0.1723016  -1.53 0.0006298936    1.365    0.268
       151  -8.4520     84.1741     63.8369   9.9409923301e+01   5.2901557271e+01    0.3836907    0.2271767   0.15  0.001527155    3.011    0.668
       152  -8.6468     43.5961     67.9239   1.1455788978e+02   5.7904852146e+01    0.2665994    0.1679396   1.29  0.001428024    1.919    0.479
       153  -9.6051     17.5170     62.5043   1.2270417671e+02   6.1339846069e+01    0.4713396    0.1831747 -42.26     0.001835    2.042    0.510
       154  -8.5165     52.1760     61.2531   1.0944835289e+02   5.8135200915e+01    0.2967021    0.2016905   3.65  0.001506207    1.631    0.387
       155  -7.4785    122.6440     61.6720   8.7704847358e+01   4.5692568247e+01    0.1517686    0.1075424  17.74 0.0007045125    1.779    0.438
       156  -9.0883     33.4847     60.5014   1.1611455739e+02   6.0354969341e+01    0.2565875    0.2046239 -11.31  0.001023852    1.175    0.149
       157 -10.6465     39.0526     57.2068   1.1302132776e+02   6.0389177419e+01    0.3096578    0.1988313 -22.94 0.0003193355    1.494    0.331
       158  -7.9313    110.9295     58.6664   8.9847827347e+01   4.8668277376e+01    0.2290616    0.1617245  27.33 0.0008034946    1.519    0.342
       159  -9.1148      2.1654     45.6280   1.2417384231e+02   6.5451000714e+01    0.2408311    0.2032323 -33.63   0.00119646    1.172    0.147
       160  -9.4345      2.3988     55.1513   1.2660575643e+02   6.3698931176e+01    0.4698299    0.2079085 -46.75  0.002719784    1.631    0.387
       161 -10.1343      9.7570     47.8301   1.2169753063e+02   6.4594642650e+01    0.5858303    0.2779392 -20.38  0.002085541    2.361    0.577
       162  -7.5600     99.3998     54.2409   9.1647522027e+01   5.1684356058e+01    0.1876968    0.1258232 -44.30  0.000647813    1.655    0.396
       163  -8.1129    118.2913     51.1839   8.5518408510e+01   4.8258077144e+01    0.2456912     0.179523  82.20 0.0008563462    1.994    0.499
       164  -8.9739     75.0954     50.3069   9.7854231502e+01   5.6667757425e+01    0.2790828    0.1969387  16.31 0.0003487369    1.460    0.315
       165 -10.3377     45.2941     48.9924   1.0800312123e+02   6.1108989476e+01    0.2515051    0.1922282  -6.92 0.0004927788    1.189    0.159
       166  -7.5734    106.8092     48.1881   8.7566112444e+01   5.1112261348e+01    0.1822137    0.1455338  19.25    0.0002828    1.271    0.213
       167  -7.9863     91.4697     47.5226   9.1728408020e+01   5.4217024468e+01    0.2760336    0.1270928 -34.60  0.001224656    2.221    0.550
       168  -9.5486     24.3493     47.2422   1.1561521821e+02   6.3575638531e+01    0.3932442     0.204189   7.22  0.002120861    2.308    0.567
       169  -9.2460     30.9561     44.3601   1.1202690390e+02   6.3447227642e+01    0.3384556     0.185234   3.79   0.00158585    2.225    0.551
       170  -7.6729    132.9800     45.5141   8.0221695333e+01   4.5796709799e+01    0.1992861    0.1273151  54.35 0.0008107297    1.439    0.305
       171  -9.7195     83.4312     40.0959   9.1597759649e+01   5.6749404486e+01    0.3725656     0.239366  15.31  0.001934675    1.791    0.442
       172  -8.5236     94.3188     42.4853   8.9155936513e+01   5.4399750648e+01    0.4755902    0.1537981  40.40  0.001739318    3.108    0.678
       173  -9.5681     39.3113     41.9377   1.0788523249e+02   6.2955793935e+01     0.487726    0.2322144  18.13  0.002406198    2.505    0.601
       174  -7.8321    122.9475     40.9944   8.1117905289e+01   4.8661891304e+01    0.2275203    0.1512834  25.63   0.00112243    1.762    0.432
       175  -8.1610     15.7148     40.6614   1.1705025519e+02   6.5409854301e+01    0.2374576    0.1173082 -33.76   0.00101759    1.673    0.402
       176  -8.9563     18.4757     37.4703   1.1483864923e+02   6.5717029245e+01    0.2283716    0.1376203 -22.13 0.0007515864    1.461    0.315
       177  -8.5745     92.0507     37.0051   8.7906689512e+01   5.5574087635e+01    0.3402615    0.1787559  34.70 0.0007454474    1.891    0.471
       178  -9.5486     96.0737     33.2788   8.5447716745e+01   5.5272701016e+01    0.2594138    0.2052157  20.80 0.0002743775    1.192    0.161
       179  -9.5764     54.7916     36.5039   1.0001896120e+02   6.1826045237e+01    0.2943021    0.2028994  12.78  0.001054531    1.395    0.283
       180  -9.4411     38.2659     35.3750   1.0594757894e+02   6.4093223434e+01    0.3611579    0.2099591   1.48  0.001729235    1.990    0.498
       181  -8.5869      3.7669     40.6166   1.2206222682e+02   6.6236155471e+01    0.2164955    0.1283931 -56.98  0.001344724    1.710    0.415
       182  -8.2311     70.1408     36.1721   9.4482831963e+01   5.9556367222e+01    0.2742022    0.1269286  25.15  0.001158029    2.826    0.646
       183  -7.2378    143.7157     34.2774   7.4563186133e+01   4.4767271490e+01    0.1293271    0.1014569 -79.58            0    1.510    0.338
       184  -8.3213     77.0039     33.9805   9.1420745590e+01   5.8702702964e+01     0.178469    0.1611537 -76.39 0.0009617258    1.698    0.411
       185  -9.1760      7.4217     33.6614   1.1831287273e+02   6.7170353518e+01    0.2905531    0.1665002 -12.52  0.001224695    1.696    0.411
       186  -8.0602    104.8778     31.9018   8.2594368065e+01   5.3671400778e+01    0.2070896    0.1593304  22.07 0.0007310753    1.288    0.224
       187  -8.1277     82.0650     32.1903   8.9172978122e+01   5.8042904430e+01    0.1951832      0.14514  20.14 0.0003845409    1.252    0.201
       188  -9.0326    106.1640     36.9983   8.3993446999e+01   5.2772438513e+01    0.3899542    0.2041865  25.58  0.001627201    2.670    0.625
       189  -9.2102    127.8419     30.2046   7.6580330286e+01   4.8906809049e+01    0.2221481    0.1905449  35.01 0.0002152465    1.124    0.110
       190  -8.9867      1.5339     29.7582   1.1962811618e+02   6.8181240612e+01    0.2646468    0.1056776 -49.65   0.00116431    2.063    0.515
       191  -8.3258    112.5815     29.8320   7.9956338046e+01   5.2301634425e+01    0.2873106    0.1390996  40.06  0.001306672    2.002    0.501
       192  -8.7743     57.4157     25.1041   9.4712020992e+01   6.2986690783e+01    0.2519358    0.1669097  29.65 0.0007620647    1.371    0.271
       193  -7.6744     88.3234     31.3410   8.6980071150e+01   5.7000038657e+01    0.1361913   0.08800334  16.71 0.0004306489    1.726    0.421
       194  -9.1536    183.5022    249.5112   1.1570775551e+02  -4.7143881796e+00    0.2760114    0.1087285  40.17  0.001210948    2.172    0.540
       195  -8.8305     48.2752     25.8514   9.8398917374e+01   6.4187763519e+01    0.3166239    0.1414893  29.66  0.001153657    2.217    0.549
       196  -7.1549    102.4722     25.4751   8.0997797556e+01   5.4910487040e+01    0.1292624    0.1108755  32.18 0.0001031551    1.009    0.009
       197  -8.9214     61.8045     26.9289   9.3862382602e+01   6.2092211216e+01     0.213681    0.1444838  -6.50 0.0008428951    1.461    0.315
       198  -9.2260     83.5920     21.9770   8.4938248241e+01   5.8974532885e+01    0.4591039    0.2075214  38.80  0.001939926    2.004    0.501
       199  -8.4980    228.2434     25.4785   6.0370755129e+01   2.5903420229e+01    0.2238616    0.1589519 -46.41 0.0007180424    1.394    0.283
       200  -8.5049     92.1271     20.8689   8.2105795462e+01   5.7475863297e+01    0.2430791    0.2021449 -20.32  0.001216045    1.301    0.231
       201  -7.4074    130.6808     21.7105   7.3324743809e+01   4.9203449003e+01     0.135221   0.08762063  35.71 0.0002818945    1.599    0.375
       202  -7.6621     18.3589    248.2745   1.4673090415e+02   2.0448952642e+01   0.09140811   0.08273807 -68.30  0.000700473    1.654    0.395
       203  -7.4178    116.9639     20.0182   7.5676370889e+01   5.2429668201e+01    0.1492444    0.1334693  37.86 0.0003324583    1.049    0.046
       204  -7.3434    165.3180     18.6362   6.6435700675e+01   4.1421101577e+01    0.1380199   0.09077797 -70.76 0.0007040691    1.773    0.436
       205  -8.7442    234.5478    246.5154   1.0554161590e+02  -1.2214214391e+01    0.1909219    0.1725015 -30.74 0.0007133408    1.425    0.298
       206  -8.1828     73.5309    247.5158   1.3693229825e+02   1.3523118652e+01    0.1223358   0.09951235  68.23 0.0007104512    1.060    0.056
       207  -9.3224    243.6131    244.8475   1.0361952535e+02  -1.3273070530e+01    0.2814644    0.2178242 -20.31  0.001907164    1.246    0.198
       208  -8.0362    127.7977     16.8360   7.2375002639e+01   5.0349373929e+01    0.1860482    0.1490273  43.87 0.0003518848    1.127    0.113
       209  -9.2036    210.9378    246.0402   1.0986192162e+02  -8.5999083371e+00      0.19852    0.1344593   6.20 0.0008180134    1.638    0.390
       210  -7.3957    142.3120     15.6200   6.9299813139e+01   4.7149507971e+01    0.1328104   0.09274394 -70.06 0.0007025478    1.801    0.445
       211  -9.9969    192.7211    244.2901   1.1308753781e+02  -5.4124513914e+00     0.351386    0.2543777 -14.19  0.001090678    1.628    0.386
       212  -9.5092    157.0094    245.2621   1.2030732419e+02   4.4029897753e-01    0.2250648    0.1807745  -6.56  0.001104239    1.617    0.382
       213  -8.4457    146.8212     14.0613   6.8077117230e+01   4.6252463455e+01    0.1922424    0.1617062  54.43 0.0004255831    1.086    0.079
       214  -9.3454    224.9570    243.3455   1.0677385058e+02  -1.0360268746e+01    0.2202394    0.1710187 -21.94 0.0004762226    1.287    0.223
       215  -8.5072     88.8248     12.9916   8.0112069737e+01   5.8908873345e+01    0.2003317    0.1378285  25.33  0.001028535    1.355    0.262
       216  -7.7464     31.9806    247.0000   1.4435173928e+02   1.9123015732e+01    0.1692555    0.0561885  38.76 0.0007939509    2.884    0.653
       217  -8.0115     95.4273    243.7823   1.3236298897e+02   1.0952036975e+01    0.1600124    0.1161069 -55.35 0.0005652074    1.645    0.392
       218  -7.4936     42.4906    244.5059   1.4233277460e+02   1.8322833827e+01    0.1193532   0.08918523  73.57 1.762534e-05    1.002    0.002
       219  -8.7177    201.7030    241.1642   1.1083071649e+02  -6.3930141760e+00    0.3544478    0.1488332 -32.16  0.001481171    3.077    0.675
       220  -9.8718    200.4926    249.2814   1.1238243498e+02  -7.4325249737e+00    0.3798855    0.2284432  19.76  0.001490299    1.813    0.448
       221  -7.7224     25.7083    241.0042   1.4501882689e+02   2.1041704273e+01    0.1624957    0.1165624  78.00 0.0004977831    1.031    0.030
       222 -11.8956    247.2837    237.1217   1.0162840391e+02  -1.2737360248e+01    0.3331438    0.2555397  22.79 0.0003562987    1.201    0.168
       223  -9.0728    170.6156    239.6336   1.1673123204e+02  -9.2607252918e-01    0.2682621    0.1968543   8.50 0.0008647011    1.705    0.414
       224  -9.3833    176.5201    243.4818   1.1615024131e+02  -2.5792057341e+00    0.2920836     0.188632   4.62  0.001386638    2.419    0.587
       225  -7.4043     79.3374    238.3217   1.3490650989e+02   1.4494747737e+01    0.1115549    0.1016995 -18.68 0.0005249939    1.713    0.416
       226  -7.9491    149.0313    237.3724   1.2076233901e+02   3.2156997740e+00    0.2759134    0.1153626  34.45  0.001103995    2.490    0.598
       227  -8.5791    231.9372    235.7138   1.0416814121e+02  -1.0310716505e+01    0.2232089     0.174227 -32.93 0.0007176372    1.376    0.273
       228  -8.2405    195.4386    236.1484   1.1122200051e+02  -4.5666798292e+00    0.2284377    0.1554246  28.35 0.0006985394    1.352    0.261
       229  -9.7080    188.7365    234.4320   1.1226411807e+02  -3.1540899331e+00    0.3094522    0.2735751  69.91  0.001534847    1.442    0.307
       230  -8.0666     90.7733    235.2498   1.3231710567e+02   1.3373758087e+01    0.2002637     0.105385  30.34 0.0009001853    2.494    0.599
       231  -8.2680    162.0691    234.1918   1.1761537130e+02   1.5117641543e+00    0.2059751    0.1662338  24.07 0.0005468774    1.263    0.208
       232  -7.4375    138.2907    234.6831   1.2257129788e+02   5.5848047050e+00    0.1341318   0.09670345  69.99 0.0007006427    1.597    0.374
       233  -7.7114    204.6538    230.7289   1.0849165078e+02  -5.2275904924e+00    0.1335005   0.09256791   9.98 0.0006994315    1.620    0.383
