#   1 NUMBER                 Running object number                                     
#   2 MAG_AUTO               Kron-like elliptical aperture magnitude                    [mag]
#   3 X_IMAGE                Object position along x                                    [pixel]
#   4 Y_IMAGE                Object position along y                                    [pixel]
#   5 X_WORLD                Barycenter position along world x axis                     [deg]
#   6 Y_WORLD                Barycenter position along world y axis                     [deg]
#   7 A_WORLD                Profile RMS along major axis (world units)                 [deg]
#   8 B_WORLD                Profile RMS along minor axis (world units)                 [deg]
#   9 THETA_WORLD            Position angle (CCW/world-x)                               [deg]
#  10 FWHM_WORLD             FWHM assuming a gaussian core                              [deg]
#  11 ELONGATION             A_IMAGE/B_IMAGE                                           
#  12 ELLIPTICITY            1 - B_IMAGE/A_IMAGE                                       
         1 -15.0515      7.7275    137.9190   1.4233110288e+02   4.5639860260e+01     8.255005     2.343376 -79.49   0.02815825    4.465    0.776
         2 -13.5381    199.1191     27.5314   6.7256516849e+01   3.2308728340e+01     1.501017      1.26459  26.56  0.007629241    1.560    0.359
         3 -13.5578    214.0371      9.0871   6.1146327869e+01   3.0843961922e+01    0.9954855    0.7961456  66.20  0.004160753    1.253    0.202
         4 -12.5630      3.9971      7.2506   1.1404093293e+02   7.1316267184e+01    0.8592101    0.3139904 -34.92  0.004938537    2.121    0.528
         5 -11.2760     98.3303    248.6759   1.3556496092e+02   1.0568297863e+01     0.329562     0.177059  54.06  0.001595547    1.535    0.349
         6 -10.6946    249.6391    249.1347   1.0754127794e+02  -1.4227856667e+01    0.2717914    0.1849931  10.63  0.001767991    1.304    0.233
         7 -12.5584    138.8813    249.1428   1.2806369437e+02   3.8358870212e+00    0.6590638    0.3127371  43.64  0.003276932    1.735    0.424
         8 -11.4093    125.1365    244.5499   1.3009327874e+02   6.9533835697e+00    0.2303911    0.2009375  -9.34  0.001455765    1.722    0.419
         9  -9.2354     66.8682    250.4696   1.4133427043e+02   1.4903192933e+01    0.1701314   0.09339811  48.55 0.0007169935    1.525    0.344
        10 -11.1398     46.3486    248.9498   1.4469969007e+02   1.7927200295e+01    0.3216155    0.1928771  74.39  0.001677689    1.352    0.260
        11 -12.6560     30.1872    248.7853   1.4733524062e+02   1.9940305143e+01     0.848106    0.3955251  42.92  0.005124001    2.023    0.506
        12 -11.9582     35.8211    243.7744   1.4608248724e+02   2.0206292463e+01    0.4635135    0.2149328  39.88  0.002655407    2.220    0.550
        13 -11.0090     16.4915    248.8924   1.4950662937e+02   2.1477719209e+01    0.3508149    0.1573501  78.88  0.002083833    1.929    0.481
        14 -12.1335      5.2934    248.7449   1.5121381278e+02   2.2695687900e+01    0.6736928    0.3375904  56.04  0.003484738    1.543    0.352
        15 -11.9459     11.3957    242.4371   1.4994128015e+02   2.3223439635e+01    0.4045185    0.2572845 -56.57  0.002737788    2.306    0.566
        16 -11.3218    100.8510    246.1814   1.3483747839e+02   1.0626002879e+01    0.2895074     0.202381 -62.86  0.001101284    1.624    0.384
        17 -11.7203    198.4087    246.4268   1.1639350762e+02  -5.9044624424e+00    0.3433296    0.2828768  -9.86   0.00224272    1.339    0.253
        18 -10.8041     18.4970    241.9941   1.4879080490e+02   2.2541237729e+01    0.1854573    0.1107704  64.25 0.0005764586    1.267    0.211
        19 -11.2150    218.8266    249.5482   1.1310905953e+02  -9.6529518894e+00    0.4366207   0.09945764  39.09  0.001551734    3.769    0.735
        20 -10.4721     81.1668    249.1346   1.3870680875e+02   1.3095055881e+01    0.1733543    0.1492722  65.23 0.0009428181    1.221    0.181
        21 -11.5754    119.5610    237.0628   1.3023464231e+02   9.2486144557e+00    0.4826338    0.1806843 -64.84  0.001873263    3.735    0.732
        22 -13.1150    114.5750    231.2639   1.3047923167e+02   1.1180137991e+01     1.972281    0.1418045  43.20  0.004426433    8.286    0.879
        23 -10.6119     50.0639    235.9693   1.4306158858e+02   1.9924990721e+01    0.1860002    0.1387072  73.30 0.0007246237    1.012    0.012
        24 -11.7125    240.9744    246.4772   1.0861931886e+02  -1.2645185413e+01    0.2814018    0.1910602  41.55    0.0015478    1.542    0.351
        25 -10.3502     12.0424    232.9739   1.4929455472e+02   2.4952857328e+01    0.1474344    0.1154667 -67.91 0.0006390059    1.626    0.385
        26 -12.9373     46.5849    215.1936   1.4191035770e+02   2.4573205848e+01     1.083795    0.8845491  71.14   0.00621428    1.137    0.121
        27 -12.8997     31.2345    232.9034   1.4609232224e+02   2.2844769017e+01    0.2871236    0.2206722 -76.01 0.0007667724    1.396    0.284
        28  -9.5831    173.4691    223.0000   1.1747859546e+02   2.2030022455e+00    0.3088753   0.06893743  42.43 0.0009353931    3.940    0.746
        29  -8.7239    152.5147    213.0977   1.2014083858e+02   7.9109866251e+00    0.1802013     0.138815 -55.06 0.0003510311    1.441    0.306
        30 -12.3112     10.0809    207.0897   1.4797315460e+02   3.0324730760e+01    0.5455037    0.3876854  29.71  0.002910593    1.998    0.499
        31 -10.7652     56.4741    206.2456   1.3912368777e+02   2.5199132075e+01    0.5643106    0.2003463  59.66   0.00213421    3.559    0.719
        32 -11.7165     58.6627    199.1344   1.3791886958e+02   2.6457272725e+01     0.290962     0.224366 -77.06 0.0005432731    1.187    0.157
        33  -9.1238    193.4923    195.9743   1.0859327842e+02   3.2662603069e+00    0.1987363    0.1256972 -67.60 0.0008100186    2.716    0.632
        34 -10.7598     11.0706    194.8105   1.4690445324e+02   3.2803709828e+01     0.245856    0.1549665  57.74  0.001633645    1.462    0.316
        35 -11.9641     65.1717    190.6090   1.3555734373e+02   2.7470877308e+01    0.2706389    0.2266575 -68.38 0.0004442654    1.244    0.196
        36 -13.9721     36.1662    226.3767   1.4475171467e+02   2.3556700601e+01    0.7390645    0.5423649  71.99  0.002398525    1.063    0.059
        37 -10.7763     75.7818    177.6041   1.3147501289e+02   2.8929102177e+01    0.2405847    0.2084258 -77.98 0.0003728608    1.093    0.085
        38 -13.1582     62.3439    175.6705   1.3426751864e+02   3.1272310339e+01    0.5177564    0.2764532 -47.29  0.001964654    2.281    0.562
        39  -9.9244     96.2520    173.3530   1.2606361722e+02   2.6697762686e+01    0.2517354     0.206745  83.91 0.0003538147    1.172    0.147
        40 -11.8259     83.4921    168.6328   1.2831578278e+02   2.9858638043e+01    0.6122454    0.5908593 -31.25  0.002804658    1.300    0.231
        41 -12.2681     92.1230    227.5932   1.3443181868e+02   1.5555392151e+01     1.285273    0.1815016  48.06  0.003454153    6.171    0.838
        42  -9.0585     55.0208    230.0506   1.4167422115e+02   2.0444487846e+01    0.2018963    0.1091981  68.27  0.001122182    1.683    0.406
        43 -10.1346     96.4805    152.6930   1.2235289709e+02   3.1527591509e+01    0.3315188     0.285944 -51.65  0.000774264    1.193    0.162
        44  -9.2744     99.8463    148.3448   1.2065959088e+02   3.1983246495e+01    0.1945235    0.1838013  52.83 0.0004696371    1.129    0.114
        45 -12.0636     85.0230    151.6536   1.2505216468e+02   3.3645127543e+01    0.3101712    0.2477235 -47.75 0.0004503157    1.317    0.241
        46 -12.2202     67.4617    143.5884   1.2811275491e+02   3.8149623667e+01    0.6622531    0.4325795  68.65  0.002485149    1.848    0.459
        47  -9.8389    108.7132    137.6761   1.1615887605e+02   3.2918022676e+01    0.4138595     0.272414 -21.90  0.001250309    2.517    0.603
        48 -10.4899     95.7986    134.7294   1.1892489134e+02   3.5906780993e+01    0.2568915    0.2219923 -41.20 0.0004109092    1.217    0.178
        49  -9.1942     76.4920    129.7412   1.2309839924e+02   4.0155532272e+01    0.2551508    0.1653484  72.66 0.0008987036    2.161    0.537
        50 -11.6805     26.0965    128.7950   1.3653846618e+02   4.6248776126e+01    0.4298551    0.2093062  52.27  0.001546693    2.571    0.611
        51 -10.3477     82.7701    125.4357   1.2047269139e+02   4.0219174129e+01    0.3308678      0.22179  63.28 0.0009993111    1.880    0.468
        52  -8.8041    106.2324    124.0188   1.1372803932e+02   3.6561069618e+01    0.1933814     0.179479 -63.21 0.0002706223    1.029    0.029
        53  -9.9042    167.9533    113.2298   9.5574589966e+01   2.5695555810e+01     0.281032    0.2422966 -70.79 0.0006100468    1.243    0.195
        54 -10.4801     42.0339     96.7874   1.2621228631e+02   5.1988783102e+01    0.4298798    0.2112681  50.50  0.001909213    3.042    0.671
        55 -10.1699    241.6992     93.8328   7.7182937509e+01   1.2151570255e+01    0.3902091    0.1136369  61.98  0.001142563    4.747    0.789
        56  -8.4285     65.3537     81.7191   1.1504301691e+02   5.2442887816e+01    0.1254676    0.1051714  77.95 0.0003090519    1.656    0.396
        57  -9.9096    158.2990     76.9784   8.7878376497e+01   3.5052043342e+01    0.2161859    0.1990589 -44.32 0.0005772681    1.111    0.100
        58  -9.0525     47.8857     70.1433   1.1765810221e+02   5.6925087189e+01    0.1701169    0.1620521 -68.48 0.0003107253    1.302    0.232
        59 -12.5213      4.6891     50.8189   1.2820161777e+02   6.4198576038e+01    0.5099251    0.3737531 -73.39  0.002218042    1.709    0.415
        60 -11.8429      3.3178     39.1158   1.2553668166e+02   6.6377947386e+01    0.3776361    0.1860155 -56.61  0.002272355    1.830    0.453
        61 -11.4171    171.8924    249.2013   1.2181481252e+02  -1.8255965009e+00    0.3716005    0.2008623  32.17  0.001874193    1.833    0.455
        62 -11.1630    156.4462    248.2812   1.2461809688e+02   9.7286256932e-01    0.3144547    0.1993063 -32.50  0.001676165    2.278    0.561
