#   1 NUMBER                 Running object number                                     
#   2 MAG_AUTO               Kron-like elliptical aperture magnitude                    [mag]
#   3 X_IMAGE                Object position along x                                    [pixel]
#   4 Y_IMAGE                Object position along y                                    [pixel]
#   5 X_WORLD                Barycenter position along world x axis                     [deg]
#   6 Y_WORLD                Barycenter position along world y axis                     [deg]
#   7 A_WORLD                Profile RMS along major axis (world units)                 [deg]
#   8 B_WORLD                Profile RMS along minor axis (world units)                 [deg]
#   9 THETA_WORLD            Position angle (CCW/world-x)                               [deg]
#  10 FWHM_WORLD             FWHM assuming a gaussian core                              [deg]
#  11 ELONGATION             A_IMAGE/B_IMAGE                                           
#  12 ELLIPTICITY            1 - B_IMAGE/A_IMAGE                                       
         1 -14.5936    249.4523    109.7373   4.1885759358e+01   1.2681334137e+01     4.708785    0.9644015 -26.50  0.005325817    6.494    0.846
         2 -15.7398    239.1279     87.2215   3.8101918242e+01   1.7161812319e+01     4.991507     2.341724 -53.68   0.01305133    3.258    0.693
         3 -14.9603    247.7862     84.1733   3.6477190507e+01   1.6078970921e+01     6.636123     1.598522 -33.35  0.002806033    2.914    0.657
         4 -15.6991    242.0545     67.5983   3.3260388627e+01   1.9054771954e+01     3.845525     1.126639 -26.94  0.009746057    2.898    0.655
         5 -10.9405    164.3961     38.8073   3.4311912085e+01   3.9132070870e+01    0.3982927    0.2362611   0.01  0.001630737    2.528    0.604
         6 -15.4449    244.4086    101.9174   4.0788089546e+01   1.4442602241e+01     3.819904     2.194389  12.94   0.01048716    2.693    0.629
         7 -15.3093    246.4945     73.7402   3.4246834417e+01   1.7550557155e+01     4.863916     1.734506  46.06   0.01892372    3.676    0.728
         8  -9.0784    202.4167     14.2262   2.3022217625e+01   3.2939967913e+01    0.2446392    0.1188045 -18.22  0.001104748    2.100    0.524
         9  -8.1186    227.6440     12.6987   2.1049141356e+01   2.7743264811e+01    0.1143752    0.0890752  28.34 0.0007037945    1.708    0.415
        10 -13.1640    243.4958    245.1945   6.6438756311e+01  -1.6242382861e+00     1.187445    0.6216678  17.79  0.008851995    1.479    0.324
        11 -10.4728    191.8942    135.9683   5.6014675111e+01   1.8469579316e+01    0.3627349    0.1966588 -50.52  0.001623668    2.493    0.599
        12 -10.3810    183.9946    134.2562   5.7063096616e+01   2.0110873033e+01    0.2933331     0.173673 -43.27  0.001424726    1.729    0.422
        13  -9.6057    179.0000    133.4333   5.7811543575e+01   2.1128016564e+01    0.2994207   0.07169706 -38.36 0.0009337325    3.927    0.745
        14 -11.7471    197.3053    130.4700   5.3875654207e+01   1.8387438069e+01    0.5788046    0.2920052 -37.56  0.002779066    1.819    0.450
        15  -9.9997    194.6883    121.0172   5.2190876328e+01   2.0304425931e+01     0.404455    0.1431009 -42.25  0.001536075    2.833    0.647
        16 -10.7835    191.3870    126.8071   5.4078240182e+01   1.9991527811e+01    0.5132728    0.1592187 -43.20  0.001785487    3.455    0.711
        17  -9.6323    186.6917    126.8946   5.4929437453e+01   2.0817006399e+01    0.2711053    0.1129339 -30.06  0.001031445    2.472    0.595
        18  -9.5428    176.7019    125.5619   5.6468416481e+01   2.2855352942e+01    0.2418204    0.1620331 -52.51  0.001004583    1.811    0.448
        19  -9.4810    165.5097    119.9476   5.7337958121e+01   2.5928099280e+01    0.5332705    0.1310559 -39.31   0.00162184    3.841    0.740
        20 -10.2346    186.7592    117.9262   5.2843914175e+01   2.2244613094e+01    0.3060638    0.1489172 -31.22  0.001345361    1.941    0.485
        21 -11.3822    190.6804    114.2854   5.1299646246e+01   2.2092700298e+01    0.4433927    0.3403898 -39.06  0.002181406    1.255    0.203
        22  -9.9556    180.4835    109.6497   5.1970783070e+01   2.4784586581e+01    0.2801599    0.1817609 -59.16  0.001278964    2.183    0.542
        23  -9.7835    187.8894    107.3421   5.0099846621e+01   2.3721556633e+01    0.3206876    0.1914135 -33.84  0.001552901    1.503    0.335
        24  -9.9547    185.9152    102.5620   4.9250883719e+01   2.4866976601e+01    0.2930502    0.1588872 -47.07 0.0009293329    1.979    0.495
        25 -10.3623    101.0022    176.0027   8.3112810415e+01   2.6037360222e+01     0.181985    0.1663842  36.85   0.00115638    1.002    0.002
        26  -8.7241    228.6786    158.3268   5.4585233607e+01   9.5848617419e+00     0.106034   0.08997343 -45.90 0.0007047837    1.686    0.407
        27 -10.9741    178.6301     81.0354   4.4809980430e+01   2.9775400993e+01    0.4351497    0.2139138 -52.96  0.001675649    2.651    0.623
        28  -9.8961    212.8344    154.7357   5.6354375183e+01   1.2356101848e+01     0.221513    0.1491791 -50.22  0.001225898    2.131    0.531
        29 -11.8123    185.9845     79.7929   4.3283436024e+01   2.8395666091e+01    0.7536402    0.3487355 -17.22  0.002610528    3.354    0.702
        30 -10.2361    184.9709     67.5291   4.0043411093e+01   3.0425136013e+01    0.3664495    0.1943492  -7.95  0.001319157    3.279    0.695
        31 -11.2105    181.7431     76.8489   4.3144556173e+01   2.9748553008e+01    0.3651287    0.2602433 -29.70  0.001682732    1.279    0.218
        32  -9.1455    168.3206     82.6373   4.7047271986e+01   3.1755813850e+01    0.1529038    0.1071846 -61.96 0.0004099651    1.777    0.437
        33 -10.8403    177.5975     73.5636   4.2887493070e+01   3.1151926323e+01    0.4183231    0.1979748 -24.69  0.001654078    2.274    0.560
        34 -10.8709    172.0102     70.5052   4.2923080864e+01   3.2861894083e+01    0.4884427    0.1831051 -26.92  0.001672555    2.929    0.659
        35  -9.5507    165.2096     72.2062   4.4589335233e+01   3.4130783176e+01    0.2058371    0.1643664 -57.41 0.0007412223    1.335    0.251
        36 -10.9880    167.7291     66.7084   4.2518057971e+01   3.4414152569e+01    0.5808969    0.1061328 -37.13  0.001608886    4.192    0.761
        37  -9.5133    153.5089     71.5111   4.6550880962e+01   3.6918021042e+01    0.2718835    0.1210213 -43.71 0.0008557849    2.186    0.542
        38  -9.3172    180.5840     66.2233   4.0325641417e+01   3.1583645010e+01    0.2001604    0.1293015 -18.71 0.0005909065    1.650    0.394
        39  -9.4158    178.0000     63.9498   4.0059916314e+01   3.2492745155e+01    0.2426513   0.07464503 -30.81 0.0008030639    2.947    0.661
        40 -11.0635    164.1353     59.4195   4.0900776537e+01   3.6346037772e+01    0.4337964    0.2143783 -51.24  0.001707364    2.309    0.567
        41  -9.9952    157.3372     59.8294   4.2192795164e+01   3.7884787695e+01    0.3137871    0.1066134 -39.20  0.001081668    2.620    0.618
        42  -8.6488    149.3319     60.6533   4.3925913116e+01   3.9656712798e+01    0.1592035    0.1090401 -63.13 0.0007049481    1.764    0.433
        43 -10.7020    172.6499     58.5438   3.9275944369e+01   3.4493434371e+01    0.2977314    0.1609567 -33.67  0.001324657    1.657    0.396
        44  -9.4940    143.5949     57.8137   4.4102829979e+01   4.1479201727e+01    0.2241778    0.1266157 -43.03 0.0007456367    1.700    0.412
        45 -11.3131    178.5907     54.2039   3.7104406295e+01   3.3734419579e+01    0.5664698    0.1592742 -34.42  0.001941619    2.874    0.652
        46 -11.4607    183.8170     52.1312   3.5779293183e+01   3.2820683791e+01    0.4474116    0.2695219  -7.54  0.001967935    2.204    0.546
        47 -10.2176    186.9978     55.4857   3.6330661695e+01   3.1654718838e+01    0.3574644    0.2151228   2.29  0.001484831    2.640    0.621
        48 -11.2148    188.2733     49.9183   3.4562748155e+01   3.2103304129e+01    0.4750596    0.2002551 -37.41  0.001995907    2.003    0.501
        49 -11.2791    167.8123     52.1638   3.8062038139e+01   3.6527668034e+01    0.4617925    0.1756338 -32.79  0.001743109    2.311    0.567
        50 -11.5303    176.7990     46.9548   3.5172477592e+01   3.5121768611e+01    0.5385849    0.2604989  -8.78  0.001829546    3.634    0.725
        51  -9.2555    250.3727    171.8345   5.3961651594e+01   5.1149973452e+00     0.162695   0.08105507 -19.08 0.0008876053    1.747    0.428
        52 -11.4256    172.0666     45.9562   3.5512832675e+01   3.6365546644e+01     0.637197    0.2107048 -22.11  0.001976152    3.791    0.736
        53 -10.4846    161.5551     53.2320   3.9382592550e+01   3.7861257422e+01     0.362058    0.1410402 -27.18  0.001293493    2.602    0.616
        54 -10.9059    190.3407     43.8559   3.2562999973e+01   3.2404845523e+01    0.3280587     0.160932 -20.34  0.001120573    2.149    0.535
        55 -10.2003    203.8596    152.3216   5.7355170097e+01   1.4064548538e+01    0.2333438    0.1613377 -50.63   0.00129129    1.988    0.497
        56  -9.4540    142.5109     41.5093   3.8675224962e+01   4.4173025492e+01    0.1456483    0.1390329 -46.53 0.0008105184    1.004    0.004
        57 -10.9839    180.7128     43.9987   3.3769703685e+01   3.4591955402e+01    0.2346355    0.1954447  50.57  0.001272695    1.334    0.251
        58  -8.3086    224.6179    168.2750   5.7073284740e+01   8.8771004346e+00   0.09800352   0.09474534 -56.49 0.0007000242    1.709    0.415
        59 -10.6222    219.4549    150.7028   5.4508546424e+01   1.1918409356e+01    0.3258723    0.1917083 -49.95  0.001641619    2.596    0.615
        60 -10.5962    197.2070     31.0848   2.8183211474e+01   3.2358613091e+01    0.3398325    0.1736536 -13.21  0.001478757    2.341    0.573
        61 -10.7602    214.3795    150.7219   5.5311578863e+01   1.2677493098e+01    0.2767072    0.1957217 -57.12  0.001502623    2.414    0.586
        62 -14.4558    248.3313     95.7650   3.8991279404e+01   1.4576164115e+01    0.5723034    0.4288288 -44.17  0.003764481    1.378    0.275
        63  -9.8291    190.0359    143.4945   5.7949564938e+01   1.7612249692e+01    0.1895442     0.125098  40.16   0.00103137    1.593    0.372
        64  -9.6389    172.4064    143.2139   6.1197530029e+01   2.0652980856e+01    0.1914587    0.1210264 -46.38 0.0009582855    1.719    0.418
        65  -9.9431    185.1498    140.2550   5.8150399493e+01   1.8947474493e+01    0.2438547    0.1690012 -56.84  0.001238215    2.068    0.516
        66  -8.9668    212.0000     20.9211   2.4160087441e+01   3.0193743852e+01    0.2125975   0.06353159 -24.41 0.0007998387    2.924    0.658
        67 -10.8007    205.5745    137.5592   5.4028317952e+01   1.5936731791e+01    0.2506793    0.1680498 -40.04 0.0009518885    1.512    0.338
        68  -9.6540    249.7344    177.8483   5.5112784355e+01   4.5160916342e+00    0.1567227    0.1520287  71.87   0.00122243    2.045    0.511
        69 -11.1399    197.8090    138.6928   5.5571665731e+01   1.7052012840e+01    0.3431915    0.2550534 -57.00  0.001889255    1.932    0.482
