#   1 NUMBER                 Running object number                                     
#   2 MAG_AUTO               Kron-like elliptical aperture magnitude                    [mag]
#   3 X_IMAGE                Object position along x                                    [pixel]
#   4 Y_IMAGE                Object position along y                                    [pixel]
#   5 X_WORLD                Barycenter position along world x axis                     [deg]
#   6 Y_WORLD                Barycenter position along world y axis                     [deg]
#   7 A_WORLD                Profile RMS along major axis (world units)                 [deg]
#   8 B_WORLD                Profile RMS along minor axis (world units)                 [deg]
#   9 THETA_WORLD            Position angle (CCW/world-x)                               [deg]
#  10 FWHM_WORLD             FWHM assuming a gaussian core                              [deg]
#  11 ELONGATION             A_IMAGE/B_IMAGE                                           
#  12 ELLIPTICITY            1 - B_IMAGE/A_IMAGE                                       
         1 -13.2653    197.2309     41.3580   4.3957881480e+01   3.1115574394e+01     1.130503     1.030891 -60.08  0.003512334    1.083    0.077
         2 -13.8551    206.4666     32.0437   4.0501589203e+01   3.0133954283e+01     1.546979     1.147278   4.79  0.001376056    2.113    0.527
         3 -12.9518    231.0205      5.9272   3.2300182880e+01   2.7605085579e+01     0.849364    0.6180502  89.71   0.00460058    1.215    0.177
         4  -9.7741     62.1926      8.2071   6.0636362714e+01   6.5915320121e+01    0.1521197    0.1474605  36.32 0.0008210564    1.350    0.259
         5 -11.4932     56.7304      4.6982   6.0857169015e+01   6.7235926868e+01    0.4936802    0.1855748  31.88  0.002066035    3.028    0.670
         6 -10.7810     48.7447      2.5605   6.2792394494e+01   6.8813844024e+01    0.2870917    0.1078598  50.13  0.001323635    2.721    0.632
         7  -9.7886     32.6691    204.7744   1.1822213274e+02   2.7757189168e+01    0.2399826    0.1927384 -72.18 0.0007726264    1.299    0.230
         8 -11.3908    139.9165    247.9199   1.0064560466e+02   4.0724592657e+00    0.5338451    0.3131187 -57.38  0.002950401    2.127    0.530
         9 -13.3585     57.8638    185.9563   1.1071135812e+02   2.9052763548e+01     1.680089     1.214573  78.01  0.009466896    1.312    0.238
        10 -15.8452     48.6534    200.5425   1.1439133278e+02   2.6845784984e+01     13.02414     5.147011  72.51   0.03176514    4.807    0.792
        11  -8.7312     81.9824    194.9863   1.0616993644e+02   2.3595460457e+01    0.2037876    0.1679222 -26.41  0.001127221    1.684    0.406
        12  -9.8751    149.3868    187.4782   8.9288146446e+01   1.3821174685e+01    0.2961996    0.2453705 -89.89   0.00094525    1.513    0.339
        13  -8.8004     91.0540    182.6436   1.0225709063e+02   2.5060514228e+01    0.1908019    0.1725632  57.68 0.0004339525    1.077    0.071
        14 -10.2087     99.4260    180.7701   9.9919350040e+01   2.4149083681e+01    0.2607147    0.2404205  54.80 0.0005899023    1.074    0.069
        15  -9.8256    188.6721    176.6701   7.8659803302e+01   8.6406041278e+00    0.4020678    0.3344245 -80.29  0.002096109    1.694    0.410
        16 -13.7486     43.6063    110.7249   1.0311234423e+02   4.9344281311e+01     2.210573     1.385089  65.29   0.01037369    2.199    0.545
        17 -12.8589     54.8086    146.8601   1.0615072179e+02   3.9010562064e+01     2.597255    0.9929966 -45.42   0.00925621    3.217    0.689
        18 -14.5325     68.5770    144.0493   1.0180848292e+02   3.7886667372e+01     4.971714     2.168198  61.97  0.003304975    5.163    0.806
        19 -11.7002     71.4348    172.2437   1.0558200082e+02   3.0495101432e+01    0.4567603    0.3399698 -29.44  0.001595266    1.881    0.468
        20 -11.5514     75.2152    167.8487   1.0395963257e+02   3.1020661387e+01    0.3603207    0.3260565 -64.50  0.000864599    1.133    0.117
        21 -10.4802     47.4875    172.3128   1.1159844908e+02   3.3606069881e+01    0.4155765    0.2617624 -46.76  0.002123347    1.874    0.466
        22  -9.7230    146.9597    172.7772   8.7029214239e+01   1.7402626560e+01    0.5010846     0.302534 -74.09  0.001853706    2.937    0.660
        23 -17.3643     11.5096    245.9991   1.2485044235e+02   2.1541029824e+01     5.436317     2.105356  27.47    0.0180483    3.755    0.734
        24  -8.9924    185.5984    169.7823   7.7869068295e+01   1.0551069108e+01    0.2005542    0.1357997 -50.99  0.000698642    1.608    0.378
        25 -11.4520    111.7917    196.7587   9.9492315292e+01   1.8476628127e+01     1.000612    0.5621727   9.58  0.002875871    5.974    0.833
        26  -9.8281    240.3939    169.2006   6.7440170846e+01   8.2654553956e-01    0.1869922    0.1114539 -43.06 0.0006146164    1.653    0.395
        27  -9.2852    136.4727    166.7150   8.8302256229e+01   2.0755561930e+01    0.3577734    0.2042689  58.88  0.001395337    2.288    0.563
        28  -8.9088    133.3402    163.0187   8.8314917116e+01   2.2194700869e+01    0.3203915    0.1872312  54.44  0.001313127    1.950    0.487
        29 -10.1805    203.7513    199.4377   8.0109655268e+01   1.8734655510e+00    0.2590404    0.1235062  43.07  0.001149073    2.156    0.536
        30 -10.4065     32.1334    165.2537   1.1460931181e+02   3.7023587769e+01      0.22903    0.1905678 -60.88 0.0005777006    1.261    0.207
        31  -9.8765    120.4648    194.7078   9.7165089948e+01   1.7452163154e+01    0.2464262     0.140645 -62.85   0.00089277    1.976    0.494
        32  -8.7822     48.9046    160.6469   1.0975485536e+02   3.6293871370e+01     0.185415    0.1607597  67.30 0.0008959039    1.134    0.118
        33 -12.2395     83.5522    159.8268   1.0047411126e+02   3.1732400089e+01     1.198166    0.7258562  74.29  0.004972535    2.307    0.567
        34 -11.4867     90.4923    152.3631   9.7271089195e+01   3.2464240996e+01    0.6906934     0.481986 -29.71  0.001912508    1.922    0.480
        35 -13.1444     72.2286    154.1233   1.0254014238e+02   3.4845176935e+01    0.6622317    0.5380788 -63.34  0.001132697    1.151    0.132
        36 -10.7888    133.8054    145.2962   8.4396534723e+01   2.6178158552e+01     1.280006    0.3329916 -54.82  0.002926918    5.837    0.829
        37  -9.1854    174.5133    149.0187   7.5686781160e+01   1.6956410702e+01    0.2328074    0.1462887 -44.71 0.0006798477    1.558    0.358
        38 -10.8314     40.3043    146.8891   1.1017996762e+02   4.0691937938e+01    0.3205273    0.2557658 -44.05  0.001258162    1.400    0.286
        39 -10.1933    103.6255    138.5832   9.0868532881e+01   3.3582456515e+01    0.5375206    0.3532251 -23.28  0.002164213    2.324    0.570
        40 -11.6352     91.2086    138.0381   9.4221926758e+01   3.5886212893e+01    0.2909898    0.2638504 -45.90 0.0004154692    1.124    0.110
        41 -10.4742     43.9419    138.3191   1.0789047962e+02   4.2437240524e+01    0.2518417    0.1745825 -80.29 0.0007472897    1.361    0.265
        42 -12.1681     43.8335    129.2395   1.0644998930e+02   4.4724501335e+01    0.6076229    0.4212291  89.41  0.002742505    1.555    0.357
        43 -11.4369     39.1444    124.1513   1.0701220935e+02   4.6497310061e+01    0.4094507    0.2707961 -48.96  0.002165698    1.433    0.302
        44 -10.1028    105.9696    130.8113   8.8464007786e+01   3.5036087275e+01    0.3730928    0.3188923 -74.85  0.001176236    1.228    0.186
        45 -10.2301    135.6601    129.2745   8.0145854313e+01   2.9477054004e+01    0.5172516    0.1433918 -45.68  0.001456369    3.529    0.717
        46  -9.9726    112.5477    129.4243   8.6312403286e+01   3.4121179121e+01    0.3491614    0.2791906   8.52 0.0008019825    1.603    0.376
        47  -9.2322    160.8627    127.5858   7.3628303761e+01   2.4406470566e+01    0.3211411    0.2035837 -59.35  0.001134597    1.879    0.468
        48 -10.2996     99.7227    125.2485   8.8930561029e+01   3.7527758335e+01    0.3242048     0.264929  -7.50  0.001243803    1.550    0.355
        49 -10.7887    119.3425    122.8868   8.2852708639e+01   3.4320248119e+01    0.5167875     0.365948  -3.64  0.002088553    2.264    0.558
        50  -9.1855    108.3163    118.3572   8.4779170667e+01   3.7561331637e+01    0.2385028    0.2181734 -19.95 0.0004237982    1.177    0.150
        51 -10.2594    135.0000    113.0215   7.6143280976e+01   3.3267234946e+01    0.7214578   0.08828199 -44.75  0.001345028    7.972    0.875
        52 -10.0249    231.4082    113.6770   5.6821692138e+01   1.1957189529e+01    0.2680149    0.2532953 -76.49  0.000838743    1.162    0.140
        53  -8.4701    167.9464    112.9464   6.8308870810e+01   2.5883598866e+01     0.319659    0.1919452 -79.88  0.000955028    4.100    0.756
        54 -10.8764    116.9020    109.4508   8.0026681924e+01   3.7905262061e+01    0.5996979    0.3937641  60.11  0.002529357    1.872    0.466
        55  -9.4261    205.3580    110.2245   6.0278773274e+01   1.8013279671e+01     0.287929    0.2089553  46.15 0.0008355732    1.504    0.335
        56  -8.8310     65.9998    105.0000   9.4444819997e+01   4.7919612236e+01    0.2242814   0.08361439  32.81 0.0008040882    2.954    0.661
        57 -11.5637     53.0237     93.5245   9.6020960308e+01   5.2372127138e+01    0.6158361    0.4239325 -72.81  0.003082101    1.679    0.404
        58  -8.5414    129.1728     96.4004   7.3041614830e+01   3.8129113904e+01    0.2141177    0.1489575  59.57 0.0005358783    1.626    0.385
        59 -10.8354     42.8467     89.4869   9.8656043376e+01   5.4507719510e+01    0.4210259    0.1747466  40.89  0.001492823    2.884    0.653
        60  -8.1139    157.3546     89.6833   6.4298713520e+01   3.2972706166e+01    0.1625458    0.1210489 -78.78 0.0002570665    1.744    0.427
        61 -16.6203      5.3927    213.6541   1.2431233332e+02   2.8596802614e+01     18.29687    0.6835635 -75.83   0.04275125   11.044    0.909
        62  -8.7676    234.3199     86.3076   5.0098617900e+01   1.5968560496e+01    0.1299121    0.1076274   6.16 0.0004533299    1.639    0.390
        63  -8.6907    157.5524     82.4995   6.2196738759e+01   3.4274488432e+01    0.1509426    0.1482459 -57.26  0.000176669    1.020    0.020
        64  -8.5563    184.4644     77.4585   5.5526792335e+01   2.8689301412e+01    0.1459216    0.1415703 -60.87 0.0001746112    1.053    0.050
        65  -9.1119     58.3828     66.9851   8.6369841938e+01   5.7484471951e+01    0.2895081    0.1635836  50.16  0.001284102    2.490    0.598
        66 -13.0492    186.2402     49.8460   4.7726584635e+01   3.2596804748e+01     1.045453    0.9033535 -20.37 0.0009066401    1.339    0.253
        67 -11.2661    111.8170    204.7875   1.0068734745e+02   1.6740417091e+01    0.4391461    0.2777244 -81.28  0.001357519    2.101    0.524
        68 -10.8318    109.6315    241.2646   1.0587784035e+02   9.8665060832e+00    0.3099833    0.2334689  54.14   0.00142409    1.162    0.139
        69 -11.2104    222.1462     30.7742   3.8577349262e+01   2.6699295180e+01    0.4077892    0.2764851  34.48  0.002110293    2.321    0.569
        70  -9.5259     89.8684    212.6768   1.0663712983e+02   1.8515600765e+01    0.2497548    0.1894896  76.38 0.0007264704    1.315    0.239
        71  -8.5182    223.9958    206.7446   7.7661397896e+01  -2.5556360932e+00    0.1534335     0.101476  31.77  0.000275868    1.460    0.315
        72 -11.1122    193.2903    195.4649   8.1423960472e+01   4.3466352641e+00     1.066101     0.512882 -59.76  0.003255331    5.438    0.816
        73 -11.3775    107.7369    203.7002   1.0145185132e+02   1.7639836001e+01    0.4028797    0.2805809  69.08  0.001726649    1.614    0.380
        74  -8.9299    189.5191     15.0571   3.8039689820e+01   3.6114854232e+01    0.1821821    0.1250577 -33.42 0.0005702084    1.544    0.352
        75  -8.4538    158.5058    235.5106   9.5239960367e+01   3.2216417824e+00     0.128564    0.1100634  29.32 0.0008105115    1.017    0.017
        76 -11.4069    164.0106    215.3401   9.0977651140e+01   5.8215434841e+00    0.3990363    0.2592098 -41.03  0.002093779    1.677    0.404
        77 -11.1961    189.0206    211.0966   8.5142329009e+01   2.3573287448e+00    0.3868324    0.1842733  30.77   0.00170053    2.145    0.534
