#   1 NUMBER                 Running object number                                     
#   2 MAG_AUTO               Kron-like elliptical aperture magnitude                    [mag]
#   3 X_IMAGE                Object position along x                                    [pixel]
#   4 Y_IMAGE                Object position along y                                    [pixel]
#   5 X_WORLD                Barycenter position along world x axis                     [deg]
#   6 Y_WORLD                Barycenter position along world y axis                     [deg]
#   7 A_WORLD                Profile RMS along major axis (world units)                 [deg]
#   8 B_WORLD                Profile RMS along minor axis (world units)                 [deg]
#   9 THETA_WORLD            Position angle (CCW/world-x)                               [deg]
#  10 FWHM_WORLD             FWHM assuming a gaussian core                              [deg]
#  11 ELONGATION             A_IMAGE/B_IMAGE                                           
#  12 ELLIPTICITY            1 - B_IMAGE/A_IMAGE                                       
         1  -9.0387     46.0100     20.9195   5.6224408102e+01   6.5599371389e+01    0.4730477    0.1999778 -35.49  0.002311243    1.968    0.492
         2  -8.9037     28.4879     20.5210   6.3164342580e+01   6.7729503997e+01    0.4023523    0.2851772 -11.38  0.002686492    1.262    0.208
         3  -9.7622     10.7865     18.5757   7.0110022226e+01   6.9661014275e+01     0.618645    0.2868729   5.31  0.003156124    3.179    0.685
         4 -10.1019     19.8515      8.7674   6.1387144570e+01   7.0395653777e+01    0.5064565    0.2587895  14.64   0.00287232    2.342    0.573
         5  -9.1771      4.7963      6.0861   6.7246048295e+01   7.2125479419e+01    0.5304548    0.2367538  -7.30  0.002468581    3.713    0.731
         6 -10.3887     13.7849      4.1250   6.1858930732e+01   7.1646730746e+01    0.2867296    0.1910566 -15.00  0.000274152    1.184    0.156
         7  -8.9232    105.6406     13.0995   3.3977241906e+01   5.6033835016e+01    0.5142726    0.2159756  15.83  0.001456226    5.551    0.820
         8  -9.8516     77.8178     12.7582   4.1342258285e+01   6.1628228812e+01    0.6369526    0.2243043  43.64   0.00268645    2.695    0.629
         9  -9.1793     64.2082     13.8018   4.6207417867e+01   6.3866464777e+01    0.3442084    0.1923283  20.33  0.001749728    1.972    0.493
        10  -9.6055     31.3595     11.0092   5.7414543619e+01   6.8836459368e+01    0.3101046    0.1830468 -10.02 0.0005054122    1.655    0.396
        11  -8.2697     97.3782     11.6251   3.5383645334e+01   5.7928215780e+01    0.2709628    0.1484018  24.33  0.000945016    1.962    0.490
        12  -9.6569    125.3595      9.9161   2.8379477782e+01   5.1901715629e+01    0.2522686    0.2057168  31.58 0.0003168132    1.116    0.104
        13  -8.9171    142.8257      9.3987   2.4985879763e+01   4.7763197880e+01     0.239295    0.2173304  22.68 0.0002698336    1.049    0.046
        14  -8.1459    190.3694      8.2007   1.7930767305e+01   3.5909955451e+01    0.2196113    0.1736351  56.77 0.0008130465    1.231    0.188
        15  -8.9562     76.9963      6.3677   3.8566020318e+01   6.2454246950e+01    0.2593618    0.1893405  33.51 0.0008316067    1.273    0.215
        16  -9.3982     85.0350      4.8609   3.5574676611e+01   6.1068093725e+01    0.2815302    0.1785781  -9.08 0.0004480229    1.458    0.314
        17  -8.8182     42.4727      5.3280   4.9909690503e+01   6.8165131584e+01    0.3556894    0.2104044  36.91  0.001945731    1.840    0.456
        18  -8.9767     32.0633      5.7490   5.4412838401e+01   6.9461642903e+01    0.2105131    0.1299728 -20.53 0.0002897392    1.259    0.205
        19  -7.7584    131.4925      5.4458   2.5494377816e+01   5.0845855857e+01    0.1345708     0.123829  33.55 1.724747e-05    1.037    0.036
        20  -8.2098     91.7435      5.2772   3.3994138956e+01   5.9692443882e+01    0.2776662    0.1073307  38.09  0.001153857    2.494    0.599
        21  -8.5087    110.6493      2.9845   2.8580556631e+01   5.5859045261e+01    0.3249248    0.1900309 -24.20  0.001334931    1.718    0.418
        22  -9.3444     57.5163      3.3502   4.3299724775e+01   6.6137240046e+01    0.2372371     0.173721  12.95 0.0003813631    1.159    0.137
        23  -8.1898    153.5531      3.0633   2.1055005856e+01   4.5655643578e+01    0.2229353     0.164392  43.01 5.808656e-05    1.279    0.218
        24  -8.0814    125.7463      3.0017   2.5599491461e+01   5.2404649138e+01    0.2070849    0.1586373  27.48 0.0005634782    1.213    0.176
        25  -7.6589    105.2157      1.6149   2.9172711697e+01   5.7166400232e+01    0.1935541    0.1018248  46.63 0.0009466966    1.667    0.400
        26  -7.6137      2.6397      1.2741   6.5908177449e+01   7.3012210850e+01   0.08889755   0.08006291 -34.20 0.0007004183    1.656    0.396
        27  -8.2066     68.5096    127.4468   8.1143529497e+01   4.0821388801e+01    0.1360101    0.1151899 -70.48  3.96348e-05    1.016    0.016
        28  -8.9249    221.9971    249.4968   7.0945436022e+01  -6.7360727255e+00    0.1606997    0.1340009   6.35 0.0007331634    1.195    0.163
        29 -10.0617    150.2715    249.5020   8.2721808642e+01   4.4361360289e+00    0.5055318    0.2089095  39.36 0.0005269523    2.134    0.531
        30  -9.7782    151.2043    245.0292   8.2027805702e+01   4.9085306483e+00    0.3208037    0.1850963  48.57   0.00148214    1.421    0.296
        31  -8.2456    132.4107    124.5739   6.4700991311e+01   3.0691910676e+01    0.3100432    0.1999932  11.09  0.001102651    2.975    0.664
        32  -7.7679     85.5070    120.9952   7.5516942955e+01   3.9875998144e+01    0.2014218    0.1050467 -37.59 0.0005185158    2.414    0.586
        33  -7.5755     99.4648    119.0161   7.1494793918e+01   3.8071129424e+01    0.3082659     0.175336  10.01 0.0008103163    6.748    0.852
        34  -7.2182    119.2962    118.3394   6.6340684656e+01   3.4635889610e+01    0.1512735    0.1167225 -17.02  0.000561422    1.657    0.397
        35  -8.8158      1.6573    110.4603   9.5382459417e+01   5.1217583442e+01    0.4254322   0.08595011 -60.02  0.001786155    2.932    0.659
        36  -7.3873    193.6823    111.6360   4.7932590090e+01   1.9755652261e+01     0.165628    0.1201508   5.79 0.0007040582    1.772    0.436
        37  -8.2058    134.2099    106.0245   5.9438136778e+01   3.4312833457e+01    0.3077443    0.2282594 -10.84  0.001370709    1.768    0.434
        38  -9.2798    249.3739    104.7394   3.6581110738e+01   8.4550662299e+00    0.4243641    0.1401915 -41.64  0.001444169    2.905    0.656
        39  -7.8676     60.7601    106.2246   7.8899697325e+01   4.6746582084e+01    0.1831797    0.1147343  15.91 0.0008790017    2.435    0.589
        40  -8.9826     14.7644    104.9949   9.1235854543e+01   5.1555207152e+01    0.4297385    0.1774327 -36.96  0.001836164    3.740    0.733
        41  -7.7083     94.3732    102.8299   6.8851103968e+01   4.2596726952e+01    0.2653661    0.1083246  42.69  0.001002977    2.748    0.636
        42  -7.3645    125.3349    106.3216   6.1709334032e+01   3.6079476618e+01     0.156291    0.1202272  -6.61 0.0006449688    1.706    0.414
        43  -7.6249    130.7754     96.3713   5.7551792064e+01   3.7064989543e+01    0.2164378    0.1446663  34.31 0.0009453463    1.708    0.415
        44 -10.0023     12.5340     93.8074   9.0052224280e+01   5.4236442612e+01    0.4534102    0.2473985 -25.05  0.001644014    2.777    0.640
        45  -8.0783     56.1992     92.8369   7.7143949539e+01   5.0367759207e+01    0.1926628    0.1397243 -38.13  0.001081581    1.358    0.264
        46  -8.9884     44.4476     91.7683   8.0363238714e+01   5.1935126732e+01    0.3291248    0.2056997  -3.50  0.001618082    2.688    0.628
        47  -8.3489     96.4608     90.1628   6.4810733131e+01   4.5033591108e+01    0.3524689     0.238377  -7.20   0.00151342    2.323    0.570
        48  -9.0954    245.5900     87.7717   3.2830764347e+01   1.1902524463e+01    0.2196795    0.1175858 -39.95 0.0009520716    1.673    0.402
        49 -10.1219     37.9569     80.7514   7.9768007082e+01   5.5060315955e+01    0.6357549    0.3383026 -25.59  0.002911592    2.807    0.644
        50  -8.5563     66.6339     83.9471   7.1740136010e+01   5.1017582299e+01    0.2578615    0.1965627  15.79 0.0009627564    1.641    0.390
        51  -8.6920     21.0238     84.0644   8.5746315837e+01   5.5798053777e+01    0.1850978    0.1369216 -58.95 0.0003615214    1.013    0.012
        52  -7.2278    126.3472     83.3179   5.4735633633e+01   4.0665239722e+01    0.1597593    0.1192094   1.84 0.0007048507    1.728    0.421
        53  -8.8738     87.8329     78.6855   6.3864296449e+01   4.8947152731e+01    0.4059081    0.2686455   7.77  0.001664882    2.307    0.566
        54  -8.9270     48.7590     77.4913   7.5527295237e+01   5.4644744777e+01    0.3822114     0.223204 -16.93  0.001740992    2.744    0.636
        55  -8.0527    184.0565     77.9489   4.0229034407e+01   2.8119345514e+01    0.2374447    0.2268784   4.42 0.0006048314    1.059    0.056
        56  -9.8303      9.2318     76.0734   8.7783459837e+01   5.8386509711e+01    0.4820554     0.238957 -33.62  0.002233244    2.338    0.572
        57  -7.3015    119.5353     75.9906   5.4164922093e+01   4.3540021310e+01    0.2184521    0.1280889 -17.05 0.0006382932    2.476    0.596
        58  -8.2857     74.8081     74.3802   6.6453297384e+01   5.1906333164e+01    0.2839109    0.1837425 -22.62 0.0009064163    1.845    0.458
        59  -9.7788     25.7259     71.5213   8.1450963041e+01   5.8181466491e+01    0.7637051    0.2833309 -33.90  0.002850075    4.120    0.757
        60  -8.0335     23.3234     69.2879   8.1698601374e+01   5.8858213234e+01    0.2192293    0.1373375 -51.49 0.0006748957    1.188    0.158
        61  -8.2476     48.4497     71.1417   7.3872050075e+01   5.6048695241e+01    0.1892174     0.160856  34.02  0.001200446    1.461    0.316
        62  -8.4589    105.4763     67.5107   5.5154591259e+01   4.8000714550e+01    0.3993386    0.2307977 -17.10  0.001552855    2.464    0.594
        63  -8.4056    247.4919     67.9989   2.7491225433e+01   1.4451440007e+01    0.2025811    0.1217665  -3.41 0.0007934874    2.537    0.606
        64  -7.1837    137.6317     68.5253   4.7162046401e+01   4.0975025905e+01    0.1552755     0.139251 -17.14  0.000128988    1.060    0.057
        65  -8.1973    211.1949     65.4072   3.1877515681e+01   2.3418722335e+01    0.2370041     0.196797 -16.52 0.0004127433    1.226    0.184
        66  -8.8099     84.0625     63.6095   6.0094426684e+01   5.2618783347e+01    0.3743331    0.2483858   5.06  0.001301233    2.125    0.529
        67  -9.3985     16.5040     61.9730   8.2190272079e+01   6.0931823438e+01    0.5848379    0.3882985   0.06  0.003686572    1.987    0.497
        68 -10.5571     62.4273     60.8649   6.6069214882e+01   5.6433802839e+01    0.4640339    0.2954344  14.66 0.0002232741    2.073    0.518
        69  -7.2621    224.2962     61.6998   2.8910363596e+01   2.0780114764e+01    0.1516335    0.1061779 -58.67 0.0001637496    1.574    0.365
        70  -9.6068     36.0835     59.0035   7.4497537057e+01   5.9893106539e+01    0.4298533    0.3003679  -4.47  0.002566794    1.766    0.434
        71  -8.5841    109.6617     58.0982   5.0707336946e+01   4.8892788225e+01    0.4460751    0.2378344  44.63  0.001918856    1.995    0.499
        72  -8.9881     49.6049     58.5586   6.9643904498e+01   5.8522625520e+01    0.2387202    0.1994331 -44.13 0.0001399884    1.123    0.109
        73  -9.0603     99.6968     55.0359   5.2390224476e+01   5.1400232555e+01    0.2955332    0.2226696 -16.28 0.0003108488    1.305    0.233
        74 -10.2589     75.1023     50.0120   5.8038688482e+01   5.6617519506e+01    0.3973283    0.2635907 -15.84 0.0004043521    1.625    0.385
        75  -7.7709    118.5992     50.8113   4.5689830459e+01   4.8244497272e+01    0.1971654    0.1724885  15.01 0.0005405548    1.127    0.113
        76  -8.3651    106.1558     48.8761   4.8281928475e+01   5.1169668829e+01    0.3912024     0.230481   9.45  0.001512295    2.741    0.635
        77  -9.0713     44.8421     48.6752   6.7973884542e+01   6.1011197274e+01     0.410647    0.2242843   9.95  0.001935819    2.796    0.642
        78  -8.9339     54.6869     44.7486   6.2992126156e+01   6.0532990953e+01    0.4985892    0.1797358 -28.66  0.001491848    5.062    0.802
        79  -9.4929      9.9044     46.9763   8.0527854698e+01   6.4465775059e+01    0.5433182    0.2550462  35.54  0.002918457    2.956    0.662
        80  -9.2182     14.5319     44.1722   7.7899792825e+01   6.4704099334e+01    0.3879842    0.2040183 -31.28  0.001585878    1.811    0.448
        81  -7.1928    157.3231     46.2839   3.5322303043e+01   3.9836163723e+01    0.1562111    0.1115321  24.61 0.0004501987    1.596    0.374
        82  -8.2286     93.6384     42.4124   4.9353642881e+01   5.4664328463e+01    0.4286802    0.2493434  16.58  0.001807716    2.435    0.589
        83  -8.2386    113.7132     41.5932   4.3490617715e+01   5.0728059067e+01    0.2882541      0.19502  13.51 0.0008592729    1.735    0.423
        84  -7.3466    104.0092     42.0033   4.6240242529e+01   5.2693012718e+01    0.1728212    0.1473795 -14.91 0.0003702781    1.050    0.048
        85  -8.4104    123.7829     39.4739   4.0175104258e+01   4.8816118241e+01    0.3401807    0.2093228  11.66 0.0008680132    2.164    0.538
        86  -7.6606     99.2316     41.6033   4.7419448691e+01   5.3710122551e+01    0.1993431    0.1251875  34.31 0.0009535578    1.672    0.402
        87 -10.1644     82.9646     39.7111   5.1509228030e+01   5.7042254021e+01    0.2783227    0.2379984 -18.07  0.000265935    1.054    0.052
        88  -8.5606     87.6937     37.6562   4.9221491549e+01   5.6513010632e+01    0.2176473    0.1602658  18.91 0.0007318907    1.400    0.286
        89  -8.3752      4.0000     39.5290   8.0629634939e+01   6.6303060419e+01    0.3265955   0.04863887 -57.89  0.001049824    4.921    0.797
        90  -8.4964      3.4087     24.7629   7.5909032263e+01   6.9107280298e+01    0.2542103    0.1161658 -45.20 0.0007474516    1.500    0.333
        91  -9.3276      5.2226     33.6185   7.8246956493e+01   6.7362186554e+01    0.2948467    0.2759844 -84.19  0.001506138    1.558    0.358
        92  -8.6847      1.3737     28.7584   7.8235229563e+01   6.8503588077e+01    0.2648641   0.09199494 -50.30  0.001115022    1.915    0.478
        93  -9.8250     68.7966     36.6065   5.4843546344e+01   5.9896327983e+01     0.569907     0.337775  17.26  0.002770383    2.124    0.529
        94  -8.5816     70.8753     29.8878   5.1302892238e+01   6.0602421658e+01    0.3096896    0.1777303 -14.18  0.001058909    1.885    0.469
        95  -9.1412     69.8952     26.1409   4.9988937638e+01   6.1306582500e+01    0.2309628    0.1603484 -33.62 0.0006959824    1.381    0.276
        96  -8.8700     35.5139     37.5448   6.7381752553e+01   6.4102223376e+01    0.3157997    0.1472547 -42.72  0.001629339    1.666    0.400
        97  -8.3795     38.3990     35.2622   6.5370109948e+01   6.4196493495e+01    0.2288772    0.1532936  -3.63 0.0006300964    1.657    0.396
        98  -9.5661     19.3953     35.0300   7.2874219185e+01   6.6073276583e+01    0.4613494     0.232629 -49.09  0.001845943    1.548    0.354
        99  -9.2008     22.0045     31.9547   7.0654300999e+01   6.6411717616e+01    0.2156593    0.1544112 -33.00 0.0003113681    1.041    0.040
       100  -8.8249    105.0817     36.6552   4.3840927704e+01   5.3266902904e+01    0.3174503    0.2126075  21.06 0.0007353694    1.642    0.391
       101  -8.7377     56.2023     34.9294   5.8550413586e+01   6.2030900168e+01    0.2213474    0.1676138  -5.57 0.0006574853    1.258    0.205
       102  -9.0264     96.3209     32.9196   4.4751698972e+01   5.5566027604e+01    0.2403577    0.1840073  28.69 0.0002962192    1.287    0.223
       103  -8.6558     42.4824     27.5855   6.0588551303e+01   6.5016244264e+01    0.2584701    0.1607346 -13.46  0.000757676    1.635    0.389
       104  -9.6670    195.2191    249.5180   7.5312523348e+01  -2.6204888607e+00    0.3058208   0.09076925  44.52 0.0009317669    2.760    0.638
       105  -8.8425     61.9600     26.5566   5.2894006289e+01   6.2503275568e+01    0.2284019     0.149366 -16.18 0.0004066905    1.381    0.276
       106  -8.6707     25.5327     24.9687   6.6360637418e+01   6.7300454818e+01    0.2995974    0.1174732 -32.06  0.001402705    2.345    0.574
       107  -9.6633    202.5439    247.0068   7.3752745582e+01  -3.4719873319e+00     0.252841    0.1248139  53.19  0.001293302    2.465    0.594
       108  -7.6258    109.4049     25.1785   3.8083080346e+01   5.3876785441e+01    0.1912909    0.1201077 -33.98 0.0005114548    1.610    0.379
       109 -11.0753     80.2776     23.1735   4.5333031233e+01   5.9918835455e+01    0.5208093    0.2588645  36.65 0.0008024827    2.060    0.515
       110  -9.9007    128.9193     21.9865   3.2338651503e+01   4.9843069091e+01    0.2462907    0.2193495  25.69  0.001418129    1.037    0.035
       111  -9.0317     84.5395     21.5039   4.3301065139e+01   5.9348379244e+01    0.2339417    0.1950911 -15.62 0.0005196256    1.128    0.113
       112  -7.5250    178.7796     21.4745   2.3495041871e+01   3.7510566638e+01    0.1955274    0.1230547  50.93 0.0004794353    1.548    0.354
       113  -9.1489     92.2551     20.6464   4.0700152286e+01   5.7969094513e+01    0.2799775     0.197055  20.96 0.0004485848    1.375    0.273
       114  -7.2925    167.0095     20.7698   2.5014755166e+01   4.0589617971e+01    0.1779549    0.1154629  64.60            0    1.511    0.338
       115  -9.2743    179.9274    246.6418   7.7445509875e+01   1.3895972027e-01    0.1888022    0.1564418  74.59  0.001326551    1.608    0.378
       116  -9.5393    161.1389    246.6203   8.0569498636e+01   3.1215889873e+00    0.1700145     0.152286  82.15 0.0004033745    1.333    0.250
       117  -9.1198    158.8652    239.7704   8.0074017176e+01   4.4253468858e+00    0.2015477    0.1460176  88.25  0.001228848    2.067    0.516
       118  -7.8368     38.0014    239.4724   9.9701634546e+01   2.1522054305e+01    0.1034415   0.09090745  14.59 0.0004837133    2.252    0.556
       119  -7.4531    146.8169     18.8462   2.7704254884e+01   4.5862439891e+01    0.1836499    0.1628791 -60.31 0.0003812409    1.289    0.224
       120  -8.4553    127.6511     16.4452   3.0463890571e+01   5.0732365830e+01    0.2383498    0.1992853   7.64 0.0002388781    1.143    0.125
       121 -10.3868    118.0963    236.3146   8.6575815012e+01   1.1357359038e+01     0.216573    0.1864027 -84.36 0.0003999655    1.248    0.199
       122  -9.3190    188.3217    233.9005   7.4225801173e+01   4.2354202895e-01    0.2495752    0.1932379 -75.58  0.001198125    2.140    0.533
       123  -8.0559    142.0358    223.9935   8.0916249372e+01   9.5307309628e+00    0.1742652    0.1476194  53.24  0.001186081    1.007    0.007
       124  -8.1415    146.7391     14.1211   2.6023214556e+01   4.6358390981e+01    0.2320543    0.1855051  76.35 0.0006597772    1.362    0.266
       125  -8.0655    246.6936    222.4494   6.2529358400e+01  -7.5666947727e+00    0.1955217    0.1013309  42.59 0.0005658328    1.856    0.461
       126  -7.3106    151.2338     12.6474   2.4748796961e+01   4.5385926774e+01    0.1381552    0.1001212 -49.00 0.0003403786    1.569    0.363
       127  -8.7786     11.0091    206.9931   1.0188444525e+02   3.0157342132e+01    0.1460422    0.1108258 -64.02 0.0009590628    1.682    0.405
       128  -7.9816     88.0710     12.9294   3.8443515684e+01   5.9667862454e+01    0.2208455    0.1348733  17.83 0.0006839455    1.691    0.408
       129  -7.7520    247.0033    203.4924   5.9021822771e+01  -5.4004573104e+00    0.1462671    0.1101494  63.25 0.0006125841    2.349    0.574
       130  -7.4181    192.7224    195.6622   6.7113994099e+01   5.1479098456e+00    0.1323724   0.09679109   6.31 0.0003118704    1.614    0.381
       131  -9.0225      5.8524    190.4534   1.0170467868e+02   3.3815816549e+01    0.1853362    0.1246626 -85.88  0.000330375    1.131    0.116
       132  -9.2870    153.0549    171.8151   7.0384132467e+01   1.6807860909e+01    0.2183391    0.2087371 -40.90 0.0003210232    1.090    0.083
       133  -7.9036    158.4940    169.4491   6.8805380759e+01   1.6212796328e+01    0.1387156    0.1333838  32.68 4.519496e-05    1.031    0.030
       134  -7.3339    107.4741    151.5118   7.6375826568e+01   2.9375061591e+01    0.1400851    0.1273425 -80.80  0.000268932    1.015    0.015
       135  -7.3875    145.2876    150.6490   6.7742019753e+01   2.2560061266e+01    0.1483998     0.114525 -84.72 0.0006076865    1.664    0.399
       136  -8.6975     68.4948    145.4772   8.4282160127e+01   3.6669856995e+01    0.2431708     0.182292 -64.20  0.001426536    1.166    0.143
       137  -8.1573     65.5959    143.1904   8.4588102253e+01   3.7574672503e+01     0.240665    0.1843022 -71.95   0.00082339    1.107    0.097
       138  -7.2724    238.2609    143.3530   4.7764487187e+01   4.6447789943e+00    0.1466613     0.101372  -0.51  0.000266141    1.614    0.381
       139  -7.3808    104.4917    139.4152   7.4700516633e+01   3.2582527930e+01    0.1406804    0.1298365 -72.46 6.949504e-05    1.017    0.017
       140  -7.2516    140.3066    138.3453   6.6129375998e+01   2.6139132093e+01    0.1513095    0.1186818  -9.02 0.0004331685    1.695    0.410
       141  -7.4706     55.6428    134.6936   8.5575731902e+01   4.0774003139e+01    0.1281941   0.09167242 -38.98  0.000401033    1.724    0.420
       142  -8.6798    163.1844    126.4748   5.8153005439e+01   2.3795782298e+01    0.3055474    0.2430803 -34.35 0.0008044316    1.231    0.188
