#   1 NUMBER                 Running object number                                     
#   2 MAG_AUTO               Kron-like elliptical aperture magnitude                    [mag]
#   3 X_IMAGE                Object position along x                                    [pixel]
#   4 Y_IMAGE                Object position along y                                    [pixel]
#   5 X_WORLD                Barycenter position along world x axis                     [deg]
#   6 Y_WORLD                Barycenter position along world y axis                     [deg]
#   7 A_WORLD                Profile RMS along major axis (world units)                 [deg]
#   8 B_WORLD                Profile RMS along minor axis (world units)                 [deg]
#   9 THETA_WORLD            Position angle (CCW/world-x)                               [deg]
#  10 FWHM_WORLD             FWHM assuming a gaussian core                              [deg]
#  11 ELONGATION             A_IMAGE/B_IMAGE                                           
#  12 ELLIPTICITY            1 - B_IMAGE/A_IMAGE                                       
         1 -11.2748     80.4546     35.3720   6.8355364611e+01   5.9123768285e+01     1.036311     0.719642 -18.76  0.005595276    1.487    0.328
         2 -12.5669     75.1091     51.9770   7.6640234794e+01   5.7440137621e+01     1.418953    0.9534177 -54.15  0.007013191    1.923    0.480
         3 -10.8810     60.2527     21.5718   7.0010330998e+01   6.4642306391e+01    0.4932907    0.2484679 -28.34  0.001385294    1.995    0.499
         4 -13.4717     42.9607     45.8601   8.7374937274e+01   6.3291008627e+01     1.217714    0.5949829  41.39 0.0008685475    2.573    0.611
         5 -11.9536     61.5062     48.2181   8.0452607697e+01   6.0324406168e+01     1.272789    0.8218482 -45.17  0.006702858    1.616    0.381
         6 -12.6600    116.0777     41.5946   5.9979178040e+01   5.0695852436e+01    0.9479232    0.6734972 -84.46   0.00433956    2.234    0.552
         7 -10.4584    162.4272     44.7774   5.0925236230e+01   3.8983556145e+01     1.283982    0.4168061 -32.77  0.004450938    3.182    0.686
         8 -12.3556    131.3014     14.8702   4.7241587367e+01   5.0262715643e+01     1.423732    0.6148608  60.68   0.00478764    1.957    0.489
         9 -11.6369    145.7723     46.6205   5.4719580793e+01   4.2866443936e+01     1.130419    0.4751294 -24.90  0.004024737    3.118    0.679
        10 -11.3866    165.0164     17.9456   4.2665896609e+01   4.1621359436e+01    0.6556833    0.3721822  25.99  0.002795814    2.882    0.653
        11 -11.4620    137.0030     22.6546   4.8754239068e+01   4.8061425773e+01     1.106819    0.3254174  54.36  0.004017333    2.729    0.634
        12 -10.5143    147.0551     16.4711   4.4978333515e+01   4.6236021985e+01    0.4681561    0.3203559  48.73  0.002516575    1.389    0.280
        13 -11.2229    143.0264     25.6204   4.8583740782e+01   4.6246673893e+01     1.180891    0.3873116  46.38  0.004110619    3.147    0.682
        14 -11.1594    154.4402     23.2605   4.5855655879e+01   4.3677646860e+01    0.9185569    0.5534526  33.49  0.004277881    2.108    0.526
        15 -12.6583    119.5385     37.9146   5.7801687295e+01   5.0401487127e+01    0.8528175    0.6274761 -89.55  0.003652332    1.901    0.474
        16 -11.5506      8.0552     32.3279   9.9391430359e+01   6.8994171521e+01     1.966999    0.4862778 -49.81  0.008621445    2.761    0.638
        17 -10.2924     47.1746     19.0146   7.4361796763e+01   6.7043556751e+01    0.3621995    0.2614116 -20.36  0.001171599    1.270    0.212
        18 -12.0142     26.6731     27.6774   8.8023006417e+01   6.8287323330e+01    0.5213717    0.4258724   5.76  0.002188273    1.199    0.166
        19 -12.0903     36.8305     17.5879   7.8510038346e+01   6.8672866645e+01    0.7666163    0.5705449 -21.79  0.005072575    1.199    0.166
        20 -12.3701     48.7567     12.9261   7.0780770263e+01   6.7593310945e+01     0.535906    0.2900379  39.81  0.001771888    1.773    0.436
        21 -11.8575     20.1686     21.7842   8.8925813449e+01   6.9892094608e+01    0.6750578    0.2303808 -42.83  0.003196395    2.461    0.594
        22 -12.8454     16.1661     12.9495   8.7174010580e+01   7.1652604663e+01    0.9587689     0.513828 -24.63  0.003781561    1.655    0.396
        23 -10.8945    198.5918     29.0920   4.1284342847e+01   3.2105803825e+01    0.5980918       0.3597 -24.62  0.002970099    1.999    0.500
        24 -11.3960    105.9056     20.4135   5.4823165768e+01   5.5668862318e+01    0.4346832    0.3185101 -24.07 0.0007229559    1.490    0.329
        25 -12.3340    113.3117     25.4565   5.4864744506e+01   5.3409594281e+01    0.8674584    0.4048433  49.28  0.003077441    1.861    0.463
        26 -10.7376    214.6716     23.0887   3.8071098035e+01   2.9046508355e+01    0.4876174    0.3561484  17.61  0.002607381    2.286    0.563
        27 -12.1810     22.9084     11.5324   8.2761684976e+01   7.1185661821e+01    0.5255176    0.3394384 -12.44  0.002148264    1.349    0.259
        28 -11.0832     87.3587      7.4752   5.4571929832e+01   6.1020290444e+01     0.557705     0.318308  58.86  0.002049186    1.700    0.412
        29 -11.2517     90.6707     21.0376   5.9255664075e+01   5.8925422691e+01    0.5924034    0.3771167 -30.15  0.002313654    1.692    0.409
        30 -11.1818     86.0127     14.3422   5.7868113601e+01   6.0629457377e+01    0.7748985    0.4008951  19.32  0.003213722    2.673    0.626
        31 -10.8994    178.8317     21.0392   4.1648042748e+01   3.7862575049e+01    0.5889221    0.2574877  49.02  0.001919747    2.477    0.596
        32 -11.9744     68.1631     17.9370   6.5356670852e+01   6.3713388573e+01    0.4921179    0.4272327  17.27   0.00185186    1.079    0.074
        33  -9.7853     74.5325     19.5519   6.3803560092e+01   6.2334788453e+01    0.2473603    0.1666544  37.45 0.0006891661    1.311    0.237
        34 -12.2276    238.5596     16.0569   3.4399770493e+01   2.4568020712e+01    0.8317447       0.5324  68.89  0.005019058    1.568    0.362
        35 -10.7063    242.4333      3.5248   3.1553171092e+01   2.5139901236e+01     0.324701    0.1805788  79.77  0.001910449    1.644    0.392
        36 -11.7825    247.0456      6.6793   3.1874850652e+01   2.3842502987e+01    0.5297749    0.4187404  22.69  0.002855687    2.206    0.547
        37 -11.5263    192.4235      9.5254   3.7063473670e+01   3.5784211660e+01     0.858491    0.4826189 -12.76  0.003487599    2.693    0.629
        38 -12.3026    104.5834     12.6691   5.2176693024e+01   5.6763292621e+01    0.4917265    0.4337829 -27.86  0.002165437    1.294    0.227
        39 -11.1196    225.6982     14.7404   3.5166349139e+01   2.7516938054e+01    0.6401973    0.3177637 -77.67  0.003077208    2.193    0.544
        40  -9.9234      4.3209     12.5777   9.3892246693e+01   7.2667043587e+01    0.2643126     0.184522  10.57  0.001883798    1.434    0.303
        41  -9.5125      5.3344      9.3141   9.1824243848e+01   7.3112338819e+01    0.1787899    0.1017282 -29.49 0.0006234549    1.378    0.274
        42 -11.5435    212.0505      9.0961   3.5081466710e+01   3.1218263300e+01    0.5727428    0.3531564  -3.21   0.00217801    3.009    0.668
        43 -10.1805     65.9417     10.2906   6.2678352060e+01   6.4982260369e+01    0.3471656     0.186502  44.39  0.001140587    1.653    0.395
        44  -9.9184     62.8959      6.6344   6.2066545169e+01   6.5916721493e+01    0.2932353    0.1958675  27.16  0.001221618    1.297    0.229
        45  -9.6599    168.8035      9.7395   3.9830334320e+01   4.1516868554e+01    0.3340876     0.152318  52.67  0.001508742    2.094    0.522
        46  -9.2269    163.0866     10.0833   4.0673172015e+01   4.2895303152e+01     0.202891     0.161853  52.23 0.0007251022    1.254    0.203
        47  -9.6395      1.1361      7.4916   9.3567548275e+01   7.3690708301e+01    0.2685957   0.06813975 -49.52  0.001156422    3.394    0.705
        48 -11.3575      3.0260      1.8883   8.9685149090e+01   7.4404489924e+01    0.4218141     0.170977  12.73  0.002234821    2.667    0.625
        49 -10.2053     12.4304      1.8523   8.3834033437e+01   7.3602054812e+01    0.3281497    0.1626226  24.77  0.001635543    1.940    0.485
        50 -11.4218    233.9731      6.6133   3.2774882750e+01   2.6602796306e+01    0.5503966    0.3819438  68.96  0.003270986    1.466    0.318
        51 -10.0903    228.3766      3.1937   3.2465607608e+01   2.8178364516e+01    0.2933644    0.1996651 -47.30   0.00158622    1.356    0.263
        52 -10.9182    218.7331      3.6189   3.3290760407e+01   3.0270812568e+01    0.3090052    0.2504112 -51.09 0.0009400001    1.229    0.187
        53 -10.5399    223.4677      1.9903   3.2571871722e+01   2.9381895124e+01    0.3350312    0.1875278  78.97  0.001286627    1.587    0.370
        54  -7.8645     78.4852      7.5320   5.7215362918e+01   6.2844481136e+01    0.3257044    0.1864377  61.53  0.001513553    1.993    0.498
        55 -10.2206     76.5137      3.4856   5.6015072653e+01   6.3611221425e+01    0.5179762    0.2471565  35.93  0.001182068    1.915    0.478
        56 -10.5069     73.3270      2.6901   5.6649354562e+01   6.4314742312e+01    0.4955506    0.2337184  32.85  0.002408909    2.050    0.512
        57 -10.3518    183.8922      4.9530   3.6796264797e+01   3.8290428663e+01    0.4007937      0.27485 -37.26  0.001836474    1.557    0.358
        58  -9.7082    153.9467      7.2983   4.1115535604e+01   4.5415380056e+01     0.426185    0.1628764  69.71   0.00175285    2.309    0.567
        59 -11.0227    106.6068      1.9077   4.7568653599e+01   5.7246815168e+01    0.7067761    0.3419863  68.45  0.002352105    2.075    0.518
        60  -9.1809    113.5305      3.5266   4.6725367617e+01   5.5516822558e+01    0.2420857    0.1483767  72.61 0.0005560791    1.656    0.396
        61  -9.9543    116.6815      2.6914   4.5792339963e+01   5.4846271599e+01    0.2146158    0.1704274  30.63 0.0006689361    1.270    0.213
        62 -10.9729     41.6684      4.1816   6.9571610140e+01   6.9699281986e+01    0.4124695    0.2286323   2.69  0.002187127    2.111    0.526
        63 -10.9809    176.9411      5.7907   3.7776787069e+01   3.9899115595e+01    0.3715432    0.1980124  83.66  0.001211846    1.811    0.448
        64 -10.6369    169.3178      2.4370   3.7745426489e+01   4.2070713372e+01    0.2762049    0.1861235 -68.24 2.776553e-05    1.531    0.347
        65  -9.0961     31.2504      5.9644   7.5547677339e+01   7.0943011830e+01    0.1590117    0.1198737 -10.32 0.0003459086    1.115    0.104
        66  -8.8436    115.4830      6.9780   4.7591725208e+01   5.4770242804e+01    0.2377053    0.1282107  -3.48  0.001094988    2.520    0.603
        67 -12.3220    134.1719      2.5236   4.2616873104e+01   5.0675368832e+01    0.4784784    0.2497337  68.95 0.0007252033    1.678    0.404
        68  -9.8270    142.7801      3.3671   4.1540369360e+01   4.8506750896e+01    0.3694622    0.2042461  65.44    0.0018768    1.515    0.340
        69 -10.5163    122.1222      5.0411   4.5586692936e+01   5.3366072335e+01    0.2149618    0.1617252  61.74 0.0003122271    1.145    0.127
        70 -11.2798    206.6317      2.4071   3.4011120201e+01   3.3151956789e+01    0.5337818    0.2061098  80.03   0.00141736    2.470    0.595
        71  -9.6559    158.3315      2.4182   3.9086242586e+01   4.4768200591e+01     0.380291    0.1561671  50.35  0.001654784    2.342    0.573
        72  -9.1125    152.2571      1.3210   3.9562960221e+01   4.6353805722e+01    0.1884592    0.1061393  79.73 0.0006455076    1.674    0.403
        73  -9.4533     54.6361      4.0516   6.3961533813e+01   6.7632422765e+01    0.1940583    0.1562819  50.49 0.0003483355    1.526    0.345
        74 -10.1725     82.2223      1.2999   5.3356247733e+01   6.2632995537e+01    0.2009856   0.09589429  53.66 0.0003563062    1.775    0.437
        75  -8.6927     33.5183      1.4750   7.2029653380e+01   7.1176145763e+01    0.1196485   0.08809686   5.75 0.0002601968    1.068    0.063
        76  -8.5662     29.6472      1.6885   7.4105976018e+01   7.1670309039e+01    0.1231877   0.07198344   4.94 0.0007044809    1.726    0.421
        77 -11.9643     30.0034    132.8635   1.1235641103e+02   4.4836577695e+01    0.4010279    0.3165534 -88.51 0.0003227529    1.185    0.156
        78 -10.3912    143.2184    248.9157   1.0052913212e+02   3.2646824253e+00    0.3227658    0.2100172 -38.20  0.001856603    1.947    0.486
        79 -10.0646    216.7292    138.0128   6.5024915892e+01   1.0245987401e+01    0.3674813    0.2279052 -44.98  0.001504759    1.570    0.363
        80 -10.4301     47.3265    135.9210   1.0771032728e+02   4.2320774199e+01    0.5315161    0.1822802 -61.25  0.001552108    2.441    0.590
        81  -9.0827     79.3134    138.3241   9.8707267834e+01   3.7482387232e+01    0.2753581    0.2075999 -10.08  0.001216845    1.836    0.455
        82  -9.3717     81.0209    135.6617   9.7685622452e+01   3.7881020764e+01    0.3590652    0.1985024  18.11  0.001372822    2.703    0.630
        83 -10.5776     67.1682    135.9922   1.0184537693e+02   3.9825229771e+01    0.3568783    0.2173684 -46.05  0.000689544    1.680    0.405
        84 -10.2118     39.6964    138.1191   1.1027076785e+02   4.2595987474e+01    0.3111171    0.2004012  24.04 0.0007740952    1.822    0.451
        85  -9.2333    192.3128    136.2999   6.9355533259e+01   1.5564690559e+01    0.1517316    0.1172722   2.88 0.0003608571    1.607    0.378
        86 -10.4656     94.0000    131.9893   9.3108972210e+01   3.6667310464e+01    0.2975736    0.2008574 -49.81  0.001088514    1.441    0.306
        87  -9.4477     92.7126    128.6046   9.2748004693e+01   3.7715148101e+01    0.2824489    0.2395872  -0.74  0.001298507    1.412    0.292
        88 -10.1077     74.1429    132.3747   9.9080146491e+01   3.9735663724e+01    0.3261893     0.218552 -34.66  0.001504971    1.775    0.437
        89 -10.0689     61.8452    132.1585   1.0273849361e+02   4.1496641165e+01    0.4427142    0.2919846 -36.40  0.002113997    1.770    0.435
        90  -9.7321     39.1783    133.0025   1.0967195268e+02   4.3919401021e+01    0.2433971    0.1926999  31.52 0.0007786262    1.424    0.298
        91  -9.5727    104.0003    130.9253   8.9971715916e+01   3.5152537509e+01    0.2229915     0.219734  14.29 0.0003507564    1.057    0.054
        92 -10.7513     10.1728    128.2604   1.1754491289e+02   4.7521116390e+01     0.488733    0.2268382 -65.49  0.002295466    1.697    0.411
        93  -9.6162     78.8789    128.8526   9.6944175694e+01   3.9898654367e+01    0.3312797    0.2142905 -35.39 0.0008940058    1.821    0.451
        94  -9.7392     81.3392    125.2053   9.5426295631e+01   4.0416249389e+01    0.3881776    0.2376879  44.89  0.001531545    1.728    0.421
        95 -10.0939    240.5243    126.5193   5.8450134818e+01   7.7003131533e+00    0.3476193    0.2163241 -70.62  0.001432434    3.048    0.672
        96  -9.2067    223.9980    126.9431   6.1247564132e+01   1.0805577656e+01    0.2196742    0.1646452 -63.90 0.0005577569    1.645    0.392
        97  -9.9335      2.5746    126.4183   1.1952007284e+02   4.8440171932e+01    0.2738206    0.1716132  58.55  0.001590892    1.738    0.425
        98  -9.5608     58.4916    118.0838   1.0109329743e+02   4.5424611773e+01    0.2916751    0.1193622 -55.70  0.001152549    2.126    0.530
        99 -10.7720     55.2199    123.4275   1.0316444337e+02   4.4509001738e+01    0.5636095     0.384639 -22.19  0.002719998    1.948    0.487
       100  -9.8780     49.5486    123.1503   1.0488978398e+02   4.5248228435e+01    0.3206064    0.2528937   6.98  0.001056717    1.549    0.354
       101 -10.8899     45.2548    119.9769   1.0567590968e+02   4.6512393039e+01    0.6287904     0.334343 -84.04   0.00246259    2.519    0.603
       102 -12.1189    103.9795    122.5546   8.8032897942e+01   3.7166372752e+01     0.449837     0.409765 -25.27   0.00163521    1.161    0.139
       103  -9.7579     70.7148    121.3065   9.7881657553e+01   4.2976217365e+01    0.3853654     0.249128 -11.67  0.001376124    2.493    0.599
       104  -9.3428      4.7788    121.6392   1.1837350602e+02   4.9452266751e+01    0.2514234    0.1315035  77.22  0.001237159    2.189    0.543
       105 -10.2727     33.2842    119.6637   1.0940719463e+02   4.7790396649e+01     0.377325    0.1752638 -34.27   0.00138556    3.028    0.670
       106  -9.1895    221.1830    120.4164   6.0242383066e+01   1.2536895347e+01    0.1885669    0.1399188  67.19 0.0006286916    1.666    0.400
       107  -9.0155    148.3138    120.3287   7.5406740630e+01   2.8522823026e+01    0.1619136    0.1267285  -0.61 0.0004707116    1.673    0.402
       108  -9.1489     62.9297    120.2734   1.0012136841e+02   4.4307765266e+01    0.1794222     0.176178 -65.45 0.0001811156    1.070    0.065
       109  -9.4875    185.3124    119.3357   6.6732816549e+01   2.0433516281e+01    0.1567309    0.1213433   2.73 0.0007045442    1.686    0.407
       110  -9.6613    113.8997    115.5901   8.3429254166e+01   3.6892699616e+01    0.3067242    0.2146845 -32.54  0.001350301    1.599    0.374
       111  -9.6531     79.9133    114.9763   9.3581913028e+01   4.3139371238e+01    0.3974684    0.2493794 -78.18  0.001629536    2.259    0.557
       112  -9.3349     67.2481    114.2416   9.7468432045e+01   4.5201528970e+01    0.4387592    0.2662861 -65.65  0.001994763    1.691    0.409
       113  -9.6747     65.6974    110.6779   9.7184902536e+01   4.6284559039e+01    0.4619746    0.1863474  26.75  0.001682673    3.004    0.667
       114 -10.7904     16.1374    109.8533   1.1336932893e+02   5.1559683231e+01    0.3700594    0.3113607  31.49   0.00151143    1.407    0.289
       115 -11.4852     50.1915     97.5682   9.9490799518e+01   5.1404423522e+01      1.57303    0.7485713 -48.06  0.006945465    1.866    0.464
       116 -11.7422     17.0848    101.0354   1.1170242084e+02   5.3606036325e+01     0.459163    0.2807214  22.72  0.000335263    1.923    0.480
       117 -11.7502      7.0708     88.6786   1.1319002433e+02   5.7115782601e+01    0.6105006    0.4561167  33.44  0.003395471    1.626    0.385
       118 -11.3807      9.8268     97.5495   1.1362621989e+02   5.4891033169e+01    0.5353945    0.4876131  -1.43  0.001642149    1.314    0.239
       119 -10.5211     42.5251     94.2253   1.0146192743e+02   5.3040889775e+01     0.404588     0.294181  41.39 0.0005285821    1.584    0.369
       120 -10.9323     26.6144     85.4819   1.0540067610e+02   5.6554200778e+01    0.7658694    0.5052038  13.69   0.00431399    1.760    0.432
       121 -10.5497     18.6740    106.0971   1.1197389631e+02   5.2284993028e+01    0.1928762    0.1810999  57.85 0.0002541034    1.234    0.190
       122 -11.9581     34.9513     93.5678   1.0404474267e+02   5.3944277425e+01     1.273452    0.7812378 -61.92  0.004681373    1.441    0.306
       123 -12.1928     42.5072     85.0733   9.9332374149e+01   5.5168952882e+01    0.9608878    0.4847961  16.93  0.004076579    2.441    0.590
       124 -11.8504     24.3890    113.7514   1.1130161023e+02   5.0003077092e+01    0.9462273    0.3958352   5.84  0.003598652    4.157    0.759
       125 -12.1995     25.0997    108.1769   1.1018197847e+02   5.1298279615e+01    0.8676076    0.5505857 -37.08  0.004696228    1.660    0.398
       126 -11.5947     22.4099     94.8936   1.0879491483e+02   5.4682155683e+01    0.5340674    0.3716743   9.25  0.001959122    1.717    0.418
       127 -11.6097     18.2599     90.3256   1.0944243524e+02   5.6051964039e+01    0.3941057    0.2297907 -61.41   0.00049558    1.397    0.284
       128 -10.1459      7.0750    114.3193   1.1682619977e+02   5.1067461213e+01    0.2413818    0.2341627  50.56  0.000777681    1.248    0.199
       129 -12.3964      2.1231    111.3143   1.1798982933e+02   5.2061019060e+01     0.420647    0.2211502 -67.73  0.000600557    1.473    0.321
       130 -11.1834      3.9270    104.8587   1.1661836861e+02   5.3494013688e+01    0.4172468    0.2942943  29.76  0.001979731    1.706    0.414
       131  -9.2032    126.7045    113.9423   7.9406976692e+01   3.4634094779e+01    0.2241715    0.2036882 -49.15 0.0006828203    1.100    0.091
       132 -10.2940    107.4061    111.8196   8.4356734941e+01   3.9042785205e+01    0.3946131    0.3187005  77.68  0.001441306    1.549    0.355
       133 -11.0022    102.6141    109.4681   8.5181146706e+01   4.0505759700e+01     0.681506    0.5796661 -28.45  0.003456578    1.235    0.190
       134  -9.6958     94.3432    112.2495   8.8413567238e+01   4.1371612501e+01    0.3048199    0.2747051 -40.83  0.001159285    1.085    0.078
       135  -9.7590     48.7915    112.4143   1.0311617746e+02   4.7982497329e+01    0.2451502    0.2119033 -73.58  0.001185898    1.123    0.110
       136 -11.1599    170.3728    110.4274   6.7674855308e+01   2.5600059829e+01    0.4447936    0.4026426  -9.37  0.001248657    1.204    0.170
       137 -10.2409    128.8416    109.8390   7.7741644726e+01   3.5092935579e+01    0.2212883    0.1933933  87.71    0.0010785    1.330    0.248
       138 -10.2253    120.6751    109.0117   7.9782714421e+01   3.7009540652e+01    0.3873284    0.2892976 -27.71  0.001599112    1.517    0.341
       139 -11.4451     79.6668    108.3083   9.2074424421e+01   4.4781610851e+01    0.7122314    0.4659489  27.01  0.001063831    1.703    0.413
       140 -10.6081     89.9178    104.5093   8.7827542935e+01   4.3968936805e+01    0.4075841    0.3417525  -0.99  0.001367027    1.367    0.269
       141 -10.6361     85.8928    103.8651   8.8948668280e+01   4.4810374574e+01    0.5474563    0.3627432 -15.17  0.001778892    2.237    0.553
       142  -9.0324     58.5247    109.0210   9.9190295748e+01   4.7639350367e+01    0.2239731    0.1298227 -59.60  0.001030178    1.589    0.371
       143 -10.2319    157.2435    106.6933   6.9687971840e+01   2.9389806220e+01    0.3955557    0.3089062  -3.11   0.00158546    1.678    0.404
       144 -10.8411    143.5008    105.9984   7.2858314270e+01   3.2681418609e+01    0.3886513     0.323585 -53.02  0.001350083    1.236    0.191
       145 -11.5253    145.4051    100.1173   7.0772892249e+01   3.3475516180e+01    0.4461306    0.4285453 -34.36  0.000328365    1.048    0.045
       146  -9.4263    180.9761    103.2472   6.3564953674e+01   2.4559838908e+01    0.3370347    0.1848432 -61.41  0.001186407    2.758    0.637
       147  -9.7907     57.3404    102.6293   9.8165974039e+01   4.9330965548e+01    0.3372497    0.1554815 -56.80   0.00132612    1.950    0.487
       148  -9.9186    208.8749    100.9455   5.7752580893e+01   1.8641253165e+01    0.2499818    0.1935361 -36.79 0.0003976695    1.234    0.190
       149 -11.4188     67.6462     95.5280   9.2892047460e+01   4.9613611643e+01    0.5715537    0.4311081  23.39  0.002300725    1.441    0.306
       150 -10.9378     89.9970     89.2983   8.3626512997e+01   4.7397447622e+01    0.9007156    0.4998716 -24.10  0.003272621    2.848    0.649
       151 -10.1836     66.6631     88.6849   9.1430219910e+01   5.1324808535e+01     0.331191    0.2290266 -22.09 0.0009102738    1.688    0.407
       152 -10.4000     67.3993     82.0366   8.9310561593e+01   5.2699898892e+01    0.4361054    0.3756728 -28.50  0.002475598    1.088    0.081
       153 -10.4909     77.3615     96.8886   8.9933371817e+01   4.7828477271e+01    0.4909248    0.2931225  49.42  0.001742929    1.994    0.498
       154 -10.4500     80.4836     83.7988   8.5211626828e+01   5.0250624235e+01    0.5932534     0.353697 -37.21  0.002666753    1.692    0.409
       155 -11.4979     74.9844     78.2432   8.5470937707e+01   5.2347475113e+01     0.660646    0.6102812  64.19  0.003790695    1.305    0.234
       156 -10.2340     82.4948     93.5110   8.7300371849e+01   4.7762975795e+01    0.4099854    0.2477417  23.97  0.001006621    1.969    0.492
       157 -10.9268     76.9981     92.8400   8.8969422095e+01   4.8813005686e+01    0.5512389    0.3544025  20.43  0.001781045    1.855    0.461
       158  -9.7945    142.3338     95.8214   7.0344916354e+01   3.5063439193e+01    0.3832741    0.1911388  35.29 0.0005720044    2.510    0.602
       159 -10.4766    117.6737     92.8749   7.6150584109e+01   4.1165479976e+01     0.418805    0.3052073   6.67  0.001065698    1.900    0.474
       160 -11.0110    124.5973     93.8973   7.4490525974e+01   3.9455469758e+01    0.6528941    0.3610777  46.13  0.002475005    1.807    0.447
       161 -10.8147    152.3069     92.0171   6.6838549907e+01   3.3495122064e+01    0.5121722    0.3905136  57.39  0.001861652    1.344    0.256
       162  -9.4941    160.4996     93.5184   6.5365160151e+01   3.1261347580e+01    0.4172572    0.2319786  69.18  0.001467384    2.724    0.633
       163 -10.8335    100.9091     91.4304   8.0755629095e+01   4.4891014555e+01     0.633543    0.3691863  54.02  0.002586643    2.087    0.521
       164 -10.8690    104.5085     86.7863   7.8274018433e+01   4.5173774259e+01    0.6240571    0.3903954 -15.08  0.002380104    2.578    0.612
       165 -11.1857    113.6778     83.3721   7.4489564020e+01   4.3984558767e+01    0.4682055    0.4616577 -37.64  0.002586826    1.056    0.053
       166 -11.6704    120.6149     89.2424   7.4250094754e+01   4.1292436252e+01    0.8506721    0.3983792 -43.08  0.003195988    2.142    0.533
       167 -10.5727    183.4769     85.8148   5.8503800390e+01   2.7207176283e+01    0.7099758    0.2679858 -44.62  0.002452194    2.640    0.621
       168 -10.1016    108.9908     80.5199   7.5005947707e+01   4.5547069012e+01    0.3258852    0.2739263  14.96  0.001036785    1.284    0.221
       169  -8.9248    214.5550     86.4323   5.3301744363e+01   1.9897927782e+01    0.1405145    0.1318803 -52.24 -4.267751e-06    1.040    0.038
       170 -10.3981    165.6622     83.7486   6.1523768538e+01   3.1866514417e+01    0.4010403    0.3135228 -50.92  0.001277565    1.306    0.234
       171 -11.2378    143.1861     84.1014   6.6766080950e+01   3.7184218444e+01    0.3494956    0.3397241 -79.93 0.0007577931    1.059    0.056
       172  -9.6662    138.0409     86.0000   6.8610028914e+01   3.8020298422e+01     0.441952    0.1532938  51.45  0.001387002    2.971    0.663
       173  -9.6726     60.2308     83.2235   9.2256306765e+01   5.3451606436e+01     0.261053    0.2331529 -62.82 0.0009526007    1.213    0.176
       174 -11.6008     53.1277     76.1202   9.2928779108e+01   5.5944406808e+01    0.6185413     0.395811 -56.55  0.002840598    1.554    0.356
       175 -10.9519     57.9959     77.7824   9.1555247102e+01   5.4951728327e+01    0.3411936    0.2514176 -57.79 0.0007468804    1.404    0.288
       176 -10.9186     47.0449     74.7715   9.4902031278e+01   5.6972463992e+01    0.3709943    0.2380697 -53.14 0.0008633172    1.433    0.302
       177 -10.2385    127.4707     82.7505   7.0416854466e+01   4.1080411536e+01    0.2861151    0.2557471  52.35  0.001173401    1.127    0.113
       178  -9.4135     21.1519     80.8569   1.0649511746e+02   5.8033084653e+01    0.1785522    0.1650089 -81.70 0.0005882654    1.227    0.185
       179  -9.8243    103.3417     78.8409   7.6208437091e+01   4.7045257165e+01    0.3433562    0.2177547 -30.74 0.0005867886    1.721    0.419
       180 -10.6239    103.9524     74.3423   7.4598807219e+01   4.7812986734e+01    0.3847649    0.3212692 -68.11 0.0007583639    1.485    0.327
       181 -10.3020    232.9200     77.7881   4.8625467941e+01   1.7309088824e+01    0.3738298    0.1932572 -36.59  0.001725646    1.786    0.440
       182  -9.6604    174.9497    246.8799   9.3910842497e+01  -1.3159704333e+00    0.2421226     0.149967  37.77  0.001385678    1.362    0.266
       183 -10.5703     94.1792     76.4269   7.8362063708e+01   4.9335304075e+01    0.5599036    0.3765876  26.72  0.001889695    1.637    0.389
       184 -11.3516    127.5406    241.8110   1.0282620703e+02   6.9012914557e+00    0.3361151    0.3065002  61.13  0.002130753    1.157    0.136
       185 -11.6964     85.9758     73.5416   8.0177124611e+01   5.1442477994e+01    0.7891497    0.5002275  36.53  0.003312462    1.598    0.374
       186 -11.0125     79.2967     67.6903   8.0595612302e+01   5.3788242712e+01    0.5658698     0.468888  48.05  0.003099013    1.370    0.270
       187 -11.4796     91.2506     62.8854   7.4874800799e+01   5.2517240545e+01    0.9573299    0.4695422  47.55  0.003695074    2.156    0.536
       188 -10.8887     87.5907     56.9599   7.4039995045e+01   5.4289438305e+01    0.6075668     0.250376 -33.69   0.00140269    2.674    0.626
       189 -10.9613     91.9574     57.3387   7.2717409472e+01   5.3378217588e+01    0.4590501    0.3354408 -32.01  0.002367506    1.371    0.270
       190 -11.8844     14.1435     74.7613   1.0794437569e+02   5.9881733620e+01    0.5072836    0.3800877 -54.81  0.002643809    1.088    0.081
       191  -9.3125    170.3221     77.9668   5.8948207341e+01   3.1773552934e+01    0.2116797     0.199789 -39.83 0.0007092974    1.085    0.078
       192  -9.8453     67.9767    240.4884   1.1479932435e+02   1.5853762101e+01    0.1842218    0.1024508  38.88  0.001029291    1.586    0.370
       193 -10.6561     13.0283     47.5275   1.0169609694e+02   6.5746381177e+01    0.6857596    0.1505757 -39.27  0.002377816    4.229    0.764
       194 -11.1912    148.6450    237.6612   9.7925093768e+01   4.2812275829e+00    0.5127572     0.238386  39.91  0.002237497    1.794    0.443
       195 -10.9666     25.9511     48.4600   9.5960382364e+01   6.4572090792e+01    0.5074816    0.1897182 -44.71  0.001620898    2.155    0.536
       196 -12.0285     21.1103     46.8428   9.7692785862e+01   6.5295867224e+01    0.5620213    0.3745688 -68.64  0.003119119    1.953    0.488
       197 -10.0372     22.3512     36.9109   9.3744430153e+01   6.7077730367e+01    0.5713288    0.3360593  40.98  0.003130736    2.401    0.584
       198 -12.3333     25.9500     56.5127   9.8433037572e+01   6.2955129020e+01     1.072833    0.6478115   9.12  0.005974391    1.838    0.456
       199 -10.7617     34.0895     58.0531   9.5340590559e+01   6.1892806148e+01    0.3563772    0.2112023 -15.93  0.001813411    1.956    0.489
       200 -12.0611     58.0666     30.1035   7.4624867608e+01   6.3806284377e+01    0.5372471    0.3137064  26.35  0.001070962    1.694    0.410
       201 -11.7482     48.9853     30.2504   7.8549267999e+01   6.5148221612e+01    0.6167743    0.2672879  29.65  0.001957994    2.381    0.580
       202 -12.4641      6.1721     62.5185   1.0857599140e+02   6.3020090098e+01    0.7238421    0.4195014 -24.17  0.002957327    1.758    0.431
       203 -12.3512     48.8322     60.5066   8.9897397743e+01   5.9753214325e+01     0.766721    0.5294875  31.00  0.002480766    1.552    0.356
       204 -11.2537     40.9814     57.1350   9.2094570572e+01   6.1354184195e+01    0.4011414    0.2909126  38.24  0.001518607    1.647    0.393
       205 -10.4305    173.0882    238.6631   9.3078473525e+01   2.3445731313e-01    0.2688134   0.09596751  42.19  0.001109222    2.518    0.603
       206 -11.5360     60.9910     36.8213   7.6225148259e+01   6.2313782018e+01    0.9751686    0.5804093  15.38  0.004422459    1.988    0.497
       207  -9.5294    139.0482     77.4720   6.5820390275e+01   3.9411331145e+01    0.2355987    0.1484452  50.33 0.0003678506    1.552    0.356
       208  -9.9792    127.3094     77.0341   6.8717953414e+01   4.2219621952e+01    0.2947376    0.2262577  58.38 0.0006399733    1.375    0.272
       209  -9.6804    192.4189     65.7686   5.1624761361e+01   2.8441847558e+01    0.2797726    0.2114311 -76.75 0.0008619226    1.455    0.313
       210 -12.2444    186.4284     70.5862   5.3909553846e+01   2.9111005598e+01    0.9265099    0.6575257 -40.54  0.003182162    1.389    0.280
       211 -10.1154     63.7904     74.7449   8.8488649289e+01   5.4801537039e+01    0.5110451    0.3508968  40.57  0.002376324    1.613    0.380
       212  -9.5701    114.2909     75.1559   7.1763271082e+01   4.5475179693e+01    0.2837127    0.1970623  34.45 0.0008971644    1.492    0.330
       213  -9.8932    184.1663     61.1848   5.1770601096e+01   3.1166297349e+01    0.3041577     0.252756 -71.11  0.001026381    1.223    0.182
       214 -11.2315     40.9810     70.9323   9.6231909223e+01   5.8479534004e+01     0.523481    0.2828901 -49.78  0.001977765    1.595    0.373
       215 -11.6379     32.2439     72.1562   1.0007961419e+02   5.9076243450e+01    0.6288679    0.2667263  26.44  0.001941135    2.562    0.610
       216  -9.3685     24.4843     72.4825   1.0329391294e+02   5.9662730660e+01    0.3502505    0.1832502 -73.65  0.001517974    2.403    0.584
       217  -9.4239     22.1810     66.1656   1.0268398428e+02   6.1221367389e+01    0.3641226    0.2319447 -84.96  0.001835982    2.361    0.577
       218  -8.9338     25.7448     65.6164   1.0104839343e+02   6.1058768751e+01    0.1306183    0.1079185 -41.47 0.0003328793    1.021    0.021
       219  -9.8124    152.9265     72.9469   6.1198644695e+01   3.6897984312e+01    0.5005033    0.1734541  42.99  0.001514836    3.435    0.709
       220 -11.6886    122.9168     68.9857   6.7376435132e+01   4.4708756901e+01    0.6458056    0.5267155  33.42  0.001743701    1.236    0.191
       221 -10.1159     14.7744     67.4239   1.0607583699e+02   6.1464236273e+01    0.3435535    0.2220309   7.31    0.0020362    1.765    0.433
       222  -9.4988    169.3338     63.3291   5.5021030033e+01   3.4480508144e+01    0.2552167    0.2501991  -2.15  0.001096538    1.119    0.106
       223  -9.8938    172.4753     68.4981   5.5881638584e+01   3.2863169944e+01    0.3651445    0.2664786  30.07  0.001477053    1.719    0.418
       224  -9.7062    172.2382     64.9943   5.4943403240e+01   3.3494970191e+01    0.3523999    0.3001952  -2.78  0.001287652    1.439    0.305
       225  -9.8169    162.1828     70.7667   5.8572263356e+01   3.5012115525e+01    0.3143315    0.2523749 -75.12 0.0009881307    1.425    0.298
       226 -11.4909    220.0809     66.3541   4.7672152351e+01   2.1896304936e+01    0.5850156    0.3783777  56.62  0.002483818    1.634    0.388
       227  -9.5627     53.0426     66.0547   8.9959578101e+01   5.8090534275e+01    0.2554519    0.1868494  36.12 0.0009801481    1.519    0.342
       228  -9.6432    201.5167     64.6325   4.9901754962e+01   2.6447811159e+01    0.3893649    0.2459872  60.97  0.001705562    1.585    0.369
       229  -9.6292    198.2994     62.6373   4.9882376352e+01   2.7522111172e+01    0.2719499    0.2148747  87.78  0.001337864    1.304    0.233
       230 -10.1330    105.9437     63.7350   7.0512910735e+01   4.9386046130e+01    0.3370999    0.2539916 -42.65  0.001693392    1.385    0.278
       231 -10.9961    106.5367     58.4392   6.8537181266e+01   5.0187951969e+01    0.3719119    0.3027197  65.51 0.0007224947    1.453    0.312
       232 -10.8690     59.4811     63.5419   8.6615962230e+01   5.7729861379e+01    0.7807952    0.4005952  12.78  0.003010862    3.153    0.683
       233  -9.9184     57.3279     61.3011   8.6726501213e+01   5.8477877956e+01    0.2923232    0.2020573  -0.93 0.0006603088    1.668    0.400
       234 -11.5290    234.7448     60.8982   4.4559696215e+01   1.9496945235e+01    0.4097449      0.38352 -81.76  0.001372526    1.132    0.116
       235 -10.2569    159.0262     62.4597   5.6800937527e+01   3.7169967070e+01    0.5860183    0.2174424  46.96  0.001998653    2.782    0.640
       236 -11.5987    123.2058     58.8401   6.3999929487e+01   4.6400072294e+01     1.007262    0.5235679  34.84   0.00391256    2.319    0.569
       237 -11.5338    117.5268     55.8150   6.4510530605e+01   4.8198253692e+01    0.7540228    0.6473554   7.63  0.003396578    1.245    0.197
       238 -10.1547    109.2075     43.1652   6.2390659060e+01   5.2026175097e+01    0.4882786    0.3557807 -44.97  0.002453255    1.557    0.358
       239 -11.5903    113.9446     49.4273   6.3297602123e+01   5.0023397377e+01    0.7363137    0.3685236  37.41  0.002974082    2.174    0.540
       240 -10.9106    198.6678    232.6747   8.7064126962e+01  -2.8222798507e+00    0.4079032    0.3194163  14.95  0.002589115    1.083    0.076
       241  -9.8973    150.9722     60.9784   5.8048743047e+01   3.9395272369e+01    0.2845688    0.1964753  50.63 0.0008191139    1.390    0.281
       242 -10.1223    247.2236    231.5117   7.7892825241e+01  -9.5606396867e+00    0.2075233    0.1418196 -21.68 0.0008592441    1.328    0.247
       243 -10.4022    242.7432    231.4403   7.8663482799e+01  -8.9639630125e+00    0.2702713    0.1551836  45.11  0.001468762    2.406    0.584
       244 -10.6819    136.1291     55.5870   5.9714339187e+01   4.3872819629e+01    0.9169121    0.4275588 -33.62  0.003620963    2.272    0.560
       245  -9.6447     23.9073    231.9270   1.2271427579e+02   2.2822154919e+01      0.19142    0.0966145  62.04 0.0009046035    1.636    0.389
       246 -11.4605    156.7185     53.1158   5.4487178172e+01   3.9199965489e+01     0.993802    0.4730656 -46.48  0.003936183    2.300    0.565
       247  -9.4489     15.3315    233.6326   1.2439873124e+02   2.3374427349e+01    0.2047657    0.1160495 -80.72  0.001069344    1.606    0.377
       248 -10.8159    138.1854     33.4958   5.2081085170e+01   4.6497622981e+01    0.5372729    0.3748739 -77.71  0.002577222    1.902    0.474
       249  -9.4056    108.5013    229.5205   1.0530917334e+02   1.2124221722e+01    0.1311908    0.1108531  50.07 -5.807669e-05    1.002    0.002
       250  -9.2856    181.3020    228.3334   8.9821730165e+01   5.7332706614e-01    0.1326071   0.09236918   2.90 0.0007035487    1.656    0.396
       251  -9.9401    234.1136    223.1202   7.8772869076e+01  -6.6696028078e+00    0.1984156    0.1393135   3.07 0.0008393553    1.274    0.215
       252  -9.6238      9.7822    217.9576   1.2461038449e+02   2.7067158918e+01     0.149014   0.07623284 -81.94 0.0008732019    1.692    0.409
       253 -12.0665    153.0571     35.9634   4.9977555456e+01   4.2502111379e+01    0.3497995     0.310284   9.08 0.0003449966    1.315    0.240
       254 -12.0472    159.9668     29.6895   4.6878702531e+01   4.1554426365e+01    0.4482795     0.395756  18.11  0.001055105    1.340    0.254
       255 -11.2289    164.1037     27.8051   4.5658837628e+01   4.0745226479e+01    0.3307862    0.2595193 -43.21 0.0004124251    1.346    0.257
       256 -10.7325    246.1251     51.4371   4.1229016290e+01   1.8455813670e+01    0.4438992     0.208818  80.57  0.001964803    2.743    0.635
       257 -10.6631    240.1932     50.7092   4.1686090710e+01   1.9797454023e+01    0.3336915    0.2616691 -36.44   0.00103345    1.308    0.235
       258  -9.7025    187.6134     55.1726   4.9590707126e+01   3.1238464863e+01    0.2896938    0.1920748  58.93  0.001417061    1.468    0.319
       259  -9.7261    211.4965     52.9689   4.5584830199e+01   2.5856134629e+01    0.2575859    0.2355909  78.88  0.001560834    1.121    0.108
       260  -9.6962    201.9824     52.5187   4.6760641006e+01   2.8159470129e+01     0.509923    0.2237237  60.79  0.002128329    2.203    0.546
       261  -9.8310    201.5246     48.5301   4.5814778820e+01   2.8839251568e+01    0.2703784    0.2629934 -28.39 0.0009498902    1.206    0.171
       262 -11.0101    201.3697     45.1899   4.4991390040e+01   2.9342735396e+01    0.6230536     0.268357  75.18  0.002375528    2.806    0.644
       263 -10.0729    175.7288     44.1193   4.8468332467e+01   3.5756872915e+01    0.4986252    0.2384408  49.77  0.002074035    2.131    0.531
       264  -9.4284    226.9185    216.9729   7.9008604940e+01  -4.7592993242e+00    0.1683293    0.1562122  53.67 0.0005195293    1.633    0.388
       265  -8.9764    215.6519     49.2960   4.4166862111e+01   2.5419608331e+01    0.1449188   0.09263593 -69.47 0.0003276777    1.677    0.404
       266  -9.7429     90.9974     47.8061   6.9592884171e+01   5.5171380518e+01    0.3077552    0.2159584 -49.71  0.001541938    1.731    0.422
       267 -10.4074    164.8617    212.3720   9.0646699180e+01   6.0388727454e+00    0.2803743    0.2066137  42.91 0.0008607145    1.285    0.222
       268  -9.5797    153.0992    207.6448   9.2420492403e+01   8.9575883923e+00    0.2267763    0.1990528 -70.73 0.0008864845    1.379    0.275
       269  -9.4863     61.1598    206.6630   1.1308481132e+02   2.3719396731e+01    0.2094585    0.1566036  81.98 0.0006331257    1.237    0.192
       270 -10.8026     14.0624     23.2760   9.2832811590e+01   7.0173843212e+01    0.3265729    0.1660516 -29.11  0.001612567    1.719    0.418
       271  -9.9360    238.2094    204.5408   7.4706158044e+01  -4.5994593423e+00     0.240292    0.1606279 -29.87  0.001408013    1.395    0.283
       272 -11.5407      6.7081    195.3431   1.2393632498e+02   3.2149378554e+01     1.064171      0.09732 -67.78  0.003474052    5.381    0.814
       273 -12.1402      5.0109    184.2341   1.2360433995e+02   3.4752798757e+01    0.6133159    0.4579436  76.43  0.003125025    1.078    0.073
       274 -10.7298    234.2428    197.1829   7.4044697234e+01  -2.8969745573e+00    0.4626946    0.3290071 -18.74  0.002370211    1.281    0.219
       275 -10.7028    173.7883     48.4489   5.0003786680e+01   3.5632005996e+01    0.5280067    0.2986159  73.82  0.002131007    1.941    0.485
       276 -10.9178    135.3417     45.6649   5.6680718843e+01   4.5556951463e+01    0.5066983     0.220865  54.84  0.001162581    2.096    0.523
       277  -9.9825    139.5145     43.5163   5.5059467037e+01   4.4844118993e+01     0.283005    0.2238344  48.15 0.0009378598    1.191    0.160
       278  -9.0399    101.4795     44.5207   6.5109529867e+01   5.3514131752e+01    0.2002677    0.1316019 -43.35 0.0006638593    1.704    0.413
       279 -10.9806     93.9475     41.3401   6.6231275785e+01   5.5572526481e+01    0.7114365    0.2619078  47.15  0.002721007    2.532    0.605
       280  -9.5736     95.2405     36.4767   6.3980787591e+01   5.6004225385e+01    0.3078286    0.2112319  65.24  0.001073088    1.870    0.465
       281 -10.1306    189.1393     41.4874   4.5719459099e+01   3.2805639758e+01    0.4751864    0.1999307 -29.15     0.001585    2.682    0.627
       282 -10.0336    231.7166     38.8981   3.9953621808e+01   2.3228576757e+01     0.303487    0.1784048 -49.49  0.001263975    1.501    0.334
       283 -10.1132    193.7978     39.0636   4.4439428358e+01   3.1994018213e+01    0.2280309    0.1829027  65.61 0.0003428769    1.209    0.173
       284 -11.1075    176.7152     36.2577   4.6123712634e+01   3.6558957286e+01     0.358626    0.2927718 -34.71  0.001445715    1.321    0.243
       285  -9.6618    133.1773     37.0572   5.4320568278e+01   4.7263465376e+01    0.3932231    0.2507949 -86.30  0.001658596    2.466    0.594
       286  -9.5992    206.7616     37.0761   4.2287713216e+01   2.9151849776e+01     0.227609    0.1815156  80.46 0.0006751586    1.171    0.146
       287 -10.4486    245.6498    200.8849   7.2718363614e+01  -5.1470014789e+00    0.2127517    0.1509334  14.96 0.0006950424    1.319    0.242
       288  -8.9131    195.3153    199.6583   8.2005444109e+01   3.0480428150e+00    0.1280337     0.111495  79.39 0.0007047988    1.708    0.414
       289 -11.8477    106.1193     32.5434   5.9348908284e+01   5.4176221228e+01     0.495105    0.2913633  23.35  0.001576205    2.184    0.542
       290  -9.3523     82.7142    196.2338   1.0694475788e+02   2.3038659713e+01    0.3216464    0.2023678  20.29  0.001510409    2.152    0.535
       291 -10.7693    240.0988     31.8263   3.7605034494e+01   2.2333187726e+01    0.4031662    0.3290372 -53.57  0.002332937    1.126    0.112
       292 -11.3219    183.3140     25.3866   4.2232970179e+01   3.6262217314e+01    0.5318998    0.3134008  54.24  0.002647567    1.677    0.404
       293 -10.9105    176.3754     30.3166   4.4526977867e+01   3.7387516069e+01    0.4521297    0.2316866  49.68  0.001709569    2.016    0.504
       294 -11.0031    155.6152     42.2395   5.1417956357e+01   4.1034112746e+01    0.4435662     0.377873  54.97  0.001237846    1.115    0.103
       295  -9.2058     36.0043     31.9415   8.5199818977e+01   6.6557069109e+01    0.1630071    0.1544812  59.39 0.0005266587    1.639    0.390
       296 -11.8597    124.8738     27.8428   5.3019546784e+01   5.0411304755e+01    0.6496168    0.3916863  48.35  0.001736457    1.489    0.329
       297  -9.3494    221.5251     29.9214   3.8959762661e+01   2.6651244050e+01    0.1885394    0.1201286 -36.41  0.001024206    1.572    0.364
       298 -10.6180    189.5086     27.6522   4.2033758756e+01   3.4477283244e+01    0.3716756    0.2891352  14.37  0.001643988    1.840    0.456
       299  -9.1395     99.5011     30.4744   6.0414340207e+01   5.5897633685e+01    0.1831158    0.1651733 -84.26 0.0007104308    1.425    0.298
       300  -9.6921     97.6817     26.6269   5.9443711366e+01   5.6771360200e+01    0.2645526    0.2274271 -57.88  0.001012673    1.495    0.331
       301 -10.2084    230.5729     27.4413   3.7525559288e+01   2.4941029591e+01    0.3252201    0.2088741 -41.68  0.001195853    1.454    0.312
       302 -10.8835    211.3576     18.7573   3.7387399708e+01   3.0315556938e+01    0.2467735    0.2242807  79.31 0.0002328495    1.186    0.157
       303  -9.5264    211.4783     27.4861   3.9436002036e+01   2.9256900125e+01    0.2022664    0.1666907   3.79 0.0008125177    1.756    0.431
       304  -9.9469    169.8643    191.4693   8.5873454722e+01   9.0716894803e+00    0.3648168    0.2192881  24.63  0.001439504    1.872    0.466
       305 -11.5878      1.9276     71.2044   1.1208355369e+02   6.1324953667e+01     0.537933    0.1701816 -64.39  0.002407026    2.362    0.577
       306  -9.6725    250.5136     26.4775   3.5602735910e+01   2.0828051168e+01    0.1999981    0.1166283 -22.80  0.001035471    2.360    0.576
       307  -8.9600    162.6596    191.2871   8.7436338134e+01   1.0427295327e+01    0.1420675    0.1116803  67.28 0.0004507695    1.640    0.390
       308 -10.2200    239.6319    184.8850   7.0723282116e+01  -1.8213402178e+00    0.3610412    0.2192653 -12.29  0.001425269    1.874    0.466
       309  -9.8398    211.8357    181.6699   7.5234857466e+01   3.3102023279e+00    0.3899788    0.1998985  16.55  0.001372471    3.591    0.722
       310 -10.5302    250.2254    178.4466   6.7647373001e+01  -2.4533136292e+00    0.4734762    0.1381348 -32.29  0.001664648    3.586    0.721
       311  -9.2181     44.8977     24.3686   7.7819988261e+01   6.6610996309e+01    0.2004952    0.1574719 -33.73 0.0008241734    1.369    0.270
       312  -9.4186    168.8956     23.8201   4.3787786260e+01   4.0011633249e+01    0.2109503    0.1715796  50.50 0.0006347328    1.262    0.208
       313 -10.3936     52.0025    173.5557   1.1160135932e+02   3.2509774589e+01    0.5244209    0.2431088 -89.40  0.002023508    2.965    0.663
       314  -9.1766    223.4894     22.0640   3.6987456241e+01   2.7163713156e+01    0.1966107    0.1462751  83.65 0.0006137572    1.228    0.186
       315  -9.6984     28.0129    175.9537   1.1772834486e+02   3.4580408706e+01    0.2026374    0.1611383  78.20 0.0008421098    1.076    0.070
       316 -10.0094    247.7156    173.9341   6.7177848642e+01  -1.3635575093e+00    0.4696022    0.2067481  23.14  0.001665742    4.230    0.764
       317  -9.9244    231.0161    175.4251   7.0383467059e+01   1.0934165078e+00    0.3941223    0.1256906  40.40  0.001462445    3.275    0.695
       318 -10.0390     38.5219    173.1683   1.1490863833e+02   3.4150857236e+01    0.3931755    0.1852267  42.99  0.001892468    2.033    0.508
       319 -10.0943     35.4877    169.4709   1.1526898101e+02   3.5357055661e+01    0.2636508    0.1933975  89.86 0.0008715311    1.205    0.170
       320  -9.1410    205.4886     17.5189   3.7680140342e+01   3.1824816680e+01    0.1295416    0.1109087 -84.33 0.0001282125    1.027    0.027
       321 -11.7558      9.4938    166.9439   1.2135871992e+02   3.8346548953e+01    0.4841137    0.3802822  86.61  0.001998111    1.024    0.023
       322 -10.0779    186.4269     15.2336   3.9175068364e+01   3.6636110344e+01    0.2487217    0.2016748  84.54 0.0004988211    1.074    0.069
       323  -8.9201    174.2821     16.0094   4.0865470265e+01   3.9530483276e+01    0.1763947    0.1597738  82.45 0.0005304699    1.057    0.054
       324 -11.1662     13.5806    159.6093   1.1975634831e+02   3.9743586902e+01    0.4746013    0.2248415 -66.34  0.001849626    1.768    0.434
       325  -9.0629    198.1519    167.8531   7.5139115839e+01   8.2976689635e+00    0.2029872     0.163324  -1.98 0.0008607099    1.316    0.240
       326  -9.6073    188.8171    164.0206   7.6270066817e+01   1.0826354936e+01    0.3064209    0.1716203 -22.56  0.001146585    2.513    0.602
       327  -8.6645    156.4795    166.4904   8.4021244505e+01   1.6711693252e+01    0.1499069    0.1447004  26.71 3.544949e-05    1.012    0.012
       328  -8.8589    152.4126    166.5193   8.4988458423e+01   1.7507704098e+01    0.1489075     0.144039  11.01 9.512973e-05    1.026    0.025
       329  -8.9930     94.2924     12.3641   5.4693247498e+01   5.9073112253e+01      0.17307    0.1150858  62.49   0.00065455    1.553    0.356
       330 -10.3135     18.8313    164.9453   1.1893971380e+02   3.8035748014e+01    0.2901332     0.241368 -49.73  0.001406136    1.409    0.290
       331 -10.1013    204.9847    162.9789   7.2734030589e+01   7.9131912096e+00    0.4753233    0.2545169  44.30  0.001641553    1.940    0.485
       332  -9.7868    208.4651    160.5063   7.1521987819e+01   7.7116739364e+00    0.2502922    0.1293251 -48.98 0.0009452003    2.187    0.543
       333 -10.5080     28.3305    161.9004   1.1627478557e+02   3.7892750910e+01    0.4812885    0.1719881 -65.78  0.002076071    2.309    0.567
       334  -9.4911     79.0717    160.2893   1.0266757601e+02   3.2081076418e+01    0.2812081    0.2023348 -78.08  0.001080015    1.431    0.301
       335  -9.5360    224.0552    157.5045   6.7941618460e+01   5.3634149029e+00    0.3208323    0.1917056 -52.26  0.001459167    2.058    0.514
       336  -9.5850    215.5713    158.1005   6.9642127640e+01   6.8167587317e+00    0.2875074    0.1684467 -25.53  0.001284135    1.865    0.464
       337  -9.8953      9.2198    156.0662   1.2053127933e+02   4.0925037504e+01    0.2534343    0.1632818 -63.96  0.001252258    1.398    0.284
       338 -11.0425     22.3071    155.1220   1.1711829519e+02   4.0080533901e+01    0.4626565     0.293239  35.45 0.0008159721    1.710    0.415
       339 -11.6380     15.8314    147.7439   1.1805923047e+02   4.2402063799e+01    0.4818972    0.3919928  47.88  0.001046046    1.333    0.250
       340 -11.5533     12.8693    138.3529   1.1788644500e+02   4.4894889593e+01     1.120891    0.4576939 -84.01    0.0048465    2.453    0.592
       341  -8.9164     33.0902    154.5093   1.1422646976e+02   3.9221848886e+01    0.3014493    0.2289725  22.73   0.00102422    1.593    0.372
       342 -10.6627     28.5786    153.5138   1.1530669510e+02   3.9899798282e+01    0.5633528    0.2845832 -34.13  0.002097419    3.267    0.694
       343 -11.3598     21.4645    150.5568   1.1686318636e+02   4.1257370927e+01    0.2627397    0.2058145 -55.27 0.0005577697    1.313    0.239
       344 -11.7461     24.4902    147.4639   1.1571887468e+02   4.1745722482e+01    0.3592393    0.2038651 -61.98  0.001034329    1.533    0.348
       345 -10.3836    104.5554    154.0968   9.4668577966e+01   2.9440405408e+01    0.3659553     0.316728 -37.89  0.001910555    1.256    0.204
       346 -10.4154      3.1719    152.7607   1.2176153383e+02   4.2143452660e+01    0.3698836    0.1898782  83.53  0.001938009    1.828    0.453
       347 -10.7888      3.6309    147.2747   1.2118863517e+02   4.3407849414e+01    0.3747599    0.2204359  72.10  0.001899322    1.660    0.398
       348 -11.6957      3.3343    141.4458   1.2075421933e+02   4.4811017769e+01    0.7043859      0.34556  69.16  0.001642125    2.237    0.553
       349 -10.6693     63.0715    150.7416   1.0552588125e+02   3.6697454629e+01    0.3867576     0.310759  -6.80  0.001252113    1.666    0.400
       350 -11.2558     46.5594    146.6807   1.0953927469e+02   3.9728677378e+01    0.8356203    0.2933181 -63.74  0.003280408    2.433    0.589
       351  -9.6901     42.7522    149.1977   1.1094630020e+02   3.9525892316e+01    0.3313041    0.1919522  40.32  0.001377935    1.785    0.440
       352  -9.6847    215.2110    151.3910   6.8262641827e+01   8.0999504342e+00    0.1873842    0.1372129  53.87 0.0005408404    1.612    0.379
       353  -9.4370     71.3877    151.4908   1.0332785837e+02   3.5372380813e+01    0.2928862    0.1400639  33.55  0.001215443    2.182    0.542
       354  -9.9789    234.4139    150.0605   6.4530009612e+01   4.7906145575e+00    0.2893393    0.1665777 -21.13  0.001299041    2.037    0.509
       355 -11.0095    249.6852    142.6322   6.0461017896e+01   3.3688336461e+00    0.6579255    0.2280688 -36.52  0.002587369    2.533    0.605
       356 -10.7262     33.5723    144.4446   1.1286751820e+02   4.1644622688e+01    0.4542442    0.2585294  52.40  0.002105593    1.890    0.471
       357  -9.9748    239.8151    146.8397   6.2936251952e+01   4.3808718001e+00    0.2044643    0.1692833 -11.80 0.0005580442    1.175    0.149
       358 -10.0807    133.0146    140.8522   8.4277286095e+01   2.7161960829e+01    0.3641051    0.2634353 -56.88  0.001008258    1.454    0.312
       359 -12.1996     18.7815    122.3226   1.1427740746e+02   4.8350137043e+01    0.2597993    0.2025333 -74.55 0.0003523163    1.082    0.076
       360 -10.9301     22.7746    127.0781   1.1371064770e+02   4.6878144636e+01    0.3370686    0.2108306  31.14 0.0003320292    1.810    0.448
       361  -9.4938     27.4610    140.0789   1.1402682054e+02   4.3289342074e+01    0.2731556    0.1840071 -69.08 0.0007901339    1.260    0.206
       362 -11.6227     23.3208    135.2736   1.1460374190e+02   4.4826078862e+01     1.006656    0.2873441  35.21  0.004013186    3.376    0.704
