#   1 NUMBER                 Running object number                                     
#   2 MAG_AUTO               Kron-like elliptical aperture magnitude                    [mag]
#   3 X_IMAGE                Object position along x                                    [pixel]
#   4 Y_IMAGE                Object position along y                                    [pixel]
#   5 X_WORLD                Barycenter position along world x axis                     [deg]
#   6 Y_WORLD                Barycenter position along world y axis                     [deg]
#   7 A_WORLD                Profile RMS along major axis (world units)                 [deg]
#   8 B_WORLD                Profile RMS along minor axis (world units)                 [deg]
#   9 THETA_WORLD            Position angle (CCW/world-x)                               [deg]
#  10 FWHM_WORLD             FWHM assuming a gaussian core                              [deg]
#  11 ELONGATION             A_IMAGE/B_IMAGE                                           
#  12 ELLIPTICITY            1 - B_IMAGE/A_IMAGE                                       
         1 -15.1327    245.4949    141.7737   2.1567510925e+01   5.8170803319e+00     4.484226     1.257031 -48.73  0.008913356   13.115    0.924
         2 -17.0609    247.3485     53.0636   2.6511863209e+00   1.8648817378e+01     4.962685     1.282857 -37.46   0.02043267    2.725    0.633
         3 -16.2971    247.6799     14.7157   3.5462740520e+02   2.3260408669e+01     2.372837     1.507155 -78.95   0.01575871    1.455    0.313
         4 -15.6264    244.7472     99.9423   1.2947360028e+01   1.2382962528e+01     3.823242    0.9135066 -48.65   0.01021561    6.512    0.846
         5 -16.2270    246.6097    119.0359   1.6751747333e+01   9.1517693351e+00     4.262766     1.192854 -47.00   0.01427958    4.181    0.761
         6 -11.8728    142.9678     11.9537   2.0739656209e+00   4.7282047868e+01    0.2314094    0.1398203 -62.73   0.00113192    1.699    0.411
         7 -12.4339    126.1400     12.1704   4.4126551594e+00   5.1592225969e+01    0.1983738    0.1503056 -67.39  0.000934427    1.343    0.255
         8 -12.4827    160.8103      9.2800   3.5929760659e+02   4.3024704257e+01    0.2365444    0.1587561 -46.30  0.001087749    1.408    0.290
         9 -12.0175    167.3779      8.7299   3.5852651119e+02   4.1451586826e+01    0.2423516    0.1082958 -33.30  0.001117681    2.119    0.528
        10 -12.9233    148.4867      8.4804   3.0983568761e-01   4.6200590315e+01    0.2998995    0.2045697 -64.52  0.001427574    1.405    0.288
        11 -13.3670    138.5070      7.6858   1.1841198019e+00   4.8817730852e+01    0.2723434    0.2026572 -58.49  0.001182139    1.317    0.241
        12 -11.6459    110.4966      7.4774   5.0792392278e+00   5.6030906008e+01    0.1359982    0.1205534  76.23 0.0001266597    1.022    0.021
        13 -13.4379    133.5476      4.5501   7.0361079869e-01   5.0357956570e+01    0.3070744    0.2216967  32.98   0.00167521    1.688    0.407
        14 -12.0332    143.5170      4.0082   3.5939753102e+02   4.7858244857e+01    0.3024872    0.1451655 -43.63  0.001341962    2.022    0.505
        15 -11.5290    168.4247      2.2314   3.5657931810e+02   4.1798203045e+01    0.1792835    0.1018049 -43.85 0.0009391917    1.615    0.381
        16 -12.3404    152.8793      3.4273   3.5827580894e+02   4.5542261498e+01    0.4114098     0.116038 -44.99  0.001532201    3.196    0.687
        17 -11.5200    116.6810      2.3161   2.0858530756e+00   5.4861519551e+01    0.1396999   0.09097982 -65.10 0.0007039881    1.656    0.396
        18 -11.9280    159.1364      2.6291   3.5746498267e+02   4.4049083024e+01    0.2280486    0.1587517 -51.55  0.000956156    1.341    0.254
        19 -12.2668    128.0271      1.5276   3.0449369467e-01   5.2015132766e+01    0.2128598    0.1167872  76.13  0.001034437    1.600    0.375
        20 -11.3699    216.9798    222.6447   4.1189369252e+01  -2.3896235201e+00    0.2233085    0.1152552 -44.60  0.001180786    2.436    0.590
        21 -11.7530    240.0633    220.2989   3.6911018895e+01  -4.7624467529e+00    0.2844373    0.1318476 -27.60  0.001609963    1.850    0.460
        22 -11.3666    227.6550    220.6813   3.9024931983e+01  -3.3964137422e+00     0.124123   0.07203965  -3.79 0.0003083024    1.724    0.420
        23 -12.9124    247.7044    216.4498   3.5057960557e+01  -5.1119642915e+00    0.4151136    0.1759802 -34.25  0.002309771    2.027    0.507
        24 -11.7988    233.1091    212.2618   3.6700284339e+01  -2.9049630790e+00    0.2630922    0.1467356 -29.93  0.001580795    1.536    0.349
        25 -11.9753    240.6537    208.1854   3.4775527816e+01  -3.2401737084e+00    0.3800465    0.1778237 -47.21  0.001761347    3.455    0.711
        26 -11.5619    247.3347    206.8504   3.3491761781e+01  -3.8295459910e+00    0.2241344   0.08678737 -40.60  0.001095466    2.643    0.622
        27 -11.3533    229.4134    206.6868   3.6357802975e+01  -1.6906790561e+00    0.2248209   0.09940423 -39.65  0.001142399    2.206    0.547
        28 -11.1045    235.3754    203.1930   3.4763135127e+01  -1.9314021401e+00    0.1619663    0.0953735 -39.46 0.0009458379    1.754    0.430
        29 -11.8480    250.3107    200.5336   3.1940067043e+01  -3.3319305520e+00     0.325701    0.1169886 -35.20  0.001602577    2.308    0.567
        30 -12.0163    243.1670    200.7092   3.3078726190e+01  -2.5237052599e+00    0.3320853    0.1368048 -33.21  0.001719853    2.027    0.507
        31 -11.6623    237.3332    198.0181   3.3533190321e+01  -1.4473428133e+00    0.2455574    0.1228105 -39.02   0.00133811    1.903    0.474
        32 -12.5717    246.5934    193.4924   3.1267881617e+01  -1.9415615696e+00    0.3317511    0.2137741 -42.51  0.001543185    1.800    0.445
        33 -12.0076    243.9709    188.0204   3.0687111508e+01  -8.5676067470e-01    0.2406762    0.1456363 -39.94  0.001161994    1.658    0.397
        34 -11.5547    231.2447    193.7866   3.3767351119e+01  -7.6885419402e-02    0.2193937    0.1274258 -34.81  0.001266686    1.524    0.344
        35 -11.6122    224.4256    192.7355   3.4717511709e+01   9.6955969028e-01    0.2299245    0.1041243 -40.36  0.001126798    2.107    0.525
        36 -11.7455    237.2235    187.5796   3.1666895799e+01   5.7915132485e-02    0.2330773    0.1403401 -32.13  0.001202765    1.393    0.282
        37 -11.4354    230.2893    187.3886   3.2755654253e+01   9.9001093302e-01    0.1969768    0.1357515 -45.00 0.0009187745    1.735    0.424
        38 -11.5380    249.8270    185.4023   2.9318790377e+01  -1.2090000070e+00    0.2767568     0.128711 -43.88  0.001397253    2.405    0.584
        39 -11.1954    224.1605    184.1539   3.3175463457e+01   2.3077881443e+00    0.1644193    0.1382606 -35.69 0.0009708051    1.356    0.262
        40 -12.5358    241.7026    181.2951   2.9803018464e+01   3.9517540434e-01    0.3676182     0.217002 -46.43  0.002032174    2.060    0.515
        41 -11.6598    235.6556    181.1281   3.0722256338e+01   1.2104216411e+00    0.1889583    0.1316064 -38.59  0.000846968    1.437    0.304
        42 -12.8331    247.7602    178.2180   2.8308967282e+01   6.5249033576e-02    0.3744872    0.1837948 -43.45  0.001951826    2.137    0.532
        43 -11.1813    219.1852    178.1773   3.2888430442e+01   3.9445720760e+00    0.1688944    0.1431595 -39.19  0.001002402    1.361    0.265
        44 -11.0799    232.6159    174.7683   3.0005456935e+01   2.5802243625e+00     0.172666    0.1003039 -40.31 0.0009419001    1.618    0.382
        45 -11.5842    223.4988    173.5112   3.1256436719e+01   4.0630697065e+00    0.2232955    0.1056908 -45.39  0.001026775    2.280    0.561
        46 -11.2270    227.8333    171.2672   3.0104388926e+01   3.7938327230e+00    0.1816942    0.1353709 -68.66 0.0009363543    2.682    0.627
        47 -12.7564    246.2628    168.8633   2.6773500959e+01   1.6197727723e+00    0.3440152    0.1862416 -41.92  0.001520573    1.764    0.433
        48 -11.5331    237.4412    169.7419   2.8279752047e+01   2.6804442446e+00    0.2370061   0.09998935 -40.08  0.001121354    2.084    0.520
        49 -11.8778    218.8170    168.5209   3.1068037952e+01   5.5550189682e+00    0.2603292    0.1562664 -48.14  0.001325393    1.917    0.478
        50 -11.2494    229.1928    166.1841   2.8890407970e+01   4.3970459634e+00    0.1711678    0.1365801 -41.21  0.001067405    1.354    0.261
        51 -11.4889    234.1388    164.4637   2.7768367336e+01   3.9542010050e+00    0.2515697    0.1375525 -45.84 0.0009219386    1.958    0.489
        52 -11.7821    240.3888    164.0541   2.6727651466e+01   3.1366154765e+00    0.2457882    0.1839624 -49.89  0.001089281    1.674    0.402
        53 -12.2304    238.1018    158.9356   2.6070487530e+01   4.2438630035e+00    0.3047043    0.1984363 -42.96  0.001083827    1.507    0.337
        54 -11.6918    212.9896    163.3175   3.1027726341e+01   7.3131978537e+00    0.3043936    0.1626217 -43.14  0.001474934    1.793    0.442
        55 -15.9456    233.5862    132.8404   2.1408617397e+01   9.0625881520e+00     2.521171    0.6362926 -42.38  0.008737334    3.442    0.709
        56 -14.5362    244.5874    154.3712   2.4210087681e+01   4.0204961108e+00     1.310277    0.5246587 -44.61  0.005861816    2.509    0.601
        57 -12.4901    193.3441    246.9519   4.9231032570e+01  -2.8345640967e+00    0.3418714    0.1917739 -35.51  0.002077967    1.873    0.466
        58 -11.7012    218.4461    246.9838   4.4738379695e+01  -5.7259426994e+00    0.2193758   0.09884994 -40.88  0.001209757    2.592    0.614
        59 -11.9943    223.6681    146.6907   2.5822121621e+01   8.3957203276e+00    0.2524301    0.2075856 -42.27  0.001191807    1.236    0.191
        60 -10.7694    194.3433    143.6621   3.0223562548e+01   1.3953212843e+01    0.1403536    0.1115319 -72.00 0.0007049398    1.771    0.435
        61 -11.2090    214.3874    142.2882   2.6396510202e+01   1.0670971879e+01    0.1958755    0.1113097 -44.31  0.000916665    1.645    0.392
        62 -11.0676    182.3153    142.6345   3.2312073490e+01   1.6381438503e+01    0.1463282     0.114706 -72.37 0.0007039361    1.770    0.435
        63 -11.4599    224.3093    140.0607   2.4326253594e+01   9.3913387158e+00    0.1977572    0.1450224 -35.46 0.0007622945    1.147    0.128
        64 -11.9571    218.7035    138.5116   2.4880817089e+01   1.0584903246e+01    0.2689378    0.1817985 -53.44  0.001169632    1.705    0.413
        65 -10.9730    192.6905    137.3234   2.9112574778e+01   1.5437826165e+01    0.1399991     0.111035 -68.31 0.0007037133    1.650    0.394
        66 -10.8681    199.3116    136.6807   2.7760387161e+01   1.4328292823e+01    0.1375185    0.1083671 -66.29 0.0004563427    1.646    0.392
        67 -11.5930    208.6990    138.1619   2.6454403061e+01   1.2373214573e+01    0.2246951    0.1593971 -49.50  0.000949461    1.460    0.315
        68 -12.1023    225.6152    133.7497   2.2780632037e+01   1.0222232864e+01    0.2630862    0.1794208 -41.48 0.0009191285    1.286    0.222
        69 -11.6827    179.9748    133.0112   3.0565577159e+01   1.8710544440e+01    0.2356277    0.1837234 -74.09  0.001140611    1.740    0.425
        70 -12.0009    205.9950    131.0003   2.5320901562e+01   1.4126390727e+01    0.2177734    0.1650659 -64.61  0.001110825    1.695    0.410
        71 -12.6869    220.8599    128.8814   2.2452344988e+01   1.1844692372e+01    0.2958989     0.196555 -45.61  0.001134645    1.398    0.285
        72 -11.5796    192.5074    129.4988   2.7352656159e+01   1.6934938302e+01    0.2651941    0.1210055 -48.33  0.001029481    2.261    0.558
        73 -11.5661    212.0814    129.0610   2.3877779564e+01   1.3363858857e+01    0.2165392    0.1579537 -61.35  0.001000814    1.713    0.416
        74 -10.9819    186.6608    129.3206   2.8400751363e+01   1.8106781722e+01    0.1461828    0.1138263 -72.82  0.000705015    1.715    0.417
        75 -11.1998    172.3194    129.6499   3.1322756547e+01   2.0912772867e+01    0.1531237    0.1181312 -74.43 0.0007048156    1.739    0.425
        76 -11.1762    200.3039    126.6466   2.5304433306e+01   1.5968467643e+01    0.1437417    0.1057405 -63.59 0.0004410374    1.708    0.415
        77 -11.2615    217.5098    125.4977   2.2223407166e+01   1.3006522112e+01    0.1378454    0.1160702 -35.54 0.0002547876    1.027    0.026
        78 -11.8894    179.9907    124.5659   2.8554593806e+01   2.0357882614e+01    0.3017882    0.1986947 -53.29  0.001382387    1.614    0.380
        79 -11.7231    212.7830    122.9400   2.2391135789e+01   1.4298778374e+01    0.2292785    0.1392054 -55.41  0.001071809    1.936    0.484
        80 -11.4399    188.3970    123.2349   2.6636137604e+01   1.8918295204e+01    0.2159015    0.1246123 -47.89 0.0009472576    1.686    0.407
        81 -11.0811    242.4731    247.5140   4.0817579415e+01  -8.3019750106e+00    0.1086667   0.07487357  -2.71 7.735356e-05    1.005    0.005
        82 -11.5611    194.3917    121.2024   2.5068722088e+01   1.8107989939e+01    0.2161427    0.1206381 -47.25 0.0009492917    1.717    0.418
        83 -12.3757    226.7909    157.3829   2.7520821870e+01   6.1584182255e+00    0.4094408    0.1371866 -40.80  0.001647402    2.602    0.616
        84 -11.4957    174.0000    119.9666   2.8619152109e+01   2.2499314741e+01    0.2530306   0.08071318 -40.89  0.000796142    2.899    0.655
        85 -11.4534    157.6414    120.3176   3.2177639726e+01   2.5908259864e+01    0.1596819    0.1230113 -83.04 0.0007044068    1.757    0.431
        86 -12.1139    140.4026    118.2028   3.5695360329e+01   3.0107397874e+01    0.2346986    0.1462273 -54.49 0.0009537271    1.702    0.413
        87 -12.5924    220.0166    115.2160   1.9545124559e+01   1.4294467677e+01    0.2602154    0.1431548 -46.44 0.0008093474    1.659    0.397
        88 -10.9389    203.3454    115.6611   2.2235501839e+01   1.7357034881e+01    0.1462419    0.1043812 -65.90 0.0007048003    1.780    0.438
        89 -11.6173    195.1501    113.7193   2.3149919078e+01   1.9329173450e+01    0.2951327    0.1426821 -48.86  0.001088447    2.081    0.520
        90 -12.4569    220.1798    120.2076   2.0639240492e+01   1.3426167041e+01    0.1897722    0.1425419 -52.03 0.0007462964    1.350    0.259
        91 -11.7893    218.6483    109.4985   1.8448959981e+01   1.5504346505e+01    0.2404402    0.1106339 -37.63 0.0009682702    1.823    0.451
        92 -10.8831    201.4531    109.4763   2.1078462414e+01   1.8827219536e+01    0.1435654    0.1249832 -40.34 0.0001630686    1.005    0.005
        93 -11.9264    190.0069    109.0188   2.2896780615e+01   2.1242582066e+01    0.2396559    0.1705839 -66.08  0.001136652    1.726    0.421
        94 -11.9075    183.1604    108.9908   2.4117083198e+01   2.2685943581e+01    0.2526324    0.1551384 -58.76  0.001075889    1.951    0.487
        95 -11.7798    196.3962    107.2469   2.1371447126e+01   2.0246585904e+01    0.2143933    0.1186956 -46.57  0.000849099    1.670    0.401
        96 -12.8541    222.4150    104.8418   1.6856515134e+01   1.5575455860e+01    0.3174784      0.13596 -39.28  0.001182986    1.913    0.477
        97 -11.7877    205.7465    105.3177   1.9404949974e+01   1.8700562937e+01    0.2775877    0.1458637 -45.66    0.0011138    1.711    0.416
        98 -12.1438    213.5045    104.9476   1.8148537888e+01   1.7244551780e+01    0.2205764    0.1185415 -38.14  0.001028749    1.578    0.366
        99 -10.7057    218.3040    104.6229   1.7381435012e+01   1.6382130146e+01    0.1444706    0.0929977 -59.04 0.0007027619    1.770    0.435
       100 -12.7494    225.1615     99.4699   1.5266261491e+01   1.5938485394e+01    0.2291463    0.1534269 -49.22 0.0007848878    1.343    0.255
       101 -11.1888    209.1617    100.1160   1.7649654395e+01   1.8913019285e+01    0.2018175    0.1455856 -53.62 0.0008262661    1.341    0.254
       102 -11.3522    167.3485    100.2011   2.4861565534e+01   2.7831507726e+01    0.2319408    0.1294274 -47.70 0.0009502101    1.730    0.422
       103 -11.5996    160.4745    100.0320   2.6219578649e+01   2.9425917686e+01     0.248579    0.1451607 -41.40  0.001038189    1.612    0.379
       104 -11.4549    216.6068     99.2423   1.6374725127e+01   1.7598883037e+01    0.1928678    0.1168417 -30.12 0.0009406813    1.580    0.367
       105 -11.3657    202.6385     97.8524   1.8084983782e+01   2.0617935872e+01    0.2156897    0.1114994 -45.50 0.0009459043    1.727    0.421
       106 -11.6890    195.4915     97.5192   1.9123251691e+01   2.2162649983e+01    0.2738309    0.1119139 -46.47  0.001032533    2.301    0.565
       107 -11.2829    183.5143     95.9993   2.0740717497e+01   2.5013341506e+01    0.2362612    0.1339234 -39.94  0.001032057    1.593    0.372
       108 -10.9714    215.7002     94.3400   1.5353046467e+01   1.8582775318e+01    0.1429808   0.09302575 -59.45 0.0007035742    1.667    0.400
       109 -11.2819    164.5945     93.7797   2.3668271449e+01   2.9694950732e+01    0.2257779    0.1335872 -48.49 0.0009503936    1.639    0.390
       110 -12.3458    225.4499     93.0184   1.3761092166e+01   1.6916593861e+01    0.2115608    0.1099443 -38.65 0.0007126658    1.574    0.365
       111 -11.3216    188.5904     92.7799   1.9049879310e+01   2.4478572667e+01    0.2205163    0.1207763 -46.79  0.000954109    1.684    0.406
       112 -11.8044    177.3797     93.1835   2.1088885896e+01   2.6890938084e+01     0.227278    0.1248121 -47.28  0.000952224    1.722    0.419
       113 -11.3339    210.0253     91.0378   1.5354095271e+01   2.0259314181e+01    0.2275004    0.1492828 -61.55 0.0008206897    1.688    0.407
       114 -11.3855    232.5620    246.2319   4.2238127575e+01  -7.1462755871e+00    0.1878743   0.09179135 -36.26   0.00113947    2.113    0.527
       115 -12.5812    226.0522     87.8105   1.2496231746e+01   1.7623206509e+01    0.2471913    0.1603073 -40.68 0.0007683389    1.260    0.207
       116 -11.0512    197.6314     86.8045   1.6107568656e+01   2.3553700490e+01    0.2159426    0.1128827 -45.45 0.0009468881    1.700    0.412
       117 -11.4550    218.0000     84.9435   1.2837649447e+01   1.9643708763e+01    0.2285492   0.06667025 -36.05  0.000796609    2.902    0.655
       118 -11.2786    205.8835     84.8909   1.4439982942e+01   2.2123754450e+01    0.2661629    0.1635568 -42.71  0.001125811    1.392    0.281
       119 -11.1153    200.4074     83.1949   1.4794110236e+01   2.3561415748e+01    0.2100673    0.1118991 -46.43 0.0007800341    1.670    0.401
       120 -12.0341    209.1761    245.5101   4.6143891349e+01  -4.5021093998e+00    0.2057858    0.1404797 -22.88  0.001415593    1.370    0.270
       121 -11.6603    225.4930     81.5464   1.1126558359e+01   1.8702992648e+01    0.2412272   0.09367694 -44.48 0.0009366261    2.122    0.529
       122 -11.1654    170.5312     83.4960   1.9701329064e+01   3.0219683718e+01    0.1518915    0.1376624 -58.10 0.0002522331    1.026    0.026
       123 -11.5461    159.3910     81.7338   2.1307383463e+01   3.3174734459e+01    0.3030379    0.1353583 -41.58  0.001130602    2.089    0.521
       124 -11.3386    214.7354     80.0171   1.2083558786e+01   2.1079450362e+01    0.2025445    0.1506698 -41.92  0.000793546    1.139    0.122
       125 -11.5578    200.9345     77.6718   1.3333553703e+01   2.4350458226e+01     0.304648    0.1454119 -49.20  0.001121461    1.964    0.491
       126 -11.0768    189.0000     77.9766   1.5141599284e+01   2.6932419042e+01    0.2424521   0.07535607 -36.02 0.0007996676    2.923    0.658
       127 -11.4672    174.6539     77.5244   1.7325382175e+01   3.0304962669e+01    0.2650696    0.1304194 -37.51  0.001072974    1.891    0.471
       128 -11.5777    166.6066     77.7084   1.8790931018e+01   3.2174732813e+01    0.2905656    0.1423266 -33.37  0.001127909    2.083    0.520
       129 -11.3856    211.4037     76.2684   1.1602471239e+01   2.2353699168e+01    0.2572259    0.1206368 -33.00  0.001015278    1.991    0.498
       130 -11.0234    223.4859     76.0582   1.0092231001e+01   1.9935231023e+01    0.2050047    0.1111839 -37.78 0.0006747661    1.536    0.349
       131 -10.9532    206.3758     74.1646   1.1730661626e+01   2.3741774344e+01    0.2057077     0.105638 -45.38 0.0007962618    1.674    0.403
       132 -10.7287    195.2950     72.6510   1.2838552442e+01   2.6393969016e+01    0.1516846   0.09553186 -61.05 0.0004635583    1.677    0.404
       133 -11.4475    163.5378     71.2700   1.7495453507e+01   3.4029407486e+01     0.297662    0.1327713 -40.78  0.001140144    2.070    0.517
       134 -10.8521    210.5258     71.4974   1.0551509666e+01   2.3277728624e+01    0.1401837    0.1144138 -53.80  0.000809523    1.054    0.052
       135 -11.1889    214.3859     70.1395   9.7565902072e+00   2.2678246570e+01    0.2077222   0.09815546 -45.75 0.0008993167    1.786    0.440
       136 -11.4639    216.7897    156.7217   2.9029813546e+01   7.8215024630e+00     0.241838    0.1600356 -55.42  0.001219161    2.033    0.508
       137 -11.1188    218.3896     68.2106   8.8323926210e+00   2.2142707946e+01    0.1991314   0.09825521 -45.28 0.0008159346    1.679    0.404
       138 -11.0915    193.7678     67.9796   1.1839123427e+01   2.7475994626e+01    0.1913937    0.1073131 -36.56 0.0007705156    1.621    0.383
       139 -11.4058    203.2863     66.6143   1.0242362562e+01   2.5577767789e+01    0.2722778    0.1341678 -45.41  0.001180918    1.745    0.427
       140 -10.9760    222.2766    156.6486   2.8102782119e+01   6.9714499844e+00    0.1248437   0.09615082 -54.40 0.0003850767    1.642    0.391
       141 -11.0667    212.4669     66.0438   8.9919044524e+00   2.3696331935e+01    0.2084867    0.1156428 -37.67 0.0008109273    1.551    0.355
       142 -11.0830    208.4040     64.1820   9.0130584281e+00   2.4838278791e+01    0.2061393    0.1016779 -45.75 0.0009411698    1.722    0.419
       143 -11.8049    233.4570    153.8854   2.5770041292e+01   5.7138997617e+00    0.2304624    0.1886523 -52.41   0.00129197    1.513    0.339
       144 -10.7676    221.2984     59.6458   6.4956064316e+00   2.2797281526e+01    0.1429979   0.08059527 -57.91 0.0005240687    1.697    0.411
       145 -11.3977    206.5619     58.8235   7.9007073760e+00   2.6027814252e+01    0.2502775    0.1236912 -31.25  0.001117507    1.983    0.496
       146 -11.3025    221.3391    152.6286   2.7430928019e+01   7.7826116155e+00     0.186652    0.1511339 -59.53 0.0006976963    1.639    0.390
       147 -11.0854    221.5725    161.8120   2.9265292077e+01   6.2331601558e+00    0.1819852    0.1084076 -43.57 0.0009407218    1.642    0.391
       148 -11.4894    133.6145     35.8065   1.1639612019e+01   4.7004407141e+01    0.2117629    0.1238591 -43.16  0.000952511    1.714    0.417
       149 -11.3763    215.8506    149.6923   2.7726176323e+01   9.1606008040e+00    0.2522919    0.1607903 -56.26  0.001220044    2.129    0.530
       150 -11.2837    117.3184     33.6590   1.4076049231e+01   5.1478244418e+01    0.1532883    0.1061441 -67.54 0.0007049348    1.714    0.416
       151 -12.9834    221.0188     29.4793   3.5947755151e+02   2.6844273025e+01    0.2018455    0.1396548 -44.62 0.0006679319    1.209    0.173
       152 -11.8052    130.9716     27.4771   9.1696821529e+00   4.8724680251e+01    0.2080468    0.1134874 -81.68 0.0008097412    2.509    0.601
       153 -11.6667    120.5163     21.4909   8.8118025357e+00   5.2104997299e+01    0.1408291    0.1279656  81.41 0.0008103185    1.020    0.020
       154 -11.6515    155.9979     16.5586   2.0159260863e+00   4.3506948592e+01    0.2752335    0.1607184 -47.44  0.001368013    1.629    0.386
       155 -12.6467    140.8560     17.1416   4.0767122031e+00   4.7309984137e+01    0.2237593    0.1728305 -69.25  0.001037232    1.254    0.203
       156 -11.3381    205.4818    162.0129   3.2091315464e+01   8.7370927418e+00    0.2148798    0.1191925 -38.87  0.001038394    1.618    0.382
       157 -12.3491    135.3805     15.1694   4.1527198459e+00   4.8919188735e+01    0.1968464    0.1138168 -41.24 0.0009463791    1.735    0.424
       158 -11.8721    113.5031     15.5136   7.7675021491e+00   5.4527954793e+01    0.1387909    0.1250781  73.29  0.000444886    1.004    0.004
       159 -11.2597    231.5408    159.7251   2.7238129291e+01   5.0737070310e+00    0.1764597    0.1042369 -42.02 0.0007141349    1.583    0.368
       160 -12.2003    176.0858    245.6134   5.2313026261e+01  -5.2337636255e-01    0.2251605    0.1592127 -20.73  0.001465328    1.423    0.297
       161 -11.3514    156.6601    246.6746   5.6299908259e+01   1.8215049866e+00    0.1259861   0.08145952   0.50 0.0007051319    1.728    0.421
       162 -11.8767    225.2077    242.4848   4.2902562296e+01  -5.9137800065e+00    0.2045909    0.1313818 -23.93  0.001407425    1.392    0.282
       163 -11.6249    117.6957     10.3373   5.0262002399e+00   5.3936034224e+01    0.1432105   0.09441689 -63.67 0.0006677827    1.671    0.401
       164 -11.7787    148.0193     15.0032   2.4582591021e+00   4.5691795095e+01    0.2176184     0.188652 -79.91 0.0009256708    1.030    0.029
       165 -11.3513    201.6713    241.4640   4.6891347424e+01  -3.0982944200e+00    0.1874542   0.09709184 -35.71   0.00108107    1.967    0.492
       166 -11.6038    183.4769    238.4565   4.9852520040e+01  -4.3648582161e-01      0.22568    0.1112037 -39.73   0.00121217    2.174    0.540
       167 -11.7477    230.0451    235.7360   4.1044724114e+01  -5.6085321129e+00    0.2239871    0.1476377 -41.09  0.001460487    2.008    0.502
       168 -11.9649    206.0925    235.0169   4.5105708603e+01  -2.7621115682e+00    0.2568841    0.1290351 -22.35  0.001379485    2.081    0.519
       169 -11.8317    215.7744    232.3175   4.2956197022e+01  -3.5518151816e+00    0.2390272    0.1334868 -23.76  0.001431292    1.642    0.391
       170 -11.7959    235.4533    228.0981   3.8934358286e+01  -5.2451602799e+00    0.2748479   0.09222345 -35.41  0.001345996    2.688    0.628
       171 -12.3259    246.7045    225.5738   3.6714630881e+01  -6.1443494577e+00    0.2247465      0.16055 -11.05  0.001368336    1.053    0.050
       172 -10.8128    223.2912    226.3366   4.0693953838e+01  -3.6389888972e+00    0.1210785   0.07127104  -6.19 0.0005061002    1.640    0.390
       173 -11.0116    199.0000    226.0025   4.4990605741e+01  -6.2204460558e-01    0.1842907   0.06309439 -40.26 0.0008047603    2.959    0.662
       174 -11.9260    190.3641    232.6201   4.7654836235e+01  -4.7413427152e-01    0.2788179    0.0986466 -36.57  0.001249754    2.924    0.658
