#   1 NUMBER                 Running object number                                     
#   2 MAG_AUTO               Kron-like elliptical aperture magnitude                    [mag]
#   3 X_IMAGE                Object position along x                                    [pixel]
#   4 Y_IMAGE                Object position along y                                    [pixel]
#   5 X_WORLD                Barycenter position along world x axis                     [deg]
#   6 Y_WORLD                Barycenter position along world y axis                     [deg]
#   7 A_WORLD                Profile RMS along major axis (world units)                 [deg]
#   8 B_WORLD                Profile RMS along minor axis (world units)                 [deg]
#   9 THETA_WORLD            Position angle (CCW/world-x)                               [deg]
#  10 FWHM_WORLD             FWHM assuming a gaussian core                              [deg]
#  11 ELONGATION             A_IMAGE/B_IMAGE                                           
#  12 ELLIPTICITY            1 - B_IMAGE/A_IMAGE                                       
         1 -12.2618    178.6016     49.0777   5.7367429454e+01   3.4206292303e+01     1.748445       1.0302  30.71  0.005289475    2.386    0.581
         2 -12.4572    197.7654     30.7091   4.9057609584e+01   3.1781380417e+01    0.9058909    0.8163227  25.68  0.001827431    1.294    0.227
         3 -12.1205    191.7574     37.4855   5.1829078353e+01   3.2441656318e+01    0.9860623    0.7931863 -52.18   0.00360978    1.234    0.189
         4  -9.9898    216.0335     13.4526   4.2312215652e+01   2.9242161773e+01    0.2371152    0.1946894  -0.23  0.000916743    1.581    0.367
         5 -11.8731    219.9641      4.5030   3.9694612505e+01   2.9241670196e+01    0.8765216    0.5332297  76.30   0.00465155    1.527    0.345
         6  -8.4558     51.4868      1.5052   7.1857203873e+01   6.8390829282e+01    0.1227365   0.09627301   4.86 0.0004566137    1.010    0.010
         7  -9.6670     93.2230    218.6150   1.1418593835e+02   1.7605490199e+01    0.2624832     0.182137 -83.98  0.001369027    1.515    0.340
         8 -10.6617    140.6715    244.8765   1.0821549450e+02   5.7721173941e+00    0.2443216    0.2300049  88.87  0.001186113    1.273    0.214
         9  -8.8779    107.9233    203.6826   1.0947235335e+02   1.8196708630e+01    0.1884753     0.146684  54.20  0.000627607    1.113    0.102
        10  -8.1440     87.7181    202.6270   1.1350422500e+02   2.1536002594e+01    0.1713379    0.1516749 -14.59 0.0008963302    1.723    0.420
        11  -8.0114    104.3029    201.6352   1.0995780960e+02   1.9180272982e+01    0.1378298   0.08882127  72.36 0.0007035857    1.735    0.424
        12  -9.2932     97.8920    200.5625   1.1115444752e+02   2.0404287432e+01    0.2956051    0.2191794  11.67  0.001108648    2.228    0.551
        13  -8.1884    152.1888    197.7737   9.9401017075e+01   1.1697365888e+01     0.178222    0.1547504   9.36 0.0004222016    1.326    0.246
        14  -9.3888    192.8152    194.2738   9.0571710435e+01   4.8529940777e+00    0.5313063    0.2667438 -61.26  0.001591511    6.209    0.839
        15  -9.3051    114.1516    195.2822   1.0702755266e+02   1.8841783422e+01    0.3334626    0.2122717   2.66  0.001147156    5.039    0.802
        16  -8.6823     82.2162    194.9753   1.1375445298e+02   2.3912557006e+01    0.2255979    0.1691375  51.63 0.0009807388    1.212    0.175
        17 -11.8912     66.0223    188.0958   1.1639345514e+02   2.7630596186e+01    0.7422932    0.6296172  62.78  0.003305835    1.130    0.115
        18  -9.0544     96.8346    191.4352   1.1020412073e+02   2.2436900474e+01    0.2404793    0.2198419 -37.25    0.0010314    1.429    0.300
        19  -8.7677     50.3095    186.4118   1.1953172739e+02   2.9990943101e+01    0.3237133    0.1417933 -51.74  0.001482095    2.916    0.657
        20  -8.8028     99.6173    181.0400   1.0815500099e+02   2.4193312295e+01    0.2223637    0.1672679  59.61 0.0005176201    1.234    0.190
        21  -8.2849     59.3305    177.0930   1.1661473816e+02   3.0901292030e+01    0.1973567    0.1406147 -58.50 0.0008756079    1.501    0.334
        22  -9.9127    104.2456    171.8398   1.0570967720e+02   2.5432815033e+01    0.4058805    0.2473328  64.68  0.001886664    1.895    0.472
        23  -7.2658    161.6423    166.3194   9.1677940704e+01   1.5905141388e+01    0.1501843      0.11493  78.84 0.0007044744    1.760    0.432
        24  -9.4269     72.8914    218.1057   1.1804914445e+02   2.0607620011e+01    0.2631262     0.190088  69.06 0.0007173678    1.151    0.131
        25  -9.3523    178.4907    217.0313   9.7244361468e+01   3.7791178433e+00    0.1805517    0.1283648 -40.33  0.001047543    1.634    0.388
        26 -10.6400     94.7469    153.4972   1.0494317593e+02   3.1140807478e+01    0.6181648    0.4181482 -31.46  0.002453525    2.163    0.538
        27  -9.6847    134.0017    145.3607   9.3708631433e+01   2.5853898297e+01     1.063943    0.2498131 -53.65  0.002554326    5.746    0.826
        28  -8.0691    113.3195    150.9505   9.9894564853e+01   2.8532339072e+01    0.2435574    0.1192667 -74.85 0.0007036175    4.492    0.777
        29  -7.9652    103.7622    214.0009   1.1159322914e+02   1.6869596019e+01    0.1476334    0.1025357 -67.37 0.0004652336    1.562    0.360
        30  -9.5739    106.9614    138.9353   9.9120047672e+01   3.2436289066e+01    0.5067076    0.2827007 -34.16  0.001912817    2.628    0.619
        31 -10.7428     94.8735    139.0062   1.0226408002e+02   3.4501095240e+01    0.3158126    0.2805546  31.64 0.0004629858    1.272    0.214
        32  -9.8132     78.2100    134.5197   1.0581648234e+02   3.8177351726e+01    0.3900119    0.2072221  58.37   0.00153715    2.373    0.579
        33  -9.4225    105.6860    130.7537   9.7739845900e+01   3.4569736816e+01    0.3781756    0.3224375 -64.43  0.001285241    1.131    0.116
        34  -9.9654    114.2374    129.9378   9.5314149039e+01   3.3184641128e+01    0.3843449    0.2956511 -32.61  0.001102285    1.502    0.334
        35  -9.3743    101.8426    125.8585   9.7701632588e+01   3.6399129761e+01    0.2934592    0.2421072 -21.38 0.0007736436    1.505    0.336
        36  -9.0762    119.5129    123.9970   9.2571984003e+01   3.3533624629e+01    0.2379736    0.1457682 -47.34  0.001026724    1.599    0.375
        37  -8.8049    109.8935    118.9933   9.3951660693e+01   3.6530130713e+01    0.2245956    0.2109718 -60.79 0.0003711524    1.019    0.019
        38  -8.2744    167.6827    112.2654   7.7797268424e+01   2.5614162103e+01    0.3342121    0.1793221 -65.50 0.0009653795    4.062    0.754
        39 -10.2856     59.1061    111.7382   1.0684905535e+02   4.6230911988e+01    0.3226419    0.1867696 -76.82  0.001376835    1.966    0.491
        40  -8.6160    205.6827    110.0268   6.9418293599e+01   1.7200419290e+01     0.217248    0.1933349 -34.82 0.0006312546    1.076    0.070
        41  -9.5009    135.0000    109.0582   8.4796480036e+01   3.3673920671e+01     0.555218   0.08771205 -44.67  0.001183838    6.212    0.839
        42 -10.5160    118.2429    110.8641   8.9681669941e+01   3.6767846296e+01    0.6449531    0.3137356  52.06  0.002401699    2.370    0.578
        43  -7.7851    155.4941     81.4508   7.1915334069e+01   3.4588010087e+01    0.1548075    0.1533954  -2.55 0.0002427434    1.009    0.009
        44  -7.7928     67.5154     71.4472   9.4199265615e+01   5.4329851774e+01     0.138028    0.1228345 -37.83 0.0001884001    1.018    0.017
        45  -9.6228    159.2031     61.0087   6.4800103667e+01   3.7297917452e+01    0.3328449    0.2588491 -73.70 0.0005780217    1.578    0.366
        46  -7.6269     94.0000    249.0168   1.1700997250e+02   1.2162487663e+01    0.1561086   0.06264283 -64.34 0.0007996947    2.923    0.658
        47 -19.4462     11.2090    139.0744   1.2372176736e+02   4.4479615168e+01     18.26043     2.727947 -75.08    0.0512315    6.276    0.841
        48  -8.7182    169.0422    235.9927   1.0184528777e+02   2.5206766380e+00    0.1788142    0.1507318  34.42 0.0004165522    1.050    0.047
        49  -8.7340    161.1428     54.8657   6.2455237901e+01   3.7799129113e+01    0.2275459    0.2018111 -65.56 0.0004695779    1.207    0.172
        50  -8.7471     71.9512    230.9007   1.1936383760e+02   1.8350698767e+01    0.1979222    0.1385172  76.19 0.0007830213    1.252    0.201
        51  -9.8542    113.3854    207.9518   1.0890522072e+02   1.6487490841e+01    0.2616202    0.2107331 -80.39 0.0008232619    1.318    0.241
        52  -8.5752     58.1196    227.4707   1.2158533847e+02   2.0789973887e+01    0.1943517      0.12549  84.57  0.001273936    1.398    0.285
