#   1 NUMBER                 Running object number                                     
#   2 MAG_AUTO               Kron-like elliptical aperture magnitude                    [mag]
#   3 X_IMAGE                Object position along x                                    [pixel]
#   4 Y_IMAGE                Object position along y                                    [pixel]
#   5 X_WORLD                Barycenter position along world x axis                     [deg]
#   6 Y_WORLD                Barycenter position along world y axis                     [deg]
#   7 A_WORLD                Profile RMS along major axis (world units)                 [deg]
#   8 B_WORLD                Profile RMS along minor axis (world units)                 [deg]
#   9 THETA_WORLD            Position angle (CCW/world-x)                               [deg]
#  10 FWHM_WORLD             FWHM assuming a gaussian core                              [deg]
#  11 ELONGATION             A_IMAGE/B_IMAGE                                           
#  12 ELLIPTICITY            1 - B_IMAGE/A_IMAGE                                       
         1 -14.0066    162.0551     52.0615   7.7957701651e+01   3.8105144706e+01     1.975401     1.275379  12.86  0.006003098    2.030    0.507
         2 -13.7672    174.7428     36.4194   7.0224209123e+01   3.6990796274e+01    0.9832407    0.9065871  -1.46  0.003074523    1.080    0.074
         3 -12.6680    189.8598     14.6895   6.0780456725e+01   3.5449754042e+01    0.7061186    0.3237634 -34.04   0.00287857    2.133    0.531
         4 -13.2333    195.4105      4.8015   5.7011763045e+01   3.4917801351e+01    0.7748204    0.5709183  26.34  0.002997904    1.507    0.336
         5 -12.8081    189.7288      3.9154   5.7395776628e+01   3.6494093204e+01    0.5871642    0.4859574 -24.56  0.002544458    1.255    0.203
         6 -10.7624    168.9498    234.8120   1.1604552835e+02   7.1349320669e+00    0.1700785    0.1649474  -1.49 0.0003958027    1.390    0.280
         7 -18.5661     60.7170    242.1785   1.3570597732e+02   2.0433571880e+01     5.748183     4.849973  66.30   0.04518375    1.229    0.187
         8 -11.4053     33.2742    184.2771   1.3725648194e+02   3.2965835351e+01    0.1705873    0.1436329  83.06 0.0002488284    1.152    0.132
         9 -19.0001     45.5248    104.9627   1.2644907865e+02   4.8540957756e+01     16.27595    0.7989399 -66.50   0.02527782   18.444    0.946
        10 -11.7324    207.1817    179.7448   1.0056233114e+02   8.0233749594e+00    0.6646203    0.3150423  27.52  0.003019233    2.141    0.533
        11 -11.7615    154.6283    196.6483   1.1366806084e+02   1.4544822324e+01     0.280883    0.2235045  74.96  0.001722121    1.765    0.433
        12 -11.0481    208.6820    197.1257   1.0332970608e+02   5.5493744326e+00    0.2095805    0.1446608  37.97  0.000483102    1.307    0.235
        13 -11.9284    196.0158    171.3553   1.0115477017e+02   1.1155822991e+01    0.5545925     0.338114 -39.08   0.00240899    1.913    0.477
        14 -10.5763    193.8361    165.3244   1.0043523640e+02   1.2430698511e+01    0.2976866     0.242149   6.38  0.000928536    1.155    0.134
        15 -10.4458    163.0662    210.2824   1.1394824110e+02   1.1211390210e+01     0.178204    0.1616694 -89.75  0.001118521    1.551    0.355
        16 -10.9178    167.7725    189.7128   1.0997602982e+02   1.3407468971e+01    0.3117468    0.2197044 -20.13  0.001134129    1.749    0.428
        17 -11.4667     11.9083    205.1432   1.4226524709e+02   3.1131761615e+01    0.2598738    0.1856225 -80.17  0.002149347    1.442    0.306
        18 -10.6044    121.9813    165.0720   1.1586756234e+02   2.5276985512e+01     0.195392    0.1705595  48.81  0.001210952    1.048    0.046
        19 -10.0305    223.5002    163.5308   9.4422673067e+01   7.2889065022e+00      0.20484    0.1180641 -39.61 0.0009924858    2.134    0.531
        20  -9.7510    198.7576    222.7622   1.0911786493e+02   4.0756100076e+00    0.1488299    0.1151725  38.81 0.0004532828    1.310    0.237
        21 -10.6537    163.4866    204.2781   1.1302250716e+02   1.1988364861e+01    0.2147142    0.2088432  -4.57 0.0005161927    1.280    0.219
        22 -12.9873    134.0069    145.4895   1.0967402055e+02   2.6952447064e+01     1.139755    0.3182338 -54.83   0.00314074    5.764    0.827
        23 -10.3386     13.5384    152.0954   1.3942272329e+02   4.0930468415e+01    0.1672797     0.151022  -9.96 0.0007204197    1.574    0.365
        24 -10.6944    174.7927    148.8768   1.0108807042e+02   1.8630492719e+01    0.2509153    0.2265413  43.89  0.000771834    1.199    0.166
        25 -12.1353    145.6335    146.4906   1.0713145001e+02   2.4630549826e+01    0.4856855    0.3168373  61.98  0.001704802    2.057    0.514
        26 -11.8051    142.6725    139.3559   1.0640064348e+02   2.6532051283e+01    0.3395627    0.2385327 -49.81  0.001714556    1.577    0.366
        27 -12.9117    112.1869    139.7253   1.1394243535e+02   3.1889533243e+01    0.6885644    0.4658977  11.91  0.003241937    2.142    0.533
        28 -12.1562    102.9764    138.7442   1.1609552933e+02   3.3584581266e+01    0.2669328    0.2527992  18.06 0.0004706938    1.139    0.122
        29 -12.2679    106.2164    130.8846   1.1383583107e+02   3.4721624877e+01    0.4760707    0.3540198  59.72  0.001736688    1.466    0.318
        30 -11.0990    107.0111    125.5755   1.1259980094e+02   3.5719614132e+01    0.2924444     0.247303 -17.11 0.0005457097    1.398    0.285
        31 -12.2548    135.4360    122.4687   1.0455486384e+02   3.1223995709e+01    0.6675016    0.2295567 -48.52  0.002259054    3.170    0.685
        32 -12.0383    118.7461    129.4770   1.1031257451e+02   3.2885980120e+01    0.3665517    0.3349793 -36.61  0.001063095    1.152    0.132
        33 -10.9356    160.5320    127.6276   9.9656362171e+01   2.5211022464e+01    0.3429112    0.2481999 -58.78  0.001626645    1.826    0.452
        34 -11.4813    143.0630    127.8676   1.0386639150e+02   2.8672027100e+01    0.3385316    0.2651162  67.56 0.0008914155    1.612    0.380
        35 -12.0986    124.0400    126.0942   1.0825130763e+02   3.2634290914e+01    0.6079692    0.3763639  78.19  0.002166493    3.646    0.726
        36 -11.3437     92.0501    123.7615   1.1628105870e+02   3.8490001334e+01    0.2881739    0.1704919  48.36 0.0009488752    1.743    0.426
        37 -10.9239    113.2734    118.9216   1.0955107909e+02   3.6064802271e+01    0.2734248    0.2053516  40.76 0.0004618506    1.302    0.232
        38 -10.0399     93.3218    116.2999   1.1449252126e+02   3.9936626913e+01    0.1370382    0.1073696 -17.33 0.0007025051    1.626    0.385
        39 -10.6791    168.6751    113.4859   9.4397101810e+01   2.6060414784e+01    0.4695703    0.3312266  83.55  0.001529841    2.755    0.637
        40 -10.1692    163.3143    110.7100   9.4933273859e+01   2.7727291138e+01     0.331757    0.2360712 -74.84  0.001353642    2.515    0.602
        41 -10.9843    158.6110    204.7121   1.1403336817e+02   1.2707894024e+01      0.33509    0.1714049  51.29  0.001674242    2.117    0.528
        42 -10.4396    205.4808    110.1652   8.5834137274e+01   1.8543688001e+01    0.3289798    0.1981133  37.44 0.0009438507    1.609    0.378
        43 -11.0066    134.6199    105.5706   1.0072834147e+02   3.4784170513e+01    0.4259898    0.1435527 -43.89  0.001397078    3.037    0.671
        44 -10.4988     70.0209     99.2318   1.1793141876e+02   4.7098755181e+01    0.1770913    0.1748649 -70.31  0.000372617    1.066    0.062
        45 -10.7312    112.9013     76.2361   9.8707847143e+01   4.5137890742e+01    0.5863798    0.2516805  54.24  0.001894427    3.455    0.711
        46  99.0000     14.5771    248.9218   1.4328939820e+02   2.4022470713e+01      0.28085   0.07237755  42.03  0.001759555    2.337    0.572
        47 -12.0473    152.8777    184.3958   1.1217777593e+02   1.6748912731e+01    0.3212109    0.2456362  68.76   0.00184602    1.755    0.430
        48 -12.8991    178.8154     29.2968   6.7160574674e+01   3.6790524792e+01    0.5925062    0.4652504  15.30  0.001503481    1.369    0.269
        49  -9.8435     13.5045     59.8886   1.3006956156e+02   6.1269552617e+01    0.1784676   0.09700973 -69.39 0.0004393341    1.486    0.327
        50 -11.9101    159.2921    236.7781   1.1800163460e+02   8.3090888302e+00    0.3094637    0.2351485  44.43  0.002277013    1.206    0.170
        51 -12.5653    193.4267    192.5090   1.0540948193e+02   8.6731912708e+00     0.651633    0.4345475 -43.51  0.002715057    1.970    0.493
