#   1 NUMBER                 Running object number                                     
#   2 MAG_AUTO               Kron-like elliptical aperture magnitude                    [mag]
#   3 X_IMAGE                Object position along x                                    [pixel]
#   4 Y_IMAGE                Object position along y                                    [pixel]
#   5 X_WORLD                Barycenter position along world x axis                     [deg]
#   6 Y_WORLD                Barycenter position along world y axis                     [deg]
#   7 A_WORLD                Profile RMS along major axis (world units)                 [deg]
#   8 B_WORLD                Profile RMS along minor axis (world units)                 [deg]
#   9 THETA_WORLD            Position angle (CCW/world-x)                               [deg]
#  10 FWHM_WORLD             FWHM assuming a gaussian core                              [deg]
#  11 ELONGATION             A_IMAGE/B_IMAGE                                           
#  12 ELLIPTICITY            1 - B_IMAGE/A_IMAGE                                       
         1 -15.0068      8.4416    153.2307   1.4472460891e+02   4.2113428616e+01     8.800738     4.108221  72.84   0.00331652    2.552    0.608
         2 -13.4137    194.4393     29.2846   6.9645344213e+01   3.3303745900e+01     1.330841      1.25447 -66.86  0.007016859    1.121    0.108
         3 -13.5944    209.7192      9.8173   6.2950181814e+01   3.1817005804e+01     1.322404    0.9559115  42.33  0.007322524    1.725    0.420
         4 -12.2686      2.2398      3.9834   1.1461126286e+02   7.1805939267e+01    0.5163639    0.3670792 -33.75  0.004125019    1.316    0.240
         5 -10.4463    101.0021    245.9841   1.3601253864e+02   1.0976892189e+01    0.2066351    0.1562134  77.99 0.0004030117    1.207    0.172
         6 -11.4942    249.0245    247.9286   1.0920304453e+02  -1.3675273367e+01    0.3439937    0.3154583   8.09  0.002595566    1.352    0.261
         7 -10.1213    156.1877    249.6840   1.2632036433e+02   1.1960145686e+00    0.1710989    0.1456853  60.36    0.0011355    1.146    0.128
         8 -10.8438    125.9516    249.8138   1.3190874966e+02   6.2778221881e+00    0.3019357    0.1317752  48.74  0.001474414    1.873    0.466
         9 -10.0281    111.5217    250.5670   1.3461049977e+02   8.4997095410e+00    0.3212048    0.1003032  43.52 0.0008795298    2.642    0.621
        10 -10.3072    107.6832    248.6856   1.3509710711e+02   9.4409845738e+00    0.1955483    0.1308456  52.57  0.000857535    1.207    0.172
        11 -10.3377     29.7524    250.1552   1.4840147238e+02   2.0007867000e+01     0.268695    0.1277979  55.57  0.001705033    1.626    0.385
        12 -11.3164     35.1944    244.8870   1.4719912353e+02   2.0329213062e+01     0.593646    0.3750779 -65.48   0.00407065    1.804    0.446
        13 -10.2549      2.6563    248.5635   1.5241240792e+02   2.3244437120e+01    0.2892095     0.140569 -77.18  0.001982933    1.754    0.430
        14  -9.7217     46.8852    249.1264   1.4560290856e+02   1.8108397037e+01    0.1739317    0.1096483  71.61 0.0003138019    1.211    0.175
        15 -10.9237    238.1031    247.8896   1.1109753788e+02  -1.2054924815e+01    0.1751117    0.1507339  31.67  0.001096724    1.291    0.226
        16 -10.6276    198.6103    247.0983   1.1808642861e+02  -5.6422529059e+00    0.3013278    0.1559383 -46.07  0.001563143    2.419    0.587
        17 -10.2865     22.1685    244.6719   1.4925016502e+02   2.1876020370e+01    0.2565066    0.1254505  63.85 0.0008455128    1.589    0.371
        18 -10.6447     12.7035    240.8613   1.5049909573e+02   2.3608214161e+01    0.2586828    0.1453041  89.99  0.001804853    1.373    0.272
        19  -9.5809      5.7142    240.9537   1.5157402155e+02   2.4314981577e+01    0.1475788    0.1165037  70.89 0.0003577623    1.303    0.233
        20 -10.8728    119.8740    238.5083   1.3168034514e+02   9.2667030388e+00    0.3079081    0.1664923 -79.84  0.001415746    2.796    0.642
        21  -9.6112    183.4681    238.5248   1.1958970674e+02  -1.7870437628e+00    0.1288408    0.1082771  35.16 3.667424e-05    1.024    0.024
        22 -10.8949    233.4914    236.2886   1.0997074800e+02  -9.8635088755e+00    0.3132399    0.2341003 -82.14  0.001517685    3.635    0.725
        23 -10.0813    229.8825    230.5545   1.0963314611e+02  -8.5097115318e+00    0.2685452    0.1733459 -54.01  0.001405391    2.489    0.598
        24 -10.3284    142.9889    249.3167   1.2871576832e+02   3.5039528992e+00    0.1896794    0.1408613  47.96 0.0008619501    1.101    0.091
        25  -8.6999    152.4765    212.9627   1.2165214931e+02   8.2302194326e+00    0.1777288    0.1368805 -54.80 0.0003256564    1.443    0.307
        26  -9.1490     92.0747    214.1470   1.3408385072e+02   1.8527131713e+01    0.2155684    0.1324777  74.28  0.000892017    1.731    0.422
        27  -9.8037    191.9721    193.4404   1.1010465712e+02   4.2652762039e+00    0.4945641    0.2569975 -64.98  0.001520915    4.949    0.798
        28 -11.5667     62.0667    198.4182   1.3826167055e+02   2.6277432971e+01    0.3003178     0.237818 -47.07  0.000926269    1.707    0.414
        29 -10.8124     18.3060    198.8542   1.4677094225e+02   3.1331411121e+01    0.2117912    0.1532681  69.85 0.0004038226    1.179    0.152
        30  -9.9733     14.6975    196.7020   1.4726771612e+02   3.2139962809e+01    0.1706108    0.1294842 -85.15  0.000485102    1.138    0.121
        31 -14.4199     41.2893    224.6278   1.4468461246e+02   2.3483428972e+01     2.401916     1.617509  32.52  0.006973248    2.051    0.512
        32 -11.8287     68.0119    190.2524   1.3607356511e+02   2.7253983786e+01    0.2774078     0.222266 -64.70 0.0004922319    1.298    0.230
        33 -10.6341     77.9515    177.5062   1.3221511443e+02   2.8697691330e+01    0.2359624    0.2002012 -79.48 0.0003879115    1.077    0.071
        34 -13.1090     64.8069    175.6212   1.3488603376e+02   3.0996670900e+01    0.4822769     0.268591 -46.73  0.001402945    2.229    0.551
        35  -9.1519     98.7554    175.2150   1.2714870838e+02   2.5935108988e+01    0.2144505    0.1694279  80.29  0.001163029    1.246    0.197
        36 -11.7875     85.6456    168.2354   1.2905196190e+02   2.9665293021e+01    0.6428456     0.591321  48.15  0.003899932    1.233    0.189
        37 -12.6658     35.6172    232.4710   1.4626065829e+02   2.2627690461e+01     0.285718    0.2267718 -84.99 0.0007622371    1.285    0.222
        38  -9.9193     98.2056    152.3324   1.2326510189e+02   3.1344358068e+01    0.3126705    0.2874351 -58.49 0.0009141155    1.127    0.113
        39  -8.9921    100.9723    148.0255   1.2174807070e+02   3.1882483081e+01    0.2145453    0.1747085 -24.65 0.0003199412    1.603    0.376
        40 -11.9139     86.6287    151.4589   1.2596796061e+02   3.3442568289e+01     0.299659    0.2405006 -49.32 0.0005562478    1.297    0.229
        41 -12.4004     67.2902    143.9090   1.2948123078e+02   3.8058156074e+01    0.7313177    0.5043835  78.08  0.003194497    1.677    0.404
        42  -8.4071    192.2059    144.0297   9.9556386625e+01   1.3841709878e+01    0.1942777    0.1214135 -41.17 0.0004016957    1.591    0.372
        43 -10.0606    173.4176    222.5867   1.1900692946e+02   2.6113002645e+00     0.388297    0.1162249  42.61  0.001391681    2.933    0.659
        44  -9.7924     85.2271    219.3497   1.3604105937e+02   1.8524725983e+01    0.3436433    0.1518331  38.10  0.001574446    2.405    0.584
        45  -9.6209    109.6714    137.0724   1.1727978416e+02   3.2895358016e+01     0.379158    0.2381711 -29.23  0.001545193    2.334    0.571
        46 -12.9191      8.9767    207.0398   1.4903170981e+02   3.0560395630e+01     0.710054    0.5829785  44.14  0.004168104    1.588    0.370
        47 -10.4696     96.8374    134.4744   1.2004258974e+02   3.5774887471e+01    0.2587615    0.2214015 -46.14 0.0006415127    1.185    0.156
        48 -11.3248     57.1698    131.9659   1.3001216327e+02   4.2170598507e+01     0.613075    0.2852288 -74.68  0.002460452    2.669    0.625
        49  -8.7545     79.9281    131.9725   1.2398288061e+02   3.9069167332e+01    0.2246059     0.161106  78.60  0.001108871    1.719    0.418
        50  -8.8044     90.8073    131.1781   1.2093233543e+02   3.7551924858e+01    0.2037873    0.1782949 -88.90 0.0004506899    1.168    0.144
        51  -8.5937    115.6708    129.6695   1.1407799396e+02   3.3482830502e+01    0.1528351    0.1207506 -13.63 0.0007051611    1.714    0.417
        52  -9.0514    106.7029    123.9303   1.1509415603e+02   3.6483646988e+01    0.1980827    0.1773304 -59.01 0.0003327412    1.057    0.054
        53 -10.4366     34.4777    133.1477   1.3609347603e+02   4.4385721635e+01    0.2587655    0.1703484  60.41 0.0009343749    1.741    0.426
        54 -10.1698    167.7029    112.8486   9.7194437022e+01   2.5905380353e+01    0.3521293    0.2769723 -75.98 0.0008432172    1.530    0.346
        55  -8.9624    203.4296    111.4943   8.9459406951e+01   1.7709867606e+01     0.151951    0.1470096 -42.89 0.0001468513    1.041    0.039
        56 -10.4027    242.7464     83.9953   7.6307731343e+01   1.3569201872e+01    0.1975229    0.1126798 -38.94 0.0009031672    1.622    0.383
        57  -8.7926    184.4755     77.4612   8.4229608893e+01   2.8601280718e+01    0.1499938    0.1461987  54.79   0.00021871    1.077    0.071
        58  -9.0818    157.5026     76.4613   8.9493612286e+01   3.5402124154e+01    0.1507572    0.1468965  46.15 0.0001215147    1.030    0.029
        59 -10.2252     34.2716     63.1470   1.2174620470e+02   5.9558050444e+01    0.2829742    0.2026181  50.81  0.001711539    2.058    0.514
        60  -9.1932     26.9667     60.0000   1.2348690342e+02   6.0802862239e+01    0.1648745   0.06613764  23.67 0.0007995602    2.923    0.658
        61  -9.1412     22.6388     58.3260   1.2459757544e+02   6.1469036119e+01    0.1056787   0.08903646  81.95 0.0006904572    1.788    0.441
        62 -10.2936     16.4741     55.9985   1.2622774827e+02   6.2363396558e+01    0.1867506     0.159692  -3.76 0.0004270593    1.301    0.232
        63 -10.5878    139.3351    246.4549   1.2902857726e+02   4.5979895323e+00     0.270677    0.1214727 -54.78  0.001302681    2.666    0.625
        64 -10.5404     97.8526    248.3804   1.3682670111e+02   1.1039170623e+01    0.2584288    0.2034383  50.39  0.001108385    1.229    0.186
        65  -9.9877      2.7257     38.2376   1.2658823404e+02   6.6444902516e+01    0.1729409    0.1225296  72.72  0.001025794    3.141    0.682
