#   1 NUMBER                 Running object number                                     
#   2 MAG_AUTO               Kron-like elliptical aperture magnitude                    [mag]
#   3 X_IMAGE                Object position along x                                    [pixel]
#   4 Y_IMAGE                Object position along y                                    [pixel]
#   5 X_WORLD                Barycenter position along world x axis                     [deg]
#   6 Y_WORLD                Barycenter position along world y axis                     [deg]
#   7 A_WORLD                Profile RMS along major axis (world units)                 [deg]
#   8 B_WORLD                Profile RMS along minor axis (world units)                 [deg]
#   9 THETA_WORLD            Position angle (CCW/world-x)                               [deg]
#  10 FWHM_WORLD             FWHM assuming a gaussian core                              [deg]
#  11 ELONGATION             A_IMAGE/B_IMAGE                                           
#  12 ELLIPTICITY            1 - B_IMAGE/A_IMAGE                                       
         1 -10.9034    164.0000     17.9903   7.3344939816e+01   4.1647862462e+01      1.67834    0.1962632 -22.89  0.003250678   10.544    0.905
         2 -12.6713    193.2601     10.1832   6.6867209916e+01   3.4996928128e+01     1.169507    0.9024873  14.65  0.006381295    1.551    0.355
         3 -13.2593    183.9426     24.8586   7.2426679570e+01   3.5815883331e+01     1.994299     1.335243   7.42  0.009340756    1.937    0.484
         4 -10.4437     40.9177     17.5517   1.0738452925e+02   6.6718186370e+01    0.2454119    0.1439397 -32.89  0.001267783    1.428    0.300
         5 -11.2146     99.1685    242.8597   1.3736549376e+02   1.4096203435e+01    0.3015572    0.2265896  59.63  0.000675703    1.062    0.058
         6 -10.0041    164.0299    245.6083   1.2648063472e+02   4.0146713803e+00    0.7329207    0.1210857 -46.60   0.00241666    7.802    0.872
         7  -9.8062    100.9490    249.5804   1.3767603060e+02   1.2823509298e+01    0.2916208    0.1415005  56.41  0.001720287    1.822    0.451
         8  -9.8839     94.3368    250.1527   1.3882119213e+02   1.3643144463e+01    0.2047829    0.1587521  72.41   0.00158577    1.185    0.156
         9  -9.1180     73.1091    241.4896   1.4162091941e+02   1.7791024151e+01    0.1944041    0.1483436  24.53  0.001376564    1.951    0.488
        10  -9.8144     63.9533    250.2908   1.4374595733e+02   1.7537705349e+01    0.2815642    0.1287127  39.43  0.001034887    2.018    0.505
        11 -10.6053     67.2034    243.7793   1.4276274426e+02   1.8166204740e+01    0.3037534      0.21504  85.22  0.001287566    1.319    0.242
        12 -19.3107     15.8717    126.8775   1.4243881151e+02   4.6505699748e+01     16.86648     1.224938 -71.07    0.0341909   12.612    0.921
        13  -8.7724     63.6245    230.0222   1.4231858161e+02   2.0878671629e+01    0.1623439     0.148523  32.92  0.001295637    1.556    0.357
        14  -9.0267    150.3408    227.6655   1.2661745041e+02   8.7016072510e+00    0.1218331   0.08384041  65.75 0.0007051104    1.755    0.430
        15  -8.7377     58.3367    226.0415   1.4291275136e+02   2.2207130353e+01    0.1447233    0.1074675  78.99 0.0003263665    1.136    0.120
        16 -10.4609     48.0075    217.4839   1.4404705857e+02   2.4931049513e+01    0.4644726    0.1863898  48.41  0.002643991    2.023    0.506
        17  -8.1244    123.7114    209.3120   1.2920790303e+02   1.5947696806e+01     0.122692   0.08584877  69.40 0.0001818995    1.583    0.368
        18 -10.3532    164.0000    185.4521   1.1756141403e+02   1.3152492792e+01    0.8298315     0.077501 -45.24  0.001649454   11.905    0.916
        19  -9.5497    164.0000    202.9192   1.2047229073e+02   1.0248695338e+01    0.3677006    0.1302069 -45.79  0.001506584    3.269    0.694
        20 -10.1770    125.4417    244.4464   1.3302353518e+02   1.0069612649e+01    0.2977728    0.1159008  48.48  0.001516963    2.096    0.523
        21  -9.0164     55.5358    201.9590   1.4143128313e+02   2.6911136842e+01    0.1944135     0.158504  27.78 0.0008115844    1.657    0.397
        22  -8.9436    193.4379    194.9305   1.1348013214e+02   6.2636766425e+00    0.1681695    0.1155627 -65.50 0.0008073234    2.608    0.617
        23 -10.4355     82.1535    188.0171   1.3478630496e+02   2.6175502244e+01    0.4306089    0.2281107 -46.92  0.001652785    2.456    0.593
        24 -10.2992     85.3149    182.2566   1.3342523225e+02   2.6877568062e+01    0.2684076    0.2411536  72.60  0.001057135    1.067    0.063
        25 -10.0729     81.5111    241.3218   1.4020925911e+02   1.6730439339e+01    0.3899616    0.1805067  70.32  0.001994907    2.850    0.649
        26 -10.1385    115.0933    173.3743   1.2579668429e+02   2.4064842302e+01     0.332304     0.264118  83.28  0.001224196    1.373    0.272
        27 -10.2714     92.6362    171.0585   1.3034428102e+02   2.8090092271e+01     0.341301    0.2657658  24.44 0.0007127268    1.609    0.379
        28 -10.8334     97.1455    163.6321   1.2823014202e+02   2.8949079773e+01     0.593151    0.3419292 -43.06  0.001959551    2.112    0.526
        29 -11.8707     81.0516    166.8927   1.3230467608e+02   3.0641691164e+01     0.613404    0.3452508 -54.52  0.002372426    1.803    0.445
        30 -10.6393    102.8664    242.0556   1.3666039229e+02   1.3702764802e+01    0.2692438    0.1905666  78.90  0.000644393    1.483    0.326
        31 -10.4231    164.1314    222.9826   1.2345447790e+02   7.1437181052e+00    0.7333032     0.151283 -45.97  0.002483452    5.868    0.830
        32 -11.2569     70.2031    145.1826   1.3164525052e+02   3.6810159103e+01    0.5130222    0.3943637 -73.89  0.002290333    1.191    0.161
        33 -11.1307     66.3030    142.1638   1.3212620585e+02   3.7984450930e+01    0.3861172    0.2878454  51.14  0.001672034    1.379    0.275
        34 -10.8245    164.0537    119.6314   1.0366680645e+02   2.5405628534e+01     1.813979    0.1182772 -40.37  0.002490667   16.733    0.940
        35 -10.5316     96.8836    146.4491   1.2543555389e+02   3.2661691920e+01    0.2660477    0.2547954 -23.66 0.0005786971    1.214    0.176
        36  -9.4294    108.4923    145.3183   1.2244835044e+02   3.1005549824e+01    0.5003245    0.2173385 -39.55  0.001818018    3.198    0.687
        37  -9.9531     57.0115    147.3142   1.3509735920e+02   3.7991875470e+01    0.1753923    0.1550827  77.77  0.001171569    1.089    0.082
        38 -11.2314    164.0742    144.4155   1.0947147840e+02   2.0628030470e+01     2.289024    0.1123897 -43.12  0.003000077   20.563    0.951
        39 -11.2087     59.2570    132.0401   1.3229789745e+02   4.1118407248e+01    0.6851535    0.2256508 -67.98  0.002484908    3.364    0.703
        40  -9.3542    115.2343    133.8284   1.1852867915e+02   3.2304180245e+01    0.3129614    0.2174778 -41.40 0.0009215467    1.508    0.337
        41  -9.4376    103.5604    130.7896   1.2080472546e+02   3.4993365533e+01    0.2624401    0.2386414  -5.39 0.0005057289    1.293    0.227
        42  -8.6407    110.8199    121.8645   1.1704097737e+02   3.5682731674e+01     0.209381    0.1936827 -19.94 0.0004747454    1.173    0.147
        43  -8.8342    168.7614    113.6029   1.0110106405e+02   2.5516509682e+01    0.2678866    0.2233977 -43.89  0.001350382    1.228    0.186
        44  -8.8893     83.3248    230.3334   1.3895125115e+02   1.8286838332e+01    0.0956816   0.08792147  -1.28    0.0007051    1.710    0.415
        45  -9.9700    164.0000     90.1372   9.5817103080e+01   3.0985711331e+01     1.034834   0.08678161 -36.96  0.001643047   11.814    0.915
        46 -10.7251    164.0000     65.3022   8.8471752094e+01   3.5277433784e+01     1.571711    0.1151711 -33.12  0.002462104   12.639    0.921
        47  -9.3788    177.8329    249.6734   1.2462357042e+02   1.3602649907e+00    0.2417441   0.08084552  36.72  0.001088581    2.588    0.614
        48 -11.0086    164.1773     52.1393   8.4330527846e+01   3.7272863287e+01     1.230064    0.2027518 -31.30  0.002936318    5.686    0.824
        49 -10.2873    164.0000     42.0754   8.1155557868e+01   3.8743936605e+01    0.5964771    0.2127263 -25.54  0.001987507    3.093    0.677
        50 -10.3259    164.0000     35.5329   7.9045346818e+01   3.9605585903e+01    0.6161101    0.2317275 -22.99  0.002114406    3.043    0.671
        51 -10.1178     80.2517    246.6071   1.4084627529e+02   1.6060016912e+01    0.3333342    0.1325658  59.22  0.001721281    2.522    0.604
        52 -11.8881    175.7835     32.0539   7.5897392353e+01   3.7049947477e+01    0.8838331    0.4626514  49.94  0.003802161    1.823    0.451
        53  -9.8448    109.0199    245.8374   1.3597318240e+02   1.2252861893e+01     0.170813    0.1446811  72.02 0.0004248473    1.173    0.148
