#   1 NUMBER                 Running object number                                     
#   2 MAG_AUTO               Kron-like elliptical aperture magnitude                    [mag]
#   3 X_IMAGE                Object position along x                                    [pixel]
#   4 Y_IMAGE                Object position along y                                    [pixel]
#   5 X_WORLD                Barycenter position along world x axis                     [deg]
#   6 Y_WORLD                Barycenter position along world y axis                     [deg]
#   7 A_WORLD                Profile RMS along major axis (world units)                 [deg]
#   8 B_WORLD                Profile RMS along minor axis (world units)                 [deg]
#   9 THETA_WORLD            Position angle (CCW/world-x)                               [deg]
#  10 FWHM_WORLD             FWHM assuming a gaussian core                              [deg]
#  11 ELONGATION             A_IMAGE/B_IMAGE                                           
#  12 ELLIPTICITY            1 - B_IMAGE/A_IMAGE                                       
         1 -13.2263    196.7943     41.4020   4.4354767723e+01   3.1546478940e+01      1.13955    0.9588091 -57.20  0.003948023    1.130    0.115
         2 -13.9032    205.7378     32.2177   4.0902275373e+01   3.0604910527e+01     1.703275     1.228315   0.99  0.001318796    2.111    0.526
         3 -12.4305     30.3440     18.6015   8.1609816124e+01   6.9517889990e+01    0.3958435    0.2808854 -15.71  0.002585852    1.157    0.136
         4 -12.9882    230.2065      5.9683   3.2532263887e+01   2.8060260496e+01    0.8477705    0.6341155  88.13  0.004567572    1.192    0.161
         5 -11.7707     56.0351      5.1028   6.3181055991e+01   6.7470010284e+01    0.4442333    0.2084827  29.77  0.002199184    2.087    0.521
         6  -9.2177    137.2239    167.6223   8.9012156625e+01   2.0749277738e+01    0.3279707    0.1749044  49.01 0.0009697514    2.005    0.501
         7 -11.4264    139.6447    247.4610   1.0122486002e+02   4.6260875597e+00    0.5124191    0.3367498 -64.52  0.002943826    2.049    0.512
         8 -16.3891     71.6683    149.1274   1.0287391037e+02   3.6142929060e+01     22.01056      11.9722  82.63   0.01173066    3.344    0.701
         9 -11.3249    163.8970    214.1754   9.1344861175e+01   6.5318107547e+00    0.3968302    0.2035169  33.56  0.001825339    1.804    0.446
        10  -9.6194     89.8704    212.6641   1.0741464887e+02   1.8712865722e+01     0.289753    0.1925613  62.05  0.001055488    1.516    0.340
        11 -11.8808    185.4377    211.6136   8.6399448050e+01   3.3959502360e+00    0.6682819    0.3430694  31.70  0.003116768    1.841    0.457
        12 -11.6080    112.2038    205.2402   1.0140418269e+02   1.6865560125e+01    0.3645191    0.2701035  89.52  0.001794676    1.634    0.388
        13 -11.5850     90.7829    152.3279   9.8142871805e+01   3.2511458314e+01    0.6964512    0.4776058 -26.21  0.003123449    2.012    0.503
        14 -11.0389    192.9278    194.7605   8.1783029803e+01   5.0704770466e+00    0.8994355    0.4582624 -61.21  0.002750466    5.553    0.820
        15  -9.9623    205.3253    199.3367   8.0149511158e+01   2.1866926645e+00     0.192428     0.110702  36.60 0.0009417683    1.673    0.402
        16 -10.7798    133.7667    145.1527   8.5134901881e+01   2.6518847432e+01     1.266197    0.3266886 -54.36  0.002955341    5.673    0.824
        17  -9.4770    174.3200    149.0044   7.6249870740e+01   1.7449980888e+01    0.2179624    0.1962353 -39.44 0.0007548482    1.105    0.095
        18 -10.9086     41.0469    147.0050   1.1109636844e+02   4.0367304058e+01    0.3351578    0.2736977 -55.43  0.001573524    1.210    0.174
        19  -9.7134    149.5259    187.6336   8.9909582074e+01   1.4176065332e+01    0.2718234    0.2413236  84.32  0.000839616    1.352    0.261
        20 -10.2514    103.8353    138.3723   9.1706353529e+01   3.3738555684e+01    0.5892256    0.3644168 -20.82  0.002195817    2.753    0.637
        21 -11.6151     91.5170    138.0471   9.5140743642e+01   3.5904762110e+01    0.2896552    0.2582588 -41.20 0.0004700753    1.140    0.123
        22  -9.1243     22.8515    185.6972   1.1971499285e+02   3.2890311268e+01    0.1662847    0.1599752 -22.79  0.001189499    1.417    0.294
        23  -8.5256    238.6619    185.3396   7.1187138385e+01  -8.9770205404e-01    0.1191104    0.1054403 -66.10 0.0007050649    1.762    0.432
        24 -15.9246     59.4950    188.6391   1.1154780727e+02   2.8194729578e+01     8.881992     4.012722  56.23   0.03394493    2.437    0.590
        25 -10.4307     99.4215    180.7644   1.0075775910e+02   2.4332090951e+01     0.257941    0.2414517  47.27 0.0006047912    1.075    0.070
        26 -10.0804    105.8953    130.8230   8.9439688695e+01   3.5194456512e+01    0.3840734    0.3256226 -69.22  0.001333294    1.242    0.195
        27 -10.3082    135.6886    129.3227   8.0921345749e+01   2.9752160021e+01    0.4372543    0.1426425 -48.35  0.001325363    3.082    0.676
        28 -10.0353    112.7595    129.3059   8.7141390884e+01   3.4291204038e+01    0.3642425    0.2908799   9.64 0.0007814725    1.522    0.343
        29  -9.8902    188.7857    176.8487   7.9115944745e+01   9.0999122012e+00    0.4147003    0.3440447 -79.58  0.002138751    1.777    0.437
        30 -10.2658     99.8436    125.2327   8.9895781999e+01   3.7619743175e+01    0.3258857    0.2609571 -10.71  0.001570317    1.537    0.349
        31 -11.0132    119.2802    123.1033   8.3811574962e+01   3.4493784884e+01    0.6234166    0.4332552  -4.43  0.002512489    2.245    0.555
        32  -9.1325    108.5086    118.3292   8.5686723300e+01   3.7684668736e+01    0.2529985    0.2010922  37.27 0.0005847173    1.301    0.231
        33 -10.2370    135.1018    114.0687   7.7187365897e+01   3.3291285812e+01    0.6329467    0.1527673 -48.85  0.001559408    4.708    0.788
        34  -9.9326    231.2967    113.6585   5.7052196715e+01   1.2489386616e+01    0.2640575    0.2389444 -41.32   0.00079032    1.046    0.044
        35  -8.8257    167.9512    112.7865   6.8830662207e+01   2.6304075924e+01    0.2591989    0.1882075  86.04  0.001079663    2.078    0.519
        36 -11.2453    117.2429    108.3846   8.0572200686e+01   3.8270508012e+01    0.6278827    0.6090648  -3.62  0.003373706    1.032    0.031
        37  -9.4671    205.4216    110.1963   6.0601493250e+01   1.8470140945e+01    0.3098838    0.2119615  40.60 0.0009015333    1.615    0.381
        38  -9.8361    147.0174    172.8995   8.7693486012e+01   1.7752156568e+01    0.5642654    0.3328253 -74.30  0.001962276    3.434    0.709
        39  -9.2471    134.5411    106.5042   7.5296384503e+01   3.5060716646e+01    0.2873116    0.1461637 -53.77  0.001033202    2.293    0.564
        40 -17.4442     10.7475    247.0361   1.2578033387e+02   2.1345001083e+01     3.935674     2.222046  30.33      0.01897    2.071    0.517
        41 -10.4722     20.7347    192.1219   1.2067831372e+02   3.1636429103e+01    0.3809415    0.2421617  77.90  0.001821133    1.368    0.269
        42 -10.3589     55.1897     95.2799   9.7098270588e+01   5.1530783993e+01    0.3065304    0.2667894  53.02 0.0009552547    1.355    0.262
        43 -10.2684     51.4786     89.9804   9.7116464827e+01   5.3212234527e+01     0.307097    0.2455117 -89.10 0.0007501946    1.604    0.376
        44  -8.4700    194.4826    171.5438   7.6831768487e+01   9.0484470156e+00      0.14408    0.1321532  -2.84 0.0008087636    1.012    0.012
        45  -9.0314    157.4972     82.5003   6.2835102750e+01   3.4616405460e+01    0.2647554     0.150463 -25.57 0.0007347281    2.162    0.537
        46  -8.6936    184.7020     76.9811   5.5791071417e+01   2.9090821008e+01    0.2086944    0.1905985 -39.72 0.0006942437    1.083    0.077
        47 -11.7241    107.5297    203.7092   1.0225563394e+02   1.7932759180e+01    0.3794264    0.2853687  46.33  0.001016301    1.218    0.179
        48 -13.0358    185.3949     50.2684   4.8369963444e+01   3.3078934468e+01     1.020615    0.8594453  38.80 0.0007779222    1.343    0.255
        49 -16.2013      2.0797    225.0526   1.2631329970e+02   2.6370644378e+01     4.363516     0.220558 -70.99   0.01415615    6.703    0.851
        50 -10.1792    120.2478    194.3351   9.7888705546e+01   1.7874311891e+01    0.2621813    0.1907252 -75.33 0.0008339672    1.643    0.391
        51 -11.6004     28.4900     35.4405   8.9786742898e+01   6.6959855450e+01    0.3950031    0.2683276 -24.90  0.002380085    1.242    0.195
        52  -9.7030    198.0749     23.5136   3.9588753493e+01   3.3440160248e+01    0.2260099    0.1864827  -0.60 0.0007331262    1.615    0.381
        53  -9.5280    240.4431    169.4785   6.7691874501e+01   1.3579734549e+00    0.1334792    0.1133923 -18.09 6.360271e-05    1.043    0.041
        54 -10.7982     59.8022    220.4961   1.1472078672e+02   2.1146887120e+01    0.3904405    0.2955898  38.90  0.002249279    1.333    0.250
        55  -8.9802    189.5098     14.9953   3.8359954474e+01   3.6407707480e+01    0.1830144    0.1262633 -31.85 0.0005843622    1.558    0.358
