#   1 NUMBER                 Running object number                                     
#   2 MAG_AUTO               Kron-like elliptical aperture magnitude                    [mag]
#   3 X_IMAGE                Object position along x                                    [pixel]
#   4 Y_IMAGE                Object position along y                                    [pixel]
#   5 X_WORLD                Barycenter position along world x axis                     [deg]
#   6 Y_WORLD                Barycenter position along world y axis                     [deg]
#   7 A_WORLD                Profile RMS along major axis (world units)                 [deg]
#   8 B_WORLD                Profile RMS along minor axis (world units)                 [deg]
#   9 THETA_WORLD            Position angle (CCW/world-x)                               [deg]
#  10 FWHM_WORLD             FWHM assuming a gaussian core                              [deg]
#  11 ELONGATION             A_IMAGE/B_IMAGE                                           
#  12 ELLIPTICITY            1 - B_IMAGE/A_IMAGE                                       
         1 -13.0920     52.2814    111.6211   7.0095169127e+01   4.6455456205e+01     4.734519     1.271876 -73.63  0.006991115   14.868    0.933
         2 -13.5069    240.1587     48.6990   9.1618471219e+00   2.0249052853e+01     1.298786     1.035832  24.22  0.007586991    1.817    0.450
         3 -12.6209      2.3854     20.7848   6.9329579015e+01   7.3716439967e+01    0.6512308    0.4209712 -28.61  0.003935678    1.382    0.277
         4 -13.0187      2.9609      3.3999   6.0129234719e+01   7.7162049782e+01     1.084139    0.6690086 -65.82  0.005918388    2.345    0.574
         5  -8.2688     99.3399    181.2655   6.8161723775e+01   2.1814207527e+01    0.1325827    0.1091927  -9.95  0.000697809    1.596    0.373
         6 -12.5236     36.6064    165.9543   8.2079173957e+01   3.3762672047e+01    0.7426854    0.5245732 -34.48 0.0006163246    2.032    0.508
         7 -11.5709     44.8048    161.0128   7.9454791867e+01   3.4114432998e+01    0.3146527    0.2849239 -45.92 0.0004683791    1.356    0.262
         8 -14.6714      8.0520    182.7686   9.0117330530e+01   3.2403139609e+01     2.657994     1.350825 -70.29    0.0144696    1.836    0.455
         9 -15.7574     17.1940    169.6020   8.7222424742e+01   3.4746832390e+01     10.05054     3.057006  85.54   0.03332477    4.120    0.757
        10 -13.5217      9.9129    206.9567   9.0817880710e+01   2.6859442236e+01     1.292567    0.7843002  21.87  0.003487943    2.109    0.526
        11 -11.9436     67.0153    148.5024   7.1773070038e+01   3.4589213554e+01    0.6425585    0.3979904 -88.30  0.001543284    1.777    0.437
        12 -13.1260     69.2166    144.6450   7.0552500342e+01   3.5298386615e+01        1.456    0.7813675  84.36  0.004891736    2.741    0.635
        13 -12.9063     42.9693    148.6819   7.8572898575e+01   3.7511905522e+01    0.5340585    0.4590767  -2.13   0.00117899    1.564    0.360
        14 -10.4544     86.2631    137.4138   6.4375649190e+01   3.4655627353e+01    0.3057089    0.2820277 -55.73 0.0008506939    1.106    0.096
        15  -9.4263     90.2206    134.7918   6.2719269894e+01   3.4700776754e+01    0.2654927    0.2011115 -11.47 0.0006188861    1.888    0.470
        16  -9.7163    105.8814    130.8256   5.7400937836e+01   3.3020561956e+01    0.3898214    0.3262729 -71.18  0.001376284    1.200    0.167
        17  -9.4543    102.0519    127.9736   5.7859957245e+01   3.4437275826e+01    0.3621064    0.2370055  22.54  0.001448616    1.981    0.495
        18 -10.9056     58.5642    152.9199   7.4759641935e+01   3.4548839264e+01    0.3587088    0.2475967 -56.83 0.0004340025    1.445    0.308
        19 -15.3857      5.6389    219.7937   9.2151150585e+01   2.4593407317e+01     4.211319     2.233182  59.80   0.02671255    1.404    0.288
        20 -10.0294     87.9323    122.9896   6.0937069708e+01   3.8179176111e+01    0.3023929    0.2743293  28.68 0.0006724903    1.236    0.191
        21  -9.2388    101.3989    117.0400   5.5507967714e+01   3.7365963372e+01    0.2348282     0.218623  14.87 0.0005977276    1.213    0.176
        22  -9.4506    231.0455    114.0179   2.6092013012e+01   1.1751748072e+01    0.2207091    0.1805869 -30.73 0.0009373535    1.009    0.009
        23  -8.9158    204.2764    111.1936   2.9737841374e+01   1.7362003147e+01    0.3192182    0.1614042  34.75  0.001238524    2.709    0.631
        24 -10.3011    244.3995     95.2084   1.9822310724e+01   1.2411499886e+01    0.2075409   0.09916579 -41.71 0.0009060464    1.696    0.410
        25 -12.3499     73.2049    134.2787   6.7633374997e+01   3.7479334226e+01    0.7612849    0.4860885 -60.98 0.0005190669    1.429    0.300
        26 -10.1126    249.6006     87.1928   1.7313431015e+01   1.2727592520e+01    0.2001484     0.108018 -27.06 0.0009571493    1.703    0.413
        27  -8.8307    184.5081     77.0549   2.4048582993e+01   2.7952151463e+01    0.2365319    0.1390841 -36.40 0.0004711134    1.522    0.343
        28  -8.7651     25.6770     67.2924   7.0882808580e+01   6.1102382934e+01    0.1341588    0.1022862  72.91 0.0002529599    1.613    0.380
        29 -12.7048    220.8129     59.4646   1.3929196843e+01   2.2707248824e+01     1.014168     0.884804  18.80  0.005899378    1.482    0.325
        30  -8.6204     64.4624    192.5002   7.7844459525e+01   2.4132803601e+01    0.1333259    0.1113541  67.97 4.851647e-05    1.032    0.031
        31 -10.8648     13.4149     60.2134   7.4939744360e+01   6.3806863934e+01    0.2675921    0.2281486 -76.61 0.0005626661    1.174    0.148
        32 -11.7903      2.0963     39.2968   7.5685526014e+01   6.9537565320e+01    0.6375273    0.1638215 -70.39  0.002188269    3.678    0.728
        33 -12.5786    236.7033    157.9496   3.4907182227e+01   3.6292875003e+00    0.6944965    0.3637116 -27.20  0.003471915    1.667    0.400
