#   1 NUMBER                 Running object number                                     
#   2 MAG_AUTO               Kron-like elliptical aperture magnitude                    [mag]
#   3 X_IMAGE                Object position along x                                    [pixel]
#   4 Y_IMAGE                Object position along y                                    [pixel]
#   5 X_WORLD                Barycenter position along world x axis                     [deg]
#   6 Y_WORLD                Barycenter position along world y axis                     [deg]
#   7 A_WORLD                Profile RMS along major axis (world units)                 [deg]
#   8 B_WORLD                Profile RMS along minor axis (world units)                 [deg]
#   9 THETA_WORLD            Position angle (CCW/world-x)                               [deg]
#  10 FWHM_WORLD             FWHM assuming a gaussian core                              [deg]
#  11 ELONGATION             A_IMAGE/B_IMAGE                                           
#  12 ELLIPTICITY            1 - B_IMAGE/A_IMAGE                                       
         1 -13.6385    208.5063     34.1043   5.1664571440e+01   2.8604371257e+01     1.347953      1.30614  20.83  0.005961098    1.117    0.105
         2 -14.0088    226.6601     16.9374   4.4861933021e+01   2.6083646148e+01     1.161242    0.9604486  24.82  0.001308479    1.471    0.320
         3 -13.4949      4.8242      9.7666   1.0452060249e+02   7.3506832636e+01     1.454023    0.4201486 -51.76  0.006900169    2.353    0.575
         4 -12.3878     21.8450    226.7352   1.2873510160e+02   2.6204466999e+01     0.242814    0.1633216  78.72  0.000569521    1.179    0.152
         5 -11.5660    143.2459    249.2015   1.0979468991e+02   7.2499533250e+00    0.3887141    0.1690221  54.17  0.002018553    2.469    0.595
         6 -11.6067    132.1168    249.0661   1.1166514774e+02   8.8720464514e+00    0.6643499    0.1427136  45.04  0.002708973    3.439    0.709
         7 -12.4805    114.9793    249.2676   1.1458051339e+02   1.1263953814e+01    0.8467087    0.3195162  45.56  0.004658777    1.938    0.484
         8 -11.9306    122.6574    248.6359   1.1322560104e+02   1.0276073641e+01    0.3810114    0.3584056  70.44  0.002656711    1.301    0.232
         9 -10.7004     99.4827    250.4878   1.1728120469e+02   1.3204805600e+01    0.3666371    0.2060891  29.71  0.002223836    2.205    0.546
        10 -11.4446     98.7721    247.0228   1.1712051242e+02   1.3803408396e+01    0.4475705    0.1509992  41.80  0.002342917    2.214    0.548
        11 -10.5300     81.4295    247.8028   1.2007827788e+02   1.5961264273e+01    0.3094355    0.1192105 -75.79  0.001627342    3.562    0.719
        12 -11.6013     90.2921    224.7221   1.1670446974e+02   1.8432008300e+01     0.388569     0.274318  49.90  0.002351749    1.134    0.118
        13 -11.9527     84.4947    241.3860   1.1909172216e+02   1.6542469477e+01    0.4544647    0.2022816  53.32  0.002707037    1.769    0.435
        14 -12.3735     88.7140    238.6203   1.1815457812e+02   1.6415873140e+01    0.6963553     0.342715  70.07  0.003861975    2.476    0.596
        15 -11.2163     84.1776    230.0718   1.1825415036e+02   1.8376676915e+01    0.2308318    0.2187724   5.02  0.001838393    1.618    0.382
        16 -10.0370     63.6332    248.0030   1.2301231567e+02   1.8134701844e+01    0.5026988    0.1070186 -65.12  0.002338163    4.875    0.795
        17 -11.6727     58.5545    246.5367   1.2374899624e+02   1.8964224411e+01     0.580888    0.3940529 -50.47  0.004177983    2.451    0.592
        18 -11.1576     67.9130    245.6396   1.2216426595e+02   1.7979546229e+01    0.3024024     0.134057  55.08  0.001491448    1.722    0.419
        19 -11.3182     74.3566    243.1316   1.2092749367e+02   1.7569057759e+01    0.2879049    0.1996612  63.61  0.002107141    1.127    0.113
        20 -10.9297     68.9111    237.6427   1.2146611508e+02   1.9111818876e+01    0.2259375    0.2130944  85.40  0.001244501    1.464    0.317
        21 -10.9295     73.2345    237.0587   1.2068989602e+02   1.8664878248e+01    0.3106817    0.1941867  64.46  0.001361296    1.315    0.239
        22 -14.0403     35.0027    205.7660   1.2536749000e+02   2.8567338139e+01     2.937631    0.8303741  59.62   0.01273755    3.538    0.717
        23 -12.0289    104.5387    236.9620   1.1526794062e+02   1.4517988582e+01    0.3312757     0.229995  40.35  0.001880132    1.293    0.227
        24 -12.0087    126.0776    240.4647   1.1184609378e+02   1.0933872364e+01    0.3713335    0.1648579  40.29  0.002078109    1.773    0.436
        25  -9.7079     53.8655    240.9156   1.2418643139e+02   2.0395581059e+01    0.1423487    0.1193586  63.06 0.0009140775    1.273    0.214
        26 -11.0095    116.5649    239.2820   1.1338539255e+02   1.2473801389e+01    0.2820465    0.1837257 -31.73  0.001670877    2.910    0.656
        27 -11.6157    135.6060    245.2013   1.1068248342e+02   8.8908667212e+00    0.2974079    0.1679878 -54.29  0.001913523    2.324    0.570
        28  -9.6912     52.2434    231.5409   1.2389929239e+02   2.2109217068e+01    0.1704737    0.1187761  85.17 0.0006584185    1.312    0.238
        29 -11.6636    135.3687    236.3585   1.0979220935e+02   1.0154365123e+01    0.2596389    0.1784673  34.87  0.001748014    1.324    0.245
        30 -13.2565      3.0602    224.1481   1.3168608026e+02   2.8422986954e+01     1.054315    0.3201403 -82.31  0.003742469    2.892    0.654
        31  -8.4918     62.2826    233.3232   1.2230271007e+02   2.0623321795e+01   0.08383794    0.0832545  76.94 0.0006738415    1.594    0.373
        32 -10.7327     98.5957    230.9100   1.1576915866e+02   1.6285676300e+01    0.2506649    0.1476157  29.68  0.001471728    2.065    0.516
        33 -11.6084    104.7034    229.5263   1.1455032896e+02   1.5648539208e+01    0.3208408    0.1568205  36.17  0.001782593    1.937    0.484
        34 -10.3409     56.6343    228.0631   1.2292737441e+02   2.2174969014e+01    0.2140033    0.1928937  79.57  0.001082718    1.367    0.269
        35  -9.5023    123.4686    229.5319   1.1117872403e+02   1.2925410604e+01    0.1159981   0.08975919  50.66  0.000311896    1.018    0.018
        36 -10.1869     78.4730    225.1723   1.1887020108e+02   1.9936635319e+01    0.2735829    0.1950597 -18.99  0.001476206    3.717    0.731
        37 -10.7100     99.2569    224.4005   1.1504787447e+02   1.7241413838e+01    0.1894986     0.120262  75.41 0.0008434392    1.729    0.422
        38 -10.3884     71.6964    219.6028   1.1964541735e+02   2.1761563361e+01    0.3448658    0.1921915  57.39   0.00217766    1.454    0.312
        39 -14.9231     10.1931    245.0146   1.3126386063e+02   2.4349069763e+01     2.667896    0.9850578  35.27   0.01648596    2.702    0.630
        40 -11.6743     87.9187    248.5726   1.1905747971e+02   1.5010403082e+01    0.4819379    0.2700114  49.83  0.002243865    1.299    0.230
        41  -9.2578     60.1776    220.3450   1.2177765090e+02   2.3069447176e+01     0.150143    0.1127815  45.60 0.0003313896    1.311    0.237
        42 -10.4287     50.7981    218.5060   1.2332498047e+02   2.4505441683e+01    0.2712641    0.1185009  68.03 0.0009456504    2.269    0.559
        43 -15.2841     20.8397    219.5936   1.2858398503e+02   2.7534234771e+01     2.018784    0.9240632  70.27   0.01297512    1.775    0.437
        44 -10.8532    180.7942    243.0345   1.0272040293e+02   2.4727543959e+00     0.211611    0.1142962  47.74  0.001271457    1.680    0.405
        45  -9.3499     87.9811    212.9713   1.1605321622e+02   2.0750347261e+01    0.1859875    0.1120818  68.85 0.0008488692    1.653    0.395
        46 -10.1720     56.3967    209.8277   1.2170153194e+02   2.5396568276e+01    0.3878823    0.1954726 -86.88  0.002257004    2.056    0.514
        47 -10.2157     63.1451    209.0516   1.2038405470e+02   2.4713735474e+01     0.310212   0.08845222  50.00  0.001395465    2.813    0.645
        48  -9.1677     67.7354    206.5231   1.1931035040e+02   2.4598475790e+01    0.1661386   0.08137968  51.22 0.0007001364    1.658    0.397
        49  -9.7407    106.8401    203.3921   1.1141680387e+02   1.9719812703e+01    0.1980528    0.1648554 -65.81 0.0005242535    1.372    0.271
        50  -9.5519     73.6426    201.3712   1.1771790879e+02   2.4787111160e+01    0.2570312    0.1293307 -61.84  0.001036693    2.142    0.533
        51 -10.0198    250.5181    200.4680   8.4586512216e+01  -3.2455788939e+00    0.1899583   0.09773808 -14.88 0.0006583421    2.092    0.522
        52 -10.5687     45.8847    198.2539   1.2283264985e+02   2.8782477580e+01    0.3238229    0.1569402  40.70  0.001584921    1.856    0.461
        53 -10.3637    198.0633    245.4682   1.0014499774e+02  -3.5109217536e-01    0.1764005   0.08309481  38.45 0.0006038178    1.599    0.374
        54  -9.1722     54.2706    194.6320   1.2092694132e+02   2.8502616929e+01    0.1225043   0.06798104  69.90 0.0006997988    1.666    0.400
        55 -10.7237    245.2540    241.7347   9.2046544508e+01  -6.6269638381e+00    0.1545299   0.07612614 -13.15 0.0009024502    2.423    0.587
        56 -12.0762     49.0653    191.5950   1.2170929980e+02   2.9704519397e+01    0.2982627    0.2515354 -48.17 0.0007222763    1.715    0.417
        57 -12.0185     97.4972    239.4262   1.1670685256e+02   1.5111821181e+01    0.4709705    0.3463707 -32.11  0.003123896    2.506    0.601
        58 -10.8476     35.2151    191.6095   1.2442169479e+02   3.1234683692e+01    0.2741292    0.1605881  49.90  0.001572177    1.444    0.308
        59  -9.0441    191.5453    191.5184   9.3216942373e+01   7.5260384340e+00    0.1283161    0.1089591  26.45 0.0001436099    1.004    0.004
        60  -9.2713    109.1637    191.2016   1.0947576899e+02   2.1582099361e+01    0.1717491    0.1491109  50.98 0.0002739108    1.100    0.091
        61  -9.7136     57.4486    190.4261   1.1994227006e+02   2.8939456467e+01    0.1182115   0.09067851  69.51 0.0001190973    1.035    0.034
        62 -12.0709    101.9616    240.0069   1.1598571484e+02   1.4413100585e+01    0.3485157    0.2708422  57.29  0.002051248    1.054    0.051
        63  -9.4281     68.1786    187.7809   1.1752121287e+02   2.8113552843e+01     0.322222    0.1877987  15.94   0.00143613    3.792    0.736
        64 -12.2317     55.9904    184.1085   1.1968059365e+02   3.0371222277e+01    0.2818147    0.2087869  54.03 0.0007422961    1.200    0.167
        65  -9.3255     29.6816    183.7218   1.2497464974e+02   3.3364515116e+01    0.1807933    0.1494718   6.19  0.001273973    2.006    0.502
        66 -10.1010     37.2898    180.3127   1.2319947573e+02   3.3262062566e+01     0.279074    0.1628611  72.89  0.001595657    1.488    0.328
        67  -8.8704     45.1655    177.8628   1.2137793355e+02   3.2901315900e+01    0.1409887    0.1308755 -80.03 0.0005238344    1.349    0.259
        68  -9.4539     58.8403    177.0131   1.1841863888e+02   3.1467729545e+01    0.3787426   0.09289898  46.11   0.00149961    3.325    0.699
        69 -12.1549      9.2015    156.1892   1.2741619567e+02   4.0917081022e+01    0.4316517    0.1625994  73.32  0.002049035    2.707    0.631
        70 -12.3020     11.9630    171.9614   1.2778962634e+02   3.7402488449e+01    0.4813303    0.3049609 -72.99  0.003310028    1.477    0.323
        71 -10.6946      2.8457    172.9799   1.2966386553e+02   3.7952570348e+01    0.3389674    0.1261392  49.87  0.001934876    2.169    0.539
        72 -12.4522      8.2091    164.7588   1.2814317511e+02   3.9199423066e+01    0.6555926    0.4003953 -32.15  0.003677691    3.347    0.701
        73 -11.1360    248.7841    172.2733   7.9637349470e+01   3.0791575056e-01    0.3442144    0.2569986   9.99  0.002163829    1.157    0.136
        74 -10.9421     68.6042    172.1654   1.1580491035e+02   3.1232908992e+01    0.2340864    0.1950391 -86.15 0.0003415673    1.128    0.114
        75  -9.6688     18.4781    172.4588   1.2649543134e+02   3.6723695643e+01    0.1951109    0.1454023  81.36 0.0007808266    1.033    0.032
        76 -11.2330     19.8981    168.4048   1.2593819956e+02   3.7431652635e+01    0.2082586    0.1760399 -82.83 0.0003080025    1.265    0.210
        77 -10.8968     53.1950    171.0604   1.1905061585e+02   3.3387870602e+01    0.2622092    0.2318323  86.34  0.001004485    1.171    0.146
        78 -10.7531     27.0673    171.7389   1.2467385175e+02   3.6063025712e+01    0.2174349    0.1993123  26.13 0.0004608243    1.548    0.354
        79 -10.7278     40.2059    168.1162   1.2159518249e+02   3.5475794373e+01    0.2593503    0.2389913  79.37  0.001226482    1.267    0.211
        80 -12.1673     76.7155    164.1649   1.1304518164e+02   3.1828306759e+01    0.5195129    0.4411922 -82.42  0.002165549    1.124    0.110
        81 -11.3755    247.3730    157.2782   7.6849450932e+01   2.4517382869e+00    0.4721161    0.2395132  46.15  0.002329228    2.083    0.520
        82 -10.7747    245.4776    162.1292   7.8149556879e+01   2.1464589647e+00    0.1890291    0.1796245   8.00  0.001269803    1.316    0.240
        83 -10.3025     23.9229    161.9128   1.2462174443e+02   3.8425297902e+01    0.1719063    0.1350132  81.72 0.0004776969    1.039    0.038
        84  -8.9652     49.5268    161.4271   1.1890336515e+02   3.5869176961e+01    0.1216217   0.09950925  79.94 6.531365e-05    1.015    0.015
        85  -8.9423     43.0764    161.1676   1.2032965190e+02   3.6648234436e+01    0.1696443    0.1132322  70.53 0.0004245868    1.319    0.242
        86 -11.3767      3.7782    158.4631   1.2871159209e+02   4.0862518747e+01    0.2819037    0.1717533  69.05  0.001907313    1.323    0.244
        87 -11.7954     23.3342    149.7123   1.2379111784e+02   4.1112919774e+01    0.3589075    0.2243614 -49.68  0.001718641    2.009    0.502
        88 -10.9981     26.3028    155.8618   1.2362347195e+02   3.9500406345e+01    0.2672857    0.1870408  57.74 0.0007624195    1.299    0.230
        89 -11.2054     21.7117    156.0381   1.2466215687e+02   3.9885022651e+01    0.2745162    0.1550613 -71.74  0.001192037    1.540    0.351
        90 -11.6093     12.6753    153.0567   1.2644954483e+02   4.1304287976e+01    0.2742543    0.1558094  69.29  0.001181589    1.510    0.338
        91 -10.7418    249.5037    161.4588   7.7364543020e+01   1.5470966927e+00    0.3049869    0.1105241 -33.01  0.001303256    2.612    0.617
        92 -10.9038    249.6886    150.8976   7.5148477070e+01   2.8865633856e+00    0.3267586    0.2300033 -31.41  0.001720321    1.406    0.289
        93 -11.0830     91.7859    149.7033   1.0745841614e+02   3.2752699244e+01    0.2939674    0.2739459  79.48 0.0008931372    1.075    0.070
        94 -10.5747     79.8148    148.5789   1.1018468168e+02   3.4789288534e+01     0.229411    0.2018438  88.68 0.0003848619    1.027    0.027
        95 -10.3454     38.9913    148.9112   1.2006347857e+02   3.9769975261e+01    0.2002539    0.1532886 -71.89 0.0003612442    1.231    0.188
        96 -13.2464      4.0455    121.7052   1.2616581960e+02   4.8855315202e+01     0.683251    0.4255106 -70.91  0.004426035    1.321    0.243
        97 -11.9243      3.2031    131.6938   1.2713751720e+02   4.6680908339e+01    0.5174318    0.3038433  84.06   0.00326765    1.376    0.273
        98 -11.4597      7.9633    127.4747   1.2564309695e+02   4.7292541199e+01    0.2207047    0.1866689  16.89  0.001102564    1.633    0.388
        99 -13.0336      9.0436    142.9626   1.2656416571e+02   4.3779758971e+01    0.6549858    0.2540539 -73.55  0.003431264    2.031    0.508
       100 -12.6350      4.0356    142.5753   1.2768895788e+02   4.4235320450e+01    0.5586446      0.32085 -70.71  0.002544137    1.495    0.331
       101 -12.7000    241.5422    120.5683   6.9704595012e+01   8.6035413896e+00    0.8087823    0.6205056  51.11  0.004512784    1.481    0.325
       102 -13.0712    248.4851    102.0598   6.4272854665e+01   9.8707369257e+00     1.173592    0.5033638 -25.70  0.004768731    2.255    0.556
       103 -12.8583    248.5601    133.0764   7.1460907934e+01   5.4961205531e+00     1.162051    0.5391774 -23.56  0.005095682    2.149    0.535
       104 -12.1164    247.9940    112.9571   6.6936651614e+01   8.4227371241e+00    0.5860831    0.4265076  35.61  0.002990264    1.446    0.309
       105  -9.6119     95.2342    145.6107   1.0595637314e+02   3.3112151978e+01    0.2161414    0.1750133 -81.11  0.001230055    1.208    0.172
       106 -11.6473     68.3275    143.4957   1.1227191042e+02   3.7519480321e+01    0.5981908    0.3122777  67.78  0.002062128    2.456    0.593
       107  -9.6157     45.0221    139.7279   1.1758920706e+02   4.1193620773e+01     0.166848    0.1432093  78.49 0.0002235658    1.083    0.076
       108 -10.1682    105.9333    135.3272   1.0146043507e+02   3.3616713571e+01     0.428921    0.2973586  -9.39  0.001817469    2.793    0.642
       109  -8.5127     92.2743    133.2700   1.0454643284e+02   3.6346007435e+01    0.1257956    0.1080396 -26.87 0.0002255981    1.481    0.325
       110 -12.2851     16.7137    132.4104   1.2388380658e+02   4.5524035141e+01    0.3096615    0.2705385  46.88  0.001950046    1.355    0.262
       111  -9.5787     44.3628    130.1481   1.1657328585e+02   4.3463642493e+01     0.180741    0.1026549 -83.43 0.0006564662    1.672    0.402
       112 -11.7303     13.6420    127.2661   1.2419445270e+02   4.6924533126e+01    0.2698556    0.1776553 -84.53  0.001730539    1.194    0.163
       113 -12.3249     15.7258    120.5352   1.2301931048e+02   4.8299187312e+01    0.4070726    0.2169391  82.95 0.0009616519    1.774    0.436
       114 -10.4266    232.0507    116.3143   7.0213699236e+01   1.1140095251e+01    0.1947238    0.1817189   8.54   0.00087434    1.085    0.078
       115 -13.1599      7.3222    112.7213   1.2451518553e+02   5.0679659562e+01    0.5166155    0.4642892  74.36  0.003919527    1.230    0.187
       116  -9.4159     25.3106    109.3461   1.1910941063e+02   5.0131387996e+01    0.1266833   0.07812861 -48.99 0.0007045459    1.707    0.414
       117 -10.3796    249.8123    117.7790   6.7790975772e+01   7.3892181956e+00    0.2905415    0.2299923 -17.72   0.00070665    1.110    0.099
       118 -12.5216      5.0235     96.8196   1.2355647953e+02   5.4471308494e+01    0.4254827    0.2817068  30.14   0.00277453    1.851    0.460
       119 -12.1268    248.0422    142.3133   7.3573502648e+01   4.3270725680e+00    0.5752838    0.4386826  14.54  0.003389481    1.246    0.198
       120  -9.4439    162.3058     80.3097   7.3700182803e+01   3.3256332764e+01    0.1590319      0.12241  12.90 0.0004901671    1.613    0.380
       121 -12.1001      3.3440     76.0312   1.2154450647e+02   5.9344480599e+01    0.3648249    0.1854936 -64.96  0.002097737    1.461    0.315
       122 -11.7113    154.5290    246.9844   1.0764302720e+02   5.8861438027e+00    0.3053102    0.2675938 -19.06   0.00242832    1.511    0.338
       123 -11.1387    149.9167    246.8388   1.0841124267e+02   6.5826303461e+00    0.2194778     0.189132 -10.35  0.001708045    1.558    0.358
