#   1 NUMBER                 Running object number                                     
#   2 MAG_AUTO               Kron-like elliptical aperture magnitude                    [mag]
#   3 X_IMAGE                Object position along x                                    [pixel]
#   4 Y_IMAGE                Object position along y                                    [pixel]
#   5 X_WORLD                Barycenter position along world x axis                     [deg]
#   6 Y_WORLD                Barycenter position along world y axis                     [deg]
#   7 A_WORLD                Profile RMS along major axis (world units)                 [deg]
#   8 B_WORLD                Profile RMS along minor axis (world units)                 [deg]
#   9 THETA_WORLD            Position angle (CCW/world-x)                               [deg]
#  10 FWHM_WORLD             FWHM assuming a gaussian core                              [deg]
#  11 ELONGATION             A_IMAGE/B_IMAGE                                           
#  12 ELLIPTICITY            1 - B_IMAGE/A_IMAGE                                       
         1 -13.6276      2.7076    107.9647   1.3716362206e+02   5.3960637199e+01       1.6369    0.3840605 -72.46  0.005602036    3.328    0.700
         2 -13.3575    204.4559     33.7193   5.7994303645e+01   2.9822945407e+01     1.098736    0.8214962 -35.89  0.005609947    1.302    0.232
         3 -12.4933      2.8061     16.1127   1.2001024867e+02   7.6476296300e+01    0.8964058    0.2107131 -62.94  0.003274152    3.851    0.740
         4 -12.2304      3.6360      4.5105   1.1322361355e+02   7.8721283736e+01    0.7138768    0.4534207 -11.89  0.004223125    1.513    0.339
         5 -13.8253    223.3194     15.8871   5.2325212565e+01   2.7793735559e+01     0.893333    0.8379838  15.66  0.001750393    1.501    0.334
         6 -12.0370    136.5846    241.5734   1.1363043374e+02   7.4739243850e+00    0.4558599    0.2253806  48.95  0.002209841    2.553    0.608
         7 -11.5338    177.4440    249.4637   1.0647022409e+02   1.2208451430e+00    0.5275618    0.1718189  22.53  0.002074488    3.723    0.731
         8 -12.8006    150.8583    246.9957   1.1134614597e+02   4.8342942286e+00    0.9327543    0.3632035  21.61  0.004043256    2.837    0.647
         9 -12.4642    119.7055    236.2477   1.1662771489e+02   1.0552823274e+01    0.8968972    0.5481794 -23.54  0.003564668    2.402    0.584
        10 -11.2800    100.0689    248.0856   1.2210584254e+02   1.1143200749e+01    0.4400385     0.347302  29.96  0.002284016    1.059    0.056
        11 -11.1607    113.4058    231.0044   1.1743074129e+02   1.2284150003e+01    0.3508782    0.2503375  19.69  0.001595328    1.295    0.228
        12 -12.5644    142.6639    249.0897   1.1325282137e+02   5.5706721641e+00     1.005904    0.2539308  36.64  0.004101162    3.017    0.669
        13 -10.7242     97.2051    239.2819   1.2190328006e+02   1.2989724268e+01    0.3269595    0.2010434  60.40  0.001556219    1.963    0.491
        14 -12.4861    102.9356    238.1497   1.2052127611e+02   1.2443043225e+01    0.5830297    0.4947912  36.27   0.00124315    1.098    0.089
        15 -12.4513    102.1804    230.5239   1.1990718249e+02   1.3874578150e+01    0.9458678    0.4024539  25.00   0.00420055    2.272    0.560
        16 -10.9895    116.9119    249.8761   1.1868479697e+02   8.7259654702e+00    0.5418532    0.2216166  30.32  0.002533755    1.876    0.467
        17 -13.0974    123.1582    247.8926   1.1716111526e+02   8.2377224606e+00     1.022978     0.703583  26.43  0.006604081    1.133    0.117
        18  -9.9179     90.9953    220.0223   1.2140211566e+02   1.7314330909e+01    0.2030769    0.1831054  73.36 0.0003119851    1.253    0.202
        19 -10.4241     81.5575    248.6391   1.2616068893e+02   1.3340157545e+01    0.3086528    0.1869649 -76.50  0.001738607    2.215    0.549
        20 -11.5612     89.7359    225.2172   1.2222809413e+02   1.6496414122e+01    0.5597038    0.3880864  20.72  0.003121669    1.407    0.289
        21 -11.6941     82.7063    239.8848   1.2518682573e+02   1.4719684284e+01    0.5656081    0.2264393  46.07 0.0007642659    2.144    0.534
        22 -10.5413     84.1675    230.3240   1.2400867400e+02   1.6268031160e+01    0.2762548    0.2145759 -67.30  0.001350676    1.585    0.369
        23 -11.7873     87.0057    247.9839   1.2492436602e+02   1.2785742312e+01    0.5743062    0.3565445  30.15  0.002213493    1.268    0.211
        24 -10.7725     90.9840    241.7081   1.2350719261e+02   1.3362867375e+01    0.3170262    0.1985753  34.87  0.001238792    1.217    0.178
        25 -12.0671     88.2167    237.8413   1.2377438925e+02   1.4389772609e+01    0.6200573    0.2735812  48.20  0.003009557    2.114    0.527
        26 -11.1465     68.3177    245.7364   1.2882968226e+02   1.5427393521e+01    0.2762311     0.208049  57.94 0.0009049533    1.273    0.214
        27  -9.3037     56.7223    250.4474   1.3165734472e+02   1.5933704120e+01     0.209714    0.1180194  33.75  0.001189974    1.340    0.254
        28 -11.5824     60.1544    246.2836   1.3065254442e+02   1.6278839072e+01    0.6028613    0.3014816  43.32  0.003429651    1.494    0.331
        29 -11.1308     48.7471    216.5188   1.3126624594e+02   2.3301701876e+01    0.7384341    0.2397403  53.74   0.00289288    3.077    0.675
        30 -12.9169      2.8553    190.2639   1.4131772578e+02   3.3485321133e+01     1.852734    0.5355295 -83.60  0.007453551    3.329    0.700
        31 -14.6211     24.4657    220.2859   1.3725849169e+02   2.5099381756e+01       1.3096     1.052639  20.00  0.008785362    1.401    0.286
        32  -9.7141     73.9006    237.1797   1.2694010752e+02   1.6292510560e+01    0.1803492    0.1636013  61.60 0.0003661146    1.214    0.176
        33 -11.9439    134.9099    234.4468   1.1313070398e+02   8.8106460706e+00    0.4126589    0.2924884 -59.28  0.002544056    1.935    0.483
        34 -13.1145      8.0650    211.3878   1.4074617888e+02   2.8454688120e+01     1.327831    0.9351732 -46.53  0.008206494    1.992    0.498
        35  -8.9820    147.0000    235.9609   1.1077090489e+02   6.9610429315e+00    0.1642702   0.07008535 -48.97 0.0007572395    2.884    0.653
        36 -11.1090    110.0889    247.6707   1.1991355544e+02   9.9424065580e+00    0.3844303    0.3430066  62.41  0.002801886    1.361    0.265
        37  -9.5872     54.8663    235.5820   1.3112710148e+02   1.8842598974e+01    0.2484374    0.1074874  54.96  0.001022064    2.185    0.542
        38 -11.0170    197.8333    245.9077   1.0224989482e+02  -7.2443113420e-01    0.2069236    0.1290838  19.75  0.001292157    1.241    0.195
        39 -10.0337    153.8889    229.9548   1.0856013939e+02   6.9581723879e+00    0.1836707    0.1480632  18.29 0.0003554666    1.025    0.025
        40  -9.4962     56.4405    228.4890   1.3028328821e+02   2.0017605375e+01    0.2334899    0.1422784  85.48  0.001256783    1.928    0.481
        41 -11.2198     79.2303    225.6004   1.2472331862e+02   1.7788521627e+01    0.3639493    0.3150828  82.88  0.001864455    1.323    0.244
        42  -9.2767     77.4510    220.9010   1.2471196544e+02   1.8925488639e+01    0.2030713     0.145441  47.10 0.0004715028    1.189    0.159
        43 -10.2082    136.1914    224.7030   1.1162812330e+02   1.0222839360e+01    0.3745945    0.1246493 -44.69  0.001432308    3.550    0.718
        44  -9.2059     65.1947    223.7329   1.2787128216e+02   1.9904696173e+01    0.3244472    0.1271737 -48.92  0.001348376    3.653    0.726
        45  -8.8300     45.7782    225.2374   1.3255030490e+02   2.1869786377e+01     0.143566    0.1344889  25.47 0.0004050287    1.278    0.217
        46 -10.4935     99.3781    223.4878   1.1980130482e+02   1.5529400459e+01    0.2712946    0.1861217   0.26  0.001448226    1.944    0.486
        47 -10.6890    246.0026    219.9751   9.0433230261e+01  -2.9938371846e+00    0.2576899   0.08551107 -29.33  0.001300001    2.791    0.642
        48 -10.0181    141.6507    219.7881   1.0978450851e+02   1.0275224122e+01     0.295856     0.154092 -46.17  0.001517215    2.232    0.552
        49 -10.3065     71.3201    219.4790   1.2605081239e+02   1.9986805432e+01    0.4467193    0.2401399  53.09  0.002281521    1.765    0.433
        50  -9.0679    250.3223    220.3275   8.9834262025e+01  -3.4844665149e+00    0.1115281   0.06186388  -3.33 0.0007048518    1.690    0.408
        51  -9.3951     60.2139    220.3594   1.2878925128e+02   2.1177752696e+01    0.1815845    0.1386096  23.22 0.0003654289    1.317    0.241
        52 -10.6406    107.8469    216.9860   1.1708451046e+02   1.5570717694e+01    0.4469621    0.1855531  47.85  0.001510598    2.559    0.609
        53  -9.9252    116.6670    216.0415   1.1491194185e+02   1.4495757657e+01    0.3225975    0.2028911  11.52  0.001025231    1.886    0.470
        54  -9.9867     87.4801    211.5362   1.2134903701e+02   1.9454532182e+01    0.3662449    0.3032651  84.68  0.001761002    1.398    0.284
        55 -10.9581     62.9961    208.8503   1.2715314168e+02   2.3205634478e+01    0.4800707    0.3356598 -12.46  0.002491165    2.180    0.541
        56  -9.0817     58.5440    212.5154   1.2856925081e+02   2.2982978149e+01    0.2120695    0.1651155  53.81 0.0004975279    1.115    0.103
        57 -10.2289     55.8102    208.9951   1.2896216332e+02   2.4050705611e+01    0.4449717    0.1987032 -74.74  0.002051544    2.574    0.611
        58  -9.6256    110.9439    211.4927   1.1568249621e+02   1.6165624358e+01     0.197976    0.1106388  34.41 0.0004405199    1.475    0.322
        59 -10.2427     98.9478    209.6710   1.1834052143e+02   1.8232298750e+01    0.3159139    0.1785643  56.18  0.001126763    2.055    0.513
        60 -10.0057    247.0090    206.4880   8.8162678401e+01  -1.5325006830e+00    0.1574663   0.07523968  11.27 0.0008104749    2.667    0.625
        61  -9.6782    106.7685    203.5285   1.1567247296e+02   1.8320883550e+01    0.2141827    0.1837841 -63.72 0.0004907105    1.380    0.275
        62  -9.7892     44.2747    199.9924   1.3118916730e+02   2.7341688560e+01    0.3529753    0.2518196  45.43  0.002062787    1.153    0.133
        63  -9.1430    250.6577    200.6808   8.6680244948e+01  -1.2446187117e+00    0.1151216   0.06629929  -3.16 0.0005988213    1.719    0.418
        64  -9.1950     74.3011    199.9574   1.2342331696e+02   2.3644459788e+01    0.1725833    0.1623528  84.03  0.001089003    1.178    0.151
        65  -9.0269     96.8338    199.1973   1.1758531188e+02   2.0653685660e+01    0.1763881    0.1490451  10.22 0.0002324773    1.282    0.220
        66  -9.3493     53.1050    198.2745   1.2876206905e+02   2.6698492803e+01     0.208747    0.1658178   4.35  0.001196345    1.563    0.360
        67 -12.4831     38.9027    208.2520   1.3312375779e+02   2.6134263314e+01     1.199075      0.68178  83.74  0.006374613    1.889    0.471
        68 -10.1296    249.8978    194.3006   8.5743668401e+01  -3.8730701498e-01    0.2001463    0.1459988  -2.68  0.001471025    1.098    0.090
        69 -11.6945     51.5467    192.8680   1.2870621710e+02   2.8096155720e+01    0.4549733    0.2628928  29.26 0.0005435582    1.577    0.366
        70  -9.7538     51.3219    188.7233   1.2839896123e+02   2.9069299474e+01    0.2284819    0.1656352  47.72 0.0002012927    1.176    0.149
        71  -9.6780     30.6427    193.5565   1.3428905853e+02   3.0246475912e+01    0.1657676    0.1469325 -32.72 0.0006152663    1.472    0.321
        72  -9.4257     25.9813    192.6986   1.3545718619e+02   3.0905850278e+01    0.2326456    0.1399179  39.87  0.001111567    1.379    0.275
        73  -9.0326     21.7084    193.2936   1.3660364006e+02   3.1180394160e+01    0.1828494    0.1419747  71.23 0.0002240205    1.151    0.131
        74  -9.9024     19.1447    188.7613   1.3703375037e+02   3.2452081698e+01    0.3504398    0.1622548  87.73  0.001231083    2.194    0.544
        75  -9.3018    191.7248    191.7195   9.5081725129e+01   7.5504009548e+00    0.1502507    0.1419994   8.05 0.0005578186    1.291    0.225
        76  -8.6609     15.2769    190.2763   1.3812259144e+02   3.2452463504e+01    0.1095372   0.09511458 -42.36 0.0006901574    1.496    0.332
        77 -10.4768    145.5376    240.4986   1.1163946581e+02   6.4677617261e+00    0.2215836   0.08459852  38.96 0.0007223913    2.257    0.557
        78 -10.4983     70.9474    187.0598   1.2290327368e+02   2.6949925305e+01    0.3007329    0.1748658  32.02 0.0003415804    1.527    0.345
        79 -11.8299     58.7309    185.0646   1.2602597664e+02   2.9005666680e+01     0.264729    0.2499831  36.18  0.000430479    1.146    0.127
        80  -8.6289    107.4741    185.5156   1.1300681754e+02   2.1917831914e+01    0.1426093    0.1258306  36.02 4.018835e-05    1.003    0.003
        81  -9.3499     29.2771    184.3226   1.3405198667e+02   3.2514006518e+01    0.2942261    0.1902663 -46.16  0.001228997    1.992    0.498
        82  -9.9059     36.9522    180.3284   1.3164253473e+02   3.2663196196e+01    0.2673161    0.1863001 -66.04 0.0006518918    1.541    0.351
        83  -9.2342     27.0759    179.4156   1.3432868975e+02   3.3889829893e+01    0.2095751    0.1658149 -75.78 0.0004826784    1.322    0.244
        84  -9.6085     80.9683    178.5627   1.1911852235e+02   2.7489181140e+01    0.2346922    0.1893424 -41.23 0.0003226003    1.464    0.317
        85  -8.7000    111.3133    177.7814   1.1083133733e+02   2.2959460572e+01    0.2236378    0.1111426  24.37 0.0008684168    2.295    0.564
        86 -10.8941     70.2813    173.1906   1.2143584937e+02   3.0269655370e+01    0.2860458    0.2653794  -1.84 0.0005117163    1.254    0.202
        87 -11.6670    248.4725    171.9868   8.2126007935e+01   2.6042452074e+00    0.4854222    0.2827834 -24.12  0.003028365    1.438    0.305
        88 -11.5636    243.5521    155.2400   7.9790476301e+01   5.4909166394e+00    0.2927191    0.2216041 -48.09  0.001921397    1.639    0.390
        89 -11.7006    245.5716    162.6220   8.0861055016e+01   4.2172448762e+00    0.4259555    0.1731999 -36.64  0.002175649    2.101    0.524
        90 -10.7174    249.5108    161.4996   8.0101028437e+01   3.8500268579e+00    0.2699862    0.1821527 -26.16  0.001796368    1.195    0.163
        91 -10.6444    248.2930    157.5686   7.9553981095e+01   4.5344776251e+00    0.2354542    0.1824486  38.88  0.001646573    1.582    0.368
        92 -10.8502     54.2751    171.9729   1.2591756263e+02   3.2672050751e+01    0.4853759    0.2251402  42.02  0.001730296    1.860    0.462
        93  -9.5089     18.1633    172.5141   1.3639445698e+02   3.6370952172e+01    0.2602677    0.1499548  46.01  0.001179146    1.478    0.324
        94 -11.7550     11.1905    170.4300   1.3825565436e+02   3.7460225900e+01    0.8237087    0.2500896  47.45  0.003322553    2.629    0.620
        95 -11.6787     12.1806    167.1899   1.3780288268e+02   3.8166881916e+01    0.4934298    0.2573682  20.28  0.002421115    2.009    0.502
        96 -10.9198      2.4829    172.3934   1.4077585155e+02   3.7653953504e+01    0.3602749    0.1752919  56.22  0.001349105    1.734    0.423
        97 -11.7281     39.0017    167.9427   1.3000129691e+02   3.5443160233e+01    0.3249778    0.2679382 -46.46 0.0004130927    1.440    0.306
        98  -9.6454     91.6728    168.5741   1.1470909240e+02   2.8181313016e+01     0.252867    0.2010217  32.71 0.0006000437    1.174    0.148
        99 -11.6332      9.5264    164.5059   1.3842917700e+02   3.9031773804e+01    0.6100175    0.3218094 -32.13  0.002685744    2.986    0.665
       100 -11.9289     78.4962    165.1095   1.1796981228e+02   3.1023451402e+01    0.5971199    0.4683734  24.48  0.003111893    1.301    0.231
       101 -10.9572     82.3070    157.5449   1.1570501504e+02   3.2275210129e+01    0.3972425    0.3307353  62.63  0.001606205    1.198    0.165
       102 -14.7669     14.7946    242.6154   1.4025249343e+02   2.1676135220e+01     3.251728     1.106126  31.36   0.01660386    2.141    0.533
       103  -9.7465     68.1064    166.1565   1.2116561005e+02   3.2266456980e+01    0.2151401    0.1922294  58.38 0.0004897595    1.033    0.032
       104  -9.7578     27.2460    171.7684   1.3374827140e+02   3.5713871717e+01    0.2526758    0.2035216 -39.51 0.0004414921    1.559    0.359
       105  -9.9467     24.0805    162.0849   1.3397082578e+02   3.8400587596e+01    0.1865045    0.1790689 -53.76   0.00050184    1.230    0.187
       106  -8.7825     66.7917    161.3664   1.2092145690e+02   3.3624550675e+01    0.1886331    0.1343291  21.32 0.0002281459    1.501    0.334
       107  -8.5325     28.6648    160.7233   1.3247731637e+02   3.8307243858e+01    0.1301385    0.1022229 -33.51 0.0005521628    1.607    0.378
       108 -11.3654      9.9971    157.0919   1.3789115206e+02   4.0827988201e+01    0.3998269    0.1746287  62.64  0.001754751    2.181    0.541
       109 -11.0335     21.7796    155.6756   1.3419311214e+02   4.0218753835e+01    0.3225252    0.2659635 -69.34  0.001900285    1.259    0.206
       110  -8.5851    228.4684    155.4650   8.2066884392e+01   7.6037251021e+00    0.1215346    0.1020247 -18.41 0.0001069759    1.047    0.045
       111  -9.5318     47.0000    153.9732   1.2610941103e+02   3.8043085721e+01    0.2177817   0.07922058 -71.23 0.0003493826    2.785    0.641
       112 -10.5730     12.8316    153.6673   1.3682272534e+02   4.1469504283e+01    0.2329275    0.1674793 -71.28 0.0006901034    1.379    0.275
       113 -11.0150    249.4269    150.8848   7.8163757324e+01   5.2812025533e+00    0.3037927    0.2246675 -38.81  0.002061264    1.351    0.260
       114  -8.9968     53.9910    151.7669   1.2361942185e+02   3.7747066468e+01    0.3006577    0.1451586 -44.51 0.0008724902    2.637    0.621
       115 -10.7479     92.9823    150.0238   1.1125940697e+02   3.2371416264e+01    0.3142701    0.2948345  -2.99 0.0008190659    1.181    0.153
       116 -11.1843     23.5932    149.9494   1.3316915277e+02   4.1515276253e+01    0.3459675    0.1898689  44.91  0.001661699    1.649    0.394
       117 -10.5896     32.2844    153.6236   1.3073059928e+02   3.9746841194e+01    0.2486867    0.2239812  67.80 0.0003402045    1.022    0.021
       118 -10.2083     80.9281    148.4795   1.1464514514e+02   3.4721246960e+01    0.2714776    0.2483256  53.15 0.0008212805    1.020    0.019
       119  -9.3683     58.7186    147.1082   1.2146997008e+02   3.8322821331e+01    0.3268775    0.1465435 -42.77  0.001152597    3.054    0.673
       120 -11.7938     68.3318    143.8484   1.1786555839e+02   3.7810014639e+01    0.7420267    0.4371853  64.62  0.002182105    2.081    0.519
       121 -13.2789      6.3472    143.4113   1.3824807546e+02   4.4540266026e+01    0.9945176    0.7069108 -76.46  0.005641439    1.326    0.246
       122 -11.5679    170.3050    247.6766   1.0760083359e+02   2.3179688242e+00    0.4188499    0.2102436   4.43  0.001956552    3.008    0.668
       123 -13.3045     12.9610    101.4728   1.3235093882e+02   5.5092179064e+01    0.9567612    0.6769794  28.11  0.005160398    1.480    0.324
       124 -13.1976      3.7623    121.5793   1.3775798271e+02   5.0341355228e+01    0.9857872    0.6526288  72.26  0.005296153    1.413    0.292
       125 -12.1253    247.3682    112.7937   7.1054857845e+01   1.0822648693e+01    0.4510393    0.3532741  34.82  0.003045804    1.538    0.350
       126 -11.9805    248.3605    142.3096   7.6696873868e+01   6.5940435760e+00     0.538689    0.3721691 -12.37  0.003444881    1.420    0.296
       127 -12.8177    248.4224    134.1017   7.5118049189e+01   7.7125071262e+00     1.213699    0.5380535 -26.80  0.005952273    2.195    0.544
       128  -9.0177     96.5339    146.0403   1.0947361952e+02   3.2725064033e+01    0.2121428    0.1515933 -58.29 0.0003414843    1.478    0.323
       129  -9.9745    133.1229    141.1936   9.8311971524e+01   2.7030444291e+01    0.3616522    0.2209967 -57.41 0.0009728573    1.892    0.472
       130 -13.0592    248.2772    101.6133   6.8691138919e+01   1.2222090208e+01     1.025842     0.509536 -29.50   0.00540611    1.800    0.444
       131  -9.3002     44.7621    139.6221   1.2507787657e+02   4.2019515010e+01    0.2083342    0.1199103  39.26 0.0005303511    1.616    0.381
       132  -9.7922    106.7480    135.6319   1.0437439092e+02   3.3366399714e+01    0.3916043    0.2566963 -18.49  0.001515914    2.497    0.599
       133  -8.8991     93.4557    133.4000   1.0793175209e+02   3.6344166888e+01    0.1530678    0.1450193  41.03 0.0001572365    1.037    0.036
       134  -9.7610     44.2695    129.9660   1.2393232122e+02   4.4620924910e+01    0.2035127     0.180004 -86.08 0.0005064676    1.090    0.083
       135  -9.4505     58.9112    127.6945   1.1836881463e+02   4.3343407855e+01    0.2071327    0.1864963  50.50 0.0003857725    1.067    0.063
       136  -9.0761     66.6566    126.6923   1.1547032644e+02   4.2482904450e+01    0.1550904    0.1176142 -22.83 0.0007043508    1.693    0.409
       137 -11.7742     21.8900    125.1755   1.3144402571e+02   4.8136546711e+01    0.5160798    0.2180446  49.37  0.002072924    2.384    0.580
       138 -12.1525     15.9236    120.3722   1.3316759073e+02   4.9876156832e+01    0.5147342    0.2471893  81.60  0.001981804    2.259    0.557
       139  -8.5523    209.6999    125.7011   7.9002963471e+01   1.5211539107e+01    0.1297394   0.09725118  -0.82 0.0003523489    1.579    0.367
       140  -8.8312     41.4889    123.3808   1.2398443549e+02   4.6690025820e+01    0.1415875    0.1355311  67.03 0.0007980476    1.037    0.036
       141  -9.5932    235.9938    145.9890   7.9121913352e+01   7.8613460981e+00    0.1861171    0.1277871  -4.63 0.0004468226    1.598    0.374
       142 -11.1525    239.0234    120.8206   7.3721672330e+01   1.1006745406e+01    0.3999706     0.158595 -26.41  0.001642712    2.946    0.661
       143 -10.7918    232.0202    116.4803   7.3762905902e+01   1.2775593969e+01    0.2409056    0.1508381 -45.99 0.0008248532    1.532    0.347
       144  -9.1950    167.9584    112.9917   8.3666003838e+01   2.5596777471e+01    0.2380746    0.1816715 -80.93  0.001130428    1.789    0.441
       145  -9.3792    234.2965    125.3269   7.5269654636e+01   1.1109251238e+01    0.1230364   0.08753449  -5.60 0.0002589513    1.630    0.386
       146  -9.7901     29.8023    108.1969   1.2626091432e+02   5.1962173563e+01    0.2012163    0.1562049 -42.81 0.0004921113    1.363    0.266
       147  -8.5229     71.7282    100.3130   1.0792186569e+02   4.8452509895e+01    0.1544716    0.1184459  74.21 0.0002797882    1.554    0.356
       148 -12.6146      8.4561    113.0434   1.3533367936e+02   5.2310911756e+01    0.6810241    0.3243477 -84.04  0.003019347    1.963    0.491
       149  -9.5253    161.4652     79.5263   7.6245444478e+01   3.3154219675e+01    0.1478902    0.1398108 -71.84 0.0003189275    1.012    0.011
       150 -11.5511      3.3536    133.1914   1.3863880118e+02   4.7351248496e+01    0.4873371    0.3486227  70.01  0.001423153    1.261    0.207
       151 -10.9666    249.7253    117.9540   7.1798153467e+01   9.7456327708e+00    0.3326672    0.2003806 -23.24  0.001301252    1.584    0.369
       152 -11.1400     74.1164    244.4854   1.2746335909e+02   1.4957707028e+01    0.3351599    0.2537962 -57.00  0.002243041    1.703    0.413
       153 -11.5031    244.9812    240.8453   9.3688684434e+01  -5.1779464478e+00    0.1916629    0.1162279 -27.95  0.001413381    1.596    0.373
       154 -11.8093    179.7499    243.8311   1.0529812727e+02   1.6743432710e+00    0.3416411    0.1940416  17.68  0.001629158    1.502    0.334
