#   1 NUMBER                 Running object number                                     
#   2 MAG_AUTO               Kron-like elliptical aperture magnitude                    [mag]
#   3 X_IMAGE                Object position along x                                    [pixel]
#   4 Y_IMAGE                Object position along y                                    [pixel]
#   5 X_WORLD                Barycenter position along world x axis                     [deg]
#   6 Y_WORLD                Barycenter position along world y axis                     [deg]
#   7 A_WORLD                Profile RMS along major axis (world units)                 [deg]
#   8 B_WORLD                Profile RMS along minor axis (world units)                 [deg]
#   9 THETA_WORLD            Position angle (CCW/world-x)                               [deg]
#  10 FWHM_WORLD             FWHM assuming a gaussian core                              [deg]
#  11 ELONGATION             A_IMAGE/B_IMAGE                                           
#  12 ELLIPTICITY            1 - B_IMAGE/A_IMAGE                                       
         1  -8.7386    228.8519     15.6049   2.5926026976e+02  -6.0667058983e+01   0.02783522    0.0152079 -56.60 0.0009505129    1.743    0.426
         2  -8.3464     93.2199     12.0151   2.5626243712e+02  -5.6061251250e+01   0.02889645   0.02577737 -79.31 0.0003145958    1.128    0.114
         3  -7.8131    118.4952     12.2808   2.5673861429e+02  -5.6928175587e+01   0.04039097   0.01776383   0.58  0.001012818    2.880    0.653
         4  -8.3464    109.6567     11.0650   2.5649937759e+02  -5.6636210070e+01   0.03098848   0.02613375  86.12 0.0003465346    1.231    0.188
         5  -7.0370     46.6823     11.6944   2.5545098107e+02  -5.4462194919e+01     0.019567   0.01279005  53.97 0.0004625825    1.629    0.386
         6  -9.3425     51.8476    248.5530   2.6875745803e+02  -5.1645727606e+01   0.06270578   0.04124651   5.98  0.002283249    1.806    0.446
         7 -16.7039      9.4056    236.4559   2.6708878165e+02  -5.0471429145e+01    0.3815713    0.3162098  54.50   0.01622904    1.288    0.223
         8  -9.8309     97.0095    211.6560   2.6798354885e+02  -5.3659984064e+01   0.04228492    0.0291715  32.58  0.000716895    1.429    0.300
         9  -9.7567     56.3164    210.6835   2.6689056875e+02  -5.2361875557e+01   0.04347979   0.03030645 -33.11 0.0009213271    1.578    0.366
        10  -9.7254     55.2335    207.2607   2.6668186596e+02  -5.2377135096e+01   0.04759725    0.0333107 -13.92  0.001192311    1.715    0.417
        11  -8.3597     77.4980    226.9759   2.6829436734e+02  -5.2798296743e+01   0.04001448    0.0272418  50.15  0.001507959    1.596    0.374
        12  -7.6485    129.6531    206.1969   2.6856514868e+02  -5.4793471352e+01   0.02573353   0.01582732  36.53 0.0002775971    1.602    0.376
        13  -8.2458     72.5559    227.1706   2.6817621318e+02  -5.2636901284e+01   0.03481747   0.02572705 -62.05  0.001133135    1.342    0.255
        14  -8.8197    103.3628    210.0489   2.6806444157e+02  -5.3889028734e+01   0.03405363   0.02926365  78.45  0.000607493    1.276    0.217
        15  -7.6809    103.3317    203.4192   2.6770038343e+02  -5.3989338753e+01   0.03483635    0.0182998 -70.84 0.0008380655    2.089    0.521
        16  -9.1185     40.4618    200.7753   2.6597952865e+02  -5.1991884731e+01   0.03355876   0.02922111 -44.57  0.001451664    1.145    0.127
        17  -7.9880    187.5702    196.4911   2.6968197789e+02  -5.6799954469e+01   0.03019115   0.02838296 -47.71  0.000505011    1.058    0.055
        18  -7.8216     58.7550    196.5807   2.6619693467e+02  -5.2646777013e+01   0.02517133   0.01616988 -52.09 0.0003466306    1.521    0.342
        19  -9.9774     40.9490    191.8187   2.6551482441e+02  -5.2135048975e+01   0.06293529   0.03765479  25.96  0.002277335    1.644    0.392
        20 -10.6697     33.3918    191.3503   2.6531281342e+02  -5.1895151400e+01   0.08362849   0.04258374 -45.70  0.002758035    2.018    0.505
        21  -9.5242     37.9920    185.9611   2.6513268318e+02  -5.2120686756e+01    0.0419225    0.0353002   5.56  0.001493031    1.234    0.190
        22  -9.0569     40.0974    183.0922   2.6502800027e+02  -5.2229474180e+01   0.04577758   0.02481459 -38.20 0.0009733908    2.088    0.521
        23  -9.2503     51.6374    190.5470   2.6570058976e+02  -5.2501555372e+01   0.04864958   0.03194451  53.90  0.001536552    1.716    0.417
        24  -8.2593     50.9276    181.9649   2.6522106039e+02  -5.2599499751e+01   0.02984873   0.02031796 -33.82  0.001110351    1.612    0.380
        25  -9.0089     64.1646    179.1925   2.6538561701e+02  -5.3071501247e+01   0.06605411   0.04195363   8.75  0.002378754    1.775    0.437
        26  -7.2875     82.3254    182.6587   2.6601945869e+02  -5.3615340535e+01   0.01987032   0.01321933 -29.49 0.0007051166    1.732    0.423
        27  -9.1361    114.9594    168.2224   2.6603503541e+02  -5.4889636223e+01   0.04637813   0.03373488  47.11   0.00102914    1.433    0.302
        28  -8.6256      7.0696    169.1104   2.6354139070e+02  -5.1334850964e+01   0.05666212     0.025522 -67.97  0.001239878    2.239    0.553
        29  -7.5168     53.9565    168.3268   2.6455047317e+02  -5.2887901903e+01   0.02467911   0.02259539 -66.40 0.0003245602    1.095    0.087
        30  -8.0133     74.4649    167.0498   2.6496439426e+02  -5.3579415151e+01   0.03208485   0.02523977  78.89 0.0004948246    1.438    0.305
        31  -8.3231     78.9887    162.3988   2.6481407482e+02  -5.3792771740e+01   0.04263324    0.0221151  40.97    0.0010517    1.948    0.487
        32  -8.7605     16.7417    163.5929   2.6345721558e+02  -5.1726159706e+01   0.03910514   0.01784081 -67.15  0.001222436    2.182    0.542
        33  -8.8847     12.1955    161.3577   2.6323925050e+02  -5.1605510070e+01   0.04152754   0.02499715 -64.44  0.001089247    1.631    0.387
        34  -7.0974    227.6709    161.7156   2.6882283701e+02  -5.8639486012e+01   0.01881126   0.01376114  65.45 0.0007007665    1.610    0.379
        35  -9.9491     25.1925    154.2039   2.6313531115e+02  -5.2128243310e+01   0.08225699   0.03176531  50.62  0.002109806    3.511    0.715
        36  -7.5677     86.2499    154.8832   2.6456658241e+02  -5.4135752146e+01   0.02479759   0.02047759  59.83 0.0007852215    1.298    0.230
        37  -9.7351     74.9920    149.6828   2.6400738128e+02  -5.3835123108e+01   0.05440129   0.03730201  38.15 0.0007118267    1.451    0.311
        38 -10.0870     69.0206    144.0419   2.6355241384e+02  -5.3713091973e+01   0.09313601   0.05301278 -33.64  0.002301991    2.062    0.515
        39  -8.1888     94.8326    150.0772   2.6450088640e+02  -5.4484929554e+01   0.02679515   0.02350234 -21.18 0.0003139879    1.189    0.159
        40  -7.1286     91.4327    150.4893   2.6444240850e+02  -5.4367093514e+01   0.01793505    0.0177211  31.35 9.686709e-05    1.018    0.017
        41  -8.6003     37.7288    144.7389   2.6289174290e+02  -5.2666463571e+01   0.03939579   0.02707852 -63.31  0.000546287    1.430    0.301
        42  -9.3003     30.3705    140.7987   2.6251658281e+02  -5.2472845014e+01   0.06305665   0.03075309  63.49  0.001757791    3.123    0.680
        43  -8.3951      1.8605    141.9443   2.6198177217e+02  -5.1511303190e+01   0.02587017   0.02506658 -25.63 0.0002928312    1.029    0.029
        44  -8.4013     93.1650    135.1131   2.6360541282e+02  -5.4632541181e+01   0.02842255   0.02619543 -76.42 0.0005483647    1.101    0.092
        45  -8.0374     35.9177    135.3354   2.6233474920e+02  -5.2726829526e+01   0.02443277   0.02338207 -81.91 0.0004436739    1.063    0.059
        46  -7.1952    141.7088    132.6638   2.6464844339e+02  -5.6272988059e+01   0.01941415   0.01324201  55.72 0.0007023481    1.639    0.390
        47 -10.2611     25.0232    131.4961   2.6189324886e+02  -5.2412321916e+01    0.0336493   0.03184176 -78.51  0.000383625    1.073    0.068
        48  -7.0749     77.2023    128.3545   2.6285053283e+02  -5.4190884807e+01   0.02445327   0.01620014 -57.59 0.0003657838    1.465    0.317
        49  -8.5305    173.3137    118.0450   2.6457892694e+02  -5.7519700610e+01   0.03141779   0.02545081 -56.47 0.0007102322    1.216    0.177
        50  -7.4023    186.6833    116.4351   2.6483355544e+02  -5.7983430818e+01   0.02351761   0.01781425 -85.04 0.0004156433    1.448    0.309
        51  -7.2929     54.4886    116.4677   2.6167668198e+02  -5.3583407714e+01   0.01790767    0.0178367  50.20 0.0008096513    1.014    0.013
        52  -7.8015    107.0824    111.0682   2.6252960759e+02  -5.5410893951e+01   0.02803674   0.02302814  62.33            0    1.305    0.234
        53  -7.4367     53.0445    109.2225   2.6123564079e+02  -5.3624145498e+01   0.02492982   0.01498972 -70.89 0.0008772177    1.681    0.405
        54  -8.2260    100.9611    106.9197   2.6214541480e+02  -5.5259024545e+01   0.02623146   0.02532486  52.86 0.0003023775    1.050    0.048
        55  -7.2672     49.5116    104.4960   2.6089391904e+02  -5.3562801471e+01   0.01819167   0.01757995 -31.23 -0.0001083823    1.034    0.033
        56  -7.7535     70.3321    101.1021   2.6113510972e+02  -5.4303556552e+01   0.02502302   0.02268011  15.45  0.000456165    1.106    0.096
        57  -7.3527      3.0000     97.0057   2.5955871586e+02  -5.2085794365e+01    0.0308559   0.01027599  18.55 0.0008097043    2.993    0.666
        58  -6.9567     75.6723     96.6861   2.6099251298e+02  -5.4536709936e+01   0.01965932   0.01311608  57.01 0.0007043458    1.670    0.401
        59  -7.3786    143.0000     93.7139   2.6232613954e+02  -5.6834807740e+01   0.02416674   0.02308496 -65.45 0.0003465436    1.045    0.043
        60  -8.9646     74.9808     89.3653   2.6055151023e+02  -5.4601174834e+01   0.03994023   0.02574441  27.77 0.0003785478    1.509    0.337
        61  -8.1575    126.1542     74.6297   2.6077023295e+02  -5.6504376520e+01   0.02785515   0.02433867  -2.00 0.0003450968    1.182    0.154
        62  -7.2168     75.0245     73.2543   2.5960781958e+02  -5.4790409602e+01   0.02253179   0.01565897 -72.19 0.0003499561    1.448    0.309
        63  -8.5415    165.8040     59.2879   2.6070527990e+02  -5.8027317120e+01    0.0314524   0.02694716  36.88 0.0002910566    1.167    0.143
        64  -7.8499    247.1568     58.9036   2.6270461332e+02  -6.0762521219e+01   0.02666386   0.02374857 -36.16 0.0002789871    1.136    0.120
        65  -7.8409    180.9602     58.4611   2.6100547299e+02  -5.8548827935e+01     0.028132   0.01766711 -67.25 0.0005258751    1.569    0.363
        66  -8.8366    191.0862     49.1057   2.6063467901e+02  -5.9002697556e+01   0.02843917   0.02404833  53.15            0    1.225    0.184
        67  -7.2350    118.5415     49.5239   2.5906295749e+02  -5.6536644852e+01   0.01791534   0.01786539  -6.13 6.912256e-05    1.005    0.005
        68  -8.0364     82.4415     49.2105   2.5832470958e+02  -5.5309735777e+01   0.02684703   0.01741455  -3.01  0.000961363    1.726    0.420
        69  -9.9435    196.1236     45.9858   2.6054806791e+02  -5.9209866382e+01   0.06727632   0.03030963  52.29   0.00194166    2.735    0.634
        70  -9.7333    202.3478     40.2533   2.6031450249e+02  -5.9487729498e+01   0.06274135   0.03349202  40.85  0.001593835    1.885    0.470
        71  -8.8477    206.0151     31.7807   2.5983298387e+02  -5.9710007203e+01   0.03093945   0.02543331  32.42 0.0002171733    1.208    0.172
        72  -7.0167     72.2825     26.6963   2.5678355580e+02  -5.5196525274e+01    0.0190256   0.01298263 -34.43 0.0002162568    1.555    0.357
        73  -8.0567     88.9049     23.9621   2.5691760515e+02  -5.5794483482e+01    0.0266164   0.02576953  15.58            0    1.034    0.033
        74  -7.6689    221.9594     21.7540   2.5952357172e+02  -6.0364419898e+01   0.02331529   0.01549918 -72.75 0.0002441005    1.518    0.341
        75  -8.9143    221.4324     15.6813   2.5909367213e+02  -6.0414302207e+01   0.03329043   0.02207191  73.21 0.0009434344    1.763    0.433
        76  -7.1096    127.2883    223.3248   2.6944516528e+02  -5.4446836475e+01   0.01888536   0.01356167  59.53 0.0003161652    1.608    0.378
        77  -6.9907    105.5053    244.5265   2.6998066580e+02  -5.3413752597e+01   0.01823546   0.01736231  64.48 0.0008085371    1.089    0.081
        78  -7.8038    250.3185    241.1430   2.7429795240e+02  -5.7985416259e+01   0.03850977   0.01423329  38.27  0.001098568    2.597    0.615
        79  -7.5408     76.4905    232.3171   2.6855089127e+02  -5.2683576257e+01   0.03129958   0.01666525 -64.21  0.001047799    1.889    0.471
