#   1 NUMBER                 Running object number                                     
#   2 MAG_AUTO               Kron-like elliptical aperture magnitude                    [mag]
#   3 X_IMAGE                Object position along x                                    [pixel]
#   4 Y_IMAGE                Object position along y                                    [pixel]
#   5 X_WORLD                Barycenter position along world x axis                     [deg]
#   6 Y_WORLD                Barycenter position along world y axis                     [deg]
#   7 A_WORLD                Profile RMS along major axis (world units)                 [deg]
#   8 B_WORLD                Profile RMS along minor axis (world units)                 [deg]
#   9 THETA_WORLD            Position angle (CCW/world-x)                               [deg]
#  10 FWHM_WORLD             FWHM assuming a gaussian core                              [deg]
#  11 ELONGATION             A_IMAGE/B_IMAGE                                           
#  12 ELLIPTICITY            1 - B_IMAGE/A_IMAGE                                       
         1 -13.8318    211.6126      3.3235   5.3475104203e+01   3.2620148706e+01     1.222967    0.5026364  63.38  0.004361809    2.167    0.539
         2 -15.1509    188.5749     32.2738   6.2074344837e+01   3.4439123970e+01     2.257501      1.54743  19.18   0.01120098    2.797    0.642
         3 -12.0665    216.7790     18.2458   5.5962551228e+01   2.9895699768e+01    0.2472639    0.1707861  72.15  0.000925265    1.325    0.245
         4 -17.0733     66.5656    248.3595   1.3405128354e+02   1.3216874866e+01     9.967364      3.37591  28.03   0.02550796    6.626    0.849
         5 -11.2482     44.6046    210.7016   1.3477122532e+02   2.4517298149e+01    0.3075728    0.1671828  57.57 0.0008832398    1.812    0.448
         6 -11.7615     40.0721    207.9364   1.3546956822e+02   2.5721596485e+01    0.2404375    0.1656052  46.24 0.0006576707    1.449    0.310
         7 -12.4183     57.0892    212.6034   1.3223710822e+02   2.2456808635e+01    0.4300678    0.2721507  46.00  0.001266858    1.520    0.342
         8 -11.8585     64.4346    208.8203   1.3013910716e+02   2.2343281992e+01    0.5148026    0.3987431 -32.55  0.002607267    1.824    0.452
         9 -12.5750     62.1307    203.9632   1.3005981992e+02   2.3823195734e+01    0.4587647    0.2727906 -51.88  0.001840019    1.812    0.448
        10 -11.6260     48.4601    217.3865   1.3464204884e+02   2.2473906582e+01    0.3202999    0.2185208  38.02  0.001193295    1.563    0.360
        11 -17.2880     31.4858    242.2093   1.4031145022e+02   1.9062577410e+01     9.744094     3.601218 -58.41   0.04475874    2.930    0.659
        12 -10.5650     80.0114    220.7361   1.2813512369e+02   1.7297185704e+01    0.3601945    0.1864598  42.05  0.001676462    1.811    0.448
        13  -9.7405     93.8410    205.3667   1.2285283040e+02   1.8722856103e+01    0.2250962     0.173089  -2.09 0.0008651266    1.991    0.498
        14 -10.4610     95.3830    200.7513   1.2178555809e+02   1.9573034819e+01     0.357891    0.2296719  84.85  0.001109186    2.033    0.508
        15  -9.8186    163.2694    203.9739   1.0649421056e+02   6.7559367365e+00    0.1968531     0.186656 -36.97 0.0003321568    1.070    0.065
        16 -10.4272    156.5348    202.0422   1.0764706182e+02   8.4090646918e+00    0.3069175    0.2080668 -88.19  0.001242903    2.564    0.610
        17 -11.5833    155.0789    196.9446   1.0702079522e+02   9.7964821956e+00    0.5835859    0.3576457 -80.28   0.00200933    3.320    0.699
        18 -10.4376     85.6841    201.3452   1.2418576163e+02   2.0983136380e+01    0.4805168    0.1875719  55.52   0.00155224    3.626    0.724
        19 -12.8396    112.8112    196.1830   1.1685411400e+02   1.7710020599e+01    0.6139838     0.413287 -13.07  0.002441823    2.750    0.636
        20 -12.2299    193.3813    192.8185   9.7823080450e+01   3.5789773884e+00    0.9161017    0.4781107 -54.37  0.003103481    2.262    0.558
        21 -10.6816     77.3525    207.5192   1.2700984049e+02   2.0781098382e+01    0.4122148     0.287161 -51.62  0.001537933    1.554    0.357
        22 -10.3101    209.8673    199.1594   9.5722726669e+01  -5.5307289487e-01    0.2022264    0.1877511 -61.82 0.0005303386    1.294    0.227
        23 -10.5125     82.1180    195.1720   1.2412476685e+02   2.3035996938e+01    0.2675619    0.2396755 -58.06  0.001517597    1.182    0.154
        24 -12.9990     71.4230    190.4011   1.2601902519e+02   2.5814360910e+01    0.7721765    0.6808257 -49.03  0.003645109    1.269    0.212
        25 -19.1397     18.2252    105.4136   1.2684624524e+02   5.2690437035e+01      17.0927    0.9936857 -62.94   0.03117491   12.874    0.922
        26 -11.8757    110.1053    189.1579   1.1629672456e+02   1.9873487098e+01    0.3135983    0.1978464 -52.82  0.001054229    1.573    0.364
        27 -10.9097     73.7147    181.3052   1.2407837244e+02   2.7741877806e+01    0.3527398    0.3290221  70.58  0.000979485    1.089    0.082
        28 -11.8956    115.8904    182.7461   1.1370799577e+02   2.0398630815e+01    0.3639822    0.2063484 -41.33  0.001473606    2.018    0.504
        29 -10.3559     29.5559    193.0732   1.3624641900e+02   3.0468327401e+01    0.1998059    0.1377171  44.74 0.0006824525    1.514    0.339
        30 -11.2539     99.5034    180.7786   1.1746274900e+02   2.3764544692e+01    0.2734018    0.2619974  68.25 0.0005931901    1.062    0.058
        31 -11.6762    145.3491    179.4769   1.0587863118e+02   1.5624294704e+01    0.2958068     0.257667 -43.24  0.001458489    1.156    0.135
        32 -11.6586    137.5017    170.9254   1.0603181514e+02   1.9171462840e+01    0.2854746    0.2284559  41.77 0.0006415528    1.268    0.211
        33 -11.9370    194.9972    168.2226   9.2428726016e+01   8.3724960157e+00    0.6660605    0.4239192 -64.59 0.0009697575    2.137    0.532
        34 -12.7962     69.3887    218.4711   1.3020714580e+02   1.9380294759e+01    0.3383532    0.2565258  84.75 0.0008530135    1.241    0.194
        35 -10.2242     71.8312    229.6215   1.3098236445e+02   1.6499364237e+01    0.1801663    0.1364495  55.27 0.0003443762    1.187    0.158
        36 -12.6158     97.8555    154.8416   1.1295270694e+02   3.0531002568e+01     0.744734    0.4714016 -35.58   0.00314943    1.904    0.475
        37 -11.1549    189.5268    155.3576   9.0777125930e+01   1.2187568355e+01    0.3935215    0.3308825 -54.45  0.001406865    1.172    0.147
        38 -11.6706    133.8869    144.9549   1.0126516194e+02   2.6097594282e+01      1.22111    0.3057122 -53.88  0.002856722    5.249    0.809
        39  -9.7467     61.0914    228.4054   1.3312412231e+02   1.8286362603e+01    0.1786061    0.1181047  41.48 0.0009786527    1.488    0.328
        40 -10.4951    174.9194    149.1559   9.2508813908e+01   1.6548257334e+01    0.2409259    0.2129827 -86.31 0.0006429881    1.259    0.206
        41 -11.2554    145.7313    147.1263   9.8812173719e+01   2.3141381669e+01    0.3471827    0.2238672  48.89  0.001479888    1.613    0.380
        42 -11.8639    108.5509    140.0233   1.0682661776e+02   3.2261190630e+01    0.6242968    0.3351688 -35.11  0.002301733    2.382    0.580
        43 -12.4496     97.0638    140.1427   1.1003761037e+02   3.4316302597e+01    0.3023801    0.2838362 -25.80 0.0004259222    1.129    0.114
        44 -11.3719     78.9599    133.9600   1.1386374642e+02   3.8838391893e+01    0.4011039    0.2905957 -40.94  0.001476644    1.380    0.276
        45 -11.1470    105.9913    130.9784   1.0542999214e+02   3.4918090007e+01     0.380448    0.3287553 -73.67  0.001288317    1.238    0.192
        46 -11.3285    103.3356    126.6703   1.0514438937e+02   3.6434472597e+01    0.3119158    0.2602245 -27.54 0.0006490686    1.295    0.228
        47 -11.7748    115.8158    130.2854   1.0255584646e+02   3.3200120156e+01    0.4754086    0.3567227   2.99  0.001167324    1.874    0.466
        48 -11.6803    136.0725    122.7616   9.5371828095e+01   3.0775535039e+01    0.4676661    0.2836717 -51.82   0.00168212    1.664    0.399
        49 -10.0317    125.6682    127.3702   9.9206265938e+01   3.1902955768e+01    0.1661262    0.1244043  89.96 0.0007029945    1.832    0.454
        50 -11.3083    120.2618    124.3377   9.9895277598e+01   3.3700390453e+01    0.2935167    0.1855573 -36.71 0.0008556733    1.710    0.415
        51 -10.5840    110.9142    119.2195   1.0117117657e+02   3.6726620867e+01     0.250518    0.2155332 -44.72 0.0004657088    1.129    0.114
        52 -10.4234    168.1816    112.8541   8.5368525897e+01   2.5828208786e+01    0.3421062    0.2252109 -65.65 0.0009043973    1.866    0.464
        53 -10.7184    160.6536    127.8893   9.0721711351e+01   2.4304814988e+01     0.389504     0.237232 -63.04  0.001531142    2.060    0.515
        54 -11.5923    119.6730    110.5862   9.6537844526e+01   3.6903601808e+01    0.5194975    0.2574994  63.23  0.001523095    4.200    0.762
        55 -10.3930    205.6696    110.1258   7.7468233947e+01   1.8076109045e+01    0.2615495    0.2130817  51.31 0.0006444759    1.341    0.254
        56 -12.2065     73.4936    212.8378   1.2859146858e+02   2.0096368375e+01    0.2796327    0.2195124 -87.83 0.0005930961    1.196    0.164
        57  -9.8516     65.3256    100.3154   1.1010611198e+02   4.8727444851e+01    0.1465434    0.1015185 -20.64 0.0006004202    1.669    0.401
        58 -10.9949     36.4115    223.3646   1.3775103972e+02   2.2599805300e+01    0.2118602    0.1562465  70.09 0.0005293142    1.158    0.136
        59  -9.6418    129.0485     95.5419   9.0024241545e+01   3.8068601387e+01    0.2193061    0.1323842  70.27 0.0008090754    2.660    0.624
        60  -9.8862     41.7153     91.9321   1.1592718004e+02   5.3512830790e+01    0.1807944    0.1517316 -41.49 0.0004201361    1.047    0.044
        61 -11.8278    168.5158     68.1948   7.3979618500e+01   3.3999154347e+01    0.6796028    0.3700802 -80.31  0.002224083    4.099    0.756
        62 -10.0632    198.8652    222.6638   1.0235529549e+02  -3.1155139899e+00    0.1860053    0.1598096  26.52 0.0005073245    1.138    0.121
        63  -9.6940     51.4816     60.7212   1.0348474400e+02   5.8430888132e+01     0.210917    0.1065407  31.53 0.0007681006    2.004    0.501
        64 -12.5684    183.5770    215.2661   1.0417446330e+02   8.3738278003e-01    0.4893375    0.4217583 -37.04  0.002806657    1.173    0.148
        65 -13.7075    174.0337     47.0266   6.7678869421e+01   3.5863982367e+01    0.5878732    0.5656574 -46.37 0.0008082784    1.210    0.173
        66 -11.2275     41.7314    214.0596   1.3574061905e+02   2.4087272817e+01    0.3706434    0.1491899  51.84  0.001612583    2.443    0.591
        67 -12.7211     53.4025    220.7526   1.3393940746e+02   2.1056966043e+01    0.2989085    0.2057397  72.57 0.0006422782    1.351    0.260
