#   1 NUMBER                 Running object number                                     
#   2 MAG_AUTO               Kron-like elliptical aperture magnitude                    [mag]
#   3 X_IMAGE                Object position along x                                    [pixel]
#   4 Y_IMAGE                Object position along y                                    [pixel]
#   5 X_WORLD                Barycenter position along world x axis                     [deg]
#   6 Y_WORLD                Barycenter position along world y axis                     [deg]
#   7 A_WORLD                Profile RMS along major axis (world units)                 [deg]
#   8 B_WORLD                Profile RMS along minor axis (world units)                 [deg]
#   9 THETA_WORLD            Position angle (CCW/world-x)                               [deg]
#  10 FWHM_WORLD             FWHM assuming a gaussian core                              [deg]
#  11 ELONGATION             A_IMAGE/B_IMAGE                                           
#  12 ELLIPTICITY            1 - B_IMAGE/A_IMAGE                                       
         1 -11.0363     29.2635     16.5054   9.6229653728e+01   6.7559786115e+01    0.4299895    0.2096553  24.17  0.002488079    1.935    0.483
         2  -9.3007    171.8037      2.7598   5.7624643862e+01   4.1234248687e+01    0.1706294    0.1196711 -78.09 0.0008763287    1.371    0.271
         3  -8.3217     90.3281    246.6302   1.2912318987e+02   1.0219674789e+01    0.1425282   0.08625645  68.86  0.000703258    1.819    0.450
         4 -11.8959    232.6577    250.0742   1.0095309208e+02  -1.2601329242e+01    0.2101349    0.1596374  20.96 0.0004386645    1.206    0.171
         5 -10.3741    166.3830    249.5847   1.1380802935e+02  -2.6334251366e+00    0.4244277    0.2274119  23.70  0.001925126    2.225    0.551
         6 -10.7989    165.6174    244.0672   1.1311029323e+02  -1.5327410072e+00    0.3594827    0.2876184 -15.10  0.001490103    1.432    0.302
         7 -15.5645    111.6455     22.2756   7.2679586926e+01   5.2784895044e+01     3.273323     2.719666 -19.05   0.02136012    1.369    0.270
         8 -15.6171    121.5723     75.9050   8.6721122093e+01   4.3224593333e+01     6.821431     2.277585 -37.81   0.02315415    3.207    0.688
         9 -10.4290    237.7489    145.1794   8.0073494409e+01   4.7694915960e+00    0.5220354    0.3054339  39.55  0.002514212    2.077    0.518
        10  -9.8960    250.5752    149.9590   7.9007614985e+01   1.6512667875e+00    0.6901976    0.1112404 -43.04  0.001861138    5.174    0.807
        11 -10.7242    237.7490    110.8860   7.2952538343e+01   1.1142980212e+01     1.045006    0.2956473 -53.22  0.002824668    5.369    0.814
        12 -10.1335    248.5355    139.6189   7.7244142336e+01   3.8914258122e+00    0.8093954     0.204113 -48.86  0.002447252    4.225    0.763
        13  -9.9471    246.1124    132.0770   7.6081716409e+01   5.7038736767e+00    0.5738901    0.2190126 -52.28  0.001410592    2.810    0.644
        14 -10.2394    243.7272    125.0629   7.5005125188e+01   7.4247242261e+00    0.5049593      0.22884 -53.10  0.002123586    2.213    0.548
        15  -9.8474    241.5322    120.0306   7.4294804393e+01   8.7547632928e+00    0.3796617    0.2129997 -57.56  0.001389689    1.838    0.456
        16  -9.1510     13.9212    146.6460   1.3458549152e+02   4.3293696926e+01    0.2386242    0.1365052 -61.77 0.0006336611    1.407    0.289
        17  -9.7209    228.7338    144.4577   8.1420560964e+01   6.5608269608e+00    0.4060182    0.2330469  36.13   0.00140013    2.227    0.551
        18 -10.7336    229.2175    141.0019   8.0612186957e+01   7.1354119579e+00    0.4922215    0.3154703 -75.81  0.002104051    2.556    0.609
        19  -8.6231    220.2471    145.0490   8.3015746603e+01   8.0550728454e+00     0.204825    0.1666398 -43.26 0.0004342535    1.107    0.097
        20  -9.8103     57.4539    142.3248   1.2187366334e+02   3.9785200231e+01    0.3631715    0.2188871 -28.02  0.001557684    2.389    0.581
        21 -10.6735    114.8688    249.8639   1.2447616041e+02   5.7136787128e+00     0.498936    0.2407695  27.07   0.00127497    2.866    0.651
        22  -8.9028      2.4826    212.9417   1.4361118245e+02   2.8705918070e+01    0.1796749   0.09335261 -78.53 0.0006239607    1.546    0.353
        23 -10.4722    240.6443    137.3489   7.7998569285e+01   5.7151927459e+00    0.4017465    0.2919458  20.02  0.001721872    2.041    0.510
        24 -11.5450    209.9562    208.5297   9.7858907915e+01  -2.4039503319e+00     0.550079    0.3475488 -36.79   0.00191726    1.518    0.341
        25 -10.5447    214.7650    134.8849   8.1792320951e+01   1.1140452285e+01    0.3181401    0.2198846  52.69 0.0008669127    1.594    0.373
        26  -9.1862    222.8949    134.8292   8.0368341923e+01   9.5413428571e+00    0.2645301    0.1664085 -63.72 0.0006565428    1.926    0.481
        27 -10.9521     11.5751    206.6201   1.4132322311e+02   2.9257331786e+01    0.4169669    0.3268928  36.74  0.001928472    1.546    0.353
        28 -12.3179     47.6100    202.8124   1.3323618876e+02   2.6099191410e+01     1.301985    0.7371066 -86.50  0.006352987    1.800    0.444
        29  -8.8266    223.3598    129.0463   7.9047447428e+01   1.0569163442e+01    0.2394461    0.1880491 -78.65 0.0006564078    1.472    0.321
        30 -11.8671     53.1401    192.6998   1.3075127359e+02   2.7820504210e+01     1.153929    0.4788891 -78.42  0.004280445    2.968    0.663
        31 -15.3529    175.1536    167.4105   9.6819190400e+01   1.2351452394e+01     2.252662     1.407112 -75.53  0.008225956    2.902    0.655
        32  -9.7908    206.0301    123.0302   8.0723581661e+01   1.5286704873e+01    0.3173653    0.2261518 -59.28   0.00154706    1.416    0.294
        33 -11.0457    204.0570    200.6892   9.7531023411e+01   6.0282632463e-02     0.508819    0.3464544  -5.02  0.001688941    1.952    0.488
        34  -8.8020    231.8592    119.1042   7.5559124549e+01   1.0781815098e+01    0.2083721    0.1661332 -64.88 0.0003555854    1.219    0.179
        35 -10.4729    207.7569    111.1531   7.7741631026e+01   1.7232842435e+01    0.4743018     0.393803 -44.99  0.001519884    1.154    0.133
        36 -10.6179     25.3568    201.4190   1.3797742600e+02   2.9039373067e+01    0.4661916    0.2589236 -82.06  0.002471756    1.578    0.366
        37  -9.6750    191.3834    108.1159   7.9963085228e+01   2.1399040770e+01    0.3423651    0.2918896 -86.74   0.00092989    1.214    0.176
        38 -11.3406    215.7436    199.5965   9.5023157418e+01  -1.7156963575e+00    0.5678974    0.3650015 -60.05  0.002642544    2.190    0.543
        39  -8.7691    104.0823    250.0638   1.2671619864e+02   7.3911868303e+00    0.2065928    0.1339301  63.72 0.0004997113    1.591    0.371
        40  -8.4446     66.4880    232.4827   1.3245729714e+02   1.6748634507e+01    0.1317053    0.1101319  73.57 0.0002431403    1.006    0.006
        41 -10.0567     83.1551    224.3663   1.2796645879e+02   1.6086170111e+01    0.5440459    0.2775431 -72.87  0.002433311    2.172    0.540
        42 -11.3654    184.4530     98.7689   7.9024263779e+01   2.4755930752e+01    0.5389531    0.3282245 -41.81  0.002434944    1.614    0.380
        43 -10.5479    171.0376     96.3578   8.1036799741e+01   2.8283870998e+01    0.5140252    0.2903098  66.95 0.0003752183    2.164    0.538
        44  -9.8483    173.6767     91.6432   7.9332363208e+01   2.8562300990e+01    0.4804208    0.3227302  81.88  0.002126531    1.911    0.477
        45  -8.2168    250.4055    239.2220   9.5906569866e+01  -1.3334749473e+01    0.1456419    0.1022853 -38.54 0.0002839041    1.502    0.334
        46  -8.3201    229.8288    223.1378   9.6766363885e+01  -8.0396788572e+00    0.1783501    0.1294507 -14.04 0.0004223096    1.328    0.247
        47 -10.4412    212.1046    189.0181   9.3652635432e+01   9.0518716958e-01    0.5549043     0.366039 -41.50  0.002661026    1.422    0.297
        48 -11.5142     38.9220    190.2260   1.3376398694e+02   3.0181347454e+01    0.5933027    0.2745857 -52.03  0.002424101    2.285    0.562
        49  -9.4997     11.4942    219.3689   1.4233645895e+02   2.6398771825e+01    0.2593445    0.1204451  72.86  0.001286707    2.152    0.535
        50  -9.2870    232.1537    216.5612   9.5133589594e+01  -7.2907352219e+00    0.2498612    0.1633651 -29.55 0.0007401682    1.407    0.289
        51  -9.7008    225.4450     88.8086   7.0046808331e+01   1.7551287274e+01    0.2333879    0.2084989 -80.69 0.0002490361    1.081    0.075
        52 -12.4474     59.7784    193.6721   1.2931529056e+02   2.6698113837e+01     1.354519     0.520857 -65.01    0.0054102    2.381    0.580
        53 -10.5285    233.6574     79.1040   6.6897015615e+01   1.7486481615e+01    0.4473817    0.1920004  58.88  0.001987515    2.456    0.593
        54 -10.2444    220.5619    238.3730   1.0121103961e+02  -9.1492928922e+00    0.2621585    0.2327908 -46.23  0.001261854    1.442    0.307
        55 -10.1893     45.7672    173.0556   1.2993840508e+02   3.3581921360e+01    0.5238771     0.170149 -72.28  0.001713445    3.556    0.719
        56  -9.6199    223.6068    205.3786   9.4632591650e+01  -4.0467544249e+00    0.4596117     0.196656 -49.97  0.001463195    2.773    0.639
        57 -10.7031    168.5187     69.2281   7.4624996332e+01   3.3667556233e+01    0.3486993     0.248885 -82.54  0.001044962    1.662    0.398
        58  -8.6653    238.8734    173.1504   8.5564587905e+01  -6.5699300751e-01    0.1905381    0.1699473 -49.43 0.0003394045    1.177    0.151
        59 -11.7138    144.0420     59.1772   7.6725511660e+01   4.0932975096e+01    0.4784383    0.3713523  41.67  0.002077459    1.322    0.243
        60  -9.0003    234.5639    172.2372   8.6129709946e+01   2.3201959224e-01    0.2989225    0.1729143 -33.98  0.001289989    1.633    0.388
        61 -10.1174    233.0394     65.0170   6.4071465178e+01   1.9869784270e+01     0.261497    0.1725926 -86.79 0.0005166276    1.558    0.358
        62 -10.6350    231.0075    168.7030   8.6040708202e+01   1.5044689950e+00    0.5836243    0.2668817 -55.05  0.002098603    2.921    0.658
        63  -9.1381    239.5218    168.3020   8.4483651789e+01   1.3069146130e-01    0.2153865    0.1855603  35.67 0.0005985823    1.318    0.241
        64 -19.0642    139.8026    168.0623   1.0513361218e+02   1.9324812821e+01     6.006856     5.522889 -62.56   0.01788344    1.074    0.069
        65 -10.4315    238.6187    163.6110   8.3692435233e+01   1.1549752045e+00    0.3489186    0.2511669  45.90  0.001241569    1.605    0.377
        66 -10.3749    205.6516    244.1189   1.0506099050e+02  -7.8670119972e+00    0.3239148    0.2484408  71.80  0.001737178    2.407    0.585
        67 -10.5124     15.8996     49.5662   1.1398103739e+02   6.4070290430e+01    0.2901775    0.1813236 -20.77  0.001821136    1.442    0.306
        68 -10.9718    236.2694    151.7856   8.1676700180e+01   3.7867938776e+00    0.7425138     0.459848  28.23    0.0034837    2.270    0.560
        69 -11.3545      8.2591     45.7952   1.1602807142e+02   6.5305862596e+01    0.5274697    0.2754706  15.22  0.003173908    2.005    0.501
        70  -8.6179    178.4688     45.0265   6.6878983228e+01   3.4946952746e+01    0.2066423    0.1596061  73.61 0.0003692794    1.166    0.142
        71 -10.7872    153.2214     39.4373   6.9544859549e+01   4.1545905841e+01    0.4349621    0.3506382 -52.47  0.002580935    1.328    0.247
        72 -11.0580    144.2872     38.5458   7.0914817394e+01   4.3715771949e+01    0.5893249    0.1972838  62.22  0.002187781    2.875    0.652
        73 -10.5253    221.1922     40.1634   6.0314897368e+01   2.5998069999e+01    0.3356491     0.227078 -61.86  0.001208455    1.309    0.236
        74 -10.3593     23.5000    156.1689   1.3332728486e+02   4.0141662901e+01    0.4166029    0.2006903 -52.86    0.0019983    1.886    0.470
