#   1 NUMBER                 Running object number                                     
#   2 MAG_AUTO               Kron-like elliptical aperture magnitude                    [mag]
#   3 X_IMAGE                Object position along x                                    [pixel]
#   4 Y_IMAGE                Object position along y                                    [pixel]
#   5 X_WORLD                Barycenter position along world x axis                     [deg]
#   6 Y_WORLD                Barycenter position along world y axis                     [deg]
#   7 A_WORLD                Profile RMS along major axis (world units)                 [deg]
#   8 B_WORLD                Profile RMS along minor axis (world units)                 [deg]
#   9 THETA_WORLD            Position angle (CCW/world-x)                               [deg]
#  10 FWHM_WORLD             FWHM assuming a gaussian core                              [deg]
#  11 ELONGATION             A_IMAGE/B_IMAGE                                           
#  12 ELLIPTICITY            1 - B_IMAGE/A_IMAGE                                       
         1 -14.6518    248.2887     39.8990   1.9841948886e+01   2.1152271909e+01     1.983476    0.2510535 -33.23  0.007070521    4.086    0.755
         2 -14.9790    245.9482      5.9832   1.2756935320e+01   2.5087613936e+01     1.221949     1.110512 -48.06  0.009814586    1.268    0.212
         3 -12.1530      1.7745     25.3758   8.9901612859e+01   7.5034919751e+01    0.6157014    0.1653285 -71.60  0.002203998    3.451    0.710
         4 -13.6524     12.1254     23.4456   7.9880762893e+01   7.4838419195e+01    0.7691898    0.3298551 -41.63   0.00334615    2.239    0.553
         5 -13.2202     25.0768      4.0501   5.6212000782e+01   7.7076655158e+01    0.6385114    0.3623601  27.11  0.003146213    1.874    0.467
         6 -13.1877     14.8030      9.1541   6.9610779468e+01   7.7604170751e+01     1.014256    0.3493598 -39.26  0.003841971    3.227    0.690
         7 -13.5241      6.8730     10.6926   7.8863558643e+01   7.8059146633e+01     1.008101    0.4905838 -40.17   0.00491343    1.914    0.478
         8 -12.6818     10.3167      2.1489   6.9405190516e+01   7.9455119851e+01     1.081616    0.2586709  25.80  0.003539885    4.602    0.783
         9 -12.5301     19.9618     13.8382   6.7756186303e+01   7.6060920406e+01    0.4069445    0.2160894 -36.29  0.001935108    1.954    0.488
        10 -11.9722     26.1480     16.3470   6.4071847671e+01   7.4735061936e+01    0.2732708      0.16469 -26.21  0.001303947    1.958    0.489
        11 -10.4842      1.4245    235.0225   1.0500037978e+02   2.4116388476e+01     0.148395   0.09534605  79.45 0.0009945821    1.565    0.361
        12 -11.1699    233.4905    250.5141   5.9960959086e+01  -2.4704159034e+00    0.2905243   0.09522177  25.04  0.001660638    2.595    0.615
        13 -12.8531    234.3624    244.1852   5.8990805479e+01  -1.9201929572e+00    0.4172567    0.2070142  -7.12  0.002483042    1.950    0.487
        14 -12.1777    240.2000    239.3231   5.7456184441e+01  -1.9655823903e+00    0.2827363    0.1430731 -15.20  0.001373537    1.717    0.418
        15 -12.9377    243.9532    235.0358   5.6310912506e+01  -1.8771223086e+00    0.5083868    0.1579836 -26.35  0.002651249    3.202    0.688
        16 -12.2700    250.0627    232.7816   5.5110857240e+01  -2.2058086055e+00    0.3031445     0.236615 -17.24  0.002641178    1.520    0.342
        17 -12.5043    243.2386    245.3296   5.7820153226e+01  -2.8316610708e+00    0.5417864    0.2185764 -17.32  0.003181728    2.622    0.619
        18 -12.0877    247.2839    239.2639   5.6408941514e+01  -2.5978620293e+00    0.3569485    0.1735397 -12.65  0.001834711    1.838    0.456
        19 -11.4234    248.8392    250.1139   5.7641767247e+01  -3.7717585738e+00    0.3706097    0.1375465  22.39  0.002349855    2.307    0.567
        20 -11.2559    248.8736    245.1232   5.6973469652e+01  -3.3036286670e+00    0.2631679    0.1506252 -11.16  0.002069076    1.326    0.246
        21 -12.1491    225.6519    248.4417   6.0894139193e+01  -1.5461894460e+00    0.2725884    0.1680863   6.49  0.002066186    1.182    0.154
        22 -12.8749    212.5422    247.9713   6.2920590373e+01  -2.4708695898e-01    0.4247513    0.2094003   2.48  0.002575471    2.145    0.534
        23 -11.3709    168.9953    250.1499   7.0758487988e+01   4.0060440870e+00    0.2714189   0.05925724  29.89  0.001106203    3.562    0.719
        24 -11.5067     87.9801    250.2038   8.6980678252e+01   1.3077789177e+01    0.3547802    0.1640162  20.08  0.001850208    2.049    0.512
        25 -11.3286     74.5637    250.2811   8.9837125471e+01   1.4523563389e+01    0.3440144   0.09642442  32.54    0.0015842    2.343    0.573
        26 -11.8768     65.3217    249.0910   9.1734809457e+01   1.5697066896e+01    0.3987649    0.1716237  37.50  0.002102634    1.644    0.392
        27 -11.5408     50.2374    250.0671   9.5018782335e+01   1.7076860938e+01    0.4475318    0.1331317  30.18  0.002137643    2.278    0.561
        28 -11.5351     44.7344    245.0663   9.5951063359e+01   1.8471349399e+01    0.3696909    0.1820088  47.40  0.001639182    1.596    0.374
        29 -12.0484     36.7719    248.6466   9.7824125542e+01   1.8624551089e+01    0.4534481    0.1751963  43.68  0.002507247    1.814    0.449
        30 -10.9038     27.3100    248.7856   9.9836687328e+01   1.9476606547e+01    0.2938507    0.1264804  47.40  0.001528218    1.696    0.410
        31 -11.9701     20.3812    249.1218   1.0130498735e+02   2.0035721777e+01    0.3843226     0.161713  38.38  0.002038599    1.575    0.365
        32 -12.0739     12.2108    248.9656   1.0300437477e+02   2.0762562966e+01      0.43342    0.1485928  37.27  0.001804883    1.820    0.450
        33 -11.5072      3.7386    250.3151   1.0477456639e+02   2.1224851496e+01     0.328717    0.1652851  17.97  0.001921653    2.003    0.501
        34 -12.6291      3.3314    243.0508   1.0473417919e+02   2.2520830908e+01    0.4661269    0.2261703  58.49  0.002149797    1.645    0.392
        35 -11.7986      2.6047    212.5095   1.0430798511e+02   2.8358225172e+01    0.3760051    0.1947987  68.56  0.001486367    1.711    0.415
        36 -11.0787      1.4667    206.4189   1.0444923817e+02   2.9689264544e+01    0.2824367     0.106595 -87.54  0.001357462    2.714    0.632
        37 -12.6200     16.0833    240.4026   1.0196855857e+02   2.1938069036e+01    0.6253281    0.2037337  41.90  0.002835296    1.951    0.487
        38 -11.9503      6.7056    236.3228   1.0388864753e+02   2.3458262374e+01    0.4399669    0.2089813  59.82  0.001628723    1.733    0.423
        39 -12.0367      4.9248    228.2893   1.0411010488e+02   2.5092955120e+01    0.4568654     0.186876  51.85  0.001994224    1.794    0.442
        40 -11.9372      2.2633    220.9361   1.0455857672e+02   2.6713165918e+01    0.4208608    0.1915568  75.40  0.001652118    2.097    0.523
        41 -12.7267    226.0855    241.0367   5.9840315332e+01  -8.2150776003e-01    0.2804163    0.1449101 -15.08  0.001886219    1.776    0.437
        42 -10.1936     49.2965    243.4021   9.4873758022e+01   1.8305743800e+01    0.1719195   0.07459339  36.34 0.0008535485    1.610    0.379
        43 -11.9901     29.6258    240.7184   9.9045682865e+01   2.0675539016e+01    0.4269896    0.2023438  53.05  0.002096689    1.727    0.421
        44 -11.7693     72.9348    240.3801   8.9490430071e+01   1.6339991145e+01    0.3767846     0.163301  41.74  0.002008282    1.794    0.442
        45 -11.8918    127.6374    248.1306   7.8549629911e+01   8.9107379506e+00    0.2492997    0.1395687  43.03  0.001495633    1.801    0.445
        46 -12.0185    107.5068    240.2802   8.1957486064e+01   1.2422954840e+01    0.3865509    0.1360957  39.87  0.001822092    2.341    0.573
        47 -10.7915     64.9279    240.2668   9.1250135969e+01   1.7226307567e+01    0.2604273    0.1325943  55.99   0.00143898    2.027    0.507
        48 -10.9968     38.2491    240.4063   9.7145779923e+01   1.9918164606e+01    0.3033728    0.1348357  43.68  0.001395359    1.638    0.390
        49 -11.0187     77.5958    246.7837   8.8939941077e+01   1.4763652281e+01    0.1392016    0.1027594  72.69 0.0009450653    1.666    0.400
        50 -11.1765    128.9997    240.1612   7.7429199988e+01   9.9132966447e+00    0.1988171    0.1037902  44.50  0.001091281    2.043    0.511
        51 -10.7686    183.8077    250.3802   6.8109906949e+01   2.3968488041e+00     0.158376   0.07629878  18.52 0.0009502986    1.732    0.423
        52 -11.2853     45.3278    237.3318   9.5429563626e+01   1.9772566300e+01    0.2948375    0.1449375  46.79  0.001427876    1.600    0.375
        53 -11.5172     82.0326    236.4969   8.7178206095e+01   1.5986919384e+01    0.3221418    0.1418279  45.95  0.001647923    2.040    0.510
        54 -10.5749     32.9040    236.1281   9.8138650582e+01   2.1196061343e+01    0.2690645   0.09445835  51.31  0.001324222    2.305    0.566
        55 -12.2566    231.6846    234.3198   5.8051930966e+01  -6.5168261614e-01    0.2846836    0.1484267 -11.67   0.00189617    1.762    0.432
        56 -11.7095     14.2320    231.9656   1.0213773264e+02   2.3637228367e+01    0.4118223     0.191346  51.12  0.001913016    1.628    0.386
        57 -11.5228     11.1067    225.7519   1.0266730675e+02   2.5072881015e+01    0.3894099    0.1532319  44.80  0.001565944    1.765    0.434
        58 -11.2499     59.7673    232.2408   9.1874855292e+01   1.9195452450e+01    0.3770416    0.1140581  43.24  0.001679299    2.480    0.597
        59 -11.2890     39.8940    231.1907   9.6338971223e+01   2.1430002070e+01    0.3342648    0.1827567  64.28  0.001941392    1.836    0.455
        60 -12.0872     25.6665    228.5867   9.9459622809e+01   2.3265273890e+01    0.5171922     0.246482  61.22  0.002879885    1.925    0.481
        61 -11.3872     95.6569    235.4730   8.4075816913e+01   1.4588389883e+01    0.2798351    0.1402331  47.68  0.001488325    1.988    0.497
        62 -10.6692     32.3677    229.3665   9.7966720572e+01   2.2496119456e+01    0.2410319    0.1364229  57.07  0.001228096    1.547    0.354
        63 -11.9505    236.6753    228.0123   5.6404131074e+01  -4.6495210873e-01    0.2484623    0.1304099 -14.04  0.001671065    1.686    0.407
        64 -12.1246    248.8980    225.1528   5.4194925867e+01  -1.3271639280e+00    0.2975649    0.1539158 -21.61  0.001665722    1.571    0.364
        65 -10.9794     73.6005    228.3748   8.8429821371e+01   1.8368220900e+01     0.206823    0.1048557  84.29 0.0009574984    3.300    0.697
        66 -11.0468     48.6038    230.6698   9.4324516973e+01   2.0652267564e+01    0.3305877    0.1657702  56.71  0.001812252    1.907    0.476
        67 -11.5331     18.8651    221.8838   1.0077533563e+02   2.5159177561e+01    0.3864434    0.1608563  50.64  0.001716033    1.849    0.459
        68 -12.0519     12.1587    217.0085   1.0218136617e+02   2.6691727863e+01    0.4961593    0.2253202  48.64  0.002170382    1.646    0.392
        69 -10.6279     55.0116    222.1894   9.2307456530e+01   2.1571791185e+01    0.2250585   0.09226156  46.54  0.001088665    2.016    0.504
        70 -11.0286     43.7225    221.3305   9.4922811954e+01   2.2915796255e+01    0.2882492    0.1414463  51.21  0.001545028    1.745    0.427
        71 -12.1581    248.5908    215.0699   5.2762879842e+01  -2.4177963193e-01     0.351742    0.1505661 -24.17  0.002165418    2.017    0.504
        72 -11.3033    239.1185    219.2763   5.4771699676e+01   2.3516368381e-01    0.1869417    0.1081322 -16.38  0.001326497    1.408    0.290
        73 -11.3818     34.8303    217.2866   9.6819665582e+01   2.4591825939e+01    0.3640543    0.1843992  60.92    0.0019575    1.878    0.467
        74 -10.6252     24.3372    217.4788   9.9328022292e+01   2.5538857816e+01    0.2540087    0.1257843  56.71  0.001039719    1.731    0.422
        75 -11.0080     21.6358    211.2684   9.9724540477e+01   2.7032968185e+01     0.333658    0.1982255  78.50  0.001960177    1.698    0.411
        76 -10.9296     28.8200    211.3730   9.7981926386e+01   2.6355015891e+01    0.2787069    0.1367594  58.27  0.001468275    1.831    0.454
        77 -10.4380     36.0423    207.9871   9.6029009118e+01   2.6355929870e+01    0.2235699    0.1075456  52.27  0.001139776    1.785    0.440
        78 -12.4324     12.5927    205.4174   1.0171827476e+02   2.9019297331e+01     0.584956     0.245914  48.86  0.002822071    1.809    0.447
        79 -10.1092    247.0000    205.9767   5.1615166982e+01   9.0381224237e-01    0.1617253    0.0475868 -33.84 0.0008030605    2.947    0.661
        80 -10.1180     44.3511    212.6593   9.4254998459e+01   2.4563860227e+01    0.1408006   0.06834557  51.67 0.0007043488    1.801    0.445
        81 -10.2634    250.4358    200.2832   5.0244082249e+01   1.1852951299e+00    0.1937432   0.07841904 -28.00  0.001128528    2.067    0.516
        82  -9.9378     36.6811    201.3297   9.5483739166e+01   2.7687879449e+01     0.140065   0.07217265  52.75 0.0005967236    1.687    0.407
        83  -9.9212     31.3289    201.6638   9.6867531291e+01   2.8139750499e+01    0.1412053   0.06960671  52.49 0.0007051979    1.728    0.421
        84 -10.3906    240.0000    206.9785   5.2790029337e+01   1.5104977855e+00    0.1636245   0.04911935 -34.43 0.0008046888    2.958    0.662
        85 -10.0204    243.6579    199.6693   5.1116660928e+01   1.9584504753e+00    0.1129918   0.06311175  -3.48 0.0007051217    1.748    0.428
        86 -11.3054      9.4092    198.2110   1.0228008889e+02   3.0804695272e+01    0.3189721     0.119251  65.39  0.001208546    2.477    0.596
        87 -12.1432      4.1302    188.5111   1.0334743598e+02   3.3329953913e+01    0.6353194    0.1771298  56.45  0.002589631    2.883    0.653
        88 -12.2683      3.5279    197.0039   1.0372566201e+02   3.1519519612e+01    0.4627897    0.1942307  56.67  0.002343723    1.919    0.479
        89 -11.3197     17.0817    189.6948   9.9985469490e+01   3.2037622628e+01    0.2953431    0.1405597  69.02  0.001446711    2.021    0.505
        90 -11.2089     11.3509    190.8534   1.0153681785e+02   3.2253196266e+01    0.2069656    0.1242292  62.47  0.001164347    1.437    0.304
        91 -10.6254     24.3074    186.3243   9.7891791340e+01   3.2161463630e+01     0.267708    0.1129662  68.20  0.001162985    2.483    0.597
        92 -12.0650     11.6830    184.2233   1.0120505490e+02   3.3711733774e+01    0.3658841    0.1942166  81.36  0.001858017    1.831    0.454
        93 -11.5949      5.3869    183.0821   1.0285691133e+02   3.4454603457e+01    0.2943927    0.1491094  63.76  0.001051151    1.714    0.417
        94 -11.8709      2.0360    178.2452   1.0362091000e+02   3.5800344980e+01    0.4207308    0.1964849  86.00  0.002082076    2.050    0.512
        95 -10.5078     17.0076    181.2559   9.9632362851e+01   3.3954119800e+01    0.2421424    0.1368975  70.51  0.001158688    1.659    0.397
        96 -10.4661     23.4957    179.9922   9.7774242363e+01   3.3683414712e+01    0.1952827   0.07975934  65.36   0.00081032    2.525    0.604
        97 -11.3938      9.1288    177.8674   1.0166290574e+02   3.5367578216e+01    0.2117873    0.1403513  56.24  0.001030472    1.256    0.204
        98 -12.3701      6.3810    171.3702   1.0219635485e+02   3.7091296927e+01    0.3659419      0.18172  79.30  0.001805756    1.905    0.475
        99 -11.6986      2.5057    165.7106   1.0311625147e+02   3.8707916349e+01    0.4090573    0.1362852  45.45  0.001763733    2.303    0.566
       100 -10.6071      1.4886    170.4509   1.0355151060e+02   3.7651416557e+01    0.2530077    0.1140027 -86.22  0.001201665    2.137    0.532
       101 -11.8032     10.8301    166.6629   1.0072922720e+02   3.7882775386e+01    0.2867779    0.1421581  51.16  0.001408802    1.702    0.412
       102 -10.0294     19.6715    164.3414   9.7996877932e+01   3.7736439024e+01    0.1511936   0.07721047  54.70 0.0007051399    1.741    0.425
       103 -11.6887      5.8479    161.2982   1.0197962999e+02   3.9543435023e+01    0.2406987    0.1527655  71.17  0.001222655    1.404    0.288
       104 -10.7118     12.2931    161.6292   1.0006520418e+02   3.8992107591e+01    0.1486485   0.07592902  56.69 0.0007026027    1.725    0.420
       105 -12.1070     10.1042    155.3594   1.0043257293e+02   4.0700781047e+01    0.2751145    0.1761644  77.98  0.001474098    1.439    0.305
       106 -12.4710      3.8672    153.5558   1.0228399511e+02   4.1579474721e+01    0.3610243    0.1643889 -77.37  0.001667358    2.101    0.524
       107 -11.7315      2.1478    143.3909   1.0243427245e+02   4.4238209482e+01    0.2814301     0.157367  78.76  0.001295079    1.634    0.388
       108  -9.9515     13.3302    145.6395   9.8891475723e+01   4.2912901155e+01    0.1556249   0.07892963  55.73 0.0007041019    1.798    0.444
       109 -12.1789      4.1997    136.8907   1.0147369393e+02   4.5776722281e+01    0.3590964    0.1511257  80.26  0.001500392    2.305    0.566
       110 -11.4651      2.6514    127.1031   1.0154802195e+02   4.8410996243e+01    0.3131056    0.1401038  79.59  0.001339175    2.140    0.533
       111 -10.2511    242.0000    125.0342   3.8133848820e+01   1.1500117706e+01    0.1980828   0.05409896 -34.08 0.0008030014    2.946    0.661
       112 -10.3921      5.3154    122.3344   1.0032330291e+02   4.9516122611e+01    0.1411038   0.09255239 -47.20 0.0007047008    1.690    0.408
       113 -11.5987    248.5030    118.5410   3.6069713408e+01   1.1420744981e+01     0.249079   0.09053242 -33.53  0.001208518    2.158    0.537
       114 -12.0704    247.4689    102.9625   3.3093412265e+01   1.3584008926e+01    0.3031263     0.115915 -43.69  0.001442604    2.420    0.587
       115 -10.9602    238.6068    102.8074   3.4070498613e+01   1.4966047525e+01    0.1765758   0.08815596 -40.08 0.0009471849    1.671    0.401
       116 -11.5358    249.1755     97.9082   3.1886889225e+01   1.3975362958e+01    0.1835549    0.1294328 -43.11  0.000811531    1.274    0.215
       117 -10.1369      1.5668     94.4953   1.0006204224e+02   5.7151743105e+01    0.1360708    0.1215873 -88.80 0.0002065022    1.010    0.010
       118 -11.2886    242.5010     93.0043   3.1597504349e+01   1.5642537475e+01    0.1895689    0.0939299 -33.92  0.001030862    1.588    0.370
       119 -11.8862    249.4760     87.9784   2.9832547022e+01   1.5190086295e+01    0.2382806    0.1070727 -41.03 0.0008284849    1.788    0.441
       120 -10.3831      6.0000     85.9859   9.7292573886e+01   5.9243658948e+01    0.2362248   0.07235874 -79.62 0.0008082865    2.983    0.665
       121 -12.6748    248.5499     74.9492   2.7225363536e+01   1.6966081010e+01    0.4662299    0.1199871 -40.25  0.001972112    2.824    0.646
       122 -11.5516    243.5073     76.9460   2.8122113469e+01   1.7540210644e+01    0.1871602   0.09401301 -33.16 0.0008814143    1.571    0.363
       123 -10.0535    239.3307     76.6516   2.8469967400e+01   1.8274219450e+01    0.1267183   0.07475602 -54.12  0.000704897    1.765    0.433
       124 -10.3901    239.3212     72.3145   2.7537131837e+01   1.8827929827e+01    0.1125832   0.08707905   1.48 0.0007040118    1.657    0.396
       125 -11.2978      2.8961     67.0975   9.6865793724e+01   6.4431628322e+01    0.2648686    0.1698316 -70.12  0.001365623    1.391    0.281
       126 -11.3051      2.2950     60.8613   9.6438220371e+01   6.6096838165e+01    0.3163729    0.1032676 -74.26  0.001190389    2.635    0.621
       127 -12.3460      3.0328     49.9686   9.4360101076e+01   6.8895377163e+01    0.6040783    0.2241238 -70.39  0.002478726    2.306    0.566
       128 -11.5017      8.3925     43.9868   8.9459929180e+01   7.0165579346e+01    0.3092957    0.1210216 -71.99  0.001247303    2.404    0.584
       129 -11.2214    203.2653    249.1543   6.4604402114e+01   5.4101947479e-01    0.1909541    0.1064983  13.19  0.001312824    1.424    0.298
       130 -11.0511    110.1136    248.6963   8.2203690718e+01   1.0828225511e+01     0.195766    0.1094519  37.82   0.00119428    1.456    0.313
       131 -12.1055      2.4930     40.2023   9.2931159020e+01   7.1389569472e+01    0.4467359    0.2096282 -68.73  0.002066489    1.876    0.467
       132 -11.5307     19.1379     30.3403   7.6963531999e+01   7.2630678450e+01     0.287632    0.1483599 -39.60  0.001304801    1.944    0.486
       133 -12.9560    143.0205    247.7061   7.5430582185e+01   7.2148127412e+00    0.4503788    0.1708698  26.94  0.002302275    2.072    0.517
       134 -12.4223     97.3448    245.0582   8.4565565911e+01   1.2840521698e+01    0.4050669    0.1572749  40.27  0.002051773    2.068    0.516
       135 -12.1696     84.6047    244.7348   8.7273548007e+01   1.4325881031e+01    0.3717967    0.1617102  46.16  0.001944713    2.095    0.523
       136 -12.1334    194.7494    245.5229   6.5586525899e+01   1.8182106578e+00    0.3140934    0.1469908  -5.09  0.001546119    3.240    0.691
       137 -12.2506    116.0316    244.3665   8.0556337491e+01   1.0800570311e+01    0.3125021    0.1373195  43.68  0.001608387    2.242    0.554
       138 -12.1018     57.4930    242.3516   9.3019676403e+01   1.7650293104e+01    0.4562086    0.1861166  47.49  0.002335489    2.037    0.509
       139 -11.5341    178.1824    243.6583   6.8283701098e+01   3.8075303752e+00    0.2475364    0.1098597  10.46  0.001167805    3.016    0.668
       140 -11.7186      3.0293     33.4900   9.1003849069e+01   7.3027362819e+01    0.3810593    0.1318538 -58.88  0.001589961    2.291    0.563
       141 -12.2603     12.2784     37.5780   8.4881487018e+01   7.1506471509e+01    0.4270738    0.1660591 -56.80  0.001796077    2.165    0.538
