#   1 NUMBER                 Running object number                                     
#   2 MAG_AUTO               Kron-like elliptical aperture magnitude                    [mag]
#   3 X_IMAGE                Object position along x                                    [pixel]
#   4 Y_IMAGE                Object position along y                                    [pixel]
#   5 X_WORLD                Barycenter position along world x axis                     [deg]
#   6 Y_WORLD                Barycenter position along world y axis                     [deg]
#   7 A_WORLD                Profile RMS along major axis (world units)                 [deg]
#   8 B_WORLD                Profile RMS along minor axis (world units)                 [deg]
#   9 THETA_WORLD            Position angle (CCW/world-x)                               [deg]
#  10 FWHM_WORLD             FWHM assuming a gaussian core                              [deg]
#  11 ELONGATION             A_IMAGE/B_IMAGE                                           
#  12 ELLIPTICITY            1 - B_IMAGE/A_IMAGE                                       
         1 -14.2274    220.8688      3.3524   4.0237823404e+01   2.8887089330e+01     2.579375     1.142156  57.14  0.007664289    2.358    0.576
         2 -13.8231    179.5147     47.3017   5.8301172200e+01   3.4283519498e+01     1.282686     1.072763  14.98 0.0008403902    1.368    0.269
         3 -14.0029    190.9386     37.3878   5.3402049087e+01   3.2661472072e+01     1.241287      1.04478 -38.62  0.003224858    1.142    0.125
         4 -14.6573    198.5820     28.2139   4.9573831384e+01   3.1827453267e+01     1.740599     1.330534  28.12  0.001313502    1.574    0.364
         5 -19.4162      8.0378    136.3530   1.2561576153e+02   4.5514699918e+01     17.81378     1.883313 -77.97    0.0402535   10.011    0.900
         6 -16.8310     71.4217    147.6879   1.1109132913e+02   3.6183813551e+01     15.05184     6.783759  77.85    0.0368628    6.619    0.849
         7 -11.7415     71.2509    207.1579   1.1790854710e+02   2.3718161292e+01     0.881359    0.3764259  33.03  0.003798716    2.663    0.624
         8  99.0000     56.2588    212.5633   1.2120390144e+02   2.4609661400e+01    0.8506911    0.3759431  67.99  0.004380029    2.378    0.579
         9 -13.5651     55.7035    203.4473   1.2060636649e+02   2.6394441339e+01    0.6660938    0.3866979  81.86  0.001560024    1.639    0.390
        10 -11.7067     59.3210    201.7009   1.1976003281e+02   2.6285020504e+01    0.2809725    0.1515731  75.12  0.001062976    1.859    0.462
        11  -9.9629     32.2675    205.2967   1.2518272757e+02   2.8716226537e+01    0.1528808    0.1175575  56.75 0.0004235925    1.206    0.171
        12 -12.0093     38.4161    212.1319   1.2446944253e+02   2.6763190009e+01    0.2435508    0.1167375  53.14 0.0007973832    1.617    0.382
        13 -10.1534     43.3455    209.6828   1.2340478188e+02   2.6666942480e+01    0.3362557    0.1119281  58.86  0.001571013    2.807    0.644
        14 -11.1669     43.8454    205.5457   1.2303005367e+02   2.7392001968e+01     0.200318     0.188737 -73.68  0.001579016    1.500    0.333
        15 -10.6797     35.5879    208.5180   1.2476502313e+02   2.7748984168e+01    0.2285552   0.08115444  52.07  0.001206306    2.177    0.541
        16 -12.1109    203.6686    200.5424   9.1408375736e+01   3.7150872622e+00    0.3550107     0.231656  27.46  0.002057961    1.374    0.272
        17 -11.9421    193.0008    194.7641   9.2366352223e+01   6.3393634270e+00    0.8556497    0.4654191 -62.10  0.002960071    5.689    0.824
        18 -11.2568     96.7100    200.4770   1.1219511401e+02   2.1410750736e+01    0.3302952    0.2540221 -34.36  0.001092121    1.974    0.493
        19  -9.5896     43.7957    220.2995   1.2400575118e+02   2.4668106656e+01    0.1421515    0.0678679 -65.14 0.0008418151    2.290    0.563
        20  -9.3041     73.5446    218.7416   1.1847387766e+02   2.1300447433e+01    0.1396034   0.09353443  82.39  0.000569025    1.431    0.301
        21 -10.5510     44.5227    198.9027   1.2242689649e+02   2.8597356695e+01      0.26527    0.2426352 -11.51  0.001956901    1.808    0.447
        22 -12.5778     30.7622    197.6048   1.2499153635e+02   3.0361024672e+01    0.2066609    0.1424426  62.08    0.0010238    1.140    0.123
        23 -10.7379     35.6975    197.5932   1.2404322841e+02   2.9837027975e+01    0.2296212    0.1180271  48.88 0.0005943593    1.607    0.378
        24 -11.0770    208.1632    196.1448   8.9843413925e+01   3.5607284042e+00    0.1965327    0.1510151  15.00 0.0006524587    1.184    0.155
        25 -10.0853     81.9986    195.0187   1.1458210005e+02   2.4582450092e+01    0.2638288    0.1520361  47.34  0.001071507    1.491    0.329
        26  -9.0560     78.5114    193.4159   1.1512785793e+02   2.5383481101e+01    0.1245329   0.09811608  66.06 0.0001456827    1.049    0.046
        27 -11.1883     97.3268    192.9868   1.1119398906e+02   2.2745805336e+01    0.3167778     0.252058 -10.30  0.001824537    2.137    0.532
        28 -13.2104     65.7803    189.4424   1.1735265170e+02   2.7886366607e+01    0.6704934    0.5985622 -84.06   0.00323813    1.248    0.199
        29  -9.5945     73.8977    189.7246   1.1569607983e+02   2.6751232852e+01    0.1695916    0.1248502  58.96  0.001070298    1.148    0.129
        30  -9.8363     37.1541    191.9697   1.2337026650e+02   3.0794059246e+01    0.1873013     0.115526  67.11  0.001200229    1.318    0.242
        31 -12.4131    149.5167    188.1325   9.9725853704e+01   1.5045298614e+01    0.4401739    0.3235197 -78.60  0.002384521    1.897    0.473
        32 -10.2835     19.1151    188.2088   1.2667126188e+02   3.3395807126e+01    0.1577252    0.1224801 -83.72 0.0002650814    1.270    0.212
        33 -10.5128    155.2724    187.6240   9.8477172926e+01   1.4117528261e+01    0.2216386    0.1672623 -65.29  0.001076416    1.671    0.401
        34  99.0000     49.7588    216.5332   1.2268638931e+02   2.4658966098e+01     0.316608    0.2188658  23.54  0.002041847    2.169    0.539
        35 -16.4627     58.9199    247.8730   1.2310137952e+02   1.8248618881e+01     6.919982     2.357741  30.79   0.02693546    5.579    0.821
        36 -10.1661     59.1805    228.2416   1.2179696767e+02   2.1453822720e+01    0.1458712    0.1038965  62.93 0.0003812723    1.041    0.039
        37 -11.7957     99.4902    180.5984   1.0916230440e+02   2.4867992037e+01    0.2554714     0.217702  64.55 0.0005947404    1.019    0.019
        38 -10.4878    104.3764    215.7885   1.1237757043e+02   1.7515704463e+01    0.2080122    0.1734874  80.66 0.0005197679    1.199    0.166
        39 -12.3256    142.3742    173.5156   9.8787700950e+01   1.8987804983e+01    0.4615778    0.3997502 -31.22  0.002725858    1.331    0.249
        40 -10.2588     48.1824    173.6710   1.1958043978e+02   3.3346110011e+01    0.2934798    0.1889619  64.85   0.00177706    1.358    0.264
        41 -11.1283     42.8436    172.1588   1.2060432784e+02   3.4280036303e+01    0.5458179    0.1914581  57.26  0.002217624    2.973    0.664
        42 -12.0781    106.8838    210.6835   1.1133483041e+02   1.8033281934e+01    0.7487962    0.3455825  44.96  0.003578684    1.783    0.439
        43  -9.7165    201.0084    168.5057   8.5990398077e+01   8.8739441148e+00    0.2767605    0.1891312  44.69  0.000725105    1.442    0.307
        44  -9.5994    204.9147    167.1693   8.4992172886e+01   8.3528166070e+00    0.2248032    0.1683448  17.71  0.001237867    1.330    0.248
        45 -10.0740    163.2003    168.7882   9.3539973058e+01   1.5989793853e+01    0.2199698    0.1879104 -66.37  0.001248408    1.395    0.283
        46 -10.0447    230.3162    166.6438   8.0350539120e+01   3.8153727125e+00    0.1204517    0.1055622 -64.32 0.0007045097    1.747    0.428
        47 -10.3505    192.6600    164.9613   8.6872582726e+01   1.1018325516e+01    0.2601926     0.228438 -15.75 0.0006836933    1.141    0.124
        48  -9.4162     94.4428    250.3046   1.1734912714e+02   1.3366186379e+01    0.1286043   0.08912639  79.95 0.0009279071    1.519    0.342
        49 -10.3424    158.0965    161.8304   9.3284851294e+01   1.8246162383e+01    0.2153979    0.1886925  67.94 0.0007036222    1.255    0.203
        50 -12.7686     94.8479    154.0659   1.0633139738e+02   3.1242504317e+01    0.6741777    0.5261433 -23.43  0.002614808    1.908    0.476
        51 -10.5292    188.2536    155.0053   8.5681970768e+01   1.3544739133e+01    0.5155262    0.2220133  42.28  0.002069009    2.231    0.552
        52 -11.5933    133.8595    145.3768   9.5428462951e+01   2.6221411518e+01     1.173704    0.3051648 -54.74  0.003023283    5.552    0.820
        53 -13.1365    107.6062    203.2977   1.1033817932e+02   1.9246401639e+01    0.8732638    0.4287063  58.54   0.00338957    2.200    0.546
        54 -10.6525    174.3470    148.9507   8.7214514879e+01   1.7415274607e+01    0.3016493    0.2709679 -72.23  0.001009388    1.329    0.247
        55 -11.1343    144.2457    146.6207   9.3286190862e+01   2.3934176438e+01     0.383684    0.2618004 -74.77  0.001704637    2.091    0.522
        56  -9.9633    107.5582    145.7622   1.0181343638e+02   3.0972020295e+01     0.201056    0.1717262 -79.83 0.0004996763    1.155    0.134
        57 -11.8150    106.6164    139.6968   1.0090805191e+02   3.2493049535e+01     0.616178    0.3368038 -40.54  0.002592001    2.274    0.560
        58 -10.1212    112.8801    142.3158   9.9857714339e+01   3.0798150997e+01     0.230508    0.1662577  62.83 0.0006012764    1.483    0.326
        59 -12.6195     94.6563    139.7036   1.0392983492e+02   3.4515803949e+01    0.3349413    0.2934774  25.46  0.001189162    1.367    0.269
        60 -11.2236    105.8317    130.8370   9.9348044607e+01   3.4641466250e+01    0.4004222    0.3301165 -59.74  0.001914397    1.176    0.149
        61 -11.1031    101.6908    126.3398   9.9497671221e+01   3.6404548739e+01    0.2904844    0.2479219 -27.56 0.0009870704    1.423    0.297
        62 -11.2737    114.1834    130.2426   9.7079601637e+01   3.3259006772e+01    0.3270127    0.2887843 -13.55 0.0009009106    1.400    0.286
        63 -11.1203    135.7415    128.0228   9.1219493211e+01   2.9538793618e+01    0.6673306     0.160134 -47.65   0.00184342    4.198    0.762
        64 -10.7401    135.0000    120.8076   8.9696828688e+01   3.1243174941e+01    0.4944872    0.1333196 -49.37  0.001385295    3.935    0.746
        65 -10.2465    160.4510    127.9547   8.5447542450e+01   2.4353830432e+01    0.3831108    0.2515331 -58.10  0.001671908    1.828    0.453
        66 -11.3539    119.9090    123.7434   9.4181035083e+01   3.3630538820e+01    0.5148013    0.3181303 -26.25  0.002023687    2.550    0.608
        67 -10.3163    109.7562    119.0611   9.5758286151e+01   3.6621062098e+01    0.2296459    0.2083724  51.97 0.0003831582    1.130    0.115
        68 -10.1753    167.5557    112.4524   7.9997118544e+01   2.5837465075e+01    0.3526467    0.2657341 -83.56   0.00133158    1.909    0.476
        69 -10.2058    134.8373    106.7962   8.6182944994e+01   3.4293669107e+01    0.4861998    0.1281818 -46.13  0.001353164    3.752    0.733
        70 -11.5938    118.4697    110.5857   9.1401260334e+01   3.6861257925e+01    0.5429704    0.3722944  62.72   0.00243628    1.737    0.424
        71 -10.1953    205.4774    110.1721   7.1840168275e+01   1.7633378937e+01    0.3084581    0.2107839  39.83 0.0009300124    1.533    0.348
        72  -9.3894     36.0354    234.1565   1.2612806475e+02   2.3117694630e+01    0.1381781   0.08034761  62.72  0.000388048    1.254    0.202
        73 -11.6963     53.6733     90.7493   1.0596366734e+02   5.2084051604e+01     0.371586    0.2662125 -59.58  0.001163215    1.193    0.161
        74 -11.1665     41.8781     91.9726   1.1012373216e+02   5.3114031207e+01    0.2368137    0.2243075  36.63 0.0006906891    1.265    0.209
        75  -9.3257    184.5030     84.4899   6.8769664782e+01   2.7009386002e+01    0.1556586    0.1486998 -38.74 0.0008104275    1.029    0.028
        76  -9.0731    155.4309     80.4955   7.3630265796e+01   3.4875326967e+01    0.1572911    0.1514207 -26.09 0.0001553378    1.019    0.019
        77  -9.6485     67.3242     71.0590   9.6122409508e+01   5.4863609907e+01    0.1943508     0.166994 -53.66 0.0005786053    1.064    0.060
        78 -11.4329    160.4063     61.9021   6.6631211249e+01   3.6954427256e+01    0.4873754    0.3328554 -81.17 0.0007831528    2.155    0.536
        79 -11.1579     62.5769    236.6795   1.2177786212e+02   1.9612917818e+01    0.1788059     0.124764  65.66 0.0004298731    1.103    0.094
        80 -10.8020     51.2779    226.1778   1.2305242970e+02   2.2759981826e+01    0.2075322    0.1104739  66.57   0.00102905    1.587    0.370
        81 -11.8638     49.4142    233.6352   1.2383912607e+02   2.1696696486e+01      0.28689      0.14349  73.42 0.0007556984    1.862    0.463
        82 -10.9582     53.6051    231.3392   1.2297655008e+02   2.1593956272e+01    0.1826123     0.132669  74.93 0.0009418436    1.146    0.127
        83 -11.2465    162.3954     55.0876   6.3976283638e+01   3.7560354593e+01    0.3473159    0.2487136  50.86 0.0005807849    1.411    0.291
        84 -10.8812    189.7590     15.0035   4.6579591460e+01   3.5631117380e+01    0.2481274    0.2062095  78.91 0.0006707761    1.175    0.149
