#   1 NUMBER                 Running object number                                     
#   2 MAG_AUTO               Kron-like elliptical aperture magnitude                    [mag]
#   3 X_IMAGE                Object position along x                                    [pixel]
#   4 Y_IMAGE                Object position along y                                    [pixel]
#   5 X_WORLD                Barycenter position along world x axis                     [deg]
#   6 Y_WORLD                Barycenter position along world y axis                     [deg]
#   7 A_WORLD                Profile RMS along major axis (world units)                 [deg]
#   8 B_WORLD                Profile RMS along minor axis (world units)                 [deg]
#   9 THETA_WORLD            Position angle (CCW/world-x)                               [deg]
#  10 FWHM_WORLD             FWHM assuming a gaussian core                              [deg]
#  11 ELONGATION             A_IMAGE/B_IMAGE                                           
#  12 ELLIPTICITY            1 - B_IMAGE/A_IMAGE                                       
         1 -13.2056     28.0343     60.3981   1.0370369011e+02   6.1345181515e+01     1.266166    0.9221756  30.41  0.004850222    1.660    0.398
         2 -11.8939     42.1887     19.9792   8.2549197361e+01   6.7390364536e+01    0.6159559     0.349779  27.78  0.002860344    1.772    0.436
         3 -12.3610    216.0535     14.5622   4.0022987561e+01   2.9156280394e+01    0.6953689    0.5528514  60.66  0.002266304    1.320    0.242
         4 -10.4119     64.8993     11.1592   6.8819444086e+01   6.5091587710e+01    0.1793978    0.1651835   2.72 0.0006076624    1.267    0.211
         5 -12.0952    190.6599      9.5911   4.1387042701e+01   3.5925926139e+01    0.3636584    0.2292149  66.01  0.001743376    1.440    0.306
         6 -11.6877     57.0380      7.3248   6.9949305028e+01   6.6869202595e+01    0.5300403    0.3964578 -32.49  0.003321704    1.546    0.353
         7 -11.5825     43.9912      8.3086   7.5989729090e+01   6.8762634368e+01    0.2330536    0.1910833  16.60 0.0004625069    1.220    0.180
         8  -9.5116    168.2912      8.3087   4.3765780661e+01   4.1716054280e+01    0.1382437   0.09498665  39.70 0.0002843876    1.581    0.368
         9 -10.1465    109.5066      8.5216   5.4303400511e+01   5.6210982337e+01     0.134299    0.1188836  38.31 0.0008100033    1.035    0.034
        10 -11.0474    165.8816      1.7644   4.2098782208e+01   4.2919854487e+01    0.3130307    0.1370635  65.77  0.001204869    1.935    0.483
        11 -11.1076    239.6307    215.5803   8.2954891777e+01  -6.5302252802e+00    0.3159277    0.1070152 -40.08  0.001304166    3.464    0.711
        12 -10.2477     15.3394    250.3116   1.2893765431e+02   2.0848047454e+01   0.08367406   0.07584707 -71.89 0.0007045672    1.693    0.409
        13 -11.3005    222.9685    213.5188   8.5605352094e+01  -3.6744546838e+00    0.3024525    0.1476628  24.33  0.001394733    2.205    0.547
        14 -10.6759    115.9125    209.6211   1.0664611603e+02   1.5211325143e+01    0.2572617    0.1716882 -85.81  0.001322125    1.948    0.487
        15  -9.8597     86.1913    209.7859   1.1291607579e+02   1.9794452471e+01    0.2273261    0.1102598  67.34 0.0009511044    2.813    0.644
        16 -10.3674     56.9529    205.9714   1.1854629712e+02   2.4570350693e+01    0.2094783    0.1180994  67.13  0.001137563    1.701    0.412
        17 -10.6794     48.7651    201.3089   1.1979207925e+02   2.6554161286e+01    0.3201331    0.1496001 -81.38  0.001595808    2.145    0.534
        18  -9.7526      4.9859    201.0000   1.2830617218e+02   3.1155483197e+01    0.1552096   0.05732692  31.90 0.0008024823    2.943    0.660
        19 -10.7574    149.0003    198.2915   9.7833702694e+01   1.1698447021e+01    0.2709994    0.1791785 -83.46  0.001176062    2.687    0.628
        20 -10.4717    112.8306    198.0221   1.0569768261e+02   1.8042256662e+01     0.229238     0.148569  79.83  0.001085988    2.070    0.517
        21  -9.6501    133.6425    196.3079   1.0085706308e+02   1.4824424748e+01     0.144775    0.1012183  67.62 0.0007041647    1.729    0.422
        22 -12.4175    160.7074    192.3590   9.4282028610e+01   1.0683635389e+01    0.7086795    0.5021458  69.99  0.003031996    2.028    0.507
        23 -10.1593    109.4952    186.4973   1.0474235568e+02   2.1022517192e+01    0.1418807    0.1223229  67.49  0.000808903    1.095    0.087
        24 -10.6894    183.2033    183.3423   8.7794121731e+01   8.1289719967e+00    0.3572831    0.2413519 -41.38  0.001771283    1.572    0.364
        25 -10.1611     66.9557    194.9795   1.1534838043e+02   2.5600124554e+01    0.2233626    0.1287189  67.17  0.001143797    1.785    0.440
        26 -10.6148     34.2596    186.8972   1.2154462231e+02   3.1300817975e+01    0.3198331    0.1214994 -89.66  0.001271934    3.324    0.699
        27 -10.3799    224.3204    183.6751   7.9678059820e+01   5.3530187939e-01    0.1220974    0.1117123 -80.47 0.0007046414    1.679    0.404
        28  -9.7370    129.3173    177.6434   9.8705878449e+01   1.9456561477e+01    0.1506733    0.1096405  76.47 0.0007045114    1.751    0.429
        29 -10.1169     77.6449    176.3280   1.1067004427e+02   2.8263142774e+01     0.147241   0.09179067  69.39 0.0007045749    1.776    0.437
        30 -10.1243     12.5283    176.5004   1.2529449116e+02   3.5687211112e+01    0.1197918   0.08829232  81.44 0.0001624621    1.058    0.055
        31 -10.0098    105.6846    175.3326   1.0387956094e+02   2.4112642925e+01    0.1484663    0.1034126  73.54 0.0005391831    1.686    0.407
        32 -11.4610     37.9970    174.5268   1.1959809575e+02   3.3658954862e+01    0.2369015    0.1830852  34.85  0.001503996    1.511    0.338
        33 -11.0648     45.2974    172.3005   1.1771280685e+02   3.3358669255e+01    0.3624025    0.1767485  59.28  0.001731097    2.155    0.536
        34 -10.5959    176.9857    172.4998   8.6951968524e+01   1.1352109993e+01    0.2320139    0.1378331  40.65  0.001037537    1.604    0.377
        35 -10.6831    168.1337    169.2544   8.8226489433e+01   1.3736481107e+01    0.2770961    0.2011202 -75.00  0.001237075    2.106    0.525
        36 -11.7980    121.3472    168.4955   9.8955203721e+01   2.2904921645e+01    0.4674689    0.2722256 -70.95  0.001922782    2.313    0.568
        37 -11.1311     55.5001    168.1792   1.1485749841e+02   3.3103429893e+01    0.4433895    0.2370351  87.09  0.002025818    2.215    0.549
        38 -10.4189     79.4246    163.7190   1.0843575517e+02   3.0927046921e+01    0.3956423    0.1917946  88.96   0.00120725    4.697    0.787
        39 -11.7005    107.0152    158.4051   1.0064103119e+02   2.7751105355e+01    0.6806741    0.3833007  64.69  0.002652073    2.555    0.609
        40 -10.2060     92.8061    160.6086   1.0460127877e+02   2.9607509337e+01    0.2084165    0.1219063  49.77 0.0008351851    1.726    0.420
        41  -9.7430     31.3303    160.6595   1.1973950599e+02   3.7534556576e+01    0.1351271   0.07827236  70.23 0.0007051587    1.743    0.426
        42 -10.6559     22.2614    159.2507   1.2172497016e+02   3.8715749838e+01    0.3545014    0.1508519  65.64  0.001567191    2.788    0.641
        43 -11.6337    119.4533    157.0882   9.7275358292e+01   2.5826747477e+01    0.5372041    0.2955508  42.31  0.002294951    1.780    0.438
        44 -10.6748    218.4320    156.7541   7.5113927663e+01   6.0707670530e+00    0.2855065    0.1301649 -40.83  0.001152969    2.169    0.539
        45 -11.3088    133.4375    153.1018   9.3000111071e+01   2.4068804294e+01    0.3963276    0.2481053  87.45  0.001362595    3.347    0.701
        46 -11.7820    168.1077    157.4331   8.5734808184e+01   1.6120155029e+01    0.4548703    0.3313913  63.58  0.001944946    1.725    0.420
        47 -11.0212    190.0406    150.8429   7.9475068785e+01   1.2871120982e+01    0.3119126     0.233429 -85.74  0.001352019    2.256    0.557
        48  -9.3782    206.3216    147.6562   7.5417850283e+01   1.0101866281e+01    0.1459036    0.1198415 -74.80 0.0007050106    1.729    0.422
        49 -11.1707    107.6269    145.8754   9.8079941670e+01   3.0581700314e+01    0.5548904    0.3133667  70.14  0.001920571    3.251    0.692
        50 -10.5487     56.2554    146.3815   1.1175312999e+02   3.8193146121e+01    0.3192254    0.1725398  75.59  0.001334656    2.595    0.615
        51 -11.6290    148.9304    145.1049   8.7472899803e+01   2.2706234196e+01    0.4759654    0.3149532  83.61   0.00174013    2.878    0.653
        52 -10.9311    182.2580    142.1673   7.9135011360e+01   1.6217500401e+01    0.2914279    0.2098837  74.32  0.001238232    2.099    0.524
        53 -10.3119     23.7971    139.1866   1.1927338657e+02   4.3285681239e+01    0.2267332    0.1029788  67.44 0.0009613549    2.912    0.657
        54 -10.9648    132.0653    131.4316   8.8516791592e+01   2.9255421697e+01    0.3921065    0.2620331 -72.93  0.001579469    2.125    0.529
        55 -11.3637     82.8244    129.8829   1.0160584456e+02   3.8563792925e+01    0.6768973    0.2345947 -63.16  0.002147558    3.392    0.705
        56 -12.1834    100.2084    128.9503   9.6521365370e+01   3.5927542630e+01    0.8854285    0.4897774  63.72  0.003186393    2.942    0.660
        57 -10.0607    152.9898    129.5040   8.2800661849e+01   2.5239678764e+01    0.2201114    0.1396052  68.90  0.000809186    2.443    0.591
        58  -9.9297     73.3104    129.6476   1.0425961712e+02   4.0029574244e+01    0.1490467    0.1055921  79.16 0.0007044443    1.722    0.419
        59 -10.7034    118.9094    126.2380   9.0757827564e+01   3.3094695670e+01    0.5572913    0.2910255  65.31  0.001638223    4.176    0.761
        60 -10.6967     59.1122    124.6276   1.0740421806e+02   4.3149253686e+01    0.4082753    0.2284595  88.15  0.001630937    2.759    0.638
        61 -11.2778     43.4390    122.4753   1.1158693312e+02   4.5463640035e+01    0.7287534    0.3690299  84.81  0.002791367    3.263    0.694
        62 -10.6413    181.2184    125.4143   7.5286851942e+01   1.9795627527e+01    0.2224286    0.1516852  58.45 0.0008199326    1.687    0.407
        63 -11.3901     27.5826    121.2165   1.1596259505e+02   4.7267615947e+01    0.7392309    0.3152669  84.34  0.002430925    4.699    0.787
        64 -10.8598     14.1194    121.4031   1.1977409624e+02   4.8268952193e+01    0.3362354    0.2393315 -23.29  0.002050815    1.885    0.469
        65 -12.0662    192.7102    118.3325   7.1077287755e+01   1.8581978395e+01    0.8480149    0.5815589  74.64  0.003103914    2.174    0.540
        66 -12.4092    141.5999    115.7174   8.2126719990e+01   3.0750892593e+01    0.9254977    0.3484704 -45.82  0.003016798    2.641    0.621
        67 -10.2164     70.8780    119.7815   1.0300883355e+02   4.2783109856e+01    0.2854888    0.1830341 -89.09  0.001247013    2.154    0.536
        68 -10.8564    108.4408    112.9779   9.0404511074e+01   3.8209990122e+01     0.636963    0.2764997 -61.05   0.00197199    3.394    0.705
        69 -11.0248     78.9409    112.7854   9.9073812872e+01   4.3306646029e+01    0.5635357    0.3261883 -88.63  0.001915853    3.678    0.728
        70 -11.3400    174.4137    110.8385   7.3008278705e+01   2.4279702620e+01    0.4675712    0.3373469 -44.17  0.001250492    1.376    0.273
        71 -12.7080    150.8787    103.4750   7.6481788136e+01   3.1280564805e+01    0.6943468    0.4991127  82.93  0.002826483    2.108    0.526
        72 -13.3470    141.7016    104.2739   7.9006316363e+01   3.3208889219e+01    0.7885551    0.6614211 -74.61  0.003754175    1.425    0.298
        73 -13.3157    159.8189    110.4457   7.6237424947e+01   2.7759136735e+01    0.9816883    0.6095566 -59.89  0.003816494    2.107    0.525
        74 -13.3224    152.0537    109.9704   7.7977149701e+01   2.9645382881e+01    0.8857321    0.4983299  59.15  0.003312122    2.219    0.549
        75 -12.1414    121.8767    111.3383   8.6206297762e+01   3.5930685934e+01     0.727111    0.4475925 -75.97  0.002489225    3.112    0.679
        76 -10.4988     91.8739    110.6849   9.4679582288e+01   4.1731379353e+01    0.4270595    0.1944202 -56.85  0.001603186    2.230    0.552
        77 -11.4915     14.4679    109.6673   1.1817095202e+02   5.1028251390e+01    0.5573137    0.2988498 -80.88  0.002933982    1.701    0.412
        78 -12.7534    127.3378    101.0345   8.1896746835e+01   3.7077440861e+01    0.7294319    0.4940189 -72.34  0.002890537    2.240    0.554
        79 -12.0004     44.7683    101.1496   1.0728874353e+02   5.0489451587e+01    0.7064266    0.3935623 -88.03  0.002928276    2.804    0.643
        80 -13.4200    112.5318    100.3575   8.5867022583e+01   4.0301596662e+01     1.621558     0.655738  53.81  0.004893296    3.710    0.730
        81 -10.8452     22.8022    102.4102   1.1454535034e+02   5.2156344457e+01    0.2721444    0.1274197  80.04 0.0009648891    4.263    0.765
        82 -11.0499     63.1884     95.9071   1.0007958671e+02   4.9568234037e+01    0.4426395    0.2323759 -78.93  0.001468405    3.988    0.749
        83 -11.1431    170.6876     94.6651   6.9400107838e+01   2.8351618700e+01    0.2905539    0.2376715  41.13 0.0006700475    1.254    0.202
        84 -12.3876    170.2474     91.0054   6.8460039090e+01   2.9160123389e+01    0.4318674    0.3704342  63.54 0.0008712498    1.237    0.191
        85 -10.2659     66.3185    110.9892   1.0253667549e+02   4.5545307405e+01    0.2318117    0.1144525 -79.95 0.0007047254    4.265    0.766
        86 -10.1870      4.4841     91.4597   1.1868889188e+02   5.5886639368e+01    0.2240737   0.09890712 -83.04  0.001033804    2.373    0.579
        87 -10.9919     34.2917     87.9284   1.0804171448e+02   5.4631371741e+01    0.6063443    0.1906448 -65.07  0.002219719    3.043    0.671
        88 -11.5443     87.5313     87.4294   8.9827812229e+01   4.7839482248e+01    0.4952579    0.3430352  74.76  0.002086342    2.480    0.597
        89 -11.5315     41.9240     88.2712   1.0547541255e+02   5.3826986377e+01    0.3737083    0.2390837 -14.91  0.001276519    2.077    0.518
        90 -11.1517     47.1253     83.4791   1.0251701082e+02   5.4392519383e+01    0.6032228    0.3647904  74.09  0.002432223    3.433    0.709
        91 -11.0695    104.9478     83.7949   8.3276547875e+01   4.5426393848e+01    0.4260538    0.3262811 -88.66  0.001916486    1.986    0.497
        92 -10.4570    140.8587     83.7232   7.3227658630e+01   3.7633408562e+01    0.3144862    0.2058304 -62.99  0.001243624    2.118    0.528
        93 -11.0456     24.3406     80.1166   1.0989073435e+02   5.7256227272e+01    0.4631395    0.2351522 -78.68  0.002092798    2.484    0.597
        94 -10.0781      8.6749     81.3272   1.1567060036e+02   5.7992679479e+01    0.1178858   0.08442362  76.10 0.0007049625    1.696    0.410
        95 -10.2796    128.6307     76.8028   7.4271990775e+01   4.1810752864e+01    0.3376719    0.1932056  71.03    0.0010926    3.450    0.710
        96 -11.2727     82.6128     73.3901   8.7189410506e+01   5.1711716892e+01    0.4492086    0.2868383 -72.66  0.001755108    2.953    0.661
        97 -10.7842     62.6082     74.4226   9.4507351824e+01   5.4535388654e+01    0.3574892    0.1697994 -61.63  0.001378252    2.723    0.633
        98 -10.1902    116.3959     73.5395   7.6630955121e+01   4.5156479474e+01    0.3651978    0.2320718  79.21  0.001231134    3.560    0.719
        99 -12.1264    223.4501     70.6322   5.3342351974e+01   1.9820721296e+01    0.2899604    0.2716876 -85.46 0.0005677093    1.093    0.085
       100  -9.9391     94.8748     71.7433   8.2604512279e+01   4.9865290152e+01    0.3233929    0.1703702 -61.10  0.001093057    3.390    0.705
       101 -11.6625     41.6438     62.7170   9.8927074204e+01   5.9576245049e+01    0.4340301    0.2639261  39.46  0.001886834    2.032    0.508
       102 -11.7470     21.0611     51.6390   1.0413105352e+02   6.3735756865e+01    0.6278633    0.4431266 -58.08  0.003917464    1.313    0.239
       103 -11.1260    219.9709    248.5795   9.1981719213e+01  -7.7390285042e+00    0.2191707    0.1623192  45.41  0.001439044    1.676    0.403
       104 -10.6501     51.9207     70.8354   9.7372060960e+01   5.6679736463e+01    0.2456013     0.194221 -58.73  0.001270882    1.287    0.223
       105 -10.2467    196.3997     67.7527   5.6802543240e+01   2.6788246021e+01    0.3629414    0.1745267  51.52    0.0014264    2.103    0.524
       106 -10.5763    101.7522     61.7441   7.7032216042e+01   5.0464847643e+01    0.4101529     0.249156  73.60  0.001321918    4.320    0.769
       107 -12.2992    230.8823     58.1867   4.9210328922e+01   1.9993081849e+01    0.3058263    0.2645155 -49.49 0.0005025244    1.048    0.046
       108 -11.7614     19.5174     59.5247   1.0692879694e+02   6.2181213962e+01     0.436815    0.2242032 -44.23 0.0008425717    1.550    0.355
       109 -11.3828      8.9266     56.5567   1.1052921364e+02   6.3471917984e+01    0.4949419    0.3194139 -82.44  0.002865308    1.922    0.480
       110 -10.3377    119.7762     57.1658   7.0140287276e+01   4.7413807275e+01    0.2523524    0.1689457 -75.25 0.0009557946    2.878    0.653
       111 -10.4164     54.0523     54.0013   9.1195327254e+01   5.9916530754e+01    0.3934117    0.1851563 -60.30  0.001460941    3.493    0.714
       112 -10.8628    161.5271     53.5004   5.9024421262e+01   3.7857722593e+01    0.3208534    0.1473629  58.86   0.00120549    2.149    0.535
       113 -11.9326    148.6406     52.2489   6.1332520023e+01   4.1301438941e+01    0.4927399     0.208231  47.70   0.00179927    2.294    0.564
       114 -10.4792     92.3695     51.1731   7.6209236350e+01   5.4219828217e+01    0.2074769    0.1272742 -45.31  0.000786817    1.765    0.433
       115 -11.2709     75.0016     43.2445   7.9161022013e+01   5.8747266603e+01    0.2781474    0.1971284  50.91  0.001196061    1.779    0.438
       116 -11.4290     70.2747     42.2959   8.0531941081e+01   5.9698929616e+01    0.4470195    0.3462944  88.79   0.00215057    2.702    0.630
       117 -11.3149      7.5145     43.1644   1.0767133176e+02   6.6340214709e+01    0.4702935    0.2568325  35.89  0.002683616    2.492    0.599
       118 -11.3435     41.9167     37.3550   9.0120497780e+01   6.4546867711e+01    0.3000292    0.2116811  -4.08  0.001010115    1.421    0.296
       119 -11.7331    120.5508     34.6812   6.1791520945e+01   5.0676219987e+01    0.3104173    0.2815206  62.59 0.0001819755    1.192    0.161
       120 -10.7895     50.3863     34.6433   8.5370363115e+01   6.3960708407e+01    0.2501348     0.188295  11.79  0.001020372    1.297    0.229
       121 -10.5614     73.1135     31.9617   7.5230988702e+01   6.0880261800e+01    0.2639951     0.214504 -79.61   0.00138446    2.289    0.563
       122 -10.6744    102.4434     29.9421   6.4826497867e+01   5.5397582776e+01    0.3631018     0.290099  79.84  0.001909138    1.760    0.432
       123 -12.2268    203.8185     21.5746   4.3116469356e+01   3.1346206867e+01    0.4344166    0.2646362 -71.96  0.002079482    1.816    0.449
       124 -11.8778     21.9123    238.7874   1.2732327585e+02   2.2208035514e+01    0.4277832    0.1654448  68.93  0.002301393    2.389    0.581
       125  -9.7593      2.5032    240.4856   1.3055226553e+02   2.3838471056e+01    0.1047113   0.06934366  70.06 3.948055e-05    1.027    0.026
       126 -11.1187    239.6046     20.5995   3.9285714531e+01   2.2988657876e+01    0.2521859    0.1977407 -82.58 0.0006741142    1.169    0.145
       127 -10.0806     89.3515     18.3428   6.3859718611e+01   5.9601885746e+01    0.2553868     0.170727  76.27  0.001173325    2.623    0.619
       128 -11.6489    210.5038     21.3392   4.2308113155e+01   2.9730842454e+01    0.2857148     0.193386 -83.49  0.001172734    1.496    0.332
       129 -10.4163     12.9958    227.5752   1.2825850269e+02   2.5190559862e+01    0.1651849    0.1085504  83.74 0.0004818243    1.190    0.159
       130 -10.1149    104.4555    225.4749   1.1097520791e+02   1.4006426601e+01    0.2364003    0.1219791 -62.65  0.001214872    2.198    0.545
       131 -10.9490     96.1638    225.3018   1.1260684372e+02   1.5291418217e+01    0.3825367    0.1429242  51.36  0.001651292    2.510    0.602
       132 -10.1271    149.0000    223.0133   1.0166675097e+02   7.2385202276e+00    0.1891576   0.07555145 -50.03 0.0008039165    2.953    0.661
       133 -10.1507    174.2355    222.2682   9.6490250069e+01   3.0952463954e+00    0.1821496    0.1084466 -56.49 0.0008969374    2.406    0.584
       134 -10.2056    226.5012    221.5062   8.6366953294e+01  -5.3152349827e+00    0.1252123    0.1009312  13.05 -0.0001503545    1.038    0.037
