#   1 NUMBER                 Running object number                                     
#   2 MAG_AUTO               Kron-like elliptical aperture magnitude                    [mag]
#   3 X_IMAGE                Object position along x                                    [pixel]
#   4 Y_IMAGE                Object position along y                                    [pixel]
#   5 X_WORLD                Barycenter position along world x axis                     [deg]
#   6 Y_WORLD                Barycenter position along world y axis                     [deg]
#   7 A_WORLD                Profile RMS along major axis (world units)                 [deg]
#   8 B_WORLD                Profile RMS along minor axis (world units)                 [deg]
#   9 THETA_WORLD            Position angle (CCW/world-x)                               [deg]
#  10 FWHM_WORLD             FWHM assuming a gaussian core                              [deg]
#  11 ELONGATION             A_IMAGE/B_IMAGE                                           
#  12 ELLIPTICITY            1 - B_IMAGE/A_IMAGE                                       
         1 -14.2801    179.4262     54.6380   4.9840025505e+01   3.3523769433e+01      1.78214      1.08443  27.73  0.005104627    2.676    0.626
         2 -13.8654    200.0323     35.9743   4.1974601329e+01   3.1176631997e+01    0.6855513    0.6290947 -73.59  0.001776453    1.061    0.058
         3 -14.3459    221.9884     10.5936   3.3778446705e+01   2.9173007474e+01    0.8762512    0.7357302 -68.40  0.003858805    1.064    0.060
         4 -11.8741     78.6440     14.6088   5.8796428028e+01   6.1875877855e+01    0.3791106    0.2250692  71.03  0.001707753    2.918    0.657
         5 -12.6836     60.7780      2.5980   5.9240449583e+01   6.6442876623e+01    0.4704222    0.1363648  44.82   0.00198246    2.771    0.639
         6  -9.9592     62.9798    214.0223   1.1261129221e+02   2.1566107150e+01    0.1628905    0.1503528 -18.35 0.0003427656    1.487    0.328
         7 -17.1073     71.0832    147.6382   1.0174465716e+02   3.6222113431e+01     8.590593     4.926998  74.55   0.03324775    2.768    0.639
         8 -11.8709     63.3402    200.1573   1.1106930528e+02   2.4587587807e+01    0.4187514    0.1937779 -55.83 0.0009179186    2.240    0.554
         9 -11.8386     66.7306    195.3380   1.0973499332e+02   2.5239469349e+01    0.3275994    0.2398891  89.03  0.000815227    1.337    0.252
        10 -11.8485    192.2728    193.6364   8.0733245404e+01   4.7911667055e+00    0.9024658    0.4531561 -62.19  0.002450502    6.932    0.856
        11 -11.3870     39.2325    199.9411   1.1646311481e+02   2.7558725804e+01    0.1981992     0.147844  57.53 0.0003570583    1.206    0.171
        12 -10.8148     82.3010    194.8422   1.0600793309e+02   2.3179450259e+01    0.2993958    0.2630843  48.27   0.00157711    1.120    0.107
        13  -9.8894     32.5572    196.1425   1.1760221912e+02   2.9144817933e+01    0.1228523   0.06680786  49.40 0.0006420041    1.688    0.408
        14 -12.7486    148.8960    191.4174   8.9759204650e+01   1.2908800640e+01    0.4674317    0.3258254 -75.38  0.002074305    2.130    0.531
        15 -12.3794    146.4885    186.0434   8.9331350437e+01   1.4466393586e+01    0.3416912    0.3078802   6.56  0.000866069    1.152    0.132
        16 -17.7266     34.4717    238.4311   1.2037389838e+02   1.9960809227e+01     9.206934     3.029333  28.00   0.03358897    4.238    0.764
        17 -11.2636    186.0504    173.9902   7.8127058630e+01   9.5999979935e+00    0.3394961    0.3258083  27.81  0.001256169    1.129    0.115
        18 -11.3931    147.8860    174.3089   8.6760946373e+01   1.6723873791e+01      0.24163    0.2052473 -62.64 0.0003165379    1.301    0.231
        19 -11.3227     47.4800    173.2621   1.1177180698e+02   3.2874378207e+01    0.4128945    0.2769051 -42.81  0.001568404    1.819    0.450
        20 -11.8622     53.1213    172.6396   1.1027981459e+02   3.2357465393e+01    0.3529586    0.2416866  75.38 0.0006002139    1.504    0.335
        21 -11.1243     41.7500    208.0074   1.1662554370e+02   2.5476389990e+01    0.3096913    0.1661434  70.40  0.001212378    1.895    0.472
        22 -19.1912      6.0240    102.6818   1.1440744952e+02   5.3821401783e+01     17.19817     1.670168 -71.37   0.03288775   11.924    0.916
        23 -10.4718     65.5320    206.9719   1.1131833983e+02   2.2773569344e+01    0.2102886    0.1886998  86.31  0.001356592    1.097    0.088
        24 -12.8149    133.8270    145.6361   8.4186186486e+01   2.5903527049e+01     1.333538    0.3382304 -54.47  0.003025223    5.928    0.831
        25 -10.3901    174.8407    149.1613   7.5179621328e+01   1.6802454886e+01    0.2280824    0.2120961 -77.31 0.0006703572    1.238    0.193
        26 -12.5320    106.4312    136.6343   8.9522957985e+01   3.3263384010e+01    0.5704458     0.357227 -26.60  0.002250876    2.279    0.561
        27 -11.9641    106.0807    130.8560   8.8311701277e+01   3.4726784023e+01    0.4480635    0.3451468 -61.97  0.001260535    1.333    0.250
        28 -12.4592     94.1090    136.5100   9.2995632381e+01   3.5448406937e+01    0.3103353    0.2793532 -47.15 0.0004236345    1.090    0.082
        29 -13.5388     94.2605    150.4189   9.5781757561e+01   3.1988032720e+01    0.6835122    0.5542232 -15.24  0.003408055    1.559    0.359
        30 -11.1681     57.1534    211.5765   1.1363232151e+02   2.2841986144e+01    0.2420487    0.1923753 -89.34 0.0004497752    1.158    0.136
        31 -12.2652    112.0673    150.3941   9.0933017749e+01   2.8910584665e+01    0.5931188    0.3504155  70.46  0.002071326    3.076    0.675
        32 -11.9472    113.9549    128.6041   8.5562022121e+01   3.3793174311e+01    0.3620377      0.28515  19.05 0.0008196465    1.477    0.323
        33 -11.4316     89.0723    210.8394   1.0649093799e+02   1.8634401916e+01    0.3245457    0.2183155 -84.57  0.001708997    1.678    0.404
        34 -11.2048    101.3017    124.3888   8.8173337687e+01   3.7155797193e+01    0.2931031    0.2527987 -26.01 0.0005519215    1.243    0.195
        35 -11.8877    119.9513    122.8661   8.2493153341e+01   3.3973910457e+01    0.3897343    0.2840404   2.74  0.001653473    1.960    0.490
        36 -10.9748    135.0000    120.3946   7.7818196428e+01   3.1448903206e+01    0.3492902   0.08858201 -45.88 0.0009258367    3.863    0.741
        37 -10.9640     75.3424    248.5861   1.1332004644e+02   1.2983500363e+01    0.5312664   0.09891357 -59.18  0.001910211    5.171    0.807
        38 -10.2217    109.4704    117.9879   8.4229427108e+01   3.7163013420e+01    0.2240144    0.2079863  36.89 0.0003291443    1.112    0.101
        39 -10.7601    231.2423    113.8080   5.6279895459e+01   1.2121652021e+01    0.2345344    0.2268807  -7.91 0.0007840151    1.130    0.115
        40 -10.2476    167.9821    112.9790   6.7916226762e+01   2.5802811982e+01    0.2609923    0.1959914 -79.14  0.001142382    1.831    0.454
        41 -12.7892    118.2448    109.6517   7.9551589356e+01   3.7353060640e+01    0.6243131    0.4766245  81.58  0.002770687    1.836    0.455
        42 -10.2691    205.3812    110.1862   5.9746338177e+01   1.8079704326e+01    0.2386812    0.2005497  38.41 0.0007045375    1.310    0.237
        43 -10.6070     61.8167    194.1626   1.1074607374e+02   2.6156577642e+01    0.2219629    0.1575461  76.13 0.0003342174    1.383    0.277
        44 -12.0893     62.4606    247.9065   1.1574750109e+02   1.4786450746e+01    0.2585186     0.162652  77.33 0.0007393932    1.582    0.368
        45  -9.9220    156.2990     83.3017   6.2429908423e+01   3.4317986949e+01    0.1518029    0.1208735  12.53 0.0002470647    1.583    0.368
        46 -10.3288     71.8387    243.8357   1.1358651215e+02   1.4340945125e+01    0.2251388    0.1430985 -85.82  0.001337841    1.698    0.411
        47 -14.2392    194.4822     42.0171   4.4225704149e+01   3.1692553979e+01      0.89371    0.8049505 -13.08  0.003857772    1.344    0.256
        48 -11.0744     55.4643    206.1174   1.1346528629e+02   2.4255253130e+01    0.2928579    0.1951128 -87.89 0.0009159539    1.447    0.309
        49 -11.7291    198.3590     23.4888   3.9052566875e+01   3.3090188956e+01    0.2508092    0.2212207  27.59 0.0008939453    1.471    0.320
        50 -10.9058     58.5620    224.9540   1.1458241592e+02   1.9818298232e+01    0.3053046    0.1676397  69.30  0.001034691    1.904    0.475
        51 -11.4263     48.8278    216.8573   1.1589295891e+02   2.2724961127e+01    0.3812008    0.2798066  74.36  0.002402786    1.186    0.157
