#   1 NUMBER                 Running object number                                     
#   2 MAG_AUTO               Kron-like elliptical aperture magnitude                    [mag]
#   3 X_IMAGE                Object position along x                                    [pixel]
#   4 Y_IMAGE                Object position along y                                    [pixel]
#   5 X_WORLD                Barycenter position along world x axis                     [deg]
#   6 Y_WORLD                Barycenter position along world y axis                     [deg]
#   7 A_WORLD                Profile RMS along major axis (world units)                 [deg]
#   8 B_WORLD                Profile RMS along minor axis (world units)                 [deg]
#   9 THETA_WORLD            Position angle (CCW/world-x)                               [deg]
#  10 FWHM_WORLD             FWHM assuming a gaussian core                              [deg]
#  11 ELONGATION             A_IMAGE/B_IMAGE                                           
#  12 ELLIPTICITY            1 - B_IMAGE/A_IMAGE                                       
         1 -11.3034     90.7307     12.3559   8.1017218479e+01   5.8822289521e+01    0.3092421    0.2290605  56.99  0.001604221    1.430    0.301
         2 -10.2408     76.5554      9.7139   8.4098744676e+01   6.1750056124e+01     0.195008    0.1490468  65.20  0.001195821    1.825    0.452
         3  -9.7134     72.8321      2.1975   8.2184852069e+01   6.3088865549e+01    0.1737621    0.1119277  25.78  0.001074208    1.328    0.247
         4  -9.8688    139.4851    235.3220   1.2428604758e+02   5.6783333042e+00    0.3404297    0.2760744   7.72  0.001344008    1.662    0.398
         5 -13.9151    236.9886      7.1998   5.6785574542e+01   2.5508215137e+01     7.999348     1.913068 -36.42   0.03192021    3.716    0.731
         6 -12.9054    247.3659    159.3804   8.8186528459e+01  -7.2122723123e-01     1.970111    0.7749197 -31.33  0.007252764    2.863    0.651
         7 -12.9413    246.8681    240.9741   1.0411697198e+02  -1.3284160569e+01     1.017231    0.8944983 -15.74  0.007237427    1.324    0.245
         8 -12.6584    245.1227    146.7943   8.5885393375e+01   1.9150164529e+00     4.790496     2.427215 -12.86  0.009549351   11.690    0.914
         9 -14.6445    248.4071    128.7357   8.1433612590e+01   4.4932490254e+00     7.428761     1.205386 -42.26   0.01922948    5.289    0.811
        10 -10.1820    156.6726    247.0748   1.2249118797e+02   5.9295874350e-01    0.4426268      0.31644 -12.81  0.001848697    2.178    0.541
        11  -9.6968    185.8405    220.2194   1.1227702688e+02  -4.2273279887e-02     0.351408    0.2380833 -31.49  0.001233319    1.685    0.407
        12 -10.8176    176.6693    245.1307   1.1822725631e+02  -2.5655762894e+00    0.5609524    0.4017956   4.44  0.002045327    1.826    0.452
        13  -9.7633    166.7971    250.3221   1.2095481867e+02  -1.6893228956e+00    0.6410763        0.174  36.95  0.002071906    3.627    0.724
        14  -9.5875    163.4141    245.8928   1.2097800908e+02  -3.8512240466e-01    0.3046989    0.2866719 -77.25  0.001084089    1.290    0.225
        15 -10.5170    183.8757    237.2721   1.1555084745e+02  -2.5585289669e+00    0.6692711    0.3470008 -28.25  0.002942148    2.817    0.645
        16 -10.4127    177.1997    233.9797   1.1636444969e+02  -8.3461126142e-01    0.5639435    0.3374141 -26.26  0.002462189    2.338    0.572
        17  -9.1697    184.1450    226.8613   1.1377045905e+02  -8.7753302260e-01    0.4271839    0.2540087  26.68  0.002046462    1.790    0.441
        18 -10.1791    193.5593    216.9958   1.1011960218e+02  -8.9689420352e-01    0.4724022    0.3315369 -19.77  0.002165633    1.696    0.410
        19 -11.0631    190.9187    233.1220   1.1345555417e+02  -3.1218459809e+00    0.5175873    0.4369664 -12.30  0.001996762    1.280    0.219
        20  -9.7847    190.6118    224.8958   1.1211617042e+02  -1.7095869822e+00    0.3811187    0.2426986 -23.40  0.001166997    1.986    0.497
        21  -9.9035    148.6193    238.9927   1.2294872872e+02   3.3968809094e+00      0.39082     0.294273  10.34  0.002007407    1.818    0.450
        22 -11.2127    141.6762    247.3056   1.2550387574e+02   3.1559451940e+00    0.8833964    0.5120439  36.64  0.004597931    1.573    0.364
        23 -10.4226    159.6663    236.7095   1.2036168727e+02   1.8321933559e+00    0.5257265    0.3762059  16.15  0.001837822    1.757    0.431
        24  -9.0369    165.4961    232.9597   1.1858948676e+02   1.4395344171e+00    0.2343803    0.1947407  11.60 0.0007571559    1.353    0.261
        25  -8.9866    151.3817    245.3122   1.2329556709e+02   1.8124733826e+00    0.2905768    0.2355856 -21.75 0.0009217449    1.634    0.388
        26  -9.1452    154.6997    241.6449   1.2210318089e+02   1.8590366456e+00    0.2542557    0.1960475 -21.20 0.0008087282    1.757    0.431
        27 -10.3901    123.9520    248.5143   1.2915839885e+02   5.9702688905e+00    0.5368215    0.2916918  37.27  0.002726582    1.730    0.422
        28  -9.0450    107.9763    249.5816   1.3239050998e+02   8.4223099637e+00    0.2545475    0.1780341  30.01  0.001077418    1.724    0.420
        29  -9.4385     87.7565    250.0955   1.3628770141e+02   1.1518946116e+01    0.2674924    0.1551918  41.40  0.001341897    1.591    0.372
        30  -9.9788     72.4911    250.4050   1.3913871406e+02   1.3731590661e+01    0.3611841   0.09344004  41.75  0.001450332    3.160    0.684
        31 -10.3598     81.8806    244.6843   1.3685038088e+02   1.3434397920e+01    0.4900776    0.2647899  29.75  0.002351431    2.635    0.620
        32 -10.3017     62.2807    249.2662   1.4088600514e+02   1.5392015753e+01    0.3698353    0.2610775  35.42  0.002338299    1.730    0.422
        33 -10.0240     48.7943    250.2152   1.4334554503e+02   1.7024270710e+01    0.3976295    0.1533175  37.93  0.001948301    2.661    0.624
        34 -11.0222     33.2965    248.4761   1.4587567757e+02   1.9296969780e+01    0.4616437    0.2796133  42.08  0.002649702    1.695    0.410
        35 -10.7839     42.1168    245.3127   1.4413934289e+02   1.8816171054e+01    0.3323542    0.2777963  27.58  0.002232137    1.847    0.459
        36 -10.9891     17.3825    249.3279   1.4855606365e+02   2.0974557039e+01    0.5885723    0.2166821  37.21  0.003111586    2.885    0.653
        37  -9.1627      3.0586    250.3303   1.5087376069e+02   2.2312121828e+01    0.2283183    0.1289935  46.60  0.001607257    1.658    0.397
        38 -10.5392      9.4203    248.9949   1.4980989522e+02   2.1898385915e+01    0.3770015    0.2167449  45.53  0.001983631    1.668    0.401
        39  -9.9202    113.5536    245.1266   1.3078619855e+02   8.3247680630e+00    0.3450522    0.3010566   9.82   0.00152101    1.626    0.385
        40  -9.8546    118.3592    239.7280   1.2916730415e+02   8.5248278441e+00    0.3367874    0.3114689 -39.23  0.001633873    1.415    0.293
        41 -10.4114     94.3214    245.1577   1.3452842406e+02   1.1429431801e+01    0.4779761    0.2558368  34.16  0.002321942    2.117    0.528
        42  -9.0860    200.1930    210.1471   1.0750961633e+02  -9.2650946665e-01    0.2922436    0.1748104 -31.64 0.0008042333    1.856    0.461
        43 -10.1913    198.9618    225.8284   1.1059384899e+02  -3.3509691421e+00    0.3661184    0.2757612 -22.69  0.001146681    1.454    0.312
        44 -10.4978    202.6486    216.6085   1.0820458529e+02  -2.4786811685e+00    0.6521884    0.3314762 -30.30  0.002855743    2.377    0.579
        45 -10.4161    201.7440    241.3184   1.1267715531e+02  -6.2578498756e+00    0.3609572    0.2800977 -18.78  0.001188447    1.405    0.288
        46 -11.0049    204.9131    233.9371   1.1081619601e+02  -5.6688213258e+00       0.4952    0.4660073  -2.53  0.002388277    1.189    0.159
        47 -10.3824    104.8779    242.2646   1.3215257784e+02   1.0287472728e+01    0.4098028    0.3231341  11.59  0.001813326    2.028    0.507
        48 -10.6550     69.4892    240.6665   1.3879335547e+02   1.6036369636e+01    0.3810091    0.2831127  31.48  0.002130968    1.755    0.430
        49 -10.8899     53.6552    241.7296   1.4180725738e+02   1.8018165071e+01    0.5117933    0.2448578  41.17  0.002779134    1.969    0.492
        50 -11.2978     12.0477    240.5389   1.4891556994e+02   2.3221374050e+01    0.4893244    0.2655416  39.49  0.003163655    1.976    0.494
        51 -10.0947      2.2363    242.3082   1.5059608915e+02   2.3894839423e+01    0.2734775    0.1477994  80.60  0.001848851    1.400    0.286
        52  -9.6963    124.0638    231.0143   1.2685949706e+02   9.2052052791e+00    0.4351217    0.3118261  10.97  0.002138097    2.325    0.570
        53  -8.5716    129.8533    229.3693   1.2543044796e+02   8.5058000816e+00    0.2020573     0.154983  44.96 0.0005601385    1.148    0.129
        54  -9.5865    133.8755    230.8128   1.2480001787e+02   7.5167125005e+00     0.339848    0.2804866   5.69  0.001168035    1.663    0.399
        55  -9.0713    138.9383    227.6919   1.2329141635e+02   7.2048836085e+00    0.2839112    0.2292262  -7.74  0.001051223    1.776    0.437
        56  -9.8271    125.8221    240.6239   1.2778430970e+02   7.0851837439e+00    0.3906859    0.2729936  46.82  0.001964781    1.201    0.168
        57  -9.3042    129.4100    235.7826   1.2641196976e+02   7.3649301561e+00    0.3206644    0.2326467 -19.32  0.001214011    2.371    0.578
        58 -10.0104     36.1315    240.8207   1.4485365987e+02   2.0428528106e+01    0.3223959    0.1910709  25.08  0.001748129    2.931    0.659
        59  -9.6079     42.1526    237.1774   1.4351372288e+02   2.0402871846e+01    0.2838443    0.1817035  38.93  0.001444715    1.729    0.422
        60 -10.9185     26.1887    240.6099   1.4655420805e+02   2.1645823391e+01    0.3803871    0.3515009  -1.36  0.002875165    1.981    0.495
        61  -9.5282     62.6227    239.5530   1.3997283781e+02   1.7225404924e+01    0.2206365    0.1982186  -3.19  0.001471729    1.922    0.480
        62  -9.7765     91.5047    236.3671   1.3411273730e+02   1.3571395343e+01    0.3857756     0.286549  29.79  0.001922455    1.695    0.410
        63 -10.0428     78.8322    236.3969   1.3659190300e+02   1.5510822625e+01    0.2943008    0.2237977  35.68  0.001807262    1.547    0.353
        64 -10.0301      3.8787    235.9864   1.4999572872e+02   2.4939555919e+01    0.2220644    0.1960077 -69.36   0.00142294    1.641    0.390
        65  -9.6226    170.7574    233.6517   1.1762283845e+02   3.7368479459e-01     0.302873    0.2454716  -0.56  0.001033825    1.479    0.324
        66  -9.0740    153.0979    233.4396   1.2121177522e+02   3.5884577135e+00    0.2471534    0.2019758  13.56 0.0009019494    1.457    0.314
        67  -8.9526    108.3223    233.6629   1.3042894312e+02   1.1376454255e+01    0.2516452    0.1953334  29.50  0.001266438    1.540    0.350
        68  -8.9998    112.3231    238.1829   1.3018413482e+02   9.8339990152e+00    0.2547025    0.1940339  20.15  0.001056281    1.833    0.454
        69  -9.6942    145.8481    231.4286   1.2240736827e+02   5.2595796832e+00    0.3602355    0.2510987  22.87  0.001586628    1.744    0.427
        70  -9.9001    100.8550    231.0667   1.3162392991e+02   1.3123338892e+01    0.3642366    0.2819068  18.29  0.002030405    1.898    0.473
        71 -10.2869     56.5440    231.1339   1.4034982681e+02   1.9746438299e+01    0.3924371    0.2603011  24.80  0.002159379    2.340    0.573
        72 -10.2206     11.4681    231.8850   1.4849867380e+02   2.4967655168e+01    0.2705727    0.1602519  31.01  0.001705829    2.305    0.566
        73  -8.9294    165.8591    220.8101   1.1654189374e+02   3.5506008086e+00    0.2162094    0.1797146  14.88  0.001212169    1.322    0.244
        74  -9.3172    158.1789    230.0523   1.1964153670e+02   3.2795469155e+00    0.2912623    0.2331115  -5.00 0.0009371717    1.639    0.390
        75  -9.5221    163.0279    225.6279   1.1792859694e+02   3.1937102598e+00    0.4148947    0.3784821  50.56  0.002426561    1.088    0.081
        76 -10.1515    114.3107    229.0235   1.2860775172e+02   1.1278858086e+01    0.3937767    0.3403285   1.28  0.002320155    1.673    0.402
        77  -9.4286     45.2214    229.6101   1.4234034999e+02   2.1538733857e+01    0.1969203    0.1867899 -33.05  0.001417191    1.695    0.410
        78  -9.3846    174.4010    227.8618   1.1593631675e+02   7.1588381133e-01    0.3278615    0.2347691  16.34  0.001263313    1.636    0.389
        79  -8.6779    169.3820    228.7269   1.1711274479e+02   1.4774157638e+00    0.2211436    0.1283978 -33.05  0.000736472    2.235    0.553
        80  -8.7025    170.5462    224.2106   1.1612852899e+02   2.0658978533e+00    0.2315093    0.1769465  -6.70 0.0008357731    1.701    0.412
        81  -9.3759    174.7919    221.5699   1.1479972545e+02   1.7551027011e+00    0.3191517    0.2179572  14.55   0.00125752    1.881    0.468
        82  -9.2446    152.9027    228.0511   1.2042670281e+02   4.6046449388e+00    0.3172705    0.2410135   5.00  0.001133504    1.830    0.454
        83  -8.7872    155.4796    223.9886   1.1924667614e+02   4.8851993742e+00    0.2576664    0.2281784 -16.58  0.001053845    1.349    0.259
        84  -9.1162     93.2965    228.0809   1.3280044970e+02   1.4947173324e+01    0.2601308    0.2058358  10.25  0.001436447    2.066    0.516
        85  -8.9797     79.3425    228.3300   1.3563772737e+02   1.7063095606e+01    0.2361206    0.2135527 -18.29  0.001502332    1.734    0.423
        86  -8.5862     30.0243    229.0408   1.4507208784e+02   2.3498703226e+01    0.1609341    0.1333775 -56.13  0.001133742    1.706    0.414
        87  -9.9540     36.2852    231.3633   1.4411945248e+02   2.2288428289e+01    0.3738393    0.2751855 -29.77   0.00214947    2.951    0.661
        88 -10.4166     69.8185    227.4166   1.3742720125e+02   1.8655919681e+01    0.3778671    0.2245798  30.56  0.001958096    2.186    0.543
        89  -9.9831    206.0463    224.2151   1.0889619220e+02  -4.3315263199e+00    0.3744089    0.2578452 -24.44  0.001356774    1.596    0.373
        90  -8.9013    144.0817    226.4991   1.2203439664e+02   6.5008498304e+00    0.2457897     0.208446  10.75  0.001103693    1.451    0.311
        91  -9.9467    148.4918    221.4021   1.2031242106e+02   6.6639311867e+00    0.4232845    0.2870341 -35.28  0.001720859    1.880    0.468
        92  -9.2970    129.5986    224.1003   1.2472804174e+02   9.5777117520e+00     0.314814    0.2271223  17.60  0.001461039    1.954    0.488
        93  -9.3521     85.4266    231.5497   1.3478031666e+02   1.5479775139e+01    0.2520234    0.1987684 -15.58  0.001373491    2.417    0.586
        94  -9.2808    120.6854    225.0688   1.2674330966e+02   1.0962234401e+01    0.2878158    0.2171624  20.73  0.001384381    1.760    0.432
        95  -9.2857    180.5299    221.8828   1.1366228270e+02   6.4169947865e-01    0.3243852    0.2317545 -29.88   0.00119847    1.623    0.384
        96  -8.9022    135.6155    223.0939   1.2330631351e+02   8.6927790087e+00    0.2326899     0.209629  13.72  0.001186585    1.333    0.250
        97  -8.2795    109.5070    224.4714   1.2900432459e+02   1.3009588262e+01    0.1356805    0.1161216  61.38 0.0002808185    1.019    0.019
        98  -9.7287     98.0731    222.5064   1.3113579598e+02   1.5319234853e+01    0.2992764     0.228433 -30.61  0.001583615    2.078    0.519
        99  -9.0364     51.1258    222.6137   1.4060575647e+02   2.2224797339e+01    0.2160744     0.160177  26.57  0.001307417    1.920    0.479
       100 -10.2814     20.5335    227.2827   1.4663578280e+02   2.4921776650e+01    0.2945093    0.2254661 -34.21  0.001894459    2.514    0.602
       101  -9.0869    140.8083    220.6325   1.2182721230e+02   8.2276956606e+00    0.3008842    0.2201074 -24.17  0.001006205    1.991    0.498
       102  -9.9669    143.7754    214.7032   1.2025191192e+02   8.8480778418e+00    0.3702591    0.2773918   5.29  0.001812642    1.979    0.495
       103  -8.3818     92.6681    221.6631   1.3215453228e+02   1.6370035924e+01    0.1215451    0.1068076 -16.09 0.0007052077    1.738    0.424
       104  -9.3488     40.9829    220.7802   1.4238704406e+02   2.3892941512e+01    0.2691027    0.1679316  26.23  0.001497622    2.371    0.578
       105  -8.6914     15.8247    221.3964   1.4706845282e+02   2.6620566636e+01    0.1331737    0.1074482  30.33 0.0009478157    1.784    0.440
       106  -9.4278    159.2426    217.8746   1.1745215689e+02   5.3347452970e+00    0.3629335    0.2659039   4.23  0.001776534    1.954    0.488
       107  -8.5735    154.0990    218.9231   1.1872063910e+02   6.0972628873e+00     0.212607    0.1675761   3.98 0.0007875462    1.678    0.404
       108  -9.0867    128.9775    219.0110   1.2411010273e+02   1.0702957667e+01    0.2071597    0.1715959   6.08  0.001124545    1.662    0.398
       109  -9.8799    119.8638    217.4454   1.2583518445e+02   1.2650096995e+01    0.3093332    0.2383101 -23.90  0.001601392    1.975    0.494
       110  -9.6944    124.0278    215.9977   1.2472573661e+02   1.2205962270e+01    0.2615815    0.2047451  32.37 0.0009218972    1.377    0.274
       111  -8.6913    109.9356    219.0525   1.2818422202e+02   1.4047566446e+01    0.2012665     0.171627   1.96  0.001115986    1.715    0.417
       112  -8.6158    136.1783    218.2761   1.2245380706e+02   9.5414644277e+00    0.2195596    0.1690822  22.73 0.0009039163    1.554    0.357
       113  -9.0309    114.8659    222.2228   1.2757479834e+02   1.2547843898e+01    0.2362645     0.177501 -28.33  0.001223365    2.050    0.512
       114  -9.2365    179.4064    216.1851   1.1290331526e+02   1.8653764881e+00    0.2826466    0.2106013   7.06 0.0009798984    1.652    0.395
       115  -9.6286    171.1123    215.0349   1.1444725797e+02   3.6341639650e+00    0.4028462    0.2415797 -30.19  0.001746482    2.192    0.544
       116  -8.1769    115.3221    217.3329   1.2679388097e+02   1.3471759883e+01     0.129716    0.1106968  -4.91  0.000578911    1.702    0.413
       117  -8.9928    166.0360    214.2679   1.1539276205e+02   4.7372299571e+00    0.5087153    0.3167951 -10.07  0.001940941    3.352    0.702
       118  -9.6563      3.0446    227.4678   1.4965708343e+02   2.6688099997e+01    0.2506553   0.09549826  36.42  0.001372597    2.776    0.640
       119  -9.2276    154.7972    212.5088   1.1750500561e+02   7.2063747623e+00    0.3123512    0.2425009 -19.90  0.001074564    1.691    0.409
       120  -8.8927     83.4676    215.6600   1.3334201557e+02   1.9089388333e+01    0.2072811    0.1663845  20.13  0.001166722    1.773    0.436
       121  -8.8485    185.8005    214.4299   1.1125772313e+02   9.8677232227e-01    0.2786039    0.2096962  -8.43 0.0008272291    1.627    0.385
       122  -8.2227    189.4720    213.4284   1.1031551442e+02   4.8133797058e-01    0.1400711    0.1239224  26.76 0.0001513237    1.012    0.012
       123  -8.4874     31.3319    215.3200   1.4376260524e+02   2.6186697604e+01    0.1072504   0.08642574 -52.86 0.0007048849    1.695    0.410
       124  -9.5496    138.3690    213.8153   1.2128149838e+02   1.0032256914e+01    0.2456554    0.1304665 -41.09  0.001046097    2.395    0.582
       125  -9.4753    132.4700    213.7676   1.2255609151e+02   1.1130730879e+01     0.293053    0.2216933  24.10  0.001276767    1.584    0.369
       126  -8.3738     82.4866    223.4850   1.3446432355e+02   1.7586871218e+01    0.1298501     0.109936  70.27 0.0008098352    1.050    0.048
       127  -8.5250    111.7471    213.4204   1.2700723836e+02   1.4912418942e+01    0.1888686    0.1267305  33.42 0.0008888496    1.627    0.386
       128  -8.8485     64.0079    213.4722   1.3712857075e+02   2.2429118032e+01    0.1566198    0.1171293   5.40 0.0005995735    2.551    0.608
       129  -8.6475    117.7489    212.4336   1.2555939854e+02   1.4066388266e+01    0.1938637     0.128061  32.99  0.000779295    1.649    0.394
       130  -9.1755     96.9844    212.6920   1.3009457260e+02   1.7567395054e+01    0.2021712    0.1144862  18.53 0.0007035894    4.167    0.760
       131  -9.7695    177.1889    209.2399   1.1213002550e+02   3.5609429692e+00    0.3846149    0.2564614 -30.06  0.001396463    1.790    0.441
       132  -9.6952    161.3786    208.9694   1.1547214736e+02   6.6425493992e+00    0.4575409    0.2534397 -35.42  0.001960088    2.307    0.566
       133  -9.5994    164.9029    200.9182   1.1326153424e+02   7.5465092537e+00     0.371739    0.2281287 -22.95  0.001509375    2.584    0.613
       134  -9.1108    125.0576    210.9966   1.2374529769e+02   1.3056156510e+01    0.2564288     0.186636 -26.50  0.001032919    2.078    0.519
       135  -9.4094    126.6682    205.8802   1.2258894925e+02   1.3838821453e+01    0.2725326    0.1793649 -41.47   0.00130198    1.865    0.464
       136  -9.5247    192.9385    208.7987   1.0874761905e+02   6.5897397263e-01    0.3127172    0.2391399 -29.15  0.001195763    1.407    0.289
       137  -8.9911    145.8351    207.9952   1.1869621798e+02   9.8086255709e+00    0.3971444    0.2383636 -27.04  0.001598211    2.833    0.647
       138 -10.6021    149.8893    205.6754   1.1740872738e+02   9.5052033814e+00     0.565241    0.2836601 -51.67   0.00239951    2.197    0.545
       139  -9.3752    134.8702    208.6530   1.2121834714e+02   1.1738521023e+01    0.1883139    0.1848959 -25.57 0.0008227112    1.185    0.156
       140  -8.6031    131.3161    209.0090   1.2205868140e+02   1.2324313762e+01    0.2188395    0.1051488 -34.41 0.0006944316    4.228    0.764
       141  -8.3005    167.5097    207.9776   1.1397270031e+02   5.6567371825e+00    0.2019814    0.1436311 -45.04 0.0009405418    1.545    0.353
       142  -9.1127    186.7455    209.7404   1.1020904937e+02   1.6540225245e+00    0.2948362    0.2149036  -6.22 0.0008873411    1.760    0.432
       143  -9.2641    186.8310    202.1791   1.0878081320e+02   3.0299632039e+00    0.3350219    0.2718244 -24.24  0.001223535    1.338    0.252
       144  -8.5588    171.2354    206.7687   1.1295397039e+02   5.1714810234e+00    0.3496859    0.1736915 -33.51  0.001362696    2.730    0.634
       145  -8.9243    173.0000    202.9608   1.1187807592e+02   5.5632283499e+00    0.3048646     0.191547 -38.77  0.001130731    1.768    0.434
       146  -8.9610    120.3957    206.8051   1.2412704020e+02   1.4784805271e+01    0.1941559    0.1302361 -45.59 0.0007337966    1.750    0.429
       147  -8.6544    114.4664    207.5000   1.2554546432e+02   1.5695541414e+01     0.139874    0.1267907  62.50 0.0008092066    1.051    0.048
       148  -8.9299    156.2687    205.4164   1.1596175235e+02   8.3287811729e+00     0.247182    0.2219638  -0.20  0.001067896    1.281    0.219
       149 -10.5558    139.5951    203.9150   1.1938849559e+02   1.1834467702e+01     0.458292      0.22707 -45.52  0.001908549    2.291    0.563
       150  -8.7940    183.2424    206.2863   1.1030764298e+02   2.9541790576e+00     0.267949    0.1932455 -19.46 0.0009410611    1.705    0.413
       151  -9.0401    179.2044    202.6051   1.1048006575e+02   4.4251923175e+00    0.3178007     0.238687 -13.66  0.001335628    1.669    0.401
       152  -8.7106    193.0004    201.4094   1.0734043197e+02   1.9875134555e+00    0.2339084    0.1890831 -21.07 0.0009407508    1.329    0.247
       153  -8.8235    144.0670    201.4623   1.1797147451e+02   1.1491158186e+01    0.2697124    0.2044552 -32.22   0.00135035    1.632    0.387
       154 -10.0791    132.1474    200.6107   1.2050123095e+02   1.3941405064e+01    0.3590928    0.2671866 -11.34  0.001660137    2.174    0.540
       155  -9.3578    155.8789    198.7812   1.1486222504e+02   9.7488880195e+00    0.4867985    0.2307195 -30.50  0.001517261    4.283    0.767
       156  -9.5661    202.2433    196.1973   1.0441601186e+02   1.1745668798e+00    0.4168829    0.2871496 -18.05  0.001686483    1.735    0.424
       157  -9.1291    205.1096    190.0468   1.0260483634e+02   1.7509092658e+00    0.2981229    0.1903118 -35.02 0.0008299308    1.615    0.381
       158  -8.9451    176.1412    196.5776   1.0999994744e+02   6.1905868234e+00    0.3125632    0.2066368 -46.67  0.001137543    1.630    0.387
       159  -9.2066    149.5787    197.2197   1.1598723630e+02   1.1307022825e+01    0.2780561      0.22306 -13.11  0.001287185    1.653    0.395
       160  -8.6885    191.0000    196.9875   1.0690622394e+02   3.1950632823e+00    0.2027255    0.1656907  -9.05  0.000738661    1.356    0.263
       161  -9.3813    194.1230    193.7781   1.0562210967e+02   3.1897506749e+00    0.3704395    0.2509913 -17.87  0.001710542    1.880    0.468
       162  -9.2689    184.4101    195.3143   1.0797770218e+02   4.8032346118e+00    0.4240933    0.2619457 -25.89  0.001847296    2.089    0.521
       163  -8.8476    185.1862    189.7966   1.0672737304e+02   5.7189868434e+00    0.3283658    0.2314575 -16.41  0.001008307    1.840    0.457
       164  -8.8655    170.0905    196.5126   1.1130510602e+02   7.4015840667e+00    0.2781754    0.2054968 -25.71  0.001354839    1.632    0.387
       165  -9.9228    198.0218    202.5215   1.0651258028e+02   8.2991913902e-01    0.4260642      0.26375 -23.65  0.001317491    2.009    0.502
       166  -8.5867    125.3099    196.3658   1.2134171897e+02   1.6141288917e+01    0.1433014    0.1166535 -12.09 0.0005947093    1.756    0.430
       167  -8.2790    159.5472    201.4868   1.1454087369e+02   8.4808766606e+00    0.1455753    0.1342998  33.82 0.0005119966    1.057    0.054
       168  -9.4328    198.8098    190.1204   1.0391670356e+02   2.9610042747e+00    0.4074128    0.2721982 -16.65  0.001415641    1.933    0.483
       169  -9.7650    146.0755    192.1668   1.1586211423e+02   1.3062461487e+01    0.2611512    0.2190214 -52.10  0.001043077    1.272    0.214
       170  -8.9474    161.8430    191.4172   1.1216195126e+02   1.0081356797e+01    0.2835039    0.2160679 -37.69  0.001131154    1.445    0.308
       171  -8.3012    124.6632    192.6702   1.2086612653e+02   1.7075824614e+01    0.1440887    0.1182037  -6.28 0.0007052026    1.732    0.423
       172  -8.4812    190.3001    190.3967   1.0575675741e+02   4.5845992981e+00    0.2631589    0.1425757 -31.94   0.00103529    2.196    0.545
       173  -9.0562    193.1384    187.3100   1.0453740787e+02   4.6139943260e+00    0.2964247    0.2245414  -4.62  0.001443021    1.619    0.382
       174  -9.0848    172.4270    190.0073   1.0954160102e+02   8.2403337347e+00     0.303268    0.2364337 -17.88   0.00132057    1.559    0.358
       175  -9.0419    178.8799    189.3476   1.0800024890e+02   7.0727204043e+00    0.2842189    0.2135293 -31.77  0.001057689    1.459    0.314
       176  -8.3649    139.4918    190.4848   1.1706267329e+02   1.4716675154e+01    0.1474097    0.1396822  40.15 0.0008089375    1.088    0.081
       177  -8.9101    157.1766    186.8980   1.1234637996e+02   1.1966190507e+01    0.2862913    0.1988141  14.44  0.001228707    2.064    0.515
       178  -9.2187    166.4688    185.0193   1.0988362490e+02   1.0471756441e+01    0.3223994    0.2084075 -28.22  0.001063499    2.000    0.500
       179  -8.9031    151.0000    185.9649   1.1357606069e+02   1.3411095169e+01    0.2356656   0.08667916 -49.36     0.000793    2.877    0.652
       180  -9.0250    128.6046    186.1846   1.1881523892e+02   1.7773461751e+01    0.2069707    0.1372349 -42.47 0.0007396039    1.725    0.420
       181  -8.7062    189.6889    184.2842   1.0465477309e+02   5.8926706720e+00    0.2784906     0.169905 -21.62  0.001058745    2.307    0.566
       182  -9.7846    203.3120    182.5197   1.0143900495e+02   3.5070436967e+00    0.3955289    0.2829279 -37.71  0.001791221    1.416    0.294
       183  -8.2665    173.4740    184.4898   1.0821881127e+02   9.1496504961e+00    0.1496866    0.1415556  29.35 0.0001754633    1.023    0.022
       184  -9.0906    140.1589    184.0498   1.1572061197e+02   1.5994806315e+01    0.2449926    0.1779902 -19.09  0.001080034    2.041    0.510
       185  -9.2649    183.6982    182.0711   1.0549015562e+02   7.5480483374e+00    0.3440178    0.2239022 -28.50  0.001156531    1.822    0.451
       186  -8.8074    197.3362    181.5475   1.0247776930e+02   4.8844426632e+00     0.273655    0.1767616 -35.87 0.0009140293    1.606    0.377
       187  -8.2914    154.5137    182.5279   1.1210464725e+02   1.3438791368e+01    0.1508607    0.1433055  37.31  0.000809378    1.049    0.047
       188  -9.0863    176.7961    180.5070   1.0667878662e+02   9.2825977608e+00    0.2944155    0.1956965 -26.28   0.00102222    1.879    0.468
       189  -9.3365    190.9552    178.1919   1.0312863201e+02   6.8351844354e+00     0.406953     0.216205 -35.21  0.001365248    2.079    0.519
       190  -8.8665    192.7352    172.3464   1.0151761232e+02   7.6304116996e+00    0.3029621    0.1974291 -30.40  0.001269865    1.706    0.414
       191  -8.3155    145.4808    179.5091   1.1360801613e+02   1.5930938413e+01    0.1511739    0.1443726  51.03 4.252011e-05    1.028    0.027
       192  -8.8272    169.4242    177.2629   1.0765529227e+02   1.1484112116e+01    0.2758822    0.1470984 -40.55 0.0009440333    2.022    0.505
       193  -9.1808    197.6308    175.9539   1.0124909345e+02   5.9108392285e+00    0.3292178    0.2328101 -22.95 0.0009489205    1.628    0.386
       194  -9.0243    150.4712    176.5496   1.1185720564e+02   1.5565410776e+01    0.2715629    0.1417707 -38.03  0.001029227    2.320    0.569
       195  -8.8819    182.2021    175.3114   1.0441547455e+02   9.2239678853e+00    0.2592873     0.204666 -27.59 0.0008194332    1.381    0.276
       196 -10.2521    101.0018    175.9994   1.2362479127e+02   2.5180953365e+01    0.2090642    0.1898451  81.65            0    1.015    0.015
       197  -8.7985    140.0170    175.4868   1.1410898316e+02   1.7929754400e+01    0.2123872     0.135941  18.18 0.0008097545    2.481    0.597
       198  -9.2870    161.7767    174.1216   1.0874581797e+02   1.3749106525e+01    0.2913103    0.2016383  15.47   0.00121717    2.058    0.514
       199  -8.5330    187.5130    171.9201   1.0254517669e+02   8.8045639910e+00    0.2254158    0.1482399 -38.29 0.0008438614    1.573    0.364
       200  -8.5892    200.6411    171.1597   9.9603916404e+01   6.2318925253e+00    0.2110942    0.1354223 -29.98 0.0009316031    1.708    0.414
       201  -9.3202    205.2396    168.3652   9.8057024350e+01   5.8326165108e+00    0.3780889    0.2463831 -35.22  0.001135534    1.555    0.357
       202  -9.0147    158.1852    169.9224   1.0870328570e+02   1.5413897410e+01    0.2553826    0.1810196 -19.14   0.00108285    1.986    0.496
       203  -9.3819    178.9479    168.0461   1.0358812289e+02   1.1409117175e+01     0.363718    0.2196612 -35.41  0.001269598    1.822    0.451
       204  -8.7871    143.6577    169.6928   1.1208149029e+02   1.8491554148e+01    0.1551048    0.1242648   0.49 0.0007042978    1.689    0.408
       205  -9.6298    134.8076    168.9942   1.1407066060e+02   2.0451492589e+01    0.2560749    0.1831551 -21.03  0.001090701    2.054    0.513
       206  -9.8554    150.0825    167.9346   1.1019008140e+02   1.7553205330e+01    0.2455114    0.1953499  -2.18 0.0009506233    1.696    0.410
       207  -9.4703    191.8723    164.3264   9.9970398709e+01   9.4250606405e+00    0.4101627    0.2557397 -29.32  0.001265686    1.861    0.463
       208  -9.2336    199.6562    163.8151   9.8219508018e+01   7.8841622571e+00    0.3720911     0.194168 -35.31  0.001022422    2.045    0.511
       209  -8.8680    184.7992    164.5199   1.0153789150e+02   1.0892752524e+01    0.3039102    0.2006991 -24.52  0.001261182    1.902    0.474
       210  -8.4730    159.5101    163.9986   1.0713839360e+02   1.6431089254e+01    0.2132709     0.136568 -22.12 0.0008080935    2.383    0.580
       211  -8.5441    172.5035    162.9742   1.0393012232e+02   1.3860618319e+01    0.2314449    0.1534737 -42.50  0.000702425    1.549    0.355
       212  -8.7320    146.3432    162.3133   1.0990025399e+02   1.9598478868e+01    0.1581879    0.1257923   0.23 0.0005432796    1.706    0.414
       213  -8.5350    197.1772    169.0515   9.9873951765e+01   7.3629216778e+00    0.2395578    0.1633171 -15.46 0.0006821479    1.959    0.489
       214  -8.5210    182.8587    160.1682   1.0100500210e+02   1.2213608273e+01    0.3811675    0.2382442   3.24  0.001250066    3.532    0.717
       215  -9.1177    176.7236    157.9642   1.0187458664e+02   1.4011347196e+01    0.3666053    0.2140168 -40.27  0.001510284    1.773    0.436
       216  -9.5076    197.2349    155.9843   9.6990513809e+01   9.9663204503e+00    0.4138488    0.2575971 -26.69  0.001516926    1.941    0.485
       217  -9.1385    127.4996    166.4934   1.1535559568e+02   2.2484993029e+01    0.1523256    0.1460726  72.97 0.0008106144    1.015    0.015
       218  -8.1167    168.3075    158.3189   1.0386034724e+02   1.5771189454e+01    0.1575245    0.1251252   0.52 0.0003232832    1.636    0.389
       219  -9.0856    187.4634    154.7894   9.8798905953e+01   1.2330164250e+01    0.3729717    0.1510092 -39.79   0.00127388    2.575    0.612
       220  -9.4206    157.3776    151.8275   1.0495686350e+02   1.9584414436e+01    0.3285907    0.1420668 -39.56   0.00110238    2.613    0.617
       221 -10.0343    112.2655    155.2806   1.1693082491e+02   2.8063005670e+01    0.2746821    0.2375015 -70.36 0.0002700098    1.147    0.128
       222  -8.1917    192.4906    153.4748   9.7424991765e+01   1.1503525186e+01    0.1521035    0.1487957   2.19 0.0001403256    1.013    0.013
       223  -7.9297    184.2975    153.3712   9.9166144918e+01   1.3319174546e+01    0.1610023    0.1232179  -2.90 0.0005891499    1.737    0.424
       224  -9.3530    151.5916    152.1789   1.0642021278e+02   2.0765260161e+01    0.2244986    0.1489256 -35.75 0.0008025439    1.696    0.411
       225  -9.7166    144.9713    152.1811   1.0802922860e+02   2.2188324631e+01    0.2613988    0.1890689  13.33  0.001086549    1.994    0.498
       226  -8.8379    136.6394    151.6889   1.0998043307e+02   2.4060573229e+01    0.1602654    0.1268049  -0.85 0.0007041621    1.745    0.427
       227  -9.0884    196.9072    148.9098   9.5458320677e+01   1.1468367931e+01    0.3495723    0.2128742 -29.34  0.001054646    1.905    0.475
       228  -8.5392    181.9890    148.9820   9.8669941817e+01   1.4750344325e+01    0.2513877    0.1948325   0.76 0.0009059382    1.711    0.416
       229  -8.4376    191.1538    146.9259   9.6213661746e+01   1.3141788739e+01    0.2170502    0.1859059  -5.66  0.001068327    1.338    0.253
       230  -9.6258    132.4988    146.9957   1.0998074368e+02   2.6008827207e+01    0.2439838    0.1539615 -49.82   0.00103312    1.591    0.371
       231  -9.0281    200.3017    144.1967   9.3675527320e+01   1.1674872928e+01    0.2881238     0.227518 -13.38 0.0009621356    1.510    0.338
       232  -8.4825    176.5157    145.2289   9.9016219514e+01   1.6769484912e+01    0.2235496    0.1509252 -29.80 0.0009404996    1.713    0.416
       233  -8.6366    194.5253    142.7165   9.4527700064e+01   1.3254853816e+01    0.2820617    0.1505628 -36.73 0.0009216108    1.954    0.488
       234  -9.4293    147.8118    142.7647   1.0518712185e+02   2.3711390521e+01    0.2644297    0.1792882  -1.07 0.0009488725    2.765    0.638
       235 -10.1427    138.9926    142.4926   1.0731618930e+02   2.5680513536e+01    0.3158005    0.2277216 -30.64  0.001383628    1.646    0.392
       236  -8.8550    181.7006    140.6380   9.6788921480e+01   1.6571585070e+01    0.2876003    0.1909776 -32.39 0.0007912199    1.660    0.398
       237  -8.3272    203.4889    140.4842   9.2170696869e+01   1.1715928806e+01    0.1518721    0.1466482 -13.16 3.882061e-05    1.047    0.045
       238  -8.7338    166.6366    139.4940   9.9917352546e+01   2.0235491337e+01     0.298977    0.1999034 -15.49  0.001137341    2.352    0.575
       239  -9.2397    131.5805    140.2084   1.0867195091e+02   2.7773446639e+01    0.2276614    0.1471547 -38.35 0.0009506415    1.698    0.411
       240  -9.1986    199.0084    136.0553   9.2043301383e+01   1.3601815179e+01    0.3643921    0.2514291 -20.53  0.001449969    1.843    0.458
       241  -8.7745    192.6438    136.0508   9.3356457432e+01   1.5040088945e+01     0.323008    0.1855005 -34.54  0.001176228    1.872    0.466
       242  -8.5631    172.5151    136.9348   9.7957823177e+01   1.9449556491e+01    0.2465239    0.1564434 -41.96  0.001030265    1.593    0.372
       243  -8.5893    187.8256    134.3334   9.3965270897e+01   1.6490756093e+01    0.2875068    0.2035744 -12.54  0.001189988    2.017    0.504
       244  -8.4555    163.3822    134.7388   9.9535169567e+01   2.2009950821e+01    0.2274012    0.1507621 -34.20 0.0009457639    1.667    0.400
       245  -8.7261    156.0000    134.9946   1.0135020960e+02   2.3628748860e+01    0.2637376   0.09098242 -45.12 0.0007996411    2.923    0.658
       246  -8.7571    155.4528    142.4837   1.0326499169e+02   2.2089336023e+01    0.1567512    0.1550925  19.95  0.000127054    1.045    0.043
       247  -8.7445    197.3572    132.1930   9.1466517217e+01   1.4753149500e+01    0.3619165    0.2253276   5.68  0.001138129    3.879    0.742
       248  -9.5745    205.8969    130.2101   8.9290094873e+01   1.3218343117e+01    0.2888151    0.2218342 -31.47 0.0008230925    1.346    0.257
       249  -8.0485    160.3067    131.3252   9.9428998946e+01   2.3456066017e+01    0.1609802    0.1288104   1.29 0.0005066234    1.649    0.393
       250  -9.2776    211.9067    127.7220   8.7548032522e+01   1.2360168906e+01    0.3185602    0.2910306 -39.98 0.0009715902    1.061    0.057
       251  -8.9116    192.6223    127.8964   9.1410383732e+01   1.6706112969e+01    0.2667827    0.2169985  31.66 0.0008030364    1.359    0.264
       252  -8.4316    186.2941    128.0424   9.2774536959e+01   1.8140433950e+01    0.2245076    0.2020611 -37.23 0.0006276971    1.122    0.109
       253  -8.6833    171.7563    127.3990   9.5809480982e+01   2.1656969519e+01    0.2268195    0.1492698  39.25 0.0009498069    1.607    0.378
       254  -8.8591    179.5345    131.0173   9.4960775419e+01   1.9089000419e+01    0.3020557    0.2233947  29.81 0.0009749947    1.568    0.362
       255  -9.0826    200.0859    125.1829   8.9241088622e+01   1.5533222989e+01     0.238642    0.2097088   7.69 0.0007322272    1.329    0.248
       256  -9.1155    152.0000    124.9980   9.9858734855e+01   2.6735102008e+01    0.2650542   0.09097768 -44.51 0.0008012232    2.934    0.659
       257  -8.9940    179.9496    122.5608   9.2792733423e+01   2.0752218280e+01    0.3039371    0.2286008 -22.88  0.001088296    1.588    0.370
       258  -8.8812    203.1649    120.3337   8.7469153755e+01   1.5781994273e+01    0.2637883    0.2084391 -27.00 0.0006181454    1.380    0.275
       259  -8.5664    194.2218    119.8433   8.9124601357e+01   1.7954711091e+01    0.2149142    0.1862795  -2.70 0.0007355851    1.377    0.274
       260  -8.5877    188.1740    121.8510   9.0862835368e+01   1.8966689060e+01    0.2169428    0.1902099  -1.38 0.0008408146    1.343    0.256
       261  -8.4315    209.0238    117.2986   8.5622782997e+01   1.5025726064e+01    0.2233119    0.1608427  52.42 0.0006664164    1.430    0.301
       262  -8.4142    212.0000    114.9707   8.4515346979e+01   1.4790872327e+01    0.2330775    0.1855054  -1.15 0.0005286131    1.682    0.405
       263  -7.9532    199.6317    115.7046   8.7035490895e+01   1.7507577199e+01    0.1573378    0.1222703  15.84  0.000702915    1.725    0.420
       264  -8.4775    203.5543    114.2791   8.5930078616e+01   1.6870229622e+01    0.2118804    0.1470344 -28.03  0.000938763    1.633    0.388
       265  -8.3860    185.8637    113.9214   8.9375106705e+01   2.1109987013e+01    0.2507685    0.1841476  -7.59 0.0009512054    1.980    0.495
       266  -9.2131    208.4177    112.3120   8.4538856764e+01   1.6120065811e+01    0.2760846    0.1459998 -35.30 0.0006727561    1.968    0.492
       267  -8.5547    194.9895    112.0541   8.7052500231e+01   1.9313222609e+01    0.2403382     0.194333   6.01  0.001035011    1.638    0.389
       268  -8.1775    201.2961    108.3166   8.4904422970e+01   1.8546485546e+01    0.1502162    0.1229601   8.51   0.00042965    1.607    0.378
       269  -8.2254    183.3019    107.3470   8.8245775364e+01   2.3029106633e+01    0.1581681    0.1261164   7.33 0.0003641407    1.688    0.408
       270  -7.9166    196.4916    106.5080   8.5380642116e+01   2.0031957242e+01     0.152257    0.1487123 -74.36 -1.590783e-05    1.027    0.026
       271  -8.6106    205.9580    103.9912   8.2973878036e+01   1.8267552149e+01    0.2342133    0.1887587  12.76 0.0008136714    1.671    0.401
       272  -8.0264    209.3255     99.3236   8.1229594909e+01   1.8341586436e+01    0.1494584    0.1205348  13.85  0.000704836    1.688    0.408
       273  -8.2655    203.2850     96.3914   8.1593083075e+01   2.0312368243e+01    0.1520671    0.1212499   5.28 0.0007003626    1.757    0.431
       274 -12.1425    229.9777    218.2339   1.0315737990e+02  -7.4551554172e+00     1.888826    0.7576509 -28.01  0.007344123    3.238    0.691
       275  -8.0272    216.2662     93.3439   7.8594540259e+01   1.7797792430e+01    0.1410586    0.1181415   2.82 0.0004409222    1.605    0.377
       276 -12.7489    248.0421    229.0273   1.0178714616e+02  -1.1852845751e+01     1.496441    0.5843703 -31.74  0.006812267    2.616    0.618
       277 -12.6537    247.9128    215.3743   9.9298372504e+01  -9.8900578345e+00    0.8429116    0.3939897 -34.13  0.004105577    2.074    0.518
       278 -11.2561    191.7734    246.2184   1.1541936755e+02  -5.3186158168e+00    0.5828673    0.4485691   4.77  0.002133416    1.418    0.295
       279  -8.7718    186.4864    245.9989   1.1642216293e+02  -4.3882470974e+00    0.2141415    0.1254863 -35.75 0.0008813026    2.030    0.507
       280  -8.3669    183.7458    250.3967   1.1763918884e+02  -4.5949901259e+00    0.1768442    0.1027698  31.69  0.000505374    1.540    0.351
       281 -10.1735    169.5339    241.1318   1.1903914126e+02  -6.7000310230e-01    0.4339298    0.3096751   4.40  0.001499402    1.939    0.484
       282  -9.7014    215.3975    223.2335   1.0687960438e+02  -5.7870385803e+00     1.230902     0.936338 -28.22  0.007253892    1.365    0.267
       283  -8.2672     92.3213     27.3235   8.6153373092e+01   5.6930032633e+01    0.1374054    0.0871614  20.46  0.000704623    1.678    0.404
       284 -14.2667    145.8578      5.6160   6.7003016868e+01   4.7235184854e+01      8.27624    0.6176173  64.91   0.01719976    9.383    0.893
       285 -11.5077    210.0155    247.8414   1.1214933358e+02  -8.5689234813e+00    0.7344748    0.4951768  25.53  0.004351767    1.287    0.223
       286 -11.8973    241.1657    178.5918   9.3291018098e+01  -2.9217688438e+00     1.006977    0.3600146 -42.17  0.003841712    2.730    0.634
       287 -10.1285    104.6680     21.7716   8.0767965857e+01   5.5046200907e+01    0.2353389    0.1727215  50.55  0.001224259    1.239    0.193
       288 -10.0258    157.6668     18.3408   6.8752711090e+01   4.3192022806e+01    0.3003399    0.1337844  58.57  0.001143736    1.842    0.457
       289 -11.1284    215.7807    234.1610   1.0873888179e+02  -7.5221544529e+00     1.199668    0.6816809 -30.73  0.006269226    1.922    0.480
       290 -12.1561    224.8613    244.6847   1.0881021655e+02  -1.0480028273e+01     1.218611    0.8796822 -11.48   0.00757069    1.409    0.290
       291 -10.8136    115.1154     16.4926   7.6398003393e+01   5.3332225755e+01    0.3835066     0.142149  52.61  0.001644916    2.162    0.538
       292 -15.1436    229.6590    188.5789   9.7466726657e+01  -2.5744823571e+00     11.95309     2.445903 -41.24   0.03438076    4.821    0.793
       293 -11.8802    235.8242    228.3063   1.0389930792e+02  -9.8887645685e+00     1.002769    0.4895561 -25.02  0.004679226    2.347    0.574
       294 -11.6578    238.3830    218.7736   1.0168030414e+02  -8.8977128972e+00     0.615637    0.3964187 -29.41  0.002070387    1.523    0.343
       295 -13.1597    243.4678    197.1225   9.6600035552e+01  -6.3792671235e+00     4.354118     1.036598 -33.82    0.0125992    5.226    0.809
       296 -11.9866    236.8202    194.1543   9.7238011352e+01  -4.7729102901e+00     2.065881    0.3407814 -38.10   0.00534794    6.239    0.840
       297 -12.3314    248.6068    179.1037   9.2064215445e+01  -4.3047820585e+00     1.502577    0.3564905 -42.26   0.00472023    4.166    0.760
       298  -9.9104    133.0186    245.8882   1.2703462472e+02   4.8959163369e+00    0.3879559    0.2961504   9.87  0.001451953    1.945    0.486
       299  -9.8507    135.4370    239.5137   1.2569617902e+02   5.6233000351e+00    0.3841601    0.3017395  16.48  0.001563288    1.655    0.396
