#   1 NUMBER                 Running object number                                     
#   2 MAG_AUTO               Kron-like elliptical aperture magnitude                    [mag]
#   3 X_IMAGE                Object position along x                                    [pixel]
#   4 Y_IMAGE                Object position along y                                    [pixel]
#   5 X_WORLD                Barycenter position along world x axis                     [deg]
#   6 Y_WORLD                Barycenter position along world y axis                     [deg]
#   7 A_WORLD                Profile RMS along major axis (world units)                 [deg]
#   8 B_WORLD                Profile RMS along minor axis (world units)                 [deg]
#   9 THETA_WORLD            Position angle (CCW/world-x)                               [deg]
#  10 FWHM_WORLD             FWHM assuming a gaussian core                              [deg]
#  11 ELONGATION             A_IMAGE/B_IMAGE                                           
#  12 ELLIPTICITY            1 - B_IMAGE/A_IMAGE                                       
         1 -11.9319    226.6865     20.5854   3.5186383110e+01   2.6888381310e+01    0.7486461    0.6056083 -53.51  0.003217068    1.146    0.127
         2 -12.3168    210.4395     36.0218   4.0340277325e+01   2.8617257320e+01    0.9440155    0.7769048 -55.63  0.004674774    1.117    0.105
         3 -10.7806    217.9811     29.0026   3.7889420764e+01   2.7796642883e+01    0.4148092    0.3460115  44.79  0.001046453    1.524    0.344
         4 -10.4986      2.0000     15.4415   9.3347137468e+01   7.2283067390e+01    0.5531397    0.1252612 -51.32  0.002197779    4.012    0.751
         5  -8.7958      2.7587      2.3888   8.6706923714e+01   7.4222039516e+01    0.1923235   0.08799487   8.46   0.00104782    2.387    0.581
         6 -10.0414    248.1783      2.4730   2.9872823700e+01   2.4421506544e+01    0.4306932    0.2230877  88.39  0.002510671    1.801    0.445
         7 -10.3837     85.7101    234.9712   1.0952197638e+02   1.4089470799e+01    0.3073648    0.2139354 -54.33    0.0018237    1.686    0.407
         8 -12.2426      4.1187    185.0383   1.2253359131e+02   3.4329211783e+01     1.310736    0.5570489 -86.12  0.006531107    2.050    0.512
         9 -11.6540     31.8678    204.5041   1.1800997739e+02   2.7321502430e+01    0.6251115    0.3964955 -48.62  0.001321663    2.037    0.509
        10 -14.1651     39.1427    192.3527   1.1533358980e+02   2.9278112433e+01     9.455587     3.591739  78.42   0.02700978    6.165    0.838
        11 -11.0305     86.0867    223.2085   1.0816743573e+02   1.6397893719e+01     0.515457     0.349788  67.16  0.001287534    1.505    0.335
        12 -13.4719     58.2799    246.0277   1.1599379887e+02   1.5611522945e+01     2.962367    0.9521536  30.28  0.008504999    3.927    0.745
        13 -10.8111     44.3647    219.2600   1.1659823848e+02   2.2706218971e+01    0.5665433    0.2117161  32.49  0.001200246    2.725    0.633
        14 -14.1496      7.1409    240.5098   1.2505931716e+02   2.2370359056e+01     7.422498     1.204632 -78.76    0.0256313    5.973    0.833
        15  -9.7982     29.2991    218.5966   1.1961478652e+02   2.4543028191e+01    0.3493457    0.1175612 -66.66  0.001614608    2.703    0.630
        16  -9.0921     31.6036    222.9699   1.1946629409e+02   2.3374762101e+01    0.3120919    0.1992148 -42.99  0.001756455    2.462    0.594
        17  -8.0622    109.7168    201.0132   9.9970150278e+01   1.7495835819e+01    0.1902356    0.1763137 -78.37 0.0005314503    1.118    0.106
        18 -10.3882     20.5640    193.6587   1.1958567983e+02   3.0909106560e+01    0.3837627    0.2099905 -81.90  0.002116203    1.583    0.368
        19 -10.3397     59.8142    177.9109   1.0879151607e+02   3.0216987869e+01    0.4831755     0.286296 -42.69  0.001942603    2.128    0.530
        20 -10.1460     65.3085    172.2892   1.0665126047e+02   3.0859651179e+01    0.3357224    0.2727577 -28.08 0.0009412612    1.591    0.371
        21  -8.0085    115.3364    173.3335   9.4039338661e+01   2.2800589964e+01    0.1520626     0.117143 -14.78 0.0007052063    1.741    0.426
        22  -9.3445     59.1747    230.7041   1.1454500444e+02   1.8510918632e+01    0.2369084    0.1596871 -71.06  0.000852041    1.520    0.342
        23 -10.6053     75.3950    162.6093   1.0255945646e+02   3.1835993385e+01    0.7350908    0.4048582 -79.74 0.0006148405    2.286    0.563
        24 -11.4169     82.3214    156.6578   9.9690703112e+01   3.2282927236e+01     1.136543    0.7419181  36.14  0.003494939    1.591    0.371
        25 -11.7286     62.3823    158.7754   1.0545061877e+02   3.4581070110e+01    0.5169986    0.3102166 -44.01  0.001356439    1.880    0.468
        26 -11.7814    128.4648    231.5101   1.0013793554e+02   8.3333321268e+00    0.6204728    0.4930833  51.28    0.0037607    1.193    0.162
        27  -8.4004    134.0000    148.0741   8.4175923869e+01   2.5210535479e+01    0.4297918   0.08760756 -49.03  0.001043529    4.864    0.794
        28 -11.7792     59.0890    133.4013   1.0215753107e+02   4.1381613996e+01     1.965475    0.8643621 -82.66  0.005010811    6.255    0.840
        29 -10.5344     67.5139    142.5036   1.0132847144e+02   3.7973705710e+01    0.3666188    0.3507757  80.64  0.001072075    1.073    0.068
        30 -10.6795     85.2764    140.8802   9.5902610329e+01   3.5752193886e+01    0.3727068    0.2730016 -43.47 0.0006753035    1.393    0.282
        31  -9.5240    163.7226    224.1187   9.1606100737e+01   4.0091741261e+00    0.3451497    0.1146609 -45.48  0.001322387    3.304    0.697
        32  -9.5026     98.4457    141.1599   9.2217047066e+01   3.3501642367e+01    0.5398335    0.3379949 -17.37  0.001983972    2.902    0.655
        33  -9.8354     75.3955    136.2778   9.7858292789e+01   3.8415129855e+01    0.3199064    0.2660632  76.26 0.0006350818    1.326    0.246
        34  -9.3772    107.1244    131.1990   8.7555790484e+01   3.4377864239e+01    0.4713768    0.3433537  37.65  0.002206799    1.422    0.297
        35  -9.2354     95.7845    127.4229   8.9949984087e+01   3.7329377951e+01    0.3279227    0.2659125  -0.68 0.0009625173    1.523    0.343
        36 -11.1237     17.1529    217.0549   1.2192329647e+02   2.6121308921e+01     0.423219     0.333851 -42.21  0.002857086    1.873    0.466
        37  -8.4728    115.3159    125.3114   8.3845953795e+01   3.4226834664e+01    0.1587907    0.1234667 -11.57 0.0002951486    1.638    0.389
        38 -10.8359     70.0438    145.4963   1.0113761384e+02   3.6870012316e+01    0.4745885    0.4490577  11.32  0.001424714    1.206    0.171
        39  -8.2126    106.0775    119.6752   8.5083007399e+01   3.7329018637e+01      0.20837    0.1946405  17.20 0.0004397028    1.126    0.112
        40 -13.0372     10.0275    207.3186   1.2273227476e+02   2.8878452007e+01    0.9741775    0.7997265  53.48   0.00359134    1.259    0.206
        41  -7.9621    205.5401    110.4987   5.9327136979e+01   1.7858255496e+01    0.1475591    0.1355493 -42.58 7.717924e-05    1.009    0.009
        42  -7.8692     41.4875     92.4401   9.9485007649e+01   5.3474918781e+01    0.1376818    0.1175088 -43.80 8.449645e-05    1.026    0.026
        43  -9.2650      5.9832     89.5246   1.1176463619e+02   5.6957483117e+01    0.1644901    0.1128637 -14.87 0.0006195127    1.697    0.411
        44 -10.7004      2.0000     54.9916   1.0630743138e+02   6.4835329300e+01    0.5061479    0.1482552 -66.13  0.001978775    3.421    0.708
        45  -8.5637     42.5341     59.8310   9.0029778395e+01   6.0514585374e+01    0.2468631    0.1641399  45.46  0.001296608    2.010    0.502
        46  -8.8882      6.6573     50.3010   1.0296697202e+02   6.5557391981e+01    0.1056721   0.09124571  68.36 0.0005460204    1.676    0.403
        47 -10.2556     13.3024     60.9162   1.0284052127e+02   6.2938786732e+01    0.3782564    0.1511659 -51.00    0.0012911    1.865    0.464
        48 -11.8890     31.7842    248.5987   1.2110490109e+02   1.8262604866e+01     1.197587    0.4695278  39.16  0.006491138    2.135    0.532
        49 -12.1049    202.4568     41.8103   4.2704226239e+01   2.9698696198e+01     0.852925    0.5492398  69.10  0.004457923    1.514    0.339
        50 -10.0770    119.5394    223.4926   1.0096311186e+02   1.1269785735e+01     0.523667     0.199484 -43.38  0.001971265    3.588    0.721
        51 -10.9121    112.9856    236.2277   1.0399741285e+02   9.8451568861e+00    0.4172964    0.2717783  30.36  0.001708534    1.510    0.338
        52 -10.2958      1.8241     32.3884   9.9888067454e+01   6.9326085374e+01    0.4441773    0.1455556 -62.31  0.001773061    3.880    0.742
        53  -8.4798    134.5478     41.1106   5.3729105783e+01   4.6200817280e+01    0.2585895    0.1927972  81.24 0.0008203112    1.575    0.365
        54 -12.2020    109.7610    229.2732   1.0381935370e+02   1.1662393111e+01     1.112929    0.3196263  37.97  0.004148225    2.958    0.662
        55 -11.6371    134.2354    230.4320   9.8769254638e+01   7.6212532855e+00    0.6688077    0.2399019  35.99  0.002687944    2.491    0.599
