#   1 NUMBER                 Running object number                                     
#   2 MAG_AUTO               Kron-like elliptical aperture magnitude                    [mag]
#   3 X_IMAGE                Object position along x                                    [pixel]
#   4 Y_IMAGE                Object position along y                                    [pixel]
#   5 X_WORLD                Barycenter position along world x axis                     [deg]
#   6 Y_WORLD                Barycenter position along world y axis                     [deg]
#   7 A_WORLD                Profile RMS along major axis (world units)                 [deg]
#   8 B_WORLD                Profile RMS along minor axis (world units)                 [deg]
#   9 THETA_WORLD            Position angle (CCW/world-x)                               [deg]
#  10 FWHM_WORLD             FWHM assuming a gaussian core                              [deg]
#  11 ELONGATION             A_IMAGE/B_IMAGE                                           
#  12 ELLIPTICITY            1 - B_IMAGE/A_IMAGE                                       
         1 -13.9838      2.9509     87.8377   1.3385093897e+02   5.7162761899e+01      2.47184    0.1939864 -62.59  0.007604208    5.233    0.809
         2 -14.5705      5.5172    145.1916   1.4126983958e+02   4.4130063743e+01     4.631916     1.698443 -87.54   0.01748338    3.706    0.730
         3 -13.5069    201.6620     28.3080   6.4350878961e+01   3.1820405894e+01     1.410363     1.203318  50.06  0.007910768    1.368    0.269
         4 -13.4355    217.4668     10.6819   5.8664603321e+01   3.0227842971e+01    0.9059075    0.7666084  65.22  0.002618439    1.317    0.241
         5  -9.9899      1.6869      3.4908   1.0980020144e+02   7.2081850820e+01    0.1802249   0.07407624 -39.12  0.001091682    2.057    0.514
         6  -9.9646    184.1002    238.6751   1.1459024318e+02  -2.8897247745e+00    0.2762347    0.1025902  45.36  0.001105403    2.588    0.614
         7 -12.5685    239.0012    247.5340   1.0567452491e+02  -1.2797833958e+01     0.739735    0.3922145  20.53  0.003932273    1.956    0.489
         8 -12.2334     34.3445    244.9630   1.4423752555e+02   1.9291685975e+01    0.5389113    0.4466569 -33.17  0.003643686    2.278    0.561
         9 -13.4950      7.6059    244.7495   1.4868537406e+02   2.2328599335e+01     1.339063    0.9449983  53.02   0.01007454    1.391    0.281
        10 -13.1560      7.5458    229.0091   1.4777480691e+02   2.5448740710e+01     1.266147    0.5807566  82.81  0.007156214    1.902    0.474
        11 -12.7789     43.0253    212.8812   1.3999446497e+02   2.4905051953e+01     1.034588    0.6592869 -66.56  0.004951553    1.503    0.335
        12 -12.9352     27.3937    230.5519   1.4441228781e+02   2.3003207017e+01    0.3253301    0.2507267 -83.44 0.0007609291    1.229    0.186
        13 -14.0580     32.1362    224.3450   1.4307452566e+02   2.3746310891e+01    0.8390993    0.5940949  69.74  0.002587847    1.138    0.121
        14 -12.7291    124.3258    231.3439   1.2559599589e+02   8.7724140346e+00    0.9338228    0.4928187  40.41  0.004483291    1.729    0.422
        15 -10.4235    229.1359    229.2976   1.0431893144e+02  -8.7572136892e+00    0.3769526    0.1806541 -55.55  0.001290391    5.431    0.816
        16 -10.9816     58.5484    212.9565   1.3688223933e+02   2.2890683365e+01    0.7981459    0.2359267  58.07  0.002263944    6.052    0.835
        17  -8.5860    152.4059    212.8172   1.1684985512e+02   7.4623202697e+00    0.1727604    0.1342355 -37.55 0.0003027174    1.465    0.317
        18 -12.4511      9.6860    206.8153   1.4590960326e+02   2.9877579895e+01     0.646281    0.4197373  34.72  0.002852477    1.888    0.470
        19  -9.8327     53.8681    203.6568   1.3684911383e+02   2.5586519464e+01      0.27436    0.1607224  68.36   0.00142945    1.699    0.411
        20 -10.4052    122.6688    249.8631   1.2834279241e+02   5.5526123897e+00    0.2588449    0.1387769  31.62  0.001235416    2.146    0.534
        21 -12.9997      3.1848    112.0035   1.3768899246e+02   5.1858993783e+01     1.191676    0.4875125 -64.81  0.006112899    1.792    0.442
        22 -11.6358     55.7642    197.3540   1.3573916182e+02   2.6774215866e+01    0.2705156    0.2205372 -71.18 0.0004625583    1.207    0.172
        23  -9.6323    193.3693    195.9904   1.0511223584e+02   3.0707143502e+00    0.5190517    0.2401373 -62.37  0.001278005    7.291    0.863
        24 -10.9321      5.8714    191.6301   1.4549943894e+02   3.3545721151e+01    0.2503636    0.1985619  86.45 0.0005879538    1.094    0.086
        25 -11.6074      3.7880    184.4937   1.4535107833e+02   3.5310907246e+01    0.4512849    0.3168789 -88.73  0.001837532    1.071    0.066
        26 -11.9361     62.6151    189.0013   1.3321489087e+02   2.7797053114e+01    0.2709284    0.2422155 -82.78 0.0004516871    1.128    0.113
        27 -10.6863     73.7391    176.2722   1.2886649617e+02   2.9252631567e+01    0.2454598    0.2146005 -86.12 0.0002950907    1.009    0.008
        28 -13.2284     60.0207    174.1437   1.3182534629e+02   3.1675883249e+01    0.5539151    0.2837033 -47.00  0.002202831    2.286    0.563
        29  -9.2820     92.8543    170.1138   1.2322897072e+02   2.7768433486e+01    0.2343283     0.180378  81.29 0.0008399813    1.378    0.274
        30 -11.8899     81.6223    167.2421   1.2551728957e+02   3.0254653382e+01    0.7087628    0.5680143 -49.17  0.003848914    1.325    0.245
        31 -10.5297     95.0324    151.9468   1.1933003755e+02   3.1821562258e+01    0.3320455    0.3012028 -68.76 0.0007749365    1.030    0.029
        32 -11.8125     83.4953    150.6633   1.2210099033e+02   3.4011885183e+01    0.3206521       0.2503 -47.24 0.0005666558    1.304    0.233
        33  -9.2128     98.3369    147.8373   1.1764380988e+02   3.2257016236e+01    0.2116227    0.1772407 -55.24 0.0005248826    1.141    0.123
        34 -11.9327     68.2294    143.2301   1.2477817404e+02   3.8083921774e+01    0.6580448     0.452427  79.46  0.002192501    1.802    0.445
        35 -11.0286     64.6590    141.6889   1.2545982618e+02   3.8947341531e+01    0.3647889    0.2345052 -46.48 0.0008548591    1.553    0.356
        36  -9.9046    108.1213    136.7752   1.1267889333e+02   3.3174242006e+01    0.4501804    0.3124677 -10.81   0.00182674    2.429    0.588
        37 -10.5217     94.7469    134.1709   1.1571845072e+02   3.6179325950e+01     0.250292    0.2268083 -37.44 0.0003361878    1.156    0.135
        38  -9.1815    105.6552    123.5543   1.1027359479e+02   3.6755550851e+01    0.1810129    0.1473431  52.84 0.0003495573    1.309    0.236
        39 -10.1703     74.5128    119.3481   1.1815238561e+02   4.2928398230e+01    0.2680987    0.2244325  78.65 0.0006345665    1.399    0.285
        40  -8.7298     61.4402    118.1950   1.2174169331e+02   4.5007353105e+01    0.1847514    0.1241124 -69.95 0.0004281384    1.547    0.354
        41  -9.3656     66.2538    113.1626   1.1920278685e+02   4.5541826167e+01    0.1993009    0.1704908 -43.11 0.0004142122    1.091    0.083
        42  -8.6759     55.1702    105.1661   1.2076911694e+02   4.8803128782e+01    0.1749091    0.1530333 -86.80 0.0003879599    1.312    0.238
        43 -10.2882    242.7559     92.7454   7.3657443915e+01   1.2710230941e+01     0.236003    0.0900033 -48.39 0.0008969366    2.432    0.589
        44  -8.5311     63.1898     79.3817   1.1155881166e+02   5.3314620246e+01    0.1754584    0.1221772  43.85 0.0005659919    1.703    0.413
        45 -10.2386    159.2917     77.9519   8.4455105997e+01   3.4649184467e+01    0.2111029    0.2003373 -49.93  0.000625611    1.072    0.067
        46  -9.5610    184.3242     77.3296   7.9317441633e+01   2.8735609761e+01     0.148425    0.1181429  20.13 0.0007050011    1.700    0.412
        47  -8.8442     42.0215     66.9577   1.1532784831e+02   5.8339013985e+01    0.1673341    0.1505882  73.93 0.0004054752    1.607    0.378
        48 -12.2997     10.1647    120.7380   1.3699346887e+02   4.9433061339e+01    0.4654461    0.3973528  81.38   0.00148006    1.267    0.210
        49 -10.5356     45.5350    248.3164   1.4254405843e+02   1.7250608888e+01    0.3084815    0.1409289  74.10  0.001543327    2.343    0.573
        50 -10.2886     64.8138    248.2305   1.3910101003e+02   1.4702722693e+01    0.2736894    0.1742907  74.85  0.000937379    1.402    0.287
        51  -9.7200    198.9822    246.3302   1.1292543258e+02  -6.5560094010e+00    0.2065903   0.08954884  54.00 0.0007049201    4.451    0.775
