#   1 NUMBER                 Running object number                                     
#   2 MAG_AUTO               Kron-like elliptical aperture magnitude                    [mag]
#   3 X_IMAGE                Object position along x                                    [pixel]
#   4 Y_IMAGE                Object position along y                                    [pixel]
#   5 X_WORLD                Barycenter position along world x axis                     [deg]
#   6 Y_WORLD                Barycenter position along world y axis                     [deg]
#   7 A_WORLD                Profile RMS along major axis (world units)                 [deg]
#   8 B_WORLD                Profile RMS along minor axis (world units)                 [deg]
#   9 THETA_WORLD            Position angle (CCW/world-x)                               [deg]
#  10 FWHM_WORLD             FWHM assuming a gaussian core                              [deg]
#  11 ELONGATION             A_IMAGE/B_IMAGE                                           
#  12 ELLIPTICITY            1 - B_IMAGE/A_IMAGE                                       
         1 -11.4525    162.7901     25.3850   7.3440619782e+01   4.1456908554e+01     2.288856    0.4579298  64.76   0.00608758    4.846    0.794
         2 -12.6837     86.6516     52.4680   1.0163238775e+02   5.4970214799e+01     3.030726     1.182577 -31.55   0.01077407    3.068    0.674
         3 -10.1828    121.6558     38.3026   8.6347663263e+01   4.9962136110e+01       2.0077     1.045874  25.84  0.007359236    2.979    0.664
         4 -11.2267    108.0941     32.5725   8.7684201345e+01   5.3807594098e+01     1.452023    0.8599213 -21.88  0.004229923    1.780    0.438
         5 -11.9531    148.3321     19.2934   7.3882012962e+01   4.5826582887e+01      1.48641    0.6199517 -16.66  0.005209249    3.051    0.672
         6 -12.3221    163.6570     11.1507   6.8723914630e+01   4.2755223488e+01     1.323542     1.077859  18.03  0.007405857    1.404    0.288
         7 -10.7831    124.2406      2.9368   7.2378070979e+01   5.3340823418e+01    0.4003392    0.2657304  43.40 0.0008123171    1.366    0.268
         8 -12.1116     71.6994     31.0604   9.8359096886e+01   6.1124516308e+01     2.400053     1.178481  46.86   0.01123007    2.267    0.559
         9 -11.8936     68.1639     20.6556   9.5094084185e+01   6.3219473829e+01     1.382074    0.5004214  34.28  0.002531418    3.324    0.699
        10 -12.6494     92.0895     17.7389   8.6079578589e+01   5.9083543954e+01    0.9688052     0.440044  -8.57  0.003500439    3.642    0.725
        11 -11.2600    113.3995      8.9689   7.6982235925e+01   5.5352163228e+01     1.360902    0.6522995  57.24   0.00622088    1.883    0.469
        12 -12.1819    130.0998     20.2574   7.7732841679e+01   5.0238994276e+01     1.241436    0.6808548  63.93   0.00517552    1.825    0.452
        13  99.0000     40.5333     64.7668   1.2191598038e+02   5.9136154473e+01     2.826532     1.741907  62.01   0.01350951    2.897    0.655
        14 -12.4329    112.2327     22.0100   8.2465143605e+01   5.4231386060e+01    0.6798066     0.573169  67.86  0.002162988    1.332    0.249
        15 -11.5793    117.0746     15.6979   7.8828779225e+01   5.3825317852e+01    0.3178654    0.3017792  86.03 0.0004041789    1.213    0.175
        16 -13.2741     99.7775      6.7476   7.9276699312e+01   5.8618586047e+01    0.7536334    0.4123653 -29.58 0.0008496331    1.901    0.474
        17 -11.9662     93.2300      8.4784   8.1730827267e+01   5.9852098926e+01    0.5696967    0.3670241  37.52 0.0006351849    1.409    0.290
        18 -12.5245    102.8164     81.9479   1.0635915364e+02   4.6263704949e+01     1.486098     1.011272 -62.33  0.004233736    1.788    0.441
        19 -12.2790     37.6961     47.3313   1.1769697309e+02   6.2956711228e+01     1.173153    0.8957534  72.88   0.00673553    2.254    0.556
        20 -11.3158    141.6468     40.6106   8.2549777509e+01   4.4858445251e+01    0.8110992    0.6570332  57.52  0.003288417    1.208    0.172
        21 -11.4942     78.2238      7.2177   8.5509689503e+01   6.3002611521e+01     0.612926    0.3985423   3.36    0.0014031    1.590    0.371
        22 -12.3886     19.0028     13.7816   1.1307076940e+02   7.0719144185e+01    0.7488338    0.5838578 -29.92  0.005107326    1.123    0.109
        23 -12.3191     27.5136     26.5086   1.1444064829e+02   6.7801569644e+01     1.387666    0.7223176 -32.20  0.007743165    1.694    0.410
        24 -11.8547      7.8627     26.5455   1.2371051321e+02   6.9396028532e+01    0.8825496    0.3674729  11.07   0.00456192    3.096    0.677
        25 -12.1515     50.3385     10.9789   9.7346555695e+01   6.7340859530e+01    0.4254593    0.2909811  28.55 0.0008079613    1.417    0.294
        26 -10.1989     39.1321      9.7524   1.0152775489e+02   6.9069843316e+01    0.6154272    0.3372876  -6.01   0.00125071    2.329    0.571
        27 -11.4534     69.3678      4.4456   8.7037786725e+01   6.4947253589e+01    0.7277023    0.3682558  31.19  0.003644653    1.973    0.493
        28 -11.7821     57.9473      4.2950   9.1008508041e+01   6.6948036329e+01      1.23689    0.4519311  52.65  0.005106543    3.585    0.721
        29 -11.1227      8.8781     19.5866   1.2063429913e+02   7.0570227871e+01    0.3976002    0.2577688  18.43  0.002719952    1.762    0.433
        30 -11.6306      2.6928      3.0616   1.1678478691e+02   7.3734201826e+01    0.4805273    0.3520494 -35.59  0.002517347    1.169    0.145
        31 -11.3724     40.9096     20.8984   1.0603571211e+02   6.7222121760e+01    0.3561993    0.2001492 -38.13  0.001262264    1.577    0.366
        32 -11.4890     41.8600     14.5695   1.0268140248e+02   6.8040668308e+01    0.8306541    0.4279523  46.01  0.003951738    2.676    0.626
        33 -11.4937      2.8691     18.4517   1.2325129716e+02   7.1162353566e+01    0.4069359     0.153997 -46.25   0.00107775    1.868    0.465
        34 -12.7718      6.7954     11.9267   1.1856234087e+02   7.2018504693e+01     1.068374    0.4479928 -31.34  0.005782063    2.150    0.535
        35 -10.7650    162.0789     38.7994   7.7895539311e+01   3.9962663700e+01    0.5107276    0.2890508 -24.75  0.002117759    1.910    0.476
        36  -9.9529    185.7833     14.3209   6.6727804115e+01   3.6750832216e+01    0.4768313    0.4059869   4.90  0.002074726    1.399    0.285
        37 -10.7540    177.4033     29.4466   7.2404556858e+01   3.7207484811e+01    0.5872419    0.4264399 -12.19  0.001964273    1.614    0.380
        38 -11.8697    184.6982     26.4459   7.0438713548e+01   3.5684607406e+01     0.636278    0.4451307  10.22  0.001160958    1.939    0.484
        39  -9.9400    230.3876     19.0884   6.3189715112e+01   2.5147059122e+01    0.4927312    0.4134256 -10.27   0.00294133    1.458    0.314
        40 -10.8255    243.7127     19.7281   6.2145673054e+01   2.1976842077e+01    0.6315736    0.3525938  85.07  0.003172576    1.880    0.468
        41 -11.1148    233.5033     11.6405   6.1100012209e+01   2.5239015491e+01    0.6218686    0.3165143 -63.41 0.0007115246    2.060    0.515
        42 -11.7293    223.8227      2.5730   5.9709683768e+01   2.8472108292e+01    0.6497659    0.3516585 -53.54  0.003277605    1.742    0.426
        43  -9.5118    230.1591      3.0016   5.9302773958e+01   2.6927271412e+01    0.2927929    0.2200563  10.61  0.001653089    1.919    0.479
        44 -10.6210    214.6124     21.1445   6.5291920461e+01   2.8730133607e+01     0.539532     0.300624 -37.98  0.001798937    1.696    0.410
        45 -10.4332    212.2188     15.4544   6.4050433724e+01   2.9955850442e+01    0.5779445    0.4339546 -27.10   0.00224689    1.426    0.299
        46  -9.7955    217.3835     14.5649   6.3300219428e+01   2.8782701365e+01    0.3791882    0.2757982 -14.36  0.001524297    1.663    0.399
        47 -10.6173    202.2326     18.9498   6.6073818293e+01   3.2066201147e+01    0.5205402    0.3642961  34.88  0.001906531    1.774    0.436
        48 -10.3897     54.5087     18.2430   9.9144136056e+01   6.5739243087e+01     0.477672    0.2882733   2.84  0.001546224    2.030    0.507
        49  -8.7391    178.7809     14.7898   6.7764302434e+01   3.8500412529e+01    0.2590843    0.1691616   4.60  0.001210695    2.096    0.523
        50 -10.0899    243.1692     12.7050   6.0551963467e+01   2.2890600183e+01    0.3699252    0.2635334 -37.06  0.001161057    1.339    0.253
        51  -9.3247    221.7112     11.2141   6.2037703993e+01   2.8091029118e+01    0.4301263    0.1751551 -50.58  0.001217111    2.426    0.588
        52 -10.2494    189.9944      8.2713   6.4484705365e+01   3.6287164991e+01    0.2716292    0.2188029  68.87 0.0003917286    1.153    0.133
        53 -10.3821    196.1516      4.5140   6.2767192998e+01   3.5091500888e+01     0.530304    0.3943852  18.01   0.00255443    1.764    0.433
        54 -10.3621    200.2030      7.0810   6.3051306361e+01   3.3822772894e+01     0.482968    0.2888211  -7.60   0.00174595    2.271    0.560
        55 -11.0777    204.1497      6.6719   6.2541035499e+01   3.2875259258e+01    0.4373879     0.357491  -3.65 0.0004097015    1.516    0.340
        56 -11.8488    209.5992      3.6341   6.1217334025e+01   3.1822074609e+01    0.5609155    0.3240885  86.91 0.0005246908    1.698    0.411
        57  -9.0093    180.6436      7.0900   6.5232854295e+01   3.8788410963e+01    0.4225777     0.252003 -24.87  0.002082193    1.812    0.448
        58  -9.8614    171.2205      1.3223   6.4641920694e+01   4.1722963189e+01    0.2703955    0.1164746  71.15  0.001131428    2.103    0.525
        59 -10.0023    173.6667      8.7906   6.6615535608e+01   4.0414404554e+01    0.2569673    0.2322955 -71.63 0.0005559123    1.111    0.100
        60  -9.9088    175.1398      4.2444   6.5050361280e+01   4.0461696656e+01    0.5074531    0.2211612  61.30  0.002195522    1.981    0.495
        61 -10.6976    247.9351      5.9538   5.8644058554e+01   2.2543806956e+01    0.5633491    0.3527696 -61.24   0.00317701    1.431    0.301
        62 -10.8092     26.2434      4.9250   1.0512791365e+02   7.1298810116e+01     0.594425    0.2273311 -26.18  0.002674922    2.941    0.660
        63  -8.1876    238.3036      7.3311   5.9686028190e+01   2.4584041794e+01    0.1210792   0.09594155  37.49 0.0003198888    1.655    0.396
        64 -12.5516    135.4842      5.1443   7.1151117874e+01   5.0417873010e+01     1.765303    0.8826874  48.81  0.008133767    1.785    0.440
        65  -8.7987     32.9714      3.9990   1.0139425639e+02   7.0624024939e+01    0.4306595    0.1528758  26.36  0.001762551    3.946    0.747
        66  -8.6765    241.7315      1.4327   5.8065732511e+01   2.4410467960e+01    0.2193798    0.1121865  84.49 0.0009571707    1.918    0.479
        67  -8.4176    189.7328      1.3873   6.2565431825e+01   3.7004161625e+01    0.1917295    0.1090725  62.45 0.0009368685    1.594    0.373
        68 -11.5013     58.2048     70.0874   1.1710585877e+02   5.5950808638e+01     2.775543    0.9403682 -58.93   0.00921311    3.865    0.741
        69 -12.0902     51.9372     34.8113   1.0735136180e+02   6.3533175994e+01     1.205155     1.060232 -10.19  0.008050472    1.090    0.083
        70 -11.5493     13.0600     88.9512   1.3668522907e+02   5.6136077480e+01    0.4054525    0.2290031 -67.38 0.0007786168    1.387    0.279
        71 -10.8552      9.3723     85.3026   1.3726785616e+02   5.7184636480e+01    0.2545004    0.1636497 -63.94 0.0005140791    1.191    0.160
        72  -9.3555    106.4734    119.7684   1.1530993411e+02   3.7325645749e+01    0.3229569    0.1708273  53.46  0.001306857    2.189    0.543
        73 -10.3310     40.1396    116.6863   1.3312284263e+02   4.7518048780e+01    0.4421549    0.2327879  74.25  0.001910528    2.903    0.656
        74  -9.7809    105.0807    116.3898   1.1489545413e+02   3.8341253654e+01    0.4324071    0.1457855  37.49  0.001397561    3.421    0.708
        75  -9.7259     97.8759    115.1018   1.1655293332e+02   3.9916919633e+01    0.3116908    0.2916114 -66.93  0.001127827    1.009    0.009
        76  -9.0455     27.8656    115.9063   1.3643553916e+02   4.8865114356e+01    0.1816606    0.1328982 -58.76 0.0003000796    1.223    0.182
        77 -10.1272    132.8300    111.0755   1.0632806402e+02   3.4017451349e+01    0.5899443      0.40063 -38.93  0.002495183    1.506    0.336
        78  -9.7298    133.9994    103.5359   1.0404237535e+02   3.5357881902e+01    0.4637456    0.2652452 -48.59  0.001921791    1.762    0.432
        79  -9.0134     93.0185    111.4982   1.1705848560e+02   4.1570028938e+01    0.2681671    0.2254985   1.52  0.001421483    1.509    0.337
        80 -10.7348     67.5878    107.7901   1.2352963043e+02   4.6316832770e+01    0.6484876     0.359525 -32.96  0.002751556    2.578    0.612
        81 -10.1865     74.0754    108.1374   1.2170722083e+02   4.5321636543e+01    0.2994058    0.2624301  28.47 0.0008107317    1.302    0.232
        82  -9.5827     34.6248    109.6878   1.3355604968e+02   4.9680486885e+01    0.2989121    0.2543592 -72.39    0.0019799    1.032    0.031
        83  -9.5672    105.5243    109.5753   1.1312939893e+02   3.9787972434e+01    0.3078091    0.2987582 -80.39  0.001753955    1.033    0.032
        84  -9.7216    120.3545    108.7503   1.0893761554e+02   3.7100884477e+01    0.2649321    0.2317746 -80.15  0.000892913    1.254    0.202
        85 -10.5114     27.9970    101.8302   1.3420819046e+02   5.2085027009e+01    0.4071543    0.3316421  61.54  0.002144416    1.384    0.277
        86  -8.7995     97.5067    103.8615   1.1393441237e+02   4.2515126235e+01    0.2967375    0.1863951  58.59  0.001308894    1.987    0.497
        87  -8.3738     25.4986    248.5585   1.4819344819e+02   2.1888503923e+01    0.1026276   0.06976014  67.37 0.0001824634    1.007    0.007
        88 -11.6343     86.6312     89.9769   1.1348253888e+02   4.7455129276e+01     1.476086     0.943272 -57.25  0.007051102    1.574    0.365
        89  -9.6581     34.7902    245.8534   1.4659064009e+02   2.1320095418e+01     0.186906    0.1000632 -56.25  0.001168961    2.787    0.641
        90  -8.6033      3.5016    246.0104   1.5143338669e+02   2.4550124888e+01    0.1176729   0.06424312 -61.71 0.0008100905    2.510    0.602
        91 -10.0133    141.9131    243.5091   1.2796352286e+02   6.8978759832e+00    0.2336964    0.1840345  31.66 0.0004567697    1.288    0.224
        92 -11.0315     48.1994     25.5807   1.0501249185e+02   6.5545738255e+01    0.4149413    0.2212547  35.05  0.002212955    2.008    0.502
        93  -8.9604    211.1023    240.6961   1.1534640370e+02  -3.7096699310e+00    0.1711148    0.1547966 -24.41 0.0008346805    1.408    0.290
        94  -9.6730     12.4959    232.6071   1.4947724993e+02   2.5966070762e+01    0.2206856     0.101422  74.23  0.001415438    1.768    0.434
        95  -9.2554    137.0000    224.9898   1.2658631155e+02   1.0575432741e+01    0.1735362   0.07141353 -53.13 0.0007700914    2.910    0.656
        96  -7.9360    244.5427    204.4979   1.0362459432e+02  -4.5349849254e+00    0.1245977   0.09800293   9.99  0.000808733    1.044    0.042
        97  -8.6461    234.3240    201.3328   1.0478862565e+02  -2.4865323886e+00     0.132208   0.08423319   9.48  0.000705067    1.707    0.414
        98 -11.1814     88.5416     33.6382   9.3805286503e+01   5.7685413108e+01    0.7845267    0.4758746  35.29  0.003041935    1.666    0.400
        99 -10.6208     26.9023    191.2680   1.4449180879e+02   3.2348992221e+01    0.3191998    0.2244976  81.52  0.001794296    1.106    0.096
       100 -11.3516     18.0042    186.3488   1.4586439414e+02   3.4235075211e+01    0.3855868    0.3218335 -31.12  0.001483134    1.987    0.497
       101 -10.8042      5.8460    185.8572   1.4816342997e+02   3.5441449829e+01    0.4701804    0.1532897  55.56  0.002385812    2.678    0.627
       102  -9.5218     11.8761    184.6577   1.4693634754e+02   3.5150644672e+01    0.1940459    0.1219291 -75.17 0.0009654486    1.395    0.283
       103  -9.8276     39.1188    176.6207   1.4079119233e+02   3.4103759357e+01    0.3733723    0.1717685 -73.45  0.001960401    1.911    0.477
       104  -9.2476      1.6248    177.7607   1.4848561474e+02   3.7444064260e+01    0.1991049    0.1040703  87.62   0.00114662    1.512    0.339
       105  -9.5943     62.7603    167.9283   1.3466996060e+02   3.3152947139e+01    0.2891375    0.1929961 -89.55 0.0009656925    1.444    0.307
       106  -9.1915      9.0491    167.5054   1.4632116372e+02   3.8966496918e+01    0.1939639    0.1155176  21.67   0.00118981    2.418    0.586
       107  -9.3167    151.1808     99.8937   9.8860969635e+01   3.2254722293e+01      0.33943    0.2087251 -50.95   0.00141618    1.738    0.425
       108  -9.6627    140.8781    100.4990   1.0150189210e+02   3.4471836439e+01    0.2814988    0.2428528 -38.48 0.0002882671    1.153    0.132
       109  -9.8412    114.5895     96.1893   1.0713193695e+02   4.0965587919e+01    0.5623907    0.2937459 -39.43  0.001992075    1.959    0.490
       110  -9.0665    114.6699    100.3297   1.0824019526e+02   4.0062453223e+01    0.2997744    0.2284414 -63.39 0.0007610942    1.440    0.306
       111 -10.3346    117.4296     98.7553   1.0706614124e+02   3.9846313410e+01    0.4739089    0.3704642  43.90  0.001811601    1.321    0.243
       112  -8.9605     63.7635     97.9200   1.2248767914e+02   4.9097067105e+01    0.2679946    0.1801226 -33.07   0.00136092    1.721    0.419
       113  -9.8411    159.3877     96.7785   9.6109740640e+01   3.0951892226e+01     0.401216    0.3398288  25.04  0.001422765    1.301    0.232
       114  -9.6771    187.7244     92.8014   8.9084363940e+01   2.4887818736e+01    0.4571604    0.2579496 -41.60  0.001894481    1.737    0.424
       115 -11.6829    119.7985     85.4473   1.0263078076e+02   4.2129559142e+01    0.8570794    0.7662749 -14.75  0.001185415    1.182    0.154
       116 -10.0137    114.3330     51.6713   9.3102084981e+01   4.9559282442e+01    0.6597812    0.4037903 -23.98  0.002962174    1.786    0.440
       117  -9.8845     89.7592     78.1027   1.0912301180e+02   4.9453115659e+01    0.5292743    0.2679759  36.95  0.002249143    2.168    0.539
       118  -9.8122     13.4037    165.0003   1.4522268993e+02   3.9127949992e+01    0.2139845     0.173215  42.70  0.001024327    1.459    0.315
       119 -11.0550    122.2093     55.8989   9.2481528874e+01   4.7110366950e+01     0.739801    0.6007453  44.45  0.003151351    1.224    0.183
       120 -11.6836     96.7728     62.4278   1.0194063838e+02   5.1268348910e+01    0.9926037    0.6789988  -0.73  0.002839543    2.069    0.517
       121 -10.6342    105.9982     53.6779   9.6153228680e+01   5.0996391314e+01    0.6990708    0.4882188  30.91  0.003080031    1.532    0.347
       122 -12.0840    121.8387     67.1007   9.6346363289e+01   4.5230865739e+01     1.383582     1.174068  73.57  0.007156013    1.398    0.285
       123  -9.9739    126.3427     49.9475   8.9357554123e+01   4.7134571595e+01    0.5162879    0.2855882 -45.67  0.001709635    1.998    0.499
       124  -9.2031    129.8625     46.6123   8.7324937848e+01   4.6828110665e+01    0.4009973    0.2499284 -19.03   0.00177438    1.841    0.457
       125 -10.6564    102.4080     70.7460   1.0299858031e+02   4.8590850767e+01    0.5566816    0.3452332 -52.85   0.00250712    1.780    0.438
       126 -11.5043    110.7937     65.0053   9.8686752547e+01   4.7985180671e+01     1.237622    0.7212821 -15.83  0.003067096    2.706    0.630
       127 -10.2235    130.6145     40.2098   8.4882428563e+01   4.7589906970e+01    0.5075168    0.3942542   5.06  0.001500633    1.458    0.314
       128 -10.7300    135.1365     34.2359   8.1731213641e+01   4.7318225781e+01    0.3911076    0.2806267  43.94 0.0004736996    1.340    0.254
       129  -9.0086    206.6207     91.7824   8.5348376903e+01   2.0531505730e+01    0.2796051     0.182279 -42.79 0.0006588872    1.491    0.329
       130  -9.0963    194.1942     90.2582   8.7170848783e+01   2.3769542079e+01    0.2705483    0.2091922 -21.02  0.001068239    1.392    0.282
       131  -9.4291     74.0439     88.9640   1.1709117463e+02   4.9663989385e+01    0.3227866     0.244327  18.37  0.001722749    1.598    0.374
       132  -8.8367     76.8341     84.8348   1.1510554555e+02   5.0147118017e+01    0.2928579    0.1762705 -59.15 0.0007413024    1.717    0.417
       133 -10.1973    161.1728     83.2496   9.1851014309e+01   3.3072568870e+01    0.7803628    0.4376548 -46.86  0.003150101    1.865    0.464
       134  -9.9285    152.9352     87.4138   9.4915921370e+01   3.4273709751e+01    0.3565104    0.2815256  38.54 0.0008691295    1.317    0.241
       135 -10.6747    134.3630     80.8951   9.7452793418e+01   3.9838854531e+01    0.6757606     0.363627 -37.70   0.00265859    1.853    0.460
       136  -9.3820    218.3403     77.9930   7.9816167840e+01   1.9997954355e+01    0.3958026    0.2420609   0.98  0.001479814    2.978    0.664
       137 -10.4544    150.3717     75.3732   9.1915437702e+01   3.7117067540e+01    0.7681729    0.4223997 -26.16   0.00297383    2.159    0.537
       138 -10.4146    143.9364     76.8622   9.3874205592e+01   3.8380594006e+01    0.5876864    0.3886201  12.63  0.002300402    2.419    0.587
       139  -9.2718    155.2475     70.9687   8.9470499879e+01   3.6712246058e+01    0.3127086    0.2323609 -24.72 0.0009884683    1.439    0.305
       140 -10.4035    151.9967     67.0958   8.8987924430e+01   3.8176319769e+01    0.7860373    0.2916659  50.56  0.002587359    2.604    0.616
       141 -10.5134    138.6440     74.0861   9.4292539378e+01   4.0133605619e+01    0.7339539    0.2327258 -44.14  0.002244531    3.299    0.697
       142 -10.0248    132.2155     68.3089   9.4053669449e+01   4.2673254075e+01    0.4992769    0.3434564  73.11  0.001759229    1.974    0.494
       143  -9.7416    143.6307     70.8459   9.2080660652e+01   3.9543692291e+01    0.3271868    0.2688188 -53.07 0.0008450867    1.297    0.229
       144 -10.4473    139.4151     68.0379   9.2196273016e+01   4.1042080821e+01    0.5275226    0.4412008  17.82  0.001906931    1.331    0.249
       145  -8.3120    188.3539     79.6819   8.5342571210e+01   2.7010736382e+01    0.1616274    0.1176411 -71.68 0.0007046486    1.746    0.427
       146 -10.6454      2.5374    160.1568   1.4715422495e+02   4.1051409744e+01    0.5848424    0.1989744 -82.57  0.002812814    2.483    0.597
       147  -9.5702     17.2705     82.3272   1.3416404508e+02   5.7324584689e+01    0.2471901     0.189357  -2.54  0.001636778    1.664    0.399
       148  -9.3980     36.9957     75.5652   1.2598465549e+02   5.7174274359e+01    0.2339848    0.1435625 -45.05 0.0007517181    1.419    0.296
       149  -9.3342     17.6225     73.7950   1.3237777919e+02   5.9179084776e+01    0.2715816    0.1876187 -76.39  0.001512351    1.419    0.295
       150  -9.3703     21.1881     72.2064   1.3078326882e+02   5.9265898140e+01    0.2240204    0.1998051  43.78 0.0009988012    1.390    0.280
       151  -8.5714    192.5497     74.0246   8.2997384971e+01   2.6911653113e+01    0.2409682    0.1457934 -34.36  0.001037597    1.620    0.383
       152  -9.5565    214.9821     71.6912   7.8675715387e+01   2.1782658864e+01    0.3750291    0.2104041 -27.96  0.001093862    1.835    0.455
       153 -10.2012     28.9846    145.9917   1.3994549942e+02   4.1891537238e+01    0.3491073    0.2087208  26.64  0.002009303    2.124    0.529
       154  -9.9966      4.6840     70.3992   1.3626472884e+02   6.0720433393e+01     0.354596    0.2510055  58.25  0.001691031    1.823    0.451
       155  -9.0248      8.1405     50.5314   1.3068876372e+02   6.4715156404e+01    0.4425009    0.2784604  54.82  0.002603009    2.453    0.592
       156 -12.0273     15.6294     62.1846   1.3056399477e+02   6.1815273267e+01    0.7281867     0.404725   4.29   0.00333083    2.416    0.586
       157 -10.7593     13.0017     56.5938   1.3024464151e+02   6.3163969422e+01    0.2653817    0.2192878  29.04  0.001900482    1.524    0.344
       158 -10.4158    250.2455     67.2661   7.2784608605e+01   1.4337252517e+01    0.6409448    0.1979787 -27.45  0.002065649    3.753    0.734
       159 -10.2046    173.7047     48.6798   7.8908594677e+01   3.5608882334e+01     1.114001    0.4683088  50.89  0.004164044    2.303    0.566
       160  -9.6595    178.1657     60.2546   8.1603810403e+01   3.2733742010e+01    0.3911399    0.2931947   0.07 0.0008976816    1.710    0.415
       161 -11.2239    174.4215     56.5761   8.1185368726e+01   3.4253502714e+01    0.6279544    0.5354322  32.81  0.001193124    1.264    0.209
       162 -10.5151    164.4901     57.0585   8.3226401408e+01   3.6701470852e+01    0.5746908    0.4188349  40.14  0.001589083    1.444    0.308
       163  -8.6713    189.1265     64.8823   8.1004928697e+01   2.9234896754e+01     0.234298    0.1965172 -66.50 0.0005749256    1.272    0.214
       164  -8.6704    135.5210     63.9051   9.1805974492e+01   4.2681881858e+01    0.2274744    0.1478795 -34.01  0.001014934    1.541    0.351
       165 -11.3176     68.9701     74.7099   1.1478914599e+02   5.3495304875e+01     1.395802    0.9474784 -24.58  0.007073887    1.720    0.418
       166 -10.3729    221.9969     47.9634   7.1450024340e+01   2.3547642500e+01    0.6502722    0.3567975 -48.34  0.002934406    1.781    0.438
       167  -9.1848    219.1694     60.8485   7.5201969328e+01   2.2406406816e+01    0.2660681    0.2358336 -23.26   0.00061193    1.180    0.152
       168  -9.9349    222.3017     57.2084   7.3819771514e+01   2.2180021535e+01    0.3610541    0.3408418 -62.57  0.001239558    1.019    0.018
       169  -8.2627     71.2638     61.7108   1.0997939677e+02   5.5809834482e+01    0.1233142    0.1058602 -75.21 0.0001719551    1.497    0.332
       170 -10.4207    201.0008     57.6943   7.7021928268e+01   2.7344234371e+01    0.6148112    0.4079865  19.22  0.002616303    2.261    0.558
       171  -9.3680    149.4735     59.6878   8.7195180706e+01   4.0033374439e+01    0.5623176    0.2714007 -55.55  0.001851261    3.272    0.694
       172  -9.8985    158.1040     51.0891   8.2611125615e+01   3.9228347923e+01    0.5866548    0.4203207  52.18  0.002247853    1.355    0.262
       173  -8.8710    152.5372     56.1137   8.5379518037e+01   3.9849374297e+01    0.3476617    0.3153273 -31.29   0.00112325    1.116    0.104
       174 -10.0018    134.6825     52.9236   8.8348723133e+01   4.4705649435e+01    0.3689567    0.2922408  25.90 0.0003941536    1.364    0.267
       175 -11.6493    141.6833     51.4200   8.6217120965e+01   4.3256108883e+01    0.8121216    0.4164787  44.66  0.002062134    1.969    0.492
       176 -10.8130    150.1828     51.5192   8.4387560439e+01   4.1148204964e+01    0.5467305    0.3949328  10.64  0.001778431    1.792    0.442
       177  -9.9775      3.0684     57.4772   1.3429759961e+02   6.3555112860e+01    0.3295938    0.2467794 -83.70  0.002207268    1.458    0.314
       178  -8.8416    202.0936     68.4874   7.9839443944e+01   2.5428847901e+01    0.2326226    0.1952386 -37.91 0.0006582193    1.157    0.136
       179  -8.8501     75.8193     46.4076   1.0301320037e+02   5.7925446791e+01    0.2448756    0.1592337 -24.10  0.000699403    1.573    0.364
       180 -10.3428     71.2043     54.4023   1.0751674416e+02   5.7224881368e+01    0.4262834    0.3496744 -72.94  0.001128834    1.693    0.409
       181 -10.6610     76.1528     52.1640   1.0501348235e+02   5.6843368652e+01    0.5424826    0.4114166 -69.87  0.001742091    1.975    0.494
       182  -9.6039    236.8006     54.0934   7.1187562863e+01   1.9204320537e+01    0.3313582    0.1916495  -3.02  0.001259303    3.286    0.696
       183 -10.3140    186.4998     53.0245   7.8013141061e+01   3.1702531659e+01     0.380945    0.2521109   6.96  0.001581684    2.307    0.567
       184  -9.8603    188.8543     48.9007   7.6424340196e+01   3.1695976495e+01    0.3364274    0.2597753 -58.96 0.0004044104    1.361    0.265
       185 -11.5261     26.9379     51.9295   1.2346710187e+02   6.3073389746e+01    0.5576322    0.2511698 -33.72  0.002653096    2.387    0.581
       186 -10.3425     21.8821    138.2543   1.4081362881e+02   4.4285229787e+01    0.2879593    0.2014374 -21.33  0.001705053    2.295    0.564
       187 -10.8697     16.7655    158.4756   1.4396378940e+02   4.0243340562e+01     0.408351    0.2543012 -43.52  0.002423347    2.246    0.555
       188  -8.9366     11.6614     41.6424   1.2680901344e+02   6.6281614419e+01    0.4614247    0.2878222 -11.57  0.002887221    1.838    0.456
       189 -12.0313     20.0687    148.1203   1.4226713365e+02   4.2232650260e+01    0.7077688    0.5459988 -69.07  0.003287192    1.223    0.182
       190 -10.8022     34.7838    150.0208   1.3901648666e+02   4.0411329638e+01    0.3441286    0.2873158  83.55   0.00129537    1.068    0.064
       191 -11.9574     36.6674     27.4823   1.1073875099e+02   6.6666774351e+01    0.2903299    0.2212658  15.44  0.001921747    1.368    0.269
       192 -10.7843     38.9325    145.8082   1.3752793796e+02   4.0934301500e+01    0.4582019     0.299727 -78.54  0.001546156    1.305    0.234
       193  -8.2534     82.6834    154.6958   1.2814413664e+02   3.3317594697e+01    0.1274088    0.1056028 -29.41  0.000702574    1.624    0.384
       194  -9.1399      8.7957    152.6871   1.4523494155e+02   4.2170307228e+01    0.2880929    0.1233213  50.80  0.001396338    2.278    0.561
       195  -8.8767     52.7665    151.5717   1.3491310399e+02   3.8066823386e+01    0.1923825    0.1758892  71.75 0.0006970406    1.162    0.139
       196 -12.5857     20.4636     42.8671   1.2340105242e+02   6.5406774445e+01    0.4604264    0.3771427 -76.97 0.0008076989    1.571    0.363
       197 -11.1412     16.0259     33.5373   1.2231093040e+02   6.7531221270e+01    0.5237601     0.283135 -60.45  0.002945303    1.916    0.478
       198  -9.9689     66.9804    148.4756   1.3101466217e+02   3.6966462253e+01    0.2588127    0.1720523 -86.02 0.0009894411    1.541    0.351
       199  -9.0625     60.3084    147.9578   1.3258179218e+02   3.7958277917e+01    0.1835756    0.1517985 -76.52   0.00048674    1.073    0.068
       200  -9.5346      1.0000    145.4417   1.4639435712e+02   4.4333338588e+01    0.3724556    0.1048434 -73.75  0.001270299    2.627    0.619
       201  -9.8714      5.0557    147.1987   1.4562166024e+02   4.3655194882e+01    0.2380383    0.1926425 -66.29  0.001411123    1.304    0.233
       202  -9.8957      6.6847    142.6786   1.4486819762e+02   4.4524457778e+01    0.3677137    0.2158238  58.96  0.002300651    1.677    0.404
       203  -8.9985     81.2992    139.3246   1.2591455133e+02   3.7032295416e+01    0.1339569    0.1049051 -32.61 0.0003580501    1.631    0.387
       204 -11.7506    164.2881     62.6296   8.4992133084e+01   3.5867316517e+01    0.7429574    0.6740538 -30.23  0.003945227    1.116    0.104
       205  -8.6371     65.4903     50.0827   1.0801118822e+02   5.8902150485e+01    0.1917953    0.1715652  15.85  0.001034975    1.175    0.149
       206  -8.6058    192.8508     53.8489   7.7216601839e+01   2.9965617349e+01    0.2022484    0.1660824 -73.62 0.0003588688    1.303    0.233
       207  -9.8960    194.5744     30.8688   7.0368360541e+01   3.2618876641e+01     0.315549    0.2556599 -17.05  0.001033818    1.386    0.278
       208 -10.2615    210.9487     32.6291   6.8760896172e+01   2.8267680338e+01     0.672686    0.4111492  39.98  0.002740982    2.041    0.510
       209 -10.2302    207.4603     44.6748   7.2481029193e+01   2.7571968475e+01    0.6895384    0.4728361 -86.85  0.003307624    1.673    0.402
       210 -10.6219    200.0024     31.4118   6.9803042003e+01   3.1170434991e+01    0.6128671    0.3186774 -59.63  0.001148211    2.343    0.573
       211 -10.3978    202.2178     38.3881   7.1457234984e+01   2.9725138905e+01    0.3939572    0.2825762 -81.53 0.0009607882    1.536    0.349
       212  -9.9974    205.3510     36.2926   7.0461458273e+01   2.9205889415e+01    0.2831256    0.2144965  12.61  0.001046441    1.758    0.431
       213  -9.7679     60.7274     54.3027   1.1121911158e+02   5.8794738485e+01    0.3548616    0.2528495 -49.05  0.001652336    1.356    0.262
       214  -8.4557     49.1489     45.8545   1.1263768252e+02   6.1924402784e+01    0.1619196    0.1259409 -12.83 0.0009852565    1.274    0.215
       215  -8.4290    248.5872     45.1598   6.7695906207e+01   1.7735627698e+01    0.1840991    0.1244729 -20.75 0.0007753177    1.655    0.396
       216  -9.4963    231.3484     44.2656   6.9370491122e+01   2.1811301420e+01    0.5586343    0.2578706  39.91  0.002050593    3.443    0.710
       217  -8.6474    234.6978     39.5440   6.7813085114e+01   2.1642498139e+01    0.2989958    0.1571544  58.69  0.001391412    1.957    0.489
       218  -9.4224    158.5034     58.5661   8.4908572564e+01   3.7971490693e+01    0.4582681    0.3035169  12.12  0.001865005    2.268    0.559
       219  -8.4930    167.5410     44.2531   7.8638743911e+01   3.7817522465e+01    0.2003505    0.1462435  -9.92 0.0009396744    1.632    0.387
       220  -8.6999      1.5613     44.3732   1.3187070951e+02   6.6321443024e+01    0.1145312   0.08113495 -45.21 0.0001799463    1.106    0.096
       221  -8.9822    215.0300     42.0413   7.0773037915e+01   2.6045954031e+01    0.2272934    0.1675884  28.64  0.001126777    1.759    0.432
       222  -9.5021    196.8070     41.7884   7.3169240609e+01   3.0648109798e+01    0.3919216    0.1844393 -55.98  0.001434495    2.744    0.636
       223  -9.9358    190.9339     40.3822   7.3625072166e+01   3.2334331812e+01    0.3370074    0.2813944   8.72  0.000379051    1.441    0.306
       224 -10.0064    192.0194     36.7647   7.2418681186e+01   3.2530087523e+01    0.4886462     0.204325  71.13  0.001786903    2.644    0.622
       225  -8.7862    219.2664     52.9980   7.3123147496e+01   2.3510733349e+01    0.2485699    0.1978099  -9.79 0.0004364424    1.489    0.328
       226  -9.8715    180.7303     39.2499   7.4859560867e+01   3.5105893799e+01    0.4272428     0.337493 -53.29  0.001627213    1.304    0.233
       227  -8.2405      4.7929     41.1679   1.2964785932e+02   6.6790184949e+01    0.1423767   0.09759636 -38.21 0.0007010394    1.214    0.176
       228  -8.3379    228.5352     39.4035   6.8464101074e+01   2.3116337334e+01    0.1344132    0.1257564 -71.05 0.0001231871    1.047    0.045
       229  -8.8182    173.1179     38.8398   7.5977654759e+01   3.7121597881e+01    0.2275941    0.1837084 -69.51 0.0006327074    1.352    0.260
       230  -9.5642    168.5904     36.2524   7.5935591332e+01   3.8627045777e+01    0.2881426    0.2589746 -59.32 0.0009972085    1.150    0.130
       231  -8.7827    113.8263     36.8303   8.7793932592e+01   5.1948451139e+01     0.217338    0.1814034  17.15 0.0007704093    1.202    0.168
       232  -8.5734    222.1616     35.8105   6.8273197981e+01   2.5110282837e+01    0.1825147    0.1616228  40.92 0.0006568085    1.306    0.234
       233 -10.1068    246.5183     33.2679   6.5081243461e+01   1.9720349971e+01    0.4229348    0.2219594  55.25  0.001010822    2.094    0.522
       234 -11.1363    237.7544     32.5144   6.5762300589e+01   2.1819734344e+01     0.654597     0.360579  68.45  0.003206984    1.837    0.456
       235  -9.6054     47.3728    137.2739   1.3430005005e+02   4.1969660730e+01    0.4031583    0.2055153  65.10    0.0017869    2.530    0.605
       236 -10.1211     54.4743    137.9840   1.3258570273e+02   4.0976828604e+01    0.3260755    0.2477584 -36.92  0.001860499    1.672    0.402
       237 -11.3863     55.2570    131.2942   1.3134824812e+02   4.2433338666e+01     0.992237    0.2587838 -55.81  0.003604668    3.161    0.684
       238  -9.6414     64.2798    138.3278   1.3012023312e+02   3.9661412820e+01     0.268018     0.131832  55.72   0.00117207    2.402    0.584
       239  -8.9200     37.6454     33.4185   1.1270167168e+02   6.5536347763e+01    0.1956266    0.1085561  12.88 0.0006308971    2.292    0.564
       240  -9.2843     77.1869     41.4189   1.0063570050e+02   5.8541648098e+01    0.2271266    0.2153556  57.01 0.0007820244    1.331    0.249
       241 -10.6054    148.0760     35.1139   7.9339871603e+01   4.4002272085e+01     1.079918     0.223527  58.55  0.003033293    4.167    0.760
       242 -10.4803    226.6129     28.7736   6.5982196157e+01   2.4909637781e+01    0.6272266    0.2666209 -45.50  0.002654737    2.183    0.542
       243  -9.0407    120.7223     29.3981   8.3256242984e+01   5.1377445685e+01    0.2482733     0.149951 -37.62 0.0006104367    1.740    0.425
       244  -8.9039    192.6828     25.3268   6.9032910123e+01   3.3766402941e+01    0.3814526    0.1968638  32.21  0.001435415    3.060    0.673
       245  -9.8943     12.7210    117.3148   1.4076309723e+02   4.9756986242e+01    0.3824931    0.2222885  72.10  0.001812014    1.883    0.469
       246  -9.5516    241.2205     23.8684   6.3345248990e+01   2.2064693091e+01    0.3015273    0.1819594 -54.33  0.000747722    1.533    0.348
       247  -9.8345     19.4575    119.1588   1.3917991850e+02   4.8825223046e+01    0.5385618    0.2244396 -55.98  0.002130489    2.044    0.511
       248  -9.1990     28.2897    121.5324   1.3711228858e+02   4.7533790302e+01    0.3729987    0.1650692 -72.40  0.001629415    1.937    0.484
       249 -10.8933     26.5943    127.6822   1.3837511177e+02   4.6274548349e+01    0.3803424     0.333933  77.25  0.002592859    1.165    0.142
       250 -10.4620     20.6282    128.2126   1.3998550432e+02   4.6667612506e+01    0.3919207    0.3691322  34.59  0.002327568    1.361    0.265
       251  -9.9420      9.0127    134.7454   1.4358890353e+02   4.6108898201e+01    0.2197919    0.1806176 -69.05  0.000685568    1.206    0.171
       252 -11.3802     13.8386    130.8029   1.4199976171e+02   4.6626486085e+01    0.5585427    0.3462854  76.84  0.002710029    1.566    0.362
       253 -10.3608     11.9647    125.4651   1.4189707107e+02   4.7970876655e+01    0.2451505    0.2247505  61.77 0.0008984686    1.284    0.221
       254  -9.9137     98.0506     22.2788   8.6304308926e+01   5.7299559623e+01    0.2527549    0.2218814  43.90 0.0005431917    1.164    0.141
       255 -10.6468     72.2819    128.8282   1.2638549110e+02   4.0777808274e+01    0.5381293    0.3060591 -60.17  0.001631391    1.593    0.372
       256  -9.3458    197.7392     16.8632   6.6015492523e+01   3.3431217346e+01    0.3076227    0.1778026  66.36 0.0009084857    1.608    0.378
       257  -9.8528    177.8818     20.0653   6.9480001593e+01   3.8168067981e+01    0.2995293    0.2525092 -41.81  0.001084732    1.223    0.182
       258  -9.8372     74.4858    125.1344   1.2509733664e+02   4.1322997902e+01    0.6384385    0.2788613  56.76  0.002279982    3.523    0.716
       259  -8.8233     61.3858     15.8835   9.5383317825e+01   6.4982838714e+01    0.1636186    0.1315852 -11.07 0.0004911224    1.082    0.076
       260  -9.1618     45.6437    132.3370   1.3403568513e+02   4.3303526486e+01    0.2845451     0.130847 -61.18  0.001366392    1.838    0.456
       261 -10.8704     64.9696    130.2757   1.2859882664e+02   4.1440034261e+01    0.3654959    0.2673807  60.66  0.002037088    1.450    0.311
       262 -11.3894     67.6772    121.7448   1.2631890659e+02   4.3064494035e+01    0.9816203    0.3568669 -47.38  0.003680041    2.898    0.655
       263  -9.8021     64.1287    114.1739   1.2584977063e+02   4.5301712954e+01    0.2943391    0.1758026  50.15  0.001039471    1.888    0.470
       264 -10.7561     38.3723    126.9527   1.3517184443e+02   4.5319965690e+01    0.2559406    0.1930359 -49.43  0.001138326    1.398    0.285
       265  -8.9371     95.7180    130.8583   1.2056161750e+02   3.6686614504e+01    0.2363847     0.171715 -43.66  0.001193499    1.459    0.315
       266 -10.2050     47.5993    125.5424   1.3248216529e+02   4.4662646419e+01    0.3486516    0.1563716 -65.01  0.001617447    1.908    0.476
       267 -10.4438      3.5057    135.3948   1.4497314001e+02   4.6360479304e+01    0.4471149    0.2835331  86.08  0.002699125    1.320    0.243
       268  -9.7092     92.0374    120.5293   1.1936917625e+02   3.9670071773e+01    0.3448614     0.235489 -42.00  0.001688209    1.547    0.354
       269 -11.4889      5.0586     99.6210   1.4068916032e+02   5.4251201940e+01     0.939703    0.5953311  69.71  0.005786927    1.776    0.437
       270 -10.6182     20.9595    109.4543   1.3745012303e+02   5.0921485076e+01     1.097737    0.5085022  22.01  0.005595983    2.805    0.643
       271 -11.3211     47.3373    101.1222   1.2821321873e+02   5.0355605595e+01     1.147289    0.5448053 -45.66  0.005314119    2.072    0.517
       272 -11.6180     38.4478     90.3701   1.2881026931e+02   5.3735948326e+01     1.505628    0.7814363 -42.82  0.007524136    1.912    0.477
       273 -11.5719     53.7340     86.9457   1.2308205628e+02   5.2842080151e+01    0.8857788    0.6176446   3.70  0.004713445    1.970    0.492
       274 -12.0370     27.3458     84.3510   1.3120899746e+02   5.6098473234e+01     1.002072    0.7085941 -31.07  0.006133655    1.568    0.362
       275 -11.1704      3.3472     89.1076   1.3975889627e+02   5.6692846273e+01    0.5469475    0.2840828 -57.43  0.002912277    1.495    0.331
       276 -11.5829      4.4173     80.7207   1.3813614844e+02   5.8485415768e+01    0.6177635    0.3163548 -61.47  0.002712676    1.444    0.307
       277 -12.0522      4.9369    116.2904   1.4272272591e+02   5.0521351834e+01    0.8330113    0.2327869 -62.63  0.003796561    2.504    0.601
       278 -11.8605     17.1488    102.1719   1.3749324445e+02   5.2870514103e+01    0.7705239    0.4056491 -89.99  0.003908955    2.162    0.538
       279 -11.1977     21.5248     96.4722   1.3528207831e+02   5.3833888150e+01    0.4416346    0.3040547 -40.54  0.001309412    1.527    0.345
