#   1 NUMBER                 Running object number                                     
#   2 MAG_AUTO               Kron-like elliptical aperture magnitude                    [mag]
#   3 X_IMAGE                Object position along x                                    [pixel]
#   4 Y_IMAGE                Object position along y                                    [pixel]
#   5 X_WORLD                Barycenter position along world x axis                     [deg]
#   6 Y_WORLD                Barycenter position along world y axis                     [deg]
#   7 A_WORLD                Profile RMS along major axis (world units)                 [deg]
#   8 B_WORLD                Profile RMS along minor axis (world units)                 [deg]
#   9 THETA_WORLD            Position angle (CCW/world-x)                               [deg]
#  10 FWHM_WORLD             FWHM assuming a gaussian core                              [deg]
#  11 ELONGATION             A_IMAGE/B_IMAGE                                           
#  12 ELLIPTICITY            1 - B_IMAGE/A_IMAGE                                       
         1 -13.0358    198.7463     34.2074   5.9224624942e+01   3.1153893282e+01      1.20783     1.046875  34.42  0.006339023    1.230    0.187
         2 -13.8103    213.2494     17.4007   5.2333626325e+01   2.9312790712e+01     1.648322     1.053131  32.61  0.007573455    1.922    0.480
         3 -11.0402      2.0000     10.5410   1.1021462269e+02   7.3128022684e+01    0.6349931          nan -57.47   0.00178061    6.973    0.857
         4  -9.9535     16.0213      4.2286   9.9554470743e+01   7.3256857205e+01    0.1298358   0.09140153  17.16 0.0005690985    1.657    0.396
         5 -10.8872     16.8114     25.4560   1.0813840027e+02   6.9229327062e+01    0.2100729     0.199817 -78.35 0.0005975202    1.318    0.241
         6 -10.3339    161.6044    249.8409   1.1146029610e+02   6.4678216308e+00     0.184301   0.09536667  46.51  0.001094955    1.423    0.297
         7 -11.5421    139.3996    248.5267   1.1479615893e+02   9.8419298604e+00     0.259122    0.2051969  82.58  0.002096716    1.520    0.342
         8 -11.7919     89.3878    247.4227   1.2251948696e+02   1.6847085856e+01    0.2561407    0.2311397  74.08  0.002318617    1.399    0.285
         9 -12.6477    106.0918    241.8017   1.1946092851e+02   1.5404760626e+01    0.4831193    0.2674527  56.34  0.002484343    1.416    0.294
        10 -12.2220    100.2633    245.6714   1.2069358288e+02   1.5659572155e+01    0.4060341    0.1689772  48.62  0.002507893    1.721    0.419
        11 -13.9319     16.9460    244.1425   1.3322409688e+02   2.5581693064e+01     1.932509    0.6978891  46.86   0.01267638    1.896    0.472
        12 -14.7165     97.0270    229.9170   1.1993388172e+02   1.8349369721e+01     3.787622     0.420089  42.61  0.003323432    5.768    0.827
        13  -8.9880     95.5204    219.4761   1.1927652484e+02   2.0150248950e+01    0.1096293   0.08373691  59.51 2.630101e-05    1.029    0.028
        14 -10.1900     40.4936    229.2570   1.2903343605e+02   2.5425836092e+01    0.2761592   0.09448648  55.92 0.0009713432    2.132    0.531
        15 -11.7672    126.2400    249.1075   1.1691090628e+02   1.1638578582e+01    0.2835214    0.2248809  70.17  0.002352893    1.278    0.218
        16 -10.3499    225.9478    200.8694   9.4566153035e+01   1.9341254098e+00    0.3415647    0.2218464 -53.59  0.001115131    2.831    0.647
        17  -9.3981     56.1491    240.8319   1.2723054660e+02   2.1884273777e+01    0.1193169   0.09831947  63.54  0.000396962    1.316    0.240
        18 -10.7996     47.8978    236.3544   1.2825542085e+02   2.3503138504e+01     0.371101     0.137049  71.62  0.001987264    3.067    0.674
        19  -9.5767    192.2142    193.6232   9.9011797812e+01   8.5082186949e+00    0.2252672    0.1440382 -73.60  0.000954799    4.265    0.766
        20 -11.5184     58.9172    192.0488   1.2342490745e+02   2.9612481540e+01    0.2930081    0.2214025 -50.43   0.00122817    1.947    0.486
        21  -8.3667    181.5274    192.4595   1.0069609080e+02   1.0526220501e+01    0.1232992     0.102795  37.94  6.54639e-05    1.006    0.006
        22 -11.5655     65.0566    184.8152   1.2163684816e+02   3.0182461996e+01    0.2427692    0.2072119 -84.62 0.0004759465    1.262    0.208
        23 -10.7498     75.4000    173.1194   1.1841980444e+02   3.1051353986e+01    0.2118903    0.1820261  82.64  0.000427238    1.121    0.108
        24 -13.1416     62.1224    170.3166   1.2082052093e+02   3.3329579375e+01    0.4206427    0.2483826 -50.26   0.00179397    2.277    0.561
        25 -11.7580     83.3109    164.6641   1.1579873121e+02   3.1606851555e+01    0.5470495    0.4299219  60.21  0.003596705    1.127    0.113
        26 -11.3758     22.8809    156.4827   1.2767939729e+02   4.0404765158e+01      0.22241    0.1807509  74.10 0.0009960613    1.150    0.131
        27  -9.8000     96.7123    149.4903   1.1079738127e+02   3.2655267969e+01    0.2457461    0.2146554  77.18   0.00084056    1.008    0.008
        28 -11.8846     84.9368    148.1796   1.1323548675e+02   3.4714957329e+01    0.2566392    0.2177239 -63.80 0.0005320793    1.258    0.205
        29 -12.3815     67.5711    143.9633   1.1659479178e+02   3.8019755614e+01    0.6745191     0.416876  73.64  0.003116894    1.679    0.405
        30  -9.0869     99.9486    145.0981   1.0938084139e+02   3.3041279624e+01    0.1925619    0.1622642 -21.28  0.001117427    1.742    0.426
        31  -9.5117     32.3341    143.3132   1.2453100621e+02   4.2215767687e+01    0.1069907   0.08058111 -51.70 0.0007045569    1.684    0.406
        32 -11.9002     57.6817    132.1770   1.1734061307e+02   4.1810267614e+01    0.9733765    0.3497869 -80.44  0.003053531    5.227    0.809
        33  -9.6699     68.5148    134.9006   1.1512038510e+02   3.9835713493e+01    0.1873959    0.1567349  61.90 0.0005121334    1.169    0.144
        34 -10.4400     95.7684    132.2627   1.0818337367e+02   3.6400382159e+01    0.2344157    0.2087808 -44.74 0.0006913942    1.327    0.247
        35 -14.1217     47.3642    206.9230   1.2659007995e+02   2.8339900938e+01     2.126635    0.6243364  53.14  0.008610522    2.647    0.622
        36  -9.2389    106.0992    122.6388   1.0388396733e+02   3.6723464880e+01    0.1803092    0.1633235  59.00 0.0003648153    1.114    0.102
        37  -9.3471    108.7251    135.4446   1.0571237658e+02   3.3578068633e+01    0.2739989    0.2179242  -5.49  0.001349327    2.024    0.506
        38  -8.9383    203.4585    111.4923   8.0337543313e+01   1.8515901848e+01    0.1466826    0.1341478   9.40 0.0001644278    1.065    0.061
        39  -9.9683    167.8509    112.8921   8.7583109332e+01   2.6254638161e+01    0.3647038    0.2733625 -74.71  0.001045957    1.803    0.445
        40 -10.2353    241.4924    102.4853   7.1895161983e+01   1.1514330772e+01    0.1395376    0.1253908  -7.54 9.356182e-05    1.002    0.002
        41 -13.1348     28.5060    184.5866   1.2850868408e+02   3.4386929075e+01     1.760575    0.5375023  69.59  0.002643191    4.763    0.790
        42 -10.5482    243.3823     94.1957   6.9580970778e+01   1.2235397693e+01    0.2089722    0.1154041 -36.44 0.0009554984    1.702    0.413
        43  -9.0813    159.4734     78.5124   8.0041519739e+01   3.4438161695e+01    0.1514021    0.1486067 -35.42 5.176681e-05    1.007    0.006
        44 -13.8174     37.7698    215.7235   1.2874182259e+02   2.7915023259e+01    0.7770138    0.5070768  65.81  0.002838945    1.085    0.079
        45 -10.0939     53.4956    230.9222   1.2707168237e+02   2.3700436016e+01    0.2286337   0.08681537 -74.39  0.001369168    2.752    0.637
        46 -15.0942      7.4212    146.9825   1.3025250756e+02   4.3674680482e+01     4.945778     1.040841 -82.02   0.01822264    4.665    0.786
        47 -10.9247    150.2700    228.6162   1.1095904702e+02   1.0756278730e+01    0.2282452    0.1452503  39.46   0.00145256    1.314    0.239
        48 -12.6107     30.9133    224.0734   1.3028261547e+02   2.7276646996e+01    0.2711347    0.2217925  65.37 0.0007839696    1.326    0.246
        49  -9.5292     62.9487    250.5250   1.2674838714e+02   1.9680186281e+01    0.1435689   0.06945825  46.65 0.0003760698    1.528    0.346
        50 -14.2540      9.2518    209.8819   1.3311184090e+02   3.1752373003e+01     2.533301    0.7607573 -84.89  0.009237181    2.993    0.666
