#   1 NUMBER                 Running object number                                     
#   2 MAG_AUTO               Kron-like elliptical aperture magnitude                    [mag]
#   3 X_IMAGE                Object position along x                                    [pixel]
#   4 Y_IMAGE                Object position along y                                    [pixel]
#   5 X_WORLD                Barycenter position along world x axis                     [deg]
#   6 Y_WORLD                Barycenter position along world y axis                     [deg]
#   7 A_WORLD                Profile RMS along major axis (world units)                 [deg]
#   8 B_WORLD                Profile RMS along minor axis (world units)                 [deg]
#   9 THETA_WORLD            Position angle (CCW/world-x)                               [deg]
#  10 FWHM_WORLD             FWHM assuming a gaussian core                              [deg]
#  11 ELONGATION             A_IMAGE/B_IMAGE                                           
#  12 ELLIPTICITY            1 - B_IMAGE/A_IMAGE                                       
         1 -14.5391    195.3077     15.1325   6.8943287876e+01   3.3946000336e+01     2.951777     1.894044  17.89   0.01006013    1.915    0.478
         2 -10.9450     33.0000      9.5547   1.0847470622e+02   6.9899984112e+01    0.6179045   0.05638012 -47.29  0.001427182    8.954    0.888
         3 -13.8484    200.8500      8.0549   6.6031914470e+01   3.3186310349e+01      1.86532    0.8756856  48.95  0.001477134    2.179    0.541
         4 -11.4009     95.5129    239.9546   1.3373200847e+02   1.8507106819e+01    0.2218285    0.2014278 -22.95  0.001956912    1.970    0.492
         5 -10.6596    163.3830    249.0755   1.2433807377e+02   8.2110008655e+00    0.1921996    0.1391482  55.70 0.0008999749    1.299    0.230
         6 -11.9928    140.0723    249.9282   1.2786130509e+02   1.1361734501e+01    0.4623029    0.1497949  43.79  0.002606184    2.184    0.542
         7 -12.5202    125.8623    248.0328   1.2980578583e+02   1.3510950961e+01    0.4222857    0.3638942  33.41  0.003811277    1.453    0.312
         8 -13.1616    110.5936    249.3350   1.3217626372e+02   1.5377961452e+01     1.174199    0.2272747  45.71  0.005461298    3.378    0.704
         9 -11.3809     98.3535    250.1054   1.3403731682e+02   1.6852169654e+01    0.4014748    0.1886841  58.30  0.002378291    1.751    0.429
        10 -11.2557    102.0694    247.4778   1.3330020146e+02   1.6706996690e+01    0.2640627    0.1585842  65.57 0.0008732423    1.499    0.333
        11 -11.2910     74.4652    249.8241   1.3750833593e+02   1.9803263314e+01     0.484044    0.2296332 -49.18  0.002887959    4.611    0.783
        12 -10.8218     88.8715    249.1460   1.3536404337e+02   1.8154680122e+01    0.2170601    0.1880333 -44.42  0.001850979    2.006    0.501
        13 -11.3327     81.5354    248.5206   1.3639871042e+02   1.9128952294e+01    0.3563718    0.1694607  66.57  0.002238254    2.034    0.508
        14 -11.8437     83.3875    244.4232   1.3586268100e+02   1.9436456887e+01    0.4169669    0.2042195  67.41  0.002657674    2.007    0.502
        15 -12.3400     66.7909    243.2695   1.3824787430e+02   2.1565446619e+01    0.5155241    0.2087661  46.43 0.0005708908    1.741    0.426
        16 -10.8964     67.1744    250.0945   1.3857783005e+02   2.0616265085e+01      0.22874    0.1793028  66.87  0.001194063    1.233    0.189
        17 -10.3415     63.5211    250.5725   1.3912903438e+02   2.0970874587e+01    0.2991468   0.06100248  51.05  0.001553288    3.098    0.677
        18 -15.2447      3.8200     21.0837   1.2693147250e+02   7.0183628445e+01     20.58495     1.455606 -64.42   0.03600478   17.905    0.944
        19 -13.6588     33.0404    245.8511   1.4324786929e+02   2.4881201903e+01     1.365941     0.397767  42.03  0.008622048    2.503    0.600
        20 -15.7278      9.9407    239.8444   1.4627903259e+02   2.7945214550e+01     6.364589    0.9166276 -71.48   0.03160046    5.921    0.831
        21 -15.3018     58.1358    217.4906   1.3801811238e+02   2.6258085818e+01     5.697611    0.3202023  44.45   0.01842185    4.950    0.798
        22 -10.0444    229.2365    229.1264   1.1231579451e+02   5.7539262304e-01    0.1788232    0.1542276  89.21   0.00125185    2.278    0.561
        23 -10.6012    173.7065    221.6940   1.1975242101e+02   9.6660983053e+00    0.2568453    0.1708881  81.12  0.001493437    2.969    0.663
        24 -10.0972     37.6070    231.3435   1.4195484238e+02   2.6453302004e+01    0.1681912   0.06832422  56.22 0.0005947444    1.709    0.415
        25  -9.1563    152.7322    212.9268   1.2206960531e+02   1.3951507051e+01    0.1421495    0.1174322  51.23 0.0003202469    1.082    0.076
        26 -10.7751     33.7940    206.2210   1.4129486421e+02   3.0681211577e+01    0.2087453    0.1508542  56.71 0.0008754199    1.206    0.171
        27 -10.7186    192.5269    193.9062   1.1295992999e+02   9.8955053211e+00    0.4914021    0.2646605 -61.25  0.002034843    5.154    0.806
        28 -11.7134     72.5490    196.2979   1.3404992910e+02   2.7867716107e+01    0.2846122     0.239437 -44.86  0.002188455    1.882    0.469
        29 -11.7531     77.3008    189.0458   1.3256831894e+02   2.8463908794e+01    0.2170835     0.198274 -65.50 0.0006856499    1.486    0.327
        30 -11.0943     85.5171    176.8894   1.2984162042e+02   2.9450452536e+01    0.2017586    0.1722112  79.94 0.0004568777    1.120    0.107
        31 -13.3247     73.3340    174.4974   1.3191397879e+02   3.1497447718e+01    0.3650504    0.2465698 -45.62  0.001770545    2.231    0.552
        32 -10.4317     33.6650    228.3843   1.4240826327e+02   2.7292374282e+01    0.2001568    0.0665153  52.81  0.001288091    2.014    0.504
        33 -11.0384    115.7117    174.7702   1.2385550165e+02   2.5380286652e+01    0.6088073    0.1360892  44.25  0.002242785    3.748    0.733
        34 -12.1279     50.4371    129.8661   1.3182583881e+02   4.2923808003e+01    0.4193312    0.2194045  60.84  0.001607452    1.946    0.486
        35 -13.4692     67.3588    144.0569   1.2976569204e+02   3.8001595099e+01     1.395031    0.6566048  83.83  0.004274266    3.501    0.714
        36 -13.1912     57.9127    131.0188   1.3024397895e+02   4.1809154699e+01      1.58636    0.5198082 -77.31  0.005191755    5.286    0.811
        37  -9.4094    105.5619    147.2169   1.2200627196e+02   3.1883098189e+01    0.2322561    0.1723617 -35.39  0.001340654    1.902    0.474
        38 -12.1964     92.1521    150.8017   1.2534773030e+02   3.3262746134e+01    0.2263483    0.2180298  59.68 0.0005086238    1.272    0.214
        39 -12.2677     46.9586    148.5740   1.3463713667e+02   3.9553502354e+01    0.4633959    0.2321047 -79.97  0.002664962    1.855    0.461
        40  -9.5435    134.0000    145.8663   1.1588064233e+02   2.7319762990e+01    0.4737792   0.07327339 -49.05  0.001259088    7.006    0.857
        41  -8.6889    192.3500    144.2183   1.0436670951e+02   1.6489504849e+01    0.1620816    0.1210344 -44.21 0.0003673369    1.534    0.348
        42 -10.0548    112.7201    136.6342   1.1876067048e+02   3.2717366307e+01    0.2514473    0.2110629 -10.67  0.001211017    1.765    0.434
        43 -10.8953     69.9949    134.6269   1.2796094460e+02   3.9546521790e+01    0.2850927    0.1369572  40.58  0.001475848    2.097    0.523
        44 -13.9643     11.4628    207.0168   1.4491409096e+02   3.2720400377e+01    0.9903742    0.6180901  50.89  0.003000008    1.344    0.256
        45 -12.2027     44.2698    129.1796   1.3317139684e+02   4.3750269156e+01    0.4022945     0.184273 -78.62  0.002091341    2.078    0.519
        46 -12.5890     91.7477    168.0417   1.2763925779e+02   3.0141765725e+01     1.297696    0.4380741  52.90  0.001900792    2.964    0.663
        47  -9.4529    109.1135    123.7805   1.1725514529e+02   3.5825900387e+01    0.1862884    0.1593422  73.69 0.0003270908    1.118    0.106
        48 -11.0339    168.3823    113.4367   1.0226049375e+02   2.6227136982e+01    0.3766506    0.3003033 -84.71  0.001264081    1.647    0.393
        49 -10.6575    100.4961    133.9479   1.2099399275e+02   3.5239963282e+01    0.2311593    0.2122386 -27.50 0.0005038987    1.431    0.301
        50 -13.4301     50.7988    230.9799   1.3995191573e+02   2.5090216395e+01    0.5818147    0.3130781  71.28  0.002670218    1.545    0.353
        51 -10.2618    103.1896    151.1815   1.2309449853e+02   3.1514809278e+01    0.2537163    0.2390574 -73.37 0.0008433715    1.218    0.179
        52  -8.7579    203.6726    111.6495   9.5253427881e+01   1.8886465954e+01    0.1499327    0.1026833  16.38 0.0007048387    1.762    0.432
        53 -10.3060     19.9538    111.4888   1.3707081254e+02   4.9781710052e+01    0.1437546    0.1069014  40.04 0.0006092228    1.558    0.358
        54 -11.4395    248.9868    250.0000   1.1227101155e+02  -3.7704456049e+00    0.4915183    0.2578758  58.42  0.002328143    5.416    0.815
        55 -11.2293    155.6259    228.1258   1.2333346987e+02   1.1646365984e+01    0.2217504    0.1231216  41.34  0.001476278    1.396    0.284
        56  -9.3099    128.0009     23.5245   8.3332585181e+01   5.0387804455e+01    0.2159854    0.1906557 -20.70 0.0003511104    1.090    0.083
