#   1 NUMBER                 Running object number                                     
#   2 MAG_AUTO               Kron-like elliptical aperture magnitude                    [mag]
#   3 X_IMAGE                Object position along x                                    [pixel]
#   4 Y_IMAGE                Object position along y                                    [pixel]
#   5 X_WORLD                Barycenter position along world x axis                     [deg]
#   6 Y_WORLD                Barycenter position along world y axis                     [deg]
#   7 A_WORLD                Profile RMS along major axis (world units)                 [deg]
#   8 B_WORLD                Profile RMS along minor axis (world units)                 [deg]
#   9 THETA_WORLD            Position angle (CCW/world-x)                               [deg]
#  10 FWHM_WORLD             FWHM assuming a gaussian core                              [deg]
#  11 ELONGATION             A_IMAGE/B_IMAGE                                           
#  12 ELLIPTICITY            1 - B_IMAGE/A_IMAGE                                       
         1 -11.4834    210.7823     37.4696   3.8215379501e+01   2.8831590369e+01    0.8298998     0.655657 -55.86  0.005161427    1.149    0.130
         2 -11.2414    227.8360     20.4101   3.2837834031e+01   2.7258501876e+01    0.6717445    0.4957641 -64.51  0.002941535    1.123    0.109
         3  -7.5312     46.6593      7.2879   6.4036129066e+01   6.8365678539e+01    0.1014816    0.0960514  60.28   0.00041663    1.642    0.391
         4  -7.4740    165.7029      5.3246   3.5427752568e+01   4.2800745011e+01    0.1297324   0.08333938 -68.30 0.0007023803    1.626    0.385
         5  -9.4350    248.5119      2.4555   2.7846622863e+01   2.5099350152e+01    0.3771667    0.2018673 -83.93   0.00231842    1.676    0.403
         6  -6.9760     74.3171    237.2958   1.0946586526e+02   1.4767574109e+01    0.1136715   0.09841447 -12.72  0.000229326    1.608    0.378
         7  -7.2388    194.9461    250.8082   8.5953629426e+01  -5.0784680913e+00    0.1570506   0.08060701  30.19            0    1.670    0.401
         8 -13.6256     30.3242    232.7931   1.1821836218e+02   2.1030543950e+01     3.837838    0.3792041  42.50    0.0134996    4.312    0.768
         9 -13.9069     29.9898    248.0810   1.1924762811e+02   1.7986665818e+01     1.246563    0.6069975  35.15  0.001474412    1.902    0.474
        10 -13.2308     18.4766    226.6173   1.2020034500e+02   2.3552885892e+01    0.7370042    0.2550193 -76.02  0.003462001    2.644    0.622
        11 -13.3079      1.6103    208.1567   1.2255758951e+02   2.9083240936e+01     1.521292      0.27765 -72.01  0.005697697    4.014    0.751
        12 -15.5432     11.9838    242.7938   1.2233578702e+02   2.0890855983e+01      3.01245    0.9920059 -56.39   0.01309487    4.244    0.764
        13 -15.0862      3.1802    238.5122   1.2375752043e+02   2.2579413853e+01     0.984858    0.3742854 -78.35  0.005251477    2.354    0.575
        14 -14.8378      3.0629    221.8011   1.2298136914e+02   2.6020287435e+01     1.352708     0.579164 -58.88  0.004870907    2.648    0.622
        15 -14.0697     13.3848    232.0307   1.2151101799e+02   2.2926402918e+01    0.4587415    0.2835245  48.43   0.00297227    1.376    0.273
        16 -14.2336     10.3815    225.8689   1.2176097331e+02   2.4494889992e+01    0.7059958    0.3151236 -58.88  0.003366725    2.545    0.607
        17  -7.8615    194.2079    234.4634   8.3530096458e+01  -2.4848877756e+00    0.1972978    0.1627744  67.56   0.00105471    2.063    0.515
        18  -8.2285    249.7652    233.7596   7.3069830842e+01  -9.7023801971e+00     0.171919   0.08467679 -43.21 0.0008972458    2.457    0.593
        19  -8.2029    130.4944    233.9951   9.6880585941e+01   7.2562415996e+00    0.1785524    0.1064688 -28.00 0.0008100084    2.501    0.600
        20  -9.4036    121.8427    233.0658   9.8650614703e+01   8.7580891331e+00    0.2029068    0.1662886  55.36 0.0006090858    1.228    0.186
        21  -9.7344    100.9080    232.4951   1.0318641219e+02   1.2006831547e+01    0.2374327    0.2356873  52.20  0.001591976    1.157    0.136
        22  -8.3696     82.7192    231.9466   1.0711293914e+02   1.4715708248e+01    0.3299648    0.1170978 -66.99  0.001315004    3.265    0.694
        23  -9.3365     56.5598    232.9227   1.1282513878e+02   1.7956738408e+01    0.4016331    0.1809495  39.10  0.001535719    1.898    0.473
        24  -8.7466    214.5053    228.5329   7.8576307093e+01  -4.4336097419e+00    0.2119946    0.1710879  -2.56  0.000583447    1.029    0.028
        25  -7.4022     60.3186    226.2568   1.1142439830e+02   1.8889669564e+01    0.1106791   0.09904968 -13.74   0.00026413    1.539    0.350
        26 -10.0744    112.6656    224.1310   9.9507030288e+01   1.1937813468e+01    0.4504952    0.2282207  33.98  0.001466524    1.810    0.448
        27  -8.3047    183.9594    223.9928   8.3885530008e+01   7.6286327593e-01    0.2029092    0.1708298   8.22 0.0003863721    1.035    0.034
        28  -7.4129     63.0000    224.0615   1.1063090418e+02   1.9017544057e+01    0.1969723     0.069621 -68.32 0.0007995029    2.922    0.658
        29  -8.4529     48.5363    223.3674   1.1371517551e+02   2.0960334829e+01     0.193996    0.1548809 -78.68  0.000862259    1.247    0.198
        30  -9.7357     49.8406    219.8519   1.1312656332e+02   2.1568532080e+01    0.5301823    0.1905918  45.86  0.002322074    2.384    0.581
        31  -8.3242    184.6556    219.2046   8.2931584803e+01   1.4817609378e+00     0.210754    0.1604378  34.24 0.0004082745    1.278    0.218
        32  -9.0897     83.0776    218.4027   1.0552454686e+02   1.7529753093e+01    0.2230559     0.180932  76.30 0.0003112365    1.223    0.183
        33  -8.0712     55.9944    217.0028   1.1150468340e+02   2.1443447354e+01    0.1965268     0.152696  62.89  0.001195986    1.129    0.114
        34  -6.6989    113.3032    216.3029   9.8289585834e+01   1.3462561282e+01    0.1324589    0.1064012  -9.22 0.0004112606    1.593    0.372
        35  -8.7843    151.7274    213.6770   8.9113204910e+01   7.7913883390e+00    0.3369702    0.2356821  31.93  0.001765726    1.314    0.239
        36  -7.6595    117.9492    214.0079   9.6885580813e+01   1.3213525568e+01    0.2049896    0.1553887  67.86 0.0003258932    1.537    0.349
        37  -7.4905    105.5828    213.7779   9.9731893374e+01   1.5199604441e+01    0.1833916    0.1316003 -79.87 0.0009426971    1.657    0.396
        38  -7.1287     98.7446    214.3117   1.0139822872e+02   1.6127355427e+01    0.1346702   0.09775464  68.64 0.0001896734    1.524    0.344
        39  -9.2019     74.9332    212.5535   1.0672434882e+02   1.9954527844e+01    0.4283731    0.3672487  -2.12  0.001816079    1.536    0.349
        40  -7.5383     54.6171    212.2457   1.1135609904e+02   2.2674616725e+01    0.1714738    0.1106607 -61.77 0.0005120644    1.599    0.374
        41  -8.2963    188.9972    210.2593   8.0468145695e+01   2.3744191265e+00    0.2075151    0.1897453 -69.90 0.0001947607    1.517    0.341
        42  -7.6247     95.5169    211.5184   1.0178563102e+02   1.7223078160e+01    0.1342105    0.1268146  45.06 -0.0002775544    1.079    0.074
        43  -9.7463    118.4917    208.0592   9.5877105743e+01   1.4393253996e+01    0.3982043    0.2437822 -48.66  0.001665072    1.761    0.432
        44  -7.3060     69.7038    209.2884   1.0757097283e+02   2.1399110789e+01    0.1375881   0.08995569  64.08   0.00037563    1.552    0.356
        45  -8.1363     63.0516    208.5401   1.0903925037e+02   2.2446382936e+01    0.2563976     0.171231  86.27  0.001322704    1.565    0.361
        46  -7.0322    103.4619    208.5157   9.9501020845e+01   1.6673039342e+01    0.1364909    0.1290907  41.63 0.0001009691    1.062    0.058
        47  -9.6061     47.0700    205.9322   1.1247124847e+02   2.5017815922e+01    0.3302617    0.2663887  66.35  0.001362103    1.088    0.081
        48  -7.7125    128.5482    206.5176   9.3271609480e+01   1.3080414002e+01    0.1405107    0.1305927  38.90 7.793086e-05    1.020    0.019
        49  -7.5052     73.6556    203.7489   1.0599222894e+02   2.2127063593e+01    0.1740421    0.1209835 -82.38 0.0001832852    1.501    0.334
        50  -8.2159    115.7137    203.0510   9.5774421964e+01   1.5932637417e+01    0.1899541    0.1778052 -61.39 0.0003893495    1.135    0.119
        51  -7.8727    193.6661    198.1275   7.7281575454e+01   3.8095400711e+00    0.3441278     0.188838 -58.81  0.001364514    3.113    0.679
        52  -6.9028    174.3217    199.2635   8.1596022888e+01   6.8209335338e+00    0.1412637    0.1033442   1.49            0    1.556    0.357
        53  -8.9082    109.0764    198.1759   9.6630073604e+01   1.8093621106e+01    0.2313787    0.2015995 -76.51 0.0002894401    1.219    0.180
        54  -9.4591     88.9120    197.4070   1.0146552496e+02   2.1405992609e+01    0.3704711    0.2730983  -4.48 0.0008931577    1.999    0.500
        55  -7.5958     97.7488    196.0193   9.9087584455e+01   2.0380705395e+01     0.191621    0.1759848 -89.12 0.0003179988    1.095    0.087
        56  -9.1315     56.7487    194.1355   1.0895512816e+02   2.6602253677e+01    0.2999315    0.2186515 -45.52  0.001034785    1.623    0.384
        57  -8.7220     17.9566    194.7246   1.1816668827e+02   3.0674928365e+01    0.1711801    0.1376297  71.87 0.0003902414    1.069    0.065
        58  -9.9233     66.8530    190.0004   1.0596317320e+02   2.6286543711e+01    0.3739333    0.2848429  15.76  0.001117891    1.626    0.385
        59  -8.6594     75.6911    187.7773   1.0344302492e+02   2.5608725033e+01    0.4340404    0.2429616 -42.13   0.00118733    2.247    0.555
        60  -9.7874     80.6474    187.5762   1.0215596995e+02   2.4948105922e+01    0.2965845    0.2658941  21.57 0.0003343172    1.249    0.199
        61  -9.1262     17.7281    190.0971   1.1786576215e+02   3.1775547462e+01    0.3311087    0.0923167  44.41  0.001339526    3.097    0.677
        62  -9.9072     49.8594    182.3097   1.0931496571e+02   3.0294030928e+01    0.4797325    0.3066536  51.23  0.001857884    1.529    0.346
        63  -8.4917     11.2072    183.0417   1.1884170761e+02   3.4008496037e+01    0.2641506    0.1843293 -54.55  0.001592053    1.564    0.361
        64  -7.9948     78.0621    182.2909   1.0206550129e+02   2.6600850309e+01    0.1940947    0.1688203  47.47 0.0003764608    1.128    0.114
        65 -10.0003     59.7150    178.8972   1.0636520435e+02   2.9923157113e+01    0.4636808    0.3428898 -46.87  0.001031004    1.496    0.332
        66  -9.7082     64.9995    173.4217   1.0423535559e+02   3.0595168849e+01    0.3095335    0.2548586 -37.49 0.0005748539    1.412    0.292
        67 -10.0870     38.0900    179.8535   1.1201655185e+02   3.2219699212e+01    0.7083855    0.3809332  15.30  0.003217564    2.633    0.620
        68  -8.8593     46.5896    171.0688   1.0881937861e+02   3.3452400976e+01    0.3617737    0.2444197  67.08  0.000987357    1.543    0.352
        69  -8.2879     43.1618    168.8748   1.0946077509e+02   3.4384878812e+01      0.18665    0.1758261 -32.55 0.0004034844    1.260    0.206
        70  -7.1729    109.6758    178.6676   9.3284431365e+01   2.2523128008e+01    0.1521448    0.1162428 -17.87 0.0007050657    1.706    0.414
        71  -7.7048     86.9393    178.2838   9.9147141393e+01   2.6266976885e+01    0.1924175    0.1815146  44.82 0.0003768158    1.082    0.076
        72  -7.5096     76.6408    176.6882   1.0161726030e+02   2.8179180253e+01    0.1946242    0.1311441 -75.71 0.0006392082    1.544    0.352
        73  -7.9099     15.0087    176.0000   1.1737522032e+02   3.5368387145e+01    0.1824691   0.07145432  24.59 0.0007985207    2.915    0.657
        74  -9.3312     17.7322    171.3207   1.1629640404e+02   3.6269190333e+01    0.4630111    0.2674661  76.82  0.002237874    1.721    0.419
        75 -10.2915     12.7255    162.4232   1.1676436624e+02   3.8856517003e+01    0.5920372    0.3191675  33.19  0.002764277    1.982    0.495
        76  -8.6676     24.7291    165.6835   1.1396490444e+02   3.7034837873e+01    0.2773134    0.2275312  49.16 0.0008134052    1.269    0.212
        77 -10.4801     21.1775    163.3327   1.1465522965e+02   3.7932994619e+01     0.768348    0.2569497  28.61  0.001086938    3.063    0.673
        78  -7.1897    117.3280    173.2929   9.0341376893e+01   2.2483858918e+01    0.1511471    0.1185649 -11.32 0.0005904812    1.625    0.385
        79  -7.5835     90.1439    173.3668   9.7509650994e+01   2.6979599065e+01     0.204115    0.1270405  46.00 0.0002553793    1.604    0.377
        80 -14.0245     20.4780    248.9763   1.2108110362e+02   1.8822553072e+01    0.5668397    0.4174438 -69.39  0.002236368    1.543    0.352
        81  -7.6669    137.7212    172.5514   8.5025721392e+01   1.8983457463e+01    0.2097733     0.140281  47.93 0.0006242284    1.556    0.357
        82  -7.7209     37.3839    169.8721   1.1110415586e+02   3.4756645120e+01    0.3662679    0.1232244 -74.10  0.001330812    2.965    0.663
        83  -7.2258     75.0090    170.2164   1.0107381971e+02   3.0019659503e+01    0.1776895    0.1163082  33.60 0.0003249769    1.572    0.364
        84  -9.1094      6.8325    170.0374   1.1888887612e+02   3.7461353302e+01    0.2241309    0.1617611  46.34  0.000338276    1.428    0.300
        85  -8.4253     10.9999    167.9881   1.1769031828e+02   3.7634494313e+01    0.1865747    0.1495931 -62.82 0.0003420263    1.246    0.198
        86  -7.1000    133.0351    168.2566   8.5349826021e+01   2.0833531700e+01    0.1853668     0.129763  36.05 0.0002964139    1.418    0.295
        87  -8.2697     99.5069    166.5516   9.3819152815e+01   2.7153811122e+01    0.2272452    0.1470884 -70.12  0.000742212    1.738    0.425
        88  -8.8270     88.8434    165.1146   9.6466939637e+01   2.9226163321e+01    0.4936565    0.2512935  60.70  0.001728727    3.019    0.669
        89  -9.2288     93.6506    163.6693   9.4894348789e+01   2.8822475008e+01    0.5218511    0.2288369  27.91  0.001855036    2.733    0.634
        90  -8.0631      3.5194    166.5065   1.1942810386e+02   3.8555401200e+01    0.1252355    0.1012413 -86.09 1.521679e-05    1.023    0.022
        91  -7.0274    124.5275    164.5491   8.6792402769e+01   2.3266445745e+01    0.1501639     0.148588  38.75 0.0001461527    1.006    0.006
        92  -7.5834    106.8192    163.7894   9.1335194740e+01   2.6597578489e+01    0.2064442    0.1729594  73.27 0.0003552925    1.328    0.247
        93  -8.9385     75.0064    163.7509   1.0005361381e+02   3.1642858578e+01     0.254607    0.2282625 -38.27 0.0003701385    1.221    0.181
        94  -7.8703     54.2994    163.1490   1.0569583662e+02   3.4536681128e+01    0.4495032    0.1674843  49.05  0.001603888    3.125    0.680
        95  -9.6774     60.5240    160.6773   1.0360861011e+02   3.4386796415e+01    0.4371411     0.351366  -1.82  0.001370448    1.597    0.374
        96  -8.0195     43.3212    163.6620   1.0877247893e+02   3.5675703051e+01    0.2803886     0.126112 -48.13 0.0008500613    2.418    0.586
        97  -7.6687    172.1572    159.1736   7.4061303800e+01   1.5373899332e+01    0.1891731     0.174915 -74.67  0.000271209    1.259    0.206
        98 -10.0772     82.6859    156.9312   9.6745164855e+01   3.2230351585e+01    0.5603042     0.394583 -22.55   0.00182836    1.945    0.486
        99  -8.3894     80.4254    151.7691   9.6461427424e+01   3.3878993504e+01    0.2866985    0.2074147 -33.88 0.0009667201    1.610    0.379
       100  -8.4648     34.1083    157.9170   1.1058204480e+02   3.8085586188e+01    0.3501131    0.2465996  59.13  0.001734755    1.467    0.318
       101  -9.3774    175.3845    172.3259   7.6116952547e+01   1.2019752748e+01    0.2907388     0.271076 -25.44 0.0007661159    1.055    0.052
       102  -6.8942    121.6900    157.3191   8.6072056530e+01   2.5509254725e+01    0.1568689     0.121907  77.35 0.0003126399    1.642    0.391
       103  -8.2347     51.7193    156.9042   1.0552984137e+02   3.6430862570e+01    0.2104602    0.1889352 -34.31 0.0004186335    1.262    0.208
       104  -9.7128     23.3372    170.6158   1.1481515825e+02   3.5945559998e+01     0.571172    0.3581685 -15.16  0.002801597    2.614    0.617
       105  -9.0725      8.8433    154.9748   1.1709742628e+02   4.0978767450e+01    0.1915757    0.1660515  71.04 0.0002538383    1.156    0.135
       106  -8.1932    128.4005    153.7823   8.3558761394e+01   2.5093172771e+01    0.2385275    0.2061484  55.72 0.0008671171    1.223    0.183
       107  -7.6113    111.0706    149.3578   8.7292014174e+01   2.9379520633e+01     0.206454    0.1961002  55.69 0.0003287204    1.072    0.067
       108  -8.2984     88.7936    146.9323   9.3121556916e+01   3.3798701910e+01    0.2333063    0.1976489 -33.07 0.0004831144    1.274    0.215
       109  -7.5303    180.9876    145.4883   6.9088546360e+01   1.6496001764e+01    0.2059547    0.1494352  43.23 0.0003612512    1.440    0.306
       110  -7.6732    118.5735    145.1117   8.4313784240e+01   2.9025975474e+01    0.2288275    0.1511085 -53.21 0.0002524345    1.510    0.338
       111  -9.6823     85.0991    142.1718   9.3259887366e+01   3.5588317273e+01     0.463167    0.3533476 -67.03  0.001510234    1.323    0.244
       112  -8.9467     83.0191    138.0043   9.3037896748e+01   3.6967565424e+01    0.3159174    0.2235348  73.70  0.001401664    1.869    0.465
       113  -7.1891     30.6501    145.3495   1.0998135888e+02   4.1595642315e+01    0.1463275    0.0913653  67.31 0.0007038041    1.824    0.452
       114  -9.2464    244.4625    144.4984   5.7171265663e+01   4.9975495466e+00    0.1734427    0.1317091  59.98  2.16676e-05    1.768    0.434
       115 -11.0156     68.7533    145.7908   9.8798099128e+01   3.7089236904e+01    0.9363937    0.6411293 -84.12  0.003991158    1.687    0.407
       116  -9.0340     98.1999    142.6049   8.9512262725e+01   3.3318433969e+01    0.5022842    0.2998544 -29.56  0.001786762    2.344    0.573
       117  -7.8746     17.0836    142.1432   1.1350737249e+02   4.3552197689e+01    0.1917652    0.1600814 -44.36  0.001020942    1.289    0.224
       118  -6.9403     33.2762    138.6433   1.0829373537e+02   4.3052441695e+01    0.1405571   0.09560177  74.70 0.0005793953    1.653    0.395
       119  -9.6692     12.3512    137.3082   1.1432561850e+02   4.5107766684e+01    0.3761273     0.269248 -44.29  0.001525964    1.454    0.312
       120  -7.9786      5.8296    137.6433   1.1624212192e+02   4.5459941101e+01    0.1595711    0.1103937  39.29 0.0005107519    1.623    0.384
       121  -8.2430     62.1349    135.9309   9.9013273940e+01   4.0499618614e+01    0.2243418    0.1917399  83.68  0.000453608    1.247    0.198
       122  -7.1724    164.6663    135.2906   7.0357705990e+01   2.1987535424e+01    0.1535223    0.1242646  88.79 0.0007021143    1.632    0.387
       123  -7.8630     86.9258    134.4632   9.1119935218e+01   3.7236420652e+01    0.2141975    0.1523567  28.51  0.000419664    1.515    0.340
       124  -8.6688     28.8373    133.9160   1.0897023784e+02   4.4657665156e+01    0.2127119    0.1898984  45.46 0.0004020187    1.248    0.199
       125  -7.8186    108.7125    131.9980   8.4121670873e+01   3.4046955944e+01    0.2232557    0.2008992 -47.90 0.0005208257    1.086    0.079
       126  -7.1431     20.3144    132.6723   1.1139732166e+02   4.5679451877e+01     0.136063   0.09097605  69.63 0.0007043905    1.672    0.402
       127  -9.0440      9.9931    131.9223   1.1440629914e+02   4.6608569678e+01    0.2401893    0.1677701  89.42  0.001379448    1.352    0.260
       128  -8.4895     14.6698    152.1713   1.1526460683e+02   4.1235958877e+01    0.3047841    0.2034562 -27.59  0.001656179    1.981    0.495
       129  -8.5752    245.5936    130.2508   5.4063524395e+01   7.2404261095e+00     0.189646    0.1101928 -31.79 0.0007233053    1.597    0.374
       130  -7.4027     15.4974    128.9936   1.1239174466e+02   4.6960571127e+01     0.201114   0.06976674 -51.41 0.0008100359    2.499    0.600
       131  -8.2228     66.0902    125.0575   9.5639783768e+01   4.2729605383e+01    0.2134503    0.2022098 -64.81 0.0003881381    1.038    0.036
       132  -8.3665      1.5684    125.2652   1.1618392887e+02   4.8760460145e+01    0.1849924   0.09132867 -63.11 0.0009407753    1.589    0.371
       133  -7.8895     11.9998    124.5373   1.1290505982e+02   4.8310852341e+01    0.1714559   0.09150784 -30.14 0.0004978754    2.342    0.573
       134  -7.4318    104.4007    120.7747   8.2701063771e+01   3.7552190252e+01    0.2112795    0.1417144 -40.37  0.000669216    1.511    0.338
       135  -7.8822     64.0886    120.6329   9.5362888236e+01   4.4113731097e+01    0.1926758    0.1812578  19.91   0.00041385    1.143    0.125
       136  -8.2799    109.0090    119.5284   8.1027945581e+01   3.6978361235e+01    0.2172436    0.2044049 -39.68 0.0001242585    1.038    0.037
       137  -7.7566      5.8005    119.7738   1.1424928134e+02   4.9871495450e+01    0.1696156    0.1291744  85.58 0.0003609377    1.303    0.233
       138  -7.5913     73.3235    112.6960   9.0536510481e+01   4.4761717920e+01    0.1479454    0.1161396  73.64 0.0003499969    1.639    0.390
       139  -7.5068    126.6186    110.8439   7.3775469141e+01   3.5429863848e+01    0.2178786    0.1467236 -55.98 0.0005010076    1.613    0.380
       140  -8.7046     59.5373    110.3946   9.4651885197e+01   4.7258057774e+01    0.2435036    0.2170175 -49.53 0.0005012311    1.028    0.027
       141  -7.7251     50.7523    110.5622   9.7707985825e+01   4.8303714268e+01    0.1756331    0.1336847  40.75 0.0003172758    1.461    0.315
       142  -7.4596      1.3363    108.6612   1.1429766178e+02   5.2821659832e+01    0.1277358   0.08510522  68.20 0.0007051303    1.754    0.430
       143  -9.4831    249.4431    105.8838   4.8463339939e+01   1.0650576937e+01    0.4357388     0.170129 -47.65  0.001841815    2.328    0.571
       144  -7.7512     46.6641    106.7127   9.8312218183e+01   4.9717814756e+01     0.146092   0.09763421 -29.94 0.0007017458    1.630    0.387
       145  -7.6838     10.3258    100.9413   1.1012524197e+02   5.4202022754e+01    0.1817552    0.1361863 -63.26 0.0004754378    1.100    0.091
       146  -7.4833    186.4789     99.5005   5.6966741441e+01   2.4482071932e+01     0.146512    0.1403872 -42.50  0.000215519    1.048    0.045
       147  -7.8776     35.3805     97.7225   1.0045455434e+02   5.3064192293e+01    0.2108445    0.1571825  71.93  0.001108407    1.778    0.438
       148  -8.2325     99.9722     96.7548   7.7711970277e+01   4.3929801758e+01     0.239239    0.2086156 -44.83 0.0002849174    1.135    0.119
       149  -7.2505     68.3284     96.6507   8.8242520251e+01   4.9332404929e+01    0.1465343    0.1155775  77.80  0.000704886    1.762    0.432
       150  -8.0189     90.8866     93.1805   7.9600839144e+01   4.6410024905e+01    0.2106474    0.2022874 -89.34  0.000371396    1.184    0.156
       151  -9.5873     42.6447     92.5245   9.6582264800e+01   5.3567383221e+01    0.2439893    0.2186395 -46.93 0.0002655271    1.050    0.048
       152  -7.2733     75.5403     88.5037   8.3464649810e+01   5.0072680066e+01    0.1457765    0.1360009 -24.55 7.200067e-05    1.017    0.017
       153  -7.5057     55.8791     84.8084   8.9603095900e+01   5.3771139809e+01    0.1765789     0.164785 -83.02 0.0003522946    1.291    0.225
       154  -7.7064     38.4924     82.8838   9.5821426342e+01   5.6233763352e+01    0.1893474    0.1683102  -4.30 0.0004677206    1.159    0.137
       155  -7.2221    156.6951     82.3256   5.8482156988e+01   3.4479496943e+01    0.1540205    0.1165523 -75.75 0.0004884629    1.645    0.392
       156  -7.7249    102.1188     77.0749   7.1171368454e+01   4.7615935127e+01     0.212661    0.1859487  -0.48  0.001124188    1.188    0.158
       157  -7.9651     17.7971     73.8241   1.0202704034e+02   6.0056058001e+01    0.1561182    0.1430227 -81.11 0.0003200856    1.303    0.233
       158  -7.8489     13.6529     70.3091   1.0295809375e+02   6.1112794707e+01    0.1174056   0.09443387  65.19 0.0007044503    1.706    0.414
       159  -7.4677     22.7073     69.7170   9.8949951599e+01   6.0599658343e+01    0.1327805   0.07996922 -32.29 0.0001731059    1.535    0.349
       160  -8.7282      6.8536     68.5068   1.0545487665e+02   6.1905810519e+01    0.2234641    0.1735382 -56.17 0.0002894757    1.125    0.111
       161  -8.3587     15.4403     59.7783   9.9547471510e+01   6.3267591533e+01    0.1946691   0.08598274 -47.11 0.0009562488    1.767    0.434
       162  -9.6617    203.4818     54.5358   4.3110285090e+01   2.8120828276e+01    0.2643569    0.1701908  89.15  0.001099817    1.753    0.430
       163  -7.5295     46.5792     53.8262   8.3760746908e+01   6.1400455334e+01    0.1724375    0.1219618 -55.14 0.0009299603    1.681    0.405
       164  -7.1072    122.4969     49.5425   5.6504815764e+01   4.7921149607e+01    0.1428982    0.1308971  38.41 9.545245e-05    1.038    0.036
       165 -10.3082    218.5709     29.4449   3.5605865465e+01   2.8143794303e+01    0.4381528      0.30321  45.39  0.001084889    1.942    0.485
       166 -11.2686    202.8953     42.3855   4.0281404215e+01   2.9945720119e+01    0.7932671    0.5187158 -89.16  0.004170601    1.597    0.374
       167  -7.4619    234.4357    246.5762   7.7878946828e+01  -9.5853963233e+00    0.1180305   0.08824821   0.69 3.738607e-05    1.016    0.016
       168  -7.3394     60.7909     40.0190   7.2651240448e+01   6.1736465590e+01    0.1648508   0.09944937 -35.47 0.0002394733    1.644    0.392
       169  -7.6953     22.7084     31.3217   8.6623119297e+01   6.8126492723e+01    0.1000016   0.09806693  67.34 0.0002241905    1.609    0.378
       170  -8.9043     90.9724    242.0350   1.0640659971e+02   1.1542829462e+01    0.3805725    0.1826494  19.81  0.001482936    3.509    0.715
       171  -7.1355     43.6897     22.6357   7.2617500183e+01   6.6927092716e+01      0.13212   0.08207876  -0.47 0.0004040906    1.753    0.430
       172  -7.3663    189.3940     17.8880   3.5943204127e+01   3.6011455952e+01    0.1531457    0.1235603 -11.70  0.000506509    1.672    0.402
       173  -9.4947     96.9555    239.2793   1.0482867594e+02   1.1233834469e+01    0.2643386    0.2156208  -2.34  0.001581093    1.638    0.390
       174  -8.7404     63.3559    236.7789   1.1173342456e+02   1.6305460301e+01    0.3998101    0.1921025 -63.12  0.001332537    2.193    0.544
