#   1 NUMBER                 Running object number                                     
#   2 MAG_AUTO               Kron-like elliptical aperture magnitude                    [mag]
#   3 X_IMAGE                Object position along x                                    [pixel]
#   4 Y_IMAGE                Object position along y                                    [pixel]
#   5 X_WORLD                Barycenter position along world x axis                     [deg]
#   6 Y_WORLD                Barycenter position along world y axis                     [deg]
#   7 A_WORLD                Profile RMS along major axis (world units)                 [deg]
#   8 B_WORLD                Profile RMS along minor axis (world units)                 [deg]
#   9 THETA_WORLD            Position angle (CCW/world-x)                               [deg]
#  10 FWHM_WORLD             FWHM assuming a gaussian core                              [deg]
#  11 ELONGATION             A_IMAGE/B_IMAGE                                           
#  12 ELLIPTICITY            1 - B_IMAGE/A_IMAGE                                       
         1 -11.5709     79.8973     23.5018   9.1558532591e+01   5.9721406321e+01    0.7319722    0.2519985  37.90  0.003002327    2.881    0.653
         2  -9.2016     27.2978     23.0141   1.1081413122e+02   6.6977458264e+01    0.5870861     0.234852 -22.74  0.002505342    3.582    0.721
         3  -8.2657    144.8555     23.3407   7.5407339209e+01   4.6067342078e+01    0.1950809    0.1807597 -46.32 0.0003171482    1.209    0.173
         4  -9.3460     64.0343     14.5194   9.3167565573e+01   6.3393357307e+01    0.4807542     0.250998  11.32  0.002304202    2.592    0.614
         5  -9.6441    128.5231     15.7399   7.6214727344e+01   5.0663872502e+01    0.4461741    0.2846875  15.31  0.001721271    1.960    0.490
         6  -9.6895    134.3605     13.2157   7.4222164476e+01   4.9573821715e+01     0.437301    0.2221012  33.88  0.001974661    2.277    0.561
         7  -9.3246     79.3140     12.9523   8.7593999094e+01   6.1004408861e+01    0.3617938    0.2190157  48.15  0.001290249    1.614    0.381
         8  -9.1693     74.4760     13.5253   8.9322397240e+01   6.1788618177e+01    0.3785083    0.2236081   2.15  0.001758857    1.927    0.481
         9  -8.4928     96.3277     13.8655   8.3112032639e+01   5.7715714552e+01    0.3382537    0.1790598  12.05  0.001523489    2.676    0.626
        10  -9.6752     46.6290      6.4845   9.6043704651e+01   6.6830826252e+01    0.2638256    0.1746256  23.70  0.000100966    1.314    0.239
        11  -9.1245     41.1066      5.6866   9.7844192865e+01   6.7649855580e+01    0.8004388    0.2940818 -16.86  0.002851987    5.359    0.813
        12  -9.0060    233.1165     11.5371   6.0461703747e+01   2.6059451516e+01    0.3083821    0.2043272 -29.76  0.001625863    1.804    0.446
        13  -9.2816     31.3971     11.2416   1.0426859252e+02   6.8153375347e+01    0.3128208    0.1741345   8.89 0.0004872294    1.883    0.469
        14  -8.5634    112.9829     11.2416   7.8050534531e+01   5.4531638111e+01    0.1880866    0.1243167  19.83   0.00074082    1.640    0.390
        15  -8.6144    108.1431     10.7709   7.9007024985e+01   5.5603516032e+01    0.2720751    0.1827369 -75.39  0.001221837    2.792    0.642
        16  -7.9508    134.2286      3.0123   7.0971661739e+01   5.0517201360e+01    0.1701179    0.1496145  48.90 0.0002985862    1.051    0.049
        17  -8.7639    125.2071     10.1718   7.5043209797e+01   5.1944750787e+01    0.1932577    0.1689094  47.19 0.0003853829    1.027    0.026
        18  -9.5443    129.3293      6.8664   7.3129852314e+01   5.1309370368e+01    0.4369771    0.2062628  42.52  0.002064464    1.970    0.492
        19  -9.0338     76.0999      5.3392   8.5488004485e+01   6.2319675883e+01    0.3331384    0.2211526 -14.44  0.001076651    1.501    0.334
        20  -8.3468     71.4540      8.7365   8.8324692117e+01   6.2796607361e+01    0.2131058    0.1333998  14.48 0.0005143712    1.574    0.365
        21  -8.1526     66.7409      9.4124   9.0134263303e+01   6.3510902127e+01    0.3965966    0.1160001  44.49  0.001694063    3.022    0.669
        22  -7.8695    155.8467      7.6745   6.8778032700e+01   4.5018310531e+01     0.173456    0.1607388  27.31 0.0005255971    1.207    0.171
        23  -9.2022    119.1884      6.9051   7.5183110620e+01   5.3574495569e+01    0.2370166     0.175346  35.43 0.0002523143    1.234    0.190
        24  -7.6236     26.2099      8.5789   1.0534040456e+02   6.9043865805e+01    0.1422221   0.08528809  12.24 0.0002332713    1.556    0.357
        25 -10.2021      7.7748      5.4204   1.1238857471e+02   7.1126608985e+01    0.4896543    0.2008453   9.59  0.001887714    3.197    0.687
        26  -8.4798     32.0938      6.0619   1.0170542755e+02   6.8704587448e+01    0.1628809     0.122197  -4.35 0.0003950829    1.027    0.026
        27  -7.9152     91.6161      4.9014   8.0941320485e+01   5.9478192632e+01    0.2171699    0.1350057  40.22 0.0005650306    1.346    0.257
        28  -8.9274    110.6611      3.2468   7.5738548918e+01   5.5730617739e+01    0.2960131    0.1997519 -33.80  0.001738242    1.738    0.425
        29  -8.4999     56.5695      3.0756   9.0891775216e+01   6.5747589752e+01    0.2581021     0.127786  29.49  0.001181934    1.852    0.460
        30  -8.4733    100.8966      6.0743   7.9032818774e+01   5.7527482742e+01    0.2837708    0.1556389  23.54  0.001436041    2.034    0.508
        31  -7.1704    159.2331      1.9801   6.6629286992e+01   4.4713053480e+01    0.1482526    0.1100082 -24.58 0.0004501581    1.591    0.372
        32  -8.2268    143.0814      2.0525   6.9147729442e+01   4.8541257307e+01    0.1875788    0.1618817  61.63 0.0003552815    1.031    0.030
        33  -8.1238    105.4808      1.4997   7.6269139427e+01   5.6964685050e+01    0.2219328   0.08456042  48.49 0.0006822056    2.067    0.516
        34  -7.9006      2.9835      1.4291   1.1298038536e+02   7.2012663749e+01     0.137723   0.08289567  10.47 0.0004773417    1.567    0.362
        35  -7.4898    140.5018     99.5123   9.9272012480e+01   3.4835283424e+01    0.1538033    0.1502704   3.26 0.0005263995    1.057    0.053
        36 -10.1129    217.4440    250.0756   1.1421368205e+02  -9.3713737361e+00    0.4352097    0.1989018  46.83  0.002119906    2.233    0.552
        37  -9.8279    241.1623     96.3082   7.8559637744e+01   1.1764444521e+01    0.2946146    0.2894992  15.94  0.001769569    1.175    0.149
        38  -7.3550    129.2968     97.3511   1.0153676473e+02   3.7742818236e+01    0.1562773    0.1214832  -3.51 0.0003723735    1.686    0.407
        39  -9.1532     22.0150     90.4773   1.3184302933e+02   5.4942585636e+01    0.3685773    0.1187397 -36.19  0.001271957    4.807    0.792
        40  -9.3866     15.9908     95.0124   1.3453913322e+02   5.4403585523e+01    0.3096853    0.2412197  21.32  0.001463849    1.607    0.378
        41  -9.6079     12.1977     94.0637   1.3551195446e+02   5.4861267478e+01    0.3761539    0.1567996 -41.89  0.001507313    2.290    0.563
        42  -7.0592    203.2403     94.2938   8.4344714806e+01   2.0880843819e+01     0.140135    0.1200199   3.13 0.0006830351    1.471    0.320
        43  -8.3928     43.6694     92.0421   1.2538594268e+02   5.2681797442e+01    0.2314027    0.1586525 -26.94 0.0009548879    1.605    0.377
        44  -7.7996    109.0166     91.3286   1.0535371971e+02   4.3132536497e+01    0.2429797    0.1184378  23.80 0.0007050443    4.422    0.774
        45  -8.3840     96.8400     90.2249   1.0854379217e+02   4.5620287672e+01      0.40466    0.2236701  21.54  0.001551098    2.824    0.646
        46  -8.0660     65.8416     84.7492   1.1653786850e+02   5.1604783802e+01    0.2359397    0.1319842 -20.24 0.0009610332    2.861    0.650
        47  -8.7782     33.6984     83.6620   1.2666937258e+02   5.5425275977e+01    0.1999896    0.1590778 -26.76 0.0007589804    1.259    0.206
        48  -9.9003     38.6221     80.3533   1.2427216205e+02   5.5656895174e+01    0.4994177    0.2686638   4.09  0.001076802    2.850    0.649
        49  -8.1403     20.5504     84.4580   1.3109456514e+02   5.6327622022e+01    0.1213186   0.09327624 -49.59 2.028895e-05    1.040    0.039
        50  -7.4103    126.5115     83.5088   9.8325946620e+01   4.1111087084e+01    0.1500559    0.1428529   4.26 8.730738e-05    1.059    0.056
        51  -8.7020     87.7118     79.1033   1.0809032928e+02   4.9448046053e+01    0.3638809    0.2219542  22.06  0.001222724    2.070    0.517
        52  -9.8775      8.0903     77.2230   1.3366700208e+02   5.8646327437e+01     0.579696    0.2606126 -32.05  0.002454363    2.447    0.591
        53  -7.4522    184.4687     78.0080   8.3609583626e+01   2.8398832619e+01    0.2140574    0.1496058 -37.68 0.0003730519    1.463    0.316
        54  -8.5939     50.1671     76.8475   1.1953670819e+02   5.5167194530e+01    0.3735375     0.177936  18.43  0.001659791    2.899    0.655
        55  -9.0858     32.0927     63.0675   1.2205918744e+02   5.9717307500e+01    0.5793151    0.1599255 -51.34  0.002403194    2.801    0.643
        56  -9.2465     36.6546     59.6432   1.1945115728e+02   5.9942940875e+01    0.3367305    0.1805683  -8.03  0.001599728    2.795    0.642
        57  -8.6308     28.4864     69.4959   1.2502239749e+02   5.8772425912e+01    0.2838856    0.1327409 -30.32  0.001173904    2.442    0.591
        58  -9.3971     23.8973     73.4769   1.2757126990e+02   5.8343012338e+01    0.4383015      0.14502 -46.10  0.002005769    2.339    0.573
        59  -8.4279     23.4459     69.4837   1.2677146061e+02   5.9179636787e+01    0.2110468    0.1610779 -54.42 5.800051e-05    1.165    0.141
        60  -7.5567    149.6146     74.7253   9.0030791947e+01   3.7491155974e+01    0.1969972    0.1419334 -46.57 0.0003458886    1.445    0.308
        61  -7.2751    120.6484     75.7156   9.7565424898e+01   4.3835502405e+01    0.1512363    0.1132759  12.44  0.000402547    1.659    0.397
        62  -7.9374    106.0361     76.0000   1.0171454962e+02   4.6739306183e+01    0.2364182   0.08105962  44.26 0.0006294246    2.967    0.663
        63  -7.9526     74.9092     74.2935   1.1068556214e+02   5.2424173116e+01    0.1823485    0.1617649  11.19 0.0005669138    1.154    0.133
        64  -7.5184    129.0760     69.2935   9.3396573111e+01   4.3169017429e+01    0.2499912    0.1003429  33.97 0.0007027055    4.289    0.767
        65  -8.0577    105.8889     67.6668   9.9178040244e+01   4.8299618052e+01    0.2336812    0.1725132  21.36  0.001140733    1.499    0.333
        66  -9.0162     83.7251     64.2381   1.0477372755e+02   5.2920042154e+01    0.4923105    0.2941611  -6.93  0.002041808    2.776    0.640
        67  -8.7451     16.3368     64.3153   1.2801102994e+02   6.0715221060e+01     0.249147    0.1184108 -43.23 0.0009927914    1.654    0.396
        68  -8.9809     18.8372     61.3731   1.2638251848e+02   6.1111444968e+01    0.2343435    0.1591068 -24.99 0.0009782612    1.408    0.290
        69  -8.0340    122.3192     61.8367   9.2820548022e+01   4.5920521061e+01    0.4426177    0.2478613  14.67  0.001429124    4.066    0.754
        70  -8.7728     26.0631     60.3439   1.2349243943e+02   6.0754800744e+01    0.2770435    0.1558706 -38.90  0.001244865    1.462    0.316
        71  -9.1934    242.7752     59.9940   7.0074459356e+01   1.7335964885e+01    0.2283951    0.1891531  77.38 0.0006965313    1.200    0.166
        72  -8.3649     96.1563     59.6744   9.9462316988e+01   5.1540827084e+01    0.3040866    0.1555613 -18.58   0.00109409    3.334    0.700
        73  -8.0268    111.1860     58.4918   9.4742909081e+01   4.8814125131e+01    0.3049656    0.1805471  16.97  0.001203438    2.669    0.625
        74  -9.7694     62.8456     61.3028   1.1071275478e+02   5.6597428500e+01    0.6692869    0.2978309  23.13  0.002751585    3.119    0.679
        75  -9.0242    247.2819     55.6685   6.8572127593e+01   1.6980367929e+01    0.2447066    0.1905825  25.12  0.000827963    2.012    0.503
        76  -7.7564     99.1868     55.8356   9.7294229919e+01   5.1614269959e+01    0.1931547    0.1538487   6.17 0.0005625298    1.313    0.238
        77 -10.1439     74.9514     50.3603   1.0301727367e+02   5.6721343945e+01    0.4111303    0.2732113  -8.95 0.0003569695    1.734    0.423
        78  -8.2437    118.3424     51.0963   9.0396040340e+01   4.8486767498e+01    0.2340694    0.1752511  37.89 0.0004360417    1.277    0.217
        79  -8.8936     45.2724     49.1674   1.1305135735e+02   6.0932466903e+01    0.3682796    0.2064395 -21.84  0.001727733    1.960    0.490
        80  -7.9892    107.0517     48.5765   9.2602453281e+01   5.1216170471e+01    0.3239751    0.1488864  35.20  0.001295016    2.462    0.594
        81  -7.6272     91.2457     49.2911   9.7459710825e+01   5.4133822028e+01     0.165626    0.1566446 -50.90  0.000824799    1.304    0.233
        82  -9.1016      3.0302     42.1622   1.2727477098e+02   6.5664000165e+01    0.6520129   0.06483548 -50.93  0.002538772    3.855    0.741
        83  -9.7875      6.8229     33.6577   1.2321960174e+02   6.6917290805e+01    0.5372919     0.363261  44.15  0.003563643    2.450    0.592
        84  -9.2691      1.9047     28.5347   1.2368513154e+02   6.8061642288e+01     0.443616    0.1410738 -53.01  0.002251081    2.590    0.614
        85  -9.7662     10.5874     47.2370   1.2570917754e+02   6.4309261986e+01     0.720176    0.3117152 -22.65  0.002719225    2.852    0.649
        86  -8.5394      6.8541     47.6511   1.2726948376e+02   6.4460651382e+01    0.2086722    0.1345372  24.34 0.0009351078    1.902    0.474
        87  -8.7343     55.9907     35.0965   1.0415225399e+02   6.1873598841e+01    0.2739438     0.186981 -25.21  0.001017561    1.296    0.229
        88  -9.2979     62.0092     37.6881   1.0294673925e+02   6.0649980653e+01    0.3712751    0.2885727  66.54  0.002099246    2.395    0.582
        89  -9.8348     68.6307     36.8064   1.0031496029e+02   5.9799674674e+01    0.4660143    0.2852311  16.75  0.002484455    1.819    0.450
        90  -8.3756     55.4989     44.6888   1.0778915017e+02   6.0443041791e+01     0.440122    0.2080821 -22.31   0.00186941    2.937    0.660
        91  -8.1866     58.9442     40.4906   1.0505949537e+02   6.0651153522e+01    0.2084028     0.142458  20.58  0.000715332    1.455    0.313
        92  -8.3319     81.3117     44.2668   9.8813396745e+01   5.6646586418e+01    0.2048832    0.1822877  -0.03 0.0004138008    1.044    0.042
        93 -10.4979     83.2223     40.0432   9.6693939198e+01   5.6948071934e+01    0.2549252     0.214273  12.86 0.0002171844    1.070    0.065
        94  -8.7541     87.5257     37.9862   9.4608688249e+01   5.6482929586e+01    0.2424608    0.2115208  -0.99 0.0006535558    1.045    0.043
        95  -7.8520    114.0016     41.5069   8.8328057157e+01   5.0804034764e+01     0.201267    0.1006234  31.98 0.0006409454    2.432    0.589
        96  -8.7556     92.5333     38.0536   9.3117748952e+01   5.5557330537e+01    0.3999364    0.2335285 -37.65  0.001281473    1.799    0.444
        97  -7.6047    124.3588     39.7261   8.5123870258e+01   4.8801842392e+01    0.1862229    0.1285433 -12.83 0.0003319758    1.684    0.406
        98  -9.7960     37.3518     36.2321   1.1164091809e+02   6.3944290606e+01    0.4244035    0.2361311  -1.71  0.001958257    2.300    0.565
        99 -10.0762    138.7963     35.8093   8.0557190564e+01   4.6016280569e+01    0.2510751    0.2432362  34.33 0.0003815687    1.066    0.062
       100  -8.1548    105.6651     36.8026   8.8930023580e+01   5.3170252243e+01    0.2708237    0.1557122  30.27  0.001277102    1.884    0.469
       101  -9.6082     22.9931     35.5323   1.1714509469e+02   6.5423812002e+01    0.4716077    0.1964716  19.54  0.002465577    2.754    0.637
       102  -8.8719     21.9169     32.1609   1.1642860302e+02   6.6062401238e+01    0.2463888    0.1951292  32.92  0.001118425    1.705    0.413
       103  -7.7039    132.9357     32.7766   8.0859064515e+01   4.7757009937e+01    0.1890428    0.1639955  45.44 0.0004179101    1.042    0.040
       104  -9.3568     41.9758     27.4542   1.0656241067e+02   6.4760723181e+01    0.2920041    0.1490102 -38.69  0.001098378    1.802    0.445
       105  -7.0902    144.2734     27.6860   7.6872273167e+01   4.5713113797e+01    0.1315404    0.1032038 -70.73 0.0001737083    1.558    0.358
       106  -9.9878    198.3280    248.8161   1.1753458506e+02  -6.0885871299e+00    0.4257313    0.1523169  49.34  0.001671508    3.188    0.686
       107  -9.2507    159.5682    249.7391   1.2493605765e+02   3.5870667481e-01    0.3559742   0.08348171  46.06  0.001115505    3.647    0.726
       108  -7.6057    118.0697     24.7511   8.1574794391e+01   5.2037174117e+01    0.2300761     0.124152  33.65  0.001061145    1.979    0.495
       109  -8.1440    102.3136     25.3221   8.5744058481e+01   5.5281734437e+01    0.1373858   0.08900733  21.60 0.0002941625    1.657    0.396
       110  -8.8047    177.3713    248.8332   1.2145781832e+02  -2.5522586249e+00    0.1635214    0.1165106 -28.21 0.0009578259    1.799    0.444
       111  -8.2240    128.9923     22.5035   7.8352747543e+01   4.9852578551e+01    0.2039167    0.1181144  55.42 0.0005381467    1.526    0.345
       112  -8.6176     92.3469     21.3226   8.7012691481e+01   5.7697081935e+01    0.2699484    0.1591992  21.47  0.001372157    1.885    0.470
       113  -9.0068     46.1399     20.4390   1.0215345999e+02   6.5218644747e+01    0.3260071    0.1615852 -32.87  0.001137682    1.837    0.456
       114  -8.2574    140.3650     20.0882   7.5252160578e+01   4.7480590956e+01    0.2171783    0.1583855  48.86 0.0003345801    1.216    0.177
       115  -8.3349      9.5121     19.7675   1.1730876944e+02   6.8959178940e+01    0.2182564    0.1310468  -9.89 0.0009597407    1.553    0.356
       116  -7.8874     63.4980     22.9038   9.6754178269e+01   6.2474817210e+01    0.1766434    0.1072297 -28.12  0.001024174    1.565    0.361
       117  -8.9160     61.8965     26.9298   9.8905956908e+01   6.2191814676e+01    0.2638101    0.1454818  26.09 0.0004825506    1.830    0.453
       118  -8.0362      5.5260     18.7540   1.1872824940e+02   6.9387689248e+01    0.1322149   0.08648276 -47.27 0.0002607174    1.526    0.345
       119  -8.4613    163.3056    243.6457   1.2337679648e+02   6.8453257878e-01    0.1275151   0.09242212  70.15 0.0007041278    1.715    0.417
       120  -7.8886    171.6662    242.2971   1.2158263145e+02  -5.5768769991e-01    0.1270795   0.09176699  64.39 0.0007030033    1.646    0.393
       121  -7.4027    117.5708    242.4818   1.3193330054e+02   8.7185887046e+00    0.1273815    0.1023853  61.42 5.151691e-05    1.027    0.026
       122  -7.2303    123.2637    237.3155   1.3021768261e+02   8.6994970302e+00    0.1110705    0.1004943   6.96 0.0001761893    1.544    0.353
       123  -9.2386    188.3749    234.2962   1.1713960201e+02  -2.2261209633e+00    0.2285038    0.2024205 -79.17  0.001250575    1.499    0.333
       124  -8.5772     27.9856    230.6444   1.4697833484e+02   2.3709323186e+01     0.193763    0.1258851  88.16 0.0005325575    1.208    0.172
       125 -10.1162    173.2605    204.9482   1.1520529167e+02   5.5964632306e+00    0.2424771    0.2299521  69.68 0.0002998738    1.125    0.111
       126  -9.0339     67.1242    144.4600   1.2904573400e+02   3.7884139469e+01    0.4308165    0.2738103  69.86  0.002082823    1.946    0.486
       127  -9.5186    231.1826    134.8074   8.9025954974e+01   7.0092493926e+00    0.2980342    0.2734665 -47.85 0.0004053969    1.074    0.069
       128  -8.1871      5.0308    133.5879   1.4302089549e+02   4.6648277142e+01    0.1427908    0.1145204  30.96  0.001022876    1.611    0.379
       129  -7.6684     40.7722    129.2312   1.3336636917e+02   4.4600345375e+01    0.1740016    0.1095603   8.31 0.0008824484    2.462    0.594
       130  -7.5972    132.6376    124.7005   1.0780022181e+02   3.1110979127e+01    0.1577916    0.1252011   1.37  0.000703476    1.720    0.419
       131  -7.1767     85.3679    121.2739   1.1962068720e+02   4.0670386101e+01    0.1418116     0.110221 -16.94  0.000315504    1.673    0.402
       132  -8.2851     12.0009    121.5166   1.3978419922e+02   4.8850960590e+01    0.1504389   0.08552834 -29.91 0.0008086764    2.430    0.589
       133  -7.2024    180.6797    120.7007   9.5511728709e+01   2.1130749867e+01    0.1571851    0.1260755  10.02 0.0003835272    1.622    0.383
       134  -7.3003     99.7880    119.3887   1.1520521326e+02   3.8697453354e+01    0.2002844    0.1429034  26.97 0.0009460513    1.661    0.398
       135  -7.2838    235.6770    118.3055   8.4484233470e+01   9.0632211100e+00    0.1473597    0.1101071 -71.39 0.0007032838    1.641    0.391
       136  -7.6549    120.0527    118.4679   1.0952043715e+02   3.5092350470e+01    0.2180432    0.1367967  18.13 0.0008094011    2.653    0.623
       137  -9.1389    249.1318    116.1193   8.1832981599e+01   6.6289831197e+00    0.2252507    0.2058447 -39.33 0.0002936365    1.037    0.035
       138  -7.1792    159.2872    117.3485   9.9454542142e+01   2.6817465568e+01    0.1590303    0.1272505  -1.78 0.0004271227    1.658    0.397
       139  -8.0744     20.7465    113.7010   1.3630180730e+02   4.9947241868e+01    0.1985444   0.08963413 -77.13 0.0007661459    2.362    0.577
       140  -7.4159    142.6831    111.6498   1.0197545061e+02   3.1799385500e+01    0.1609005    0.1260948  -1.05 0.0007047532    1.733    0.423
       141  -8.7158      1.3906    110.7931   1.4113935517e+02   5.1898568245e+01    0.2678152   0.09091156 -56.44  0.001073015    2.111    0.526
       142  -7.8746    133.8710    106.3806   1.0280555763e+02   3.4860603478e+01    0.3162203    0.2012644 -28.38  0.000944243    1.941    0.485
       143  -7.5015     76.2846    107.3096   1.1901727782e+02   4.5244268957e+01    0.1394321    0.1019126 -27.64 0.0003949194    1.570    0.363
       144  -8.0521     32.4785    107.4539   1.3191908192e+02   5.0363101205e+01    0.1251347    0.1033792 -62.58 -6.123136e-05    1.031    0.030
       145  -7.5039    109.3187    106.3475   1.0934047666e+02   3.9879115330e+01    0.1543834    0.1172606 -12.13 0.0007048693    1.731    0.422
       146  -8.0644     62.2322    106.3598   1.2293913281e+02   4.7385697133e+01    0.1817637    0.1220402  44.42 0.0007683004    1.710    0.415
       147  -8.9386     14.2560    105.4077   1.3680418615e+02   5.2261467182e+01    0.2594191    0.1444948 -42.89  0.001495858    1.732    0.423
       148  -7.6870     93.9860    103.4850   1.1292687149e+02   4.3281343140e+01     0.197006    0.1287398   8.64 0.0005183278    2.481    0.597
