#   1 NUMBER                 Running object number                                     
#   2 MAG_AUTO               Kron-like elliptical aperture magnitude                    [mag]
#   3 X_IMAGE                Object position along x                                    [pixel]
#   4 Y_IMAGE                Object position along y                                    [pixel]
#   5 X_WORLD                Barycenter position along world x axis                     [deg]
#   6 Y_WORLD                Barycenter position along world y axis                     [deg]
#   7 A_WORLD                Profile RMS along major axis (world units)                 [deg]
#   8 B_WORLD                Profile RMS along minor axis (world units)                 [deg]
#   9 THETA_WORLD            Position angle (CCW/world-x)                               [deg]
#  10 FWHM_WORLD             FWHM assuming a gaussian core                              [deg]
#  11 ELONGATION             A_IMAGE/B_IMAGE                                           
#  12 ELLIPTICITY            1 - B_IMAGE/A_IMAGE                                       
         1 -10.8832      4.2456     66.1518   1.1097067708e+02   6.1980492036e+01    0.5831694    0.3464447 -75.09  0.003354799    1.685    0.407
         2 -10.2704     65.1192     22.3492   7.0455880970e+01   6.3413867080e+01    0.5110544    0.2591071 -53.08  0.001784259    5.132    0.805
         3  -9.0836      5.6709      8.4920   9.1440757717e+01   7.2899667923e+01    0.2007633   0.08240009 -44.14  0.001097429    2.024    0.506
         4  -9.4891    168.1871      6.5912   4.1299403585e+01   4.1954074020e+01    0.2454479   0.09449112 -27.71  0.001023095    2.680    0.627
         5  -9.7813     79.0643      4.6053   5.7723824669e+01   6.2784906515e+01    0.2454278    0.1743922   0.16  0.001465159    1.385    0.278
         6  -9.0999    136.9462    242.7117   1.0407865496e+02   5.6833534925e+00    0.1783731     0.138958  43.45  0.000632724    1.065    0.061
         7  -9.2514    141.7482    249.9020   1.0405733447e+02   3.7936291950e+00    0.2007851    0.1594207  73.93  0.001314101    1.533    0.348
         8 -10.4927    126.9241    236.3194   1.0522320661e+02   8.3225079563e+00    0.2985932    0.2128283 -72.04  0.001788991    1.731    0.422
         9 -11.0135    110.5079    245.5444   1.0945000465e+02   9.2386432829e+00    0.4367065    0.4104823 -24.63  0.003052066    1.420    0.296
        10  -9.1339    109.3092    239.3775   1.0900344542e+02   1.0488494306e+01    0.2321543    0.1985605  63.48 0.0008835456    1.081    0.075
        11 -11.0503    124.4067    243.8966   1.0662348512e+02   7.4218939427e+00    0.3884426    0.3269145  -7.91  0.002555986    1.643    0.391
        12 -10.5982    117.5788    244.9113   1.0804062852e+02   8.2878242906e+00    0.3827775    0.1913594  36.70  0.001265282    1.791    0.442
        13 -10.7720    142.9882    231.8419   1.0147976824e+02   6.5407911374e+00    0.2916956    0.2816496  22.72  0.001524605    1.146    0.127
        14 -10.9311    131.8705    238.1697   1.0448972197e+02   7.2320359230e+00    0.4153345    0.3321953  -1.85  0.002381766    1.727    0.421
        15 -11.0490    138.6188    236.5797   1.0297101248e+02   6.4375579539e+00    0.5442833    0.2664632  29.55  0.002530967    2.295    0.564
        16  -9.8765     90.4246    249.1971   1.1356156144e+02   1.1513402102e+01    0.3127605    0.1801454  55.01  0.001305563    1.468    0.319
        17 -12.5048     77.9821    243.9796   1.1537814619e+02   1.4156812334e+01    0.5625858    0.3878257  69.43  0.001132053    1.302    0.232
        18 -17.2780     32.7348    236.8812   1.2300847900e+02   2.1109513860e+01     4.405313     3.960895  -5.82   0.02443212    1.949    0.487
        19  -8.4726      8.9066    214.3143   1.2592832053e+02   2.8001563545e+01    0.1637105   0.09364783  59.73 0.0003658179    1.411    0.291
        20 -10.4705     44.0139    183.2868   1.1646807121e+02   3.1012806063e+01    0.2504408    0.1971187 -79.76 0.0008022587    1.134    0.118
        21  -8.8734      2.3236    226.8597   1.2772121475e+02   2.6146628995e+01    0.1700058    0.1255624  46.95  0.001155402    1.436    0.304
        22  -9.5981    206.2266    212.2755   8.5990730676e+01  -6.7134729605e-01    0.3851223    0.2058813  16.76  0.001681316    2.583    0.613
        23 -10.0482     13.8673    202.2375   1.2428023530e+02   3.0020634949e+01    0.2476278    0.1611748 -80.72 0.0007239821    1.302    0.232
        24  -9.8069     28.6538    181.8267   1.1970195372e+02   3.3018412812e+01    0.1744544    0.1648784  75.06 0.0006001166    1.292    0.226
        25 -12.5669     49.1645    179.2402   1.1487859993e+02   3.1334102992e+01    0.7473328    0.3179125  50.16  0.003410818    2.308    0.567
        26  -8.9914      5.4686    200.3388   1.2577058689e+02   3.1196029357e+01    0.2603105    0.1223249  74.95  0.001455643    1.864    0.464
        27 -11.5983     44.8828    188.4636   1.1679955521e+02   2.9741619978e+01    0.4673567    0.3178385 -43.59  0.002625732    2.025    0.506
        28 -10.9169    146.3541    223.6776   9.9658234883e+01   7.4018472540e+00    0.3299371    0.1959418  57.29  0.001633566    1.977    0.494
        29 -11.7913     58.0485    156.9028   1.0992663230e+02   3.5527886372e+01    0.4753183    0.2408614 -57.71  0.002226687    1.799    0.444
        30 -11.7588     66.7886    156.2504   1.0760616901e+02   3.4540569407e+01    0.4773097    0.4270837 -65.87  0.002548388    1.125    0.111
        31 -12.1931    124.7885    166.4215   9.4903917794e+01   2.2740787434e+01      0.54796    0.3915724 -42.97  0.002572078    1.489    0.328
        32  -9.8001     38.2024    168.2115   1.1619780343e+02   3.5152723873e+01    0.1742455    0.1254313  72.42 0.0003403786    1.287    0.223
        33 -12.6828     49.1267    164.7995   1.1319174779e+02   3.4723367122e+01    0.6945193    0.3494998  76.40  0.002917601    2.682    0.627
        34 -11.9550    109.7959    163.4708   9.7995241540e+01   2.6103069724e+01    0.3880408    0.3033424 -62.92  0.002012906    1.268    0.211
        35 -11.8565    146.3252    220.1663   9.9149740541e+01   8.0269888877e+00    0.5738059    0.3085033  29.92  0.002711445    1.986    0.496
        36 -10.3526     34.3012    158.5847   1.1605484804e+02   3.7842854187e+01    0.2281068     0.128313 -55.31 0.0008880752    1.746    0.427
        37  -8.7106    226.2226    161.6249   7.2289751140e+01   4.1435185953e+00    0.1846591    0.1239775  29.15 0.0003637811    1.585    0.369
        38 -11.4863    192.3343    218.6046   8.9742365714e+01   6.1733870037e-01    0.4857016    0.4258491 -61.89   0.00306406    1.571    0.363
        39 -10.8302     39.4499    151.2321   1.1388364448e+02   3.9068796809e+01    0.3246928    0.1158942 -71.62  0.001286527    2.564    0.610
        40 -11.5773     56.7409    138.7853   1.0749444196e+02   4.0118748134e+01    0.5767999    0.3214276 -27.86  0.002252609    3.341    0.701
        41 -12.5001     50.7654    142.7208   1.0973735147e+02   3.9874620521e+01     0.847412     0.403076  86.00  0.002889301    3.911    0.744
        42 -12.3684    123.0001    144.0221   9.0788977894e+01   2.8213389649e+01    0.6040876    0.3265193  43.47  0.002482318    1.878    0.467
        43 -12.3984    109.4736    143.4933   9.4158566230e+01   3.0860537953e+01    0.5706741     0.349627 -69.74  0.002382686    1.987    0.497
        44 -13.0892    121.0281    156.1324   9.3813215466e+01   2.5779835565e+01    0.7539883    0.5681582 -35.54  0.003675128    1.502    0.334
        45 -10.0594     20.3543    135.1288   1.1684537184e+02   4.4774958585e+01    0.2254456    0.1537911 -33.57 0.0009980797    1.899    0.473
        46 -13.0525     57.2696    128.8472   1.0563496783e+02   4.2501240368e+01     0.841127     0.578486 -46.37  0.004019014    1.458    0.314
        47 -12.5474     99.6099    125.2159   9.2803371035e+01   3.6995386811e+01    0.6320305    0.3692347 -58.27  0.002706172    1.700    0.412
        48 -11.8419     94.7556    122.6321   9.3574464322e+01   3.8461092822e+01    0.4417375    0.2738464 -38.51  0.001927246    1.764    0.433
        49 -11.2083    106.9585    130.7509   9.2047287453e+01   3.4352005243e+01    0.2822907    0.2167516 -54.14  0.001085691    1.243    0.196
        50 -11.5423     80.0076    129.4434   9.9255178769e+01   3.9200501299e+01    0.3737149    0.2081221  45.70  0.001644769    1.942    0.485
        51 -13.6528    116.3014    121.2467   8.7259335295e+01   3.4823758922e+01    0.9681493    0.8870808 -16.69  0.004200283    1.187    0.158
        52 -11.1452    153.8403    210.8976   9.6179873546e+01   8.4238453031e+00     0.289528      0.26747  65.88  0.001590001    1.183    0.154
        53 -11.2196    142.5372    115.7792   7.9045887182e+01   3.0612165651e+01     0.513698    0.2405735  57.00  0.001709329    2.871    0.652
        54 -12.2430     71.7785    124.3586   1.0057433365e+02   4.1663682072e+01    0.5179148    0.2968288 -56.30  0.002384086    1.557    0.358
        55 -11.5570    245.1355    107.2139   5.6972518426e+01   9.7840525066e+00    0.7792736    0.6582469   7.78  0.004503815    1.398    0.285
        56 -11.2331    244.1571    101.2448   5.5736484620e+01   1.0958231678e+01    0.5777339     0.480714   9.00  0.003282984    1.470    0.320
        57  -9.9243    228.7696    111.0545   6.0357516544e+01   1.2432566791e+01    0.3571778    0.2251601 -33.23  0.001709459    1.452    0.311
        58  -9.7343     30.6932    134.5655   1.1398792761e+02   4.3994817463e+01    0.2072507    0.1340583  19.00 0.0009294918    2.030    0.507
        59 -10.1680      1.9973    110.7859   1.1898147660e+02   5.1875780668e+01    0.5454563    0.1370276 -58.37  0.002290359    2.671    0.626
        60 -12.6234    160.7989    100.5131   7.0587021895e+01   2.9690284651e+01    0.7334786    0.5217405 -40.44  0.002767712    1.363    0.266
        61 -11.4884    134.3051     98.4704   7.6392576886e+01   3.6145623292e+01      0.48113    0.3036366  25.93   0.00190399    2.155    0.536
        62 -10.6162     48.4083     98.8912   1.0235203999e+02   5.0839092047e+01    0.3720385    0.2381112 -52.79  0.001938196    1.325    0.245
        63 -10.6126     37.9196     98.5113   1.0572849316e+02   5.2042168342e+01    0.3790761    0.3187465  -5.78  0.002325819    1.416    0.294
        64 -11.5560    210.8831     87.1656   5.7344370429e+01   2.0455684649e+01    0.9277895    0.3722504 -38.78  0.003485127    2.245    0.555
        65  -9.7938    241.1263     88.3143   5.3143716689e+01   1.3674795709e+01    0.2940971    0.1806576 -40.53  0.001463449    1.404    0.288
        66 -10.3518     14.1900     95.8800   1.1305122560e+02   5.4630424022e+01    0.6303839    0.2271056 -57.31  0.002903484    2.015    0.504
        67  -9.5647    107.8518     94.7147   8.2538901680e+01   4.2503558036e+01    0.2443788    0.1948395  13.43  0.001176345    1.498    0.332
        68 -11.3434    181.9158    100.4837   6.6087294187e+01   2.4762989750e+01    0.4896314    0.3455673  14.76  0.002064586    2.069    0.517
        69 -11.6689    129.5311     83.5526   7.3226503260e+01   4.0267814802e+01    0.4677423     0.433998 -77.48  0.001746971    1.192    0.161
        70 -11.4463     84.3781     82.4584   8.6101794111e+01   4.9496024875e+01    0.5750588    0.4291126   5.99   0.00282617    1.668    0.401
        71 -10.8650    213.8383     70.0339   5.2501239649e+01   2.2602771767e+01    0.5276247    0.3544172 -40.92  0.002615628    1.363    0.267
        72  -9.4399    185.6131    249.2110   9.5779059035e+01  -2.8155506434e+00    0.1535581    0.1065198 -22.35 0.0008090201    1.687    0.407
        73 -10.0091    186.0409     61.2832   5.4495929069e+01   3.0635899487e+01    0.4361109    0.2839362  59.17  0.002045268    1.545    0.353
        74 -12.6297    139.9950     64.3859   6.4602252784e+01   4.1401125332e+01    0.7829648     0.651715 -89.85  0.003930602    1.450    0.310
        75  -9.8500     20.7998     55.7005   1.0164625559e+02   6.3139019916e+01    0.4003865    0.1687036 -35.61  0.001859171    2.311    0.567
        76 -10.5763     95.9415     53.6792   7.2783406241e+01   5.2957838453e+01    0.4576332    0.3376696   0.76  0.002253747    1.578    0.366
        77 -11.1852     87.3712     64.2470   7.9248456075e+01   5.2678606122e+01    0.4603331     0.421418  -8.52  0.002593545    1.029    0.028
        78 -11.1547    199.6330     44.9767   4.7944447826e+01   2.9720499178e+01    0.7319412    0.4796624 -38.40  0.003668739    1.463    0.317
        79 -10.4971    183.6084     65.8502   5.6199247964e+01   3.0504972381e+01    0.5772464    0.3941533 -41.69  0.002744274    1.411    0.291
        80 -11.7309     82.1128     43.3161   7.3308600118e+01   5.7328456863e+01    0.7642019    0.4168192 -27.65  0.003525984    1.873    0.466
        81  -9.6806    235.1239     46.1253   4.3920281536e+01   2.1313140253e+01     0.191358    0.1860553 -25.69  0.001234215    1.239    0.193
        82 -10.6853     50.1629     42.4182   8.4796339295e+01   6.2599439530e+01    0.4984937    0.3038497 -32.47   0.00269508    1.459    0.314
        83 -10.8824    140.7472     38.2650   5.5825705541e+01   4.5208529651e+01    0.4644471     0.397805  88.82  0.002542677    1.298    0.230
        84 -10.3055     40.9449     34.1748   8.5374213521e+01   6.5210788611e+01    0.5206723    0.2079192 -47.55  0.002291417    2.597    0.615
        85  -9.8300    172.9577     36.3299   4.9414599077e+01   3.7467728417e+01    0.3400608    0.2525447  81.68  0.001753811    1.391    0.281
        86  -9.8534    181.0703     26.1067   4.5262712469e+01   3.6709366857e+01    0.3985337    0.2812642  21.05  0.001980298    1.962    0.490
        87 -10.5464    108.8639     25.2215   5.8350016911e+01   5.4332661681e+01    0.6754324    0.2778819  28.14  0.001945169    5.263    0.810
        88 -11.4264    145.4454    240.8535   1.0220628754e+02   4.6555868675e+00    0.5808367    0.4440647 -18.56  0.003116172    1.767    0.434
        89  -9.8553    119.6044     18.1778   5.3177743450e+01   5.2658298996e+01    0.3006694    0.1925949  -8.23  0.001503667    1.812    0.448
        90  -9.1620    203.1315     18.7505   4.0623137405e+01   3.2169143573e+01    0.2435404    0.1724922  18.15  0.001245296    2.140    0.533
        91  -9.8759    142.9754     18.0161   4.8600254414e+01   4.7064484766e+01    0.3870008     0.249046  34.87  0.001922798    1.709    0.415
        92  -9.0877    239.1995     15.6008   3.6554912930e+01   2.4268601549e+01    0.1714034    0.1035817  63.47 0.0009506677    1.745    0.427
        93  -8.9487    172.1128     13.1444   4.2716620602e+01   4.0349223605e+01    0.2113347    0.1731058  49.30   0.00123268    1.261    0.207
        94 -10.4098    150.1871    238.6693   1.0100014699e+02   4.2593271963e+00     0.343056    0.2830841 -87.70   0.00219852    1.600    0.375
        95  -9.6923      1.2828    191.8854   1.2607895908e+02   3.3349404232e+01    0.1551034   0.07880887 -80.14 0.0003106967    1.568    0.362
