#   1 NUMBER                 Running object number                                     
#   2 MAG_AUTO               Kron-like elliptical aperture magnitude                    [mag]
#   3 X_IMAGE                Object position along x                                    [pixel]
#   4 Y_IMAGE                Object position along y                                    [pixel]
#   5 X_WORLD                Barycenter position along world x axis                     [deg]
#   6 Y_WORLD                Barycenter position along world y axis                     [deg]
#   7 A_WORLD                Profile RMS along major axis (world units)                 [deg]
#   8 B_WORLD                Profile RMS along minor axis (world units)                 [deg]
#   9 THETA_WORLD            Position angle (CCW/world-x)                               [deg]
#  10 FWHM_WORLD             FWHM assuming a gaussian core                              [deg]
#  11 ELONGATION             A_IMAGE/B_IMAGE                                           
#  12 ELLIPTICITY            1 - B_IMAGE/A_IMAGE                                       
         1  -8.2016     97.3897     14.7265   3.0331703384e+01   5.9247203737e+01    0.2569224    0.1286366 -33.56 0.0006987478    2.046    0.511
         2  -8.4374     55.7632      9.8456   4.1231471586e+01   7.0154504766e+01    0.2312668    0.1792963 -53.12 0.0005219645    1.540    0.351
         3  -8.4344     90.8214      8.6855   2.8952155156e+01   6.1624275964e+01    0.2640303    0.1570532 -54.99 0.0008105536    1.950    0.487
         4  -7.4419     47.5007      9.5306   4.5118475513e+01   7.2006777758e+01     0.134345    0.1260259  37.58 0.0001020911    1.062    0.059
         5  -7.6621     12.6967      8.3412   7.1224214193e+01   7.7999320770e+01    0.1209145    0.1001175  63.90 0.0007039569    1.678    0.404
         6  -8.2057     70.4893      6.0140   3.3137023233e+01   6.7101479599e+01    0.2000782    0.1368986 -28.15  0.001021224    1.576    0.365
         7  -8.6017     33.2400      4.4347   5.0173957471e+01   7.5582921921e+01    0.3133288    0.1973777 -58.27  0.001454786    2.572    0.611
         8  -8.5517     79.3183      3.7686   2.9242638669e+01   6.5097634597e+01      0.25045    0.1513667 -37.42  0.001207514    1.767    0.434
         9  -7.7437     44.6587      3.2595   4.2167492748e+01   7.3439971020e+01    0.1260935    0.1048711 -89.08 0.0002056357    1.588    0.370
        10  -8.1031     62.8239      1.4529   3.2908240245e+01   6.9456888942e+01    0.2010877     0.125469  64.45  0.000871752    1.498    0.333
        11  -7.7050     39.4672      1.4978   4.3770904188e+01   7.4754874150e+01    0.1326581    0.1184921  27.82 4.233027e-05    1.004    0.004
        12  -9.3873    223.6669    242.3447   6.0395790332e+01  -7.2712008764e-01    0.1760771    0.1615719   3.46  0.001176088    1.852    0.460
        13  -8.8431    233.0486    248.1022   5.9711191529e+01  -2.1920820862e+00    0.2482851    0.1461611 -39.62  0.001630285    2.451    0.592
        14  -7.9644    125.3001    250.3383   7.9246963984e+01   8.8617015922e+00    0.1121008   0.07475561  -1.06 0.0007035556    1.663    0.399
        15  -9.2416    210.8803    246.2529   6.2968043426e+01   1.0101610121e-01     0.179109    0.1355074 -38.63 0.0009295773    1.982    0.495
        16  -9.4923    120.1033    245.3097   7.9804803177e+01   1.0188316303e+01    0.2679869    0.1899938  64.82  0.001653229    2.153    0.536
        17  -9.7982    248.7277    242.6505   5.6661401810e+01  -3.0540513581e+00    0.2917639    0.1441259 -34.89  0.002052807    2.231    0.552
        18  -9.2704    146.8508    245.5857   7.4440597890e+01   7.0678827314e+00    0.2233756    0.1524089  44.51 0.0009543518    1.746    0.427
        19  -8.5539    147.1307    240.4075   7.3789220221e+01   7.7499376242e+00    0.2967925    0.2081403  69.77  0.001641354    3.260    0.693
        20  -8.3852     67.8626    244.8759   9.0913452232e+01   1.6129101482e+01    0.2233883    0.1290909  85.02  0.001302777    2.420    0.587
        21  -8.7145    139.5019    244.4905   7.5772590987e+01   8.0630990624e+00    0.1486092    0.1159694 -69.99 0.0007239089    2.110    0.526
        22  -8.3195     58.6916    244.4492   9.2883128584e+01   1.7166458787e+01    0.2690798    0.0859513  60.51  0.000907226    5.866    0.830
        23  -8.8120      9.9850    244.2172   1.0336128994e+02   2.1774715322e+01    0.2777084   0.08156903  68.96  0.001266948    3.506    0.715
        24  -8.6871    169.1141    243.1619   6.9891160559e+01   4.8711238538e+00    0.1850964    0.1638066  34.92 0.0008268417    1.560    0.359
        25  -9.2761     78.0816    242.7950   8.8540045952e+01   1.5367911984e+01    0.3340074    0.1421334  51.97  0.001641445    2.544    0.607
        26  -8.3128     22.6947    244.6565   1.0067913678e+02   2.0606781045e+01   0.09766878   0.08188611 -16.99 0.0007041668    1.688    0.407
        27  -9.3819    193.9767    239.0284   6.4874917558e+01   2.6598095491e+00    0.2417554    0.1445235 -26.30   0.00165995    1.656    0.396
        28  -9.1287    183.1391    239.9984   6.6921288109e+01   3.7162559991e+00    0.3315711    0.2141841  48.65  0.001983368    2.750    0.636
        29  -9.4845    160.1153    240.1785   7.1228003552e+01   6.2791143596e+00    0.2565259    0.2170629  75.72  0.001163647    2.256    0.557
        30  -8.0116    153.5611    241.7984   7.2690032270e+01   6.8139075541e+00    0.1225187    0.1128662 -59.57 0.0009378873    1.680    0.405
        31  -8.0329     88.1243    242.1070   8.6299789814e+01   1.4360020598e+01    0.1559397    0.1138548  49.30 0.0006331857    1.341    0.255
        32  -8.2935    214.0186    241.4825   6.1824747017e+01   3.0907701594e-01    0.1518181   0.07933661  23.60 0.0006007121    1.556    0.357
        33  -8.5264    241.0204    238.7253   5.7252578744e+01  -1.9804278413e+00    0.3229225     0.110029 -21.75  0.001614294    3.488    0.713
        34  -8.8562    135.6684    238.8060   7.5911052970e+01   9.3250943543e+00    0.2131755    0.1135357  43.99  0.001075926    2.032    0.508
        35  -9.1276    231.1443    236.5845   5.8448557735e+01  -8.3824339018e-01    0.2490844    0.2072685 -30.94  0.001936196    1.894    0.472
        36  -7.9440    209.3931    238.2792   6.2153939112e+01   1.1318788089e+00    0.1236524   0.09066202 -31.35 0.0005879931    1.642    0.391
        37  -8.5990     25.6703    236.8326   9.9767187216e+01   2.1736740621e+01    0.2528075   0.08274166  60.63  0.001154833    2.998    0.666
        38  -8.6700    201.8661    243.0825   6.4053899505e+01   1.3612499934e+00     0.195521    0.1377426 -39.66 0.0009304666    1.947    0.486
        39  -9.0921    247.7265    234.3875   5.5671364156e+01  -2.1551500494e+00    0.2045367    0.1416149 -32.07  0.001634586    1.836    0.455
        40  -9.4108    246.5100    228.6657   5.5042262490e+01  -1.4654713525e+00    0.3735855    0.1465101 -27.24  0.002298826    2.212    0.548
        41  -9.8702    214.8583    233.0345   6.0537031492e+01   1.1627983082e+00     0.353031    0.3102513 -82.50  0.002359176    3.429    0.708
        42  -9.0201    203.2261    234.4794   6.2672615786e+01   2.2112994967e+00    0.2609236    0.1727488 -47.33  0.001315702    2.446    0.591
        43  -9.8813    175.6072    233.0634   6.7394879222e+01   5.4406042780e+00    0.3697098    0.2310548 -53.43  0.002245959    2.618    0.618
        44  -7.8568     59.0368    237.0000   9.2347929990e+01   1.8422743693e+01    0.2027968   0.05321549  27.07 0.0008050323    2.960    0.662
        45  -7.9718    170.1794    235.2341   6.8693335455e+01   5.7793815353e+00    0.1372377    0.1193664  23.43 0.0006676333    1.368    0.269
        46  -9.2864    109.3005    234.3777   8.0988916389e+01   1.3152528296e+01    0.5072274    0.1568034  40.31  0.001767233    2.737    0.635
        47  -8.4106     78.9823    234.4675   8.7695048537e+01   1.6681359326e+01    0.2348719    0.1002393  57.67  0.001017516    3.284    0.695
        48  -8.3760    122.8407    233.7785   7.8021238291e+01   1.1618552314e+01    0.1982106    0.1425002  63.73  0.001209819    2.063    0.515
        49  -8.3873     99.6497    233.9232   8.3052464583e+01   1.4375859559e+01    0.2018689    0.1463152  75.26  0.001258212    1.940    0.485
        50  -9.4441     68.1002    231.5303   8.9928392288e+01   1.8416944349e+01    0.4740245    0.2225878  65.01  0.002226626    2.982    0.665
        51  -8.0408     53.0423    234.2855   9.3528146420e+01   1.9534998023e+01     0.165161    0.1180974  35.67 0.0003153037    1.071    0.066
        52  -8.4130    194.4037    232.7235   6.3954864857e+01   3.3727294876e+00    0.1858714    0.1463905  28.20 0.0007721469    1.477    0.323
        53  -8.5579    145.0037    233.4712   7.3391274308e+01   8.9894874266e+00    0.2514428    0.1323242  48.75  0.001270381    2.724    0.633
        54  -8.6507    140.2107    230.0873   7.3960915838e+01   1.0069816079e+01    0.2161392    0.1384419  37.46 0.0007265345    1.448    0.309
        55  -8.5071     92.6893    231.7556   8.4393081023e+01   1.5562977049e+01    0.3179017    0.1636447  54.64  0.001088238    2.348    0.574
        56  -9.3821    186.3414    230.3262   6.5061841829e+01   4.5692889131e+00    0.2382686    0.2163225 -77.10   0.00134959    2.206    0.547
        57  -8.3047    157.7440    231.4455   7.0600430352e+01   7.7525497653e+00    0.1726996     0.143941 -50.64 0.0007020874    1.700    0.412
        58  -8.1933    132.5113    232.4925   7.5841934640e+01   1.0644686171e+01    0.1197798   0.09310832  26.93 0.0008089594    1.090    0.082
        59  -8.0643     37.3332    232.6681   9.6991163660e+01   2.1406559111e+01    0.1305906   0.06119178  50.04   0.00070522    1.728    0.421
        60  -8.9768    236.0972    230.3448   5.6822523136e+01  -6.5628089881e-01    0.2298061    0.1338168 -29.77 0.0009712852    1.662    0.398
        61  -8.5340      1.6759    230.5564   1.0486853594e+02   2.4923034562e+01     0.200374   0.09029022  60.01  0.001157945    1.794    0.443
        62 -10.0444    149.6266    225.9236   7.1516448153e+01   9.5337530405e+00    0.4893698    0.3446628  89.92  0.002447002    3.847    0.740
        63  -8.6296    229.5874    228.3437   5.7534516448e+01   1.9438277956e-01    0.1698166   0.08542116 -34.41 0.0007517944    2.011    0.503
        64  -8.7716    162.4040    227.7011   6.9204192410e+01   7.7193398719e+00    0.3026437    0.1711287  43.90  0.001702568    2.162    0.537
        65  -8.7612    127.8900    227.0906   7.6189381739e+01   1.2050586411e+01    0.2944689    0.1701634  49.81  0.001380792    2.142    0.533
        66  -7.8433    119.8512    227.3275   7.7947120252e+01   1.3009452748e+01    0.1593011    0.1357995  36.12 0.0004510384    1.191    0.161
        67  -8.2900     49.6585    226.6977   9.3847600328e+01   2.1282795729e+01    0.2405679    0.1111548  65.58  0.001174151    2.546    0.607
        68  -8.7046    206.0693    225.4807   6.0936219440e+01   2.9736191049e+00    0.2080378    0.1364199 -38.50  0.001011996    1.850    0.459
        69  -7.8436    200.3589    226.1571   6.2008298979e+01   3.5192260180e+00    0.1308376   0.09555901 -36.87 0.0004449089    1.701    0.412
        70  -8.9497     94.2606    224.1816   8.3320516260e+01   1.6688575638e+01    0.4102201    0.1556372  47.01  0.001766569    2.759    0.638
        71  -8.7293    216.5428    223.3459   5.8890165775e+01   2.0983090761e+00    0.1747766     0.168254 -30.02 0.0009471964    1.934    0.483
        72  -8.7735    180.4942    223.9015   6.5247008881e+01   6.0810603849e+00    0.2256217    0.1719376  28.22  0.001053021    1.333    0.250
        73  -7.8419    113.8090    223.8236   7.8880538088e+01   1.4338969731e+01    0.1650752    0.1226462  44.48  0.000405543    1.342    0.255
        74  -8.8086    104.8493    223.5894   8.0857630071e+01   1.5493567390e+01    0.2625394    0.1897903  75.50  0.001562128    1.994    0.499
        75  -7.7678     38.3119    224.6409   9.6372211440e+01   2.2818976901e+01    0.1329866   0.06455868  52.06 0.0007042625    1.743    0.426
        76  -7.3839    233.3209    223.6542   5.6286713055e+01   3.3459406266e-01   0.08573885   0.07786844  -0.66 0.0007049598    1.732    0.423
        77  -8.6230    173.2293    222.8305   6.6462216941e+01   7.0923800375e+00    0.1796521    0.1686793  32.02 0.0007019269    1.520    0.342
        78  -8.4174    163.9999    223.4712   6.8329269713e+01   8.1230231617e+00    0.2582599    0.1577801  46.38  0.001469639    2.186    0.542
        79  -8.5213    159.1799    220.1831   6.8836186936e+01   9.1934705213e+00    0.2379132    0.1690798  48.90 0.0008411223    1.911    0.477
        80  -7.8535     59.9675    223.4882   9.1229716871e+01   2.0789132357e+01    0.1878194   0.06085005  44.23 0.0007275875    2.440    0.590
        81  -9.1165    239.2543    221.4133   5.5064796292e+01  -9.7994961956e-03    0.2056764    0.1703502 -22.22  0.001198821    1.615    0.381
        82  -9.2851    225.3590    221.5019   5.7209055101e+01   1.3845997492e+00    0.1788861    0.1294621 -15.13 0.0005769141    1.207    0.172
        83  -9.3323    192.3434    221.0513   6.2688729594e+01   5.0691200967e+00    0.2402624    0.2097034 -43.43  0.001218201    1.750    0.429
        84  -8.4981     82.8910    220.2958   8.5582972623e+01   1.8758871942e+01     0.270444     0.167982  63.28  0.001183933    1.950    0.487
        85  -8.1299     73.4506    220.9220   8.7857277085e+01   1.9753445887e+01    0.1715553   0.09032336  69.03 0.0008076561    2.694    0.629
        86  -7.8586     27.5182    220.9858   9.8724158462e+01   2.4556133759e+01    0.1534506   0.08400846 -49.09 0.0008103729    2.591    0.614
        87  -8.0565    202.6072    219.7979   6.0708964547e+01   4.0536341122e+00    0.1307008   0.09694963 -33.93 0.0004366765    1.581    0.368
        88  -9.0694    120.2051    218.8465   7.6889838742e+01   1.4366770673e+01    0.3992144     0.214382  55.63   0.00185148    2.883    0.653
        89  -8.1132    210.0585    219.0324   5.9332719076e+01   3.3147226721e+00    0.1387181    0.1280795  12.88 0.0005192477    1.620    0.383
        90  -8.6751    249.4889    218.0234   5.3071926276e+01  -6.4123216876e-01    0.1494055    0.1283385  59.41  0.001028096    3.462    0.711
        91  -9.1720    132.8812    215.8884   7.3743727207e+01   1.3222197292e+01    0.4162402    0.2634387  63.75  0.002030872    2.986    0.665
        92  -8.7344     51.7607    217.4890   9.2768052467e+01   2.2827489459e+01    0.2824739    0.1696994  57.69  0.001104186    1.585    0.369
        93  -8.6293    169.4535    216.1096   6.6246902159e+01   8.5008804666e+00    0.2137232    0.1928244 -88.32 0.0009319788    1.946    0.486
        94  -8.6752    143.0626    216.5381   7.1652278391e+01   1.1797915593e+01    0.2240216    0.1841265  65.96  0.001144771    1.837    0.456
        95  -8.0496    112.2865    216.9684   7.8445191937e+01   1.5702910259e+01    0.1678917   0.09954548  86.55 0.0007000463    4.007    0.750
        96  -8.9289    243.4579    215.5081   5.3571925643e+01   2.1439147691e-01    0.1042207   0.07296885  -4.60 0.0001504524    1.004    0.004
        97  -8.7587    232.2288    214.2462   5.5066132253e+01   1.4949169666e+00    0.2445769     0.144502 -30.91  0.001240918    1.612    0.380
        98  -8.3947    185.3804    214.0719   6.2937820292e+01   6.8209128247e+00    0.1853388    0.1455474  38.63  0.001052017    1.606    0.377
        99  -8.8993     93.0692    213.5883   8.2526958412e+01   1.8753445177e+01    0.3259488    0.1806702  56.08  0.001421511    2.170    0.539
       100  -9.1939     72.4611    211.3162   8.7265895858e+01   2.1707273440e+01    0.5046934    0.1712155  52.00   0.00185347    3.628    0.724
       101  -9.3025    213.9646    211.9740   5.7631066389e+01   3.7413013160e+00    0.2871272    0.2209139  39.63  0.001703678    1.876    0.467
       102  -7.6331    224.7951    212.0537   5.5892830664e+01   2.5372483708e+00    0.1325058    0.0721847 -30.71 0.0004939707    1.688    0.408
       103  -8.5230    161.9532    212.1958   6.7169473736e+01   1.0027467462e+01     0.212972    0.1472555  41.58  0.001267728    1.622    0.384
       104  -7.8727    106.4292    212.3078   7.9251910057e+01   1.7283814427e+01    0.1492112    0.1237738  88.80 0.0007203994    1.592    0.372
       105  -9.0528    204.2321    210.5266   5.9051346117e+01   5.0392725260e+00    0.2117136     0.159387 -35.40 0.0007496254    1.576    0.365
       106  -9.3067    175.6146    209.8466   6.4149104071e+01   8.6257286401e+00     0.315294    0.2280861  58.68  0.001599591    2.634    0.620
       107  -8.7008    147.7192    210.1184   6.9799732558e+01   1.2208850715e+01    0.2686116    0.1939169  56.47  0.001172348    2.031    0.508
       108  -8.8450    116.4258    210.2579   7.6701739118e+01   1.6342555845e+01    0.3126736    0.1984101  55.78  0.001000831    2.016    0.504
       109  -9.0476      6.3309    208.7117   1.0333454294e+02   2.8842090415e+01    0.4578546    0.1137093  68.47   0.00168508    4.211    0.763
       110  -7.8356     32.3365    210.0311   9.7054612954e+01   2.6295861565e+01    0.1999284    0.0652729  68.85 0.0007040117    4.270    0.766
       111  -8.9451    236.6396    208.1039   5.3464208538e+01   1.7335567803e+00    0.2118988    0.1842235 -46.38  0.001164028    2.156    0.536
       112  -8.0385    154.4489    214.9370   6.9072972442e+01   1.0578442893e+01    0.1370451    0.1099906  89.20 0.0008060486    2.384    0.581
       113  -8.2097     85.5600    209.2602   8.3880196829e+01   2.0512774394e+01    0.2049275     0.128977  57.00  0.001100347    1.743    0.426
       114  -8.4620     46.0429    209.3187   9.3625840789e+01   2.5065358021e+01    0.1853256    0.1386191  41.11  0.001158429    1.068    0.064
       115  -9.1398    246.4562    207.0121   5.1852285493e+01   8.4446932040e-01    0.2103415    0.1351435 -19.11 0.0007404444    1.226    0.185
       116  -8.0351    156.5440    207.7473   6.7627803402e+01   1.1415015801e+01    0.1390436    0.1209509 -53.65 0.0006703318    1.565    0.361
       117  -8.3015    139.1012    208.0213   7.1350594471e+01   1.3699192153e+01    0.1811882    0.1435834  57.45 0.0007191124    1.690    0.408
       118  -8.3898     62.2923    217.2309   9.0217888111e+01   2.1727016488e+01    0.3005509     0.112366  49.46  0.001091994    2.521    0.603
       119  -9.2305     99.5100    205.9626   8.0154339589e+01   1.9358555701e+01     0.371368    0.2137646  61.99  0.001311934    2.491    0.599
       120  -8.6449     56.5828    205.3451   9.0705991365e+01   2.4738869223e+01    0.3541281      0.15701  56.65  0.001455661    2.412    0.585
       121  -8.3811    192.0787    210.0843   6.1123369165e+01   6.5468011329e+00    0.1486777    0.1396357  37.23 0.0005586895    1.636    0.389
       122  -8.8616    183.8727    203.7816   6.1668038490e+01   8.4430954631e+00    0.2544831    0.1986084  54.09  0.001514959    2.091    0.522
       123  -8.6676    131.4043    203.8530   7.2473743200e+01   1.5450457080e+01    0.2743502    0.1955234  60.25   0.00151383    1.988    0.497
       124  -8.0551    109.2153    205.1692   7.7750421055e+01   1.8222692582e+01    0.1769927    0.1355093  50.40 0.0006638337    1.374    0.272
       125  -9.2827    194.8775    203.5250   5.9615017082e+01   7.0929776217e+00    0.2428455    0.2268827  21.47  0.001170972    1.494    0.331
       126  -9.7191    192.4728    197.2768   5.9061427320e+01   8.2633197333e+00    0.3368831    0.2832797 -61.91   0.00123857    2.057    0.514
       127  -9.6485    163.8296    202.7140   6.5400431039e+01   1.1227309183e+01    0.3614075    0.2656111  48.28  0.001152186    1.773    0.436
       128  -9.1414    250.2290    201.8051   5.0510458463e+01   1.0375454305e+00    0.3207571    0.1154262 -32.41  0.001296615    2.352    0.575
       129  -9.4210    245.6633    193.4363   4.9837531494e+01   2.4611380010e+00    0.2849356    0.2262635 -53.88  0.001595153    2.597    0.615
       130  -9.0636    243.1216    200.3877   5.1307515658e+01   1.9329542279e+00    0.2514295    0.1264644 -30.99 0.0009948157    1.720    0.419
       131  -8.2731    211.2406    201.9059   5.6528270757e+01   5.3217547573e+00    0.1810982      0.16987 -50.44  0.001142224    1.840    0.456
       132  -8.6689    140.6577    201.1004   7.0037651692e+01   1.4650139021e+01    0.2864454    0.2076416  56.72  0.001472907    1.898    0.473
       133  -7.7631     73.2945    202.6150   8.6255533155e+01   2.3343605910e+01    0.1393411   0.08280428  56.81 0.0007016223    1.766    0.434
       134  -8.3247     48.7489    202.1681   9.2454724605e+01   2.6259687961e+01    0.2380569   0.08719467  54.35 0.0009566839    2.817    0.645
       135  -8.2384     10.4818    202.4605   1.0214466300e+02   2.9813300470e+01    0.1235171   0.09591441  49.56 5.377491e-05    1.004    0.004
       136  -7.9124    222.1340    201.1697   5.4631417881e+01   4.1463003735e+00    0.1362377    0.1168861 -12.09 0.0004538713    1.349    0.259
       137  -8.2769     79.7898    201.0141   8.4461326437e+01   2.2864468040e+01    0.2168925     0.125601  61.19 0.0007353522    2.063    0.515
       138  -9.5135    149.7164    198.5251   6.7700046980e+01   1.3826596573e+01    0.3816135    0.2779443  68.84  0.001539854    2.527    0.604
       139  -8.7718    124.0007    198.9999   7.3490772085e+01   1.7334413296e+01    0.2732401    0.2049434  84.20  0.001180578    2.123    0.529
       140  -9.2350    113.0696    198.4336   7.5980623897e+01   1.8956344832e+01    0.4261944    0.2303612  57.23  0.001854421    2.771    0.639
       141  -9.0278    237.1620    198.3338   5.1861413491e+01   2.8098840016e+00    0.2191391    0.1230212 -32.82 0.0008985204    1.652    0.395
       142  -8.3893    177.2138    198.8121   6.2158515603e+01   1.0034642813e+01    0.1896091    0.1846083  54.19  0.000952252    1.535    0.348
       143  -8.8945     88.5700    198.0993   8.1940040297e+01   2.2326657146e+01    0.3509865    0.2151773  71.51  0.001315203    2.325    0.570
       144  -8.2765    202.4171    197.7217   5.7367366525e+01   6.9448938219e+00     0.196417    0.1027293 -40.98 0.0007249229    2.079    0.519
       145  -8.8644     61.1183    196.6692   8.8824603935e+01   2.6034876091e+01    0.4265137    0.1846256  60.07   0.00172601    2.916    0.657
       146  -8.2696     29.3757    197.7944   9.7160947460e+01   2.9155136678e+01    0.1621041    0.1113146 -69.50 0.0006313217    1.646    0.393
       147  -7.8456     12.6877    197.3545   1.0142171257e+02   3.0723932854e+01    0.1397854   0.06523463  53.16 0.0007044615    1.732    0.423
       148  -8.7491    215.8992    195.3542   5.4709525200e+01   5.6105549744e+00    0.2170516     0.145394 -43.61 0.0009223507    1.943    0.485
       149  -8.2844    132.9870    195.9239   7.0998095106e+01   1.6625067792e+01    0.1976294    0.1496494  58.36 0.0008589872    1.727    0.421
       150  -8.7600    224.6734    193.8374   5.3053874297e+01   4.7648856885e+00     0.275332    0.1250774 -41.96  0.001477042    2.552    0.608
       151  -7.9488    209.3620    195.1654   5.5765811909e+01   6.4287061874e+00    0.1503911   0.09731093 -40.28 0.0004762457    1.767    0.434
       152  -8.8897    185.0853    194.5161   5.9978658250e+01   9.6248095240e+00    0.2014558    0.1621442 -34.44 0.0005845779    1.392    0.281
       153  -8.9694    160.8390    193.8906   6.4651063063e+01   1.3034209547e+01    0.2311359    0.1829614 -59.10 0.0007886609    1.789    0.441
       154  -8.3257    231.0079    193.6296   5.2036966848e+01   4.0597488026e+00    0.2151475   0.09276373 -21.84 0.0009816908    2.446    0.591
       155  -8.8715     76.9052    193.7458   8.4437218533e+01   2.4726759200e+01    0.2276821    0.1871228  75.55 0.0005408619    1.341    0.254
       156  -8.8779     43.8362    193.2275   9.3089218306e+01   2.8703114060e+01    0.4378981    0.1671725  53.43  0.001824467    2.544    0.607
       157  -8.1826    205.1921    191.4637   5.5870583314e+01   7.4465108610e+00    0.1746728    0.1230954 -32.23 0.0006837265    1.415    0.293
       158  -8.1727    198.9381    191.4897   5.6964296215e+01   8.2430209289e+00    0.1718023    0.1343128 -18.00 0.0003989668    1.160    0.138
       159  -8.5237    172.4931    191.5078   6.1914791134e+01   1.1788394303e+01    0.1845068    0.1674376  61.93 0.0005529678    1.642    0.391
       160  -9.2095    139.6526    190.5569   6.8694160803e+01   1.6625013271e+01    0.3158204     0.245756  68.38  0.001143534    1.930    0.482
       161  -7.8923     34.3345    203.0109   9.6178463690e+01   2.7563258312e+01    0.2063435   0.06937978  70.14 0.0007050776    4.347    0.770
       162  -8.2912    179.2052    191.2159   6.0558456622e+01   1.0909251779e+01    0.1481303    0.1415963  -3.40 0.0005023428    1.340    0.254
       163 -10.3252     92.6975    188.9442   7.9803595289e+01   2.3642176690e+01     0.965866    0.2164603  40.39  0.003116136    3.643    0.726
       164  -8.6802      6.4590    190.4887   1.0279848948e+02   3.2716874867e+01    0.2205417   0.09164666  74.89   0.00102816    2.321    0.569
       165  -7.6033    210.3004    189.6168   5.4697754346e+01   7.0527277075e+00   0.09968303   0.09266684 -54.54 0.0007020549    1.777    0.437
       166  -8.6394    148.5884    188.9408   6.6467448281e+01   1.5610963580e+01    0.2136436    0.1667732 -66.32 0.0009739249    1.851    0.460
       167  -8.6869    129.2471    188.4775   7.0758289141e+01   1.8518603500e+01    0.2566715    0.1967687  62.05  0.000686136    1.724    0.420
       168  -9.5319    120.5381    185.8400   7.2430269556e+01   2.0295607922e+01    0.4226948    0.2569208 -72.23  0.001949192    2.612    0.617
       169  -8.8322     34.2318    187.8367   9.5294331798e+01   3.0881600559e+01    0.3886682    0.1592479  65.67  0.001267556    2.762    0.638
       170  -8.3077    237.0357    187.9303   5.0198793325e+01   4.0669241995e+00    0.1916037     0.123197 -25.04 0.0008751771    1.296    0.229
       171  -8.9106    216.4061    187.5182   5.3338222611e+01   6.5711820865e+00    0.2056621    0.1814563 -34.87 0.0009186917    1.546    0.353
       172  -8.8709    191.5112    187.1723   5.7581073219e+01   9.8408125559e+00    0.2518106    0.1950834 -60.92  0.001133013    2.215    0.548
       173  -9.2527    155.8155    187.1229   6.4621751938e+01   1.4871076908e+01    0.2932584    0.2314679 -59.24  0.001057157    1.722    0.419
       174  -9.0327     54.9113    186.7900   8.9599124534e+01   2.8905171628e+01    0.4026036    0.1928286  61.81  0.001646255    2.418    0.586
       175  -9.0185    249.3947    185.5378   4.8030019743e+01   2.9736463729e+00    0.2544957    0.1509183 -39.04  0.001424803    1.890    0.471
       176  -8.2091    230.7149    187.2388   5.1034571200e+01   4.8823195008e+00     0.155863    0.1223559 -30.46 0.0007632668    1.426    0.299
       177  -8.6485    164.9559    186.5522   6.2621426464e+01   1.3643655718e+01    0.2104496    0.1817958 -61.27  0.000823777    1.632    0.387
       178  -9.2175    109.7001    186.0602   7.5117837511e+01   2.1832914871e+01    0.3611472    0.2231401  59.94  0.001341908    2.190    0.543
       179  -8.6410    202.8055    184.5396   5.5125165608e+01   8.7138910632e+00    0.1999099    0.1480711 -46.93 0.0006796497    1.799    0.444
       180  -8.6067    183.2161    184.8186   5.8729168260e+01   1.1329066096e+01    0.1941631    0.1857615 -53.18 0.0007627283    1.504    0.335
       181  -8.9669     67.0458    184.5545   8.6085330952e+01   2.7949520193e+01     0.442347    0.1743559  46.60   0.00131401    2.358    0.576
       182  -8.5922    224.1091    183.2484   5.1388575281e+01   6.1805440248e+00    0.2243222    0.1348256 -33.69 0.0007528952    1.549    0.354
       183  -8.8303    210.1476    183.8070   5.3748197715e+01   7.8597945931e+00    0.2113619    0.1416565 -24.07 0.0005430107    1.314    0.239
       184  -8.8400    174.2804    183.4442   6.0226203269e+01   1.2805650977e+01    0.2196778    0.2090756 -84.46 0.0007420057    1.561    0.359
       185  -9.2203    139.3410    183.0686   6.7591036296e+01   1.8019954427e+01    0.2441733    0.2324945  86.53 0.0003637796    1.346    0.257
       186  -8.4980    137.7174    179.1326   6.7325560577e+01   1.8991417787e+01    0.2996691    0.1964193  54.18  0.001239809    1.968    0.492
       187  -7.8889    197.1218    183.2413   5.5903663189e+01   9.6561820503e+00    0.1468776    0.1379115 -13.58 0.0005266737    1.359    0.264
       188  -9.0597     44.5151    182.1100   9.2061186041e+01   3.1120733725e+01    0.3641999    0.1748229  58.62  0.001088863    2.131    0.531
       189  -8.0242      1.7756    183.5649   1.0383405179e+02   3.4607904102e+01    0.1841328   0.08633843  37.07 0.0009453013    1.682    0.405
       190  -9.4807    147.1671    180.4504   6.5404919338e+01   1.7314518222e+01    0.3770009    0.2705491  47.59  0.001019886    1.578    0.366
       191  -9.5345     25.6358    178.8310   9.7110966818e+01   3.3759325950e+01    0.6520581    0.2099426  65.92  0.002239542    3.889    0.743
       192  -7.5993    240.6065    179.7928   4.8321629427e+01   4.6477991399e+00    0.1479456   0.08642405 -36.11 0.0009264692    1.662    0.398
       193  -9.3171    191.5589    178.2232   5.6041487176e+01   1.1160565698e+01    0.2432551     0.220775  59.01 0.0005782122    1.666    0.400
       194  -8.5694    250.5385    172.4671   4.5689270841e+01   4.3897862843e+00    0.2016066   0.08471249 -32.11 0.0005587768    1.937    0.484
       195  -8.8916    249.1303    177.1896   4.6680894728e+01   3.9860194535e+00    0.2278059    0.1429115 -33.40 0.0004766106    1.489    0.328
       196  -8.5378    247.0000    173.9829   4.6432964207e+01   4.6141847514e+00    0.2676465    0.1037426 -26.17  0.001369593    2.376    0.579
       197  -8.3846    217.5936    177.2428   5.1396409754e+01   7.7929277969e+00    0.1839935    0.1641833 -47.58 0.0007531692    1.673    0.402
       198  -8.7469    205.2132    177.4353   5.3487060426e+01   9.3978821537e+00    0.1809466    0.1269711 -33.33 0.0004135291    1.385    0.278
       199  -8.0764    169.2175    178.2472   6.0349657839e+01   1.4384411395e+01    0.1589918    0.1514963  46.79 0.0006178226    1.369    0.270
       200  -8.5723    129.4536    177.4219   6.8985917138e+01   2.0581663115e+01    0.2778805    0.1927593  68.02  0.001053722    2.280    0.561
       201  -9.0366     35.9832    176.5792   9.4038460424e+01   3.3291643000e+01    0.4701517    0.1762168  64.96  0.001706117    3.357    0.702
       202  -8.4956    231.2771    176.6599   4.9163712694e+01   6.1510816033e+00    0.2321885    0.1408129 -38.46  0.001081461    1.703    0.413
       203  -7.7664     97.3422    177.2919   7.7049089515e+01   2.5437331999e+01    0.1385006    0.1045289  -7.09 0.0004318092    1.654    0.395
       204  -8.9103     89.0810    176.6454   7.9164262227e+01   2.6761352148e+01    0.2811929    0.1922605  65.15 0.0008182276    1.746    0.427
       205  -9.9279     57.6473    173.4806   8.7559810121e+01   3.1620924700e+01    0.9047274    0.3660811  67.80  0.002779284    4.714    0.788
       206  -8.1771    211.6023    175.8559   5.2134098345e+01   8.7659703359e+00    0.1586206    0.1004137 -41.15 0.0009423342    1.721    0.419
       207  -8.9769    182.9671    175.7901   5.7217765966e+01   1.2760313081e+01    0.2174654    0.1718164 -37.99 0.0005720175    1.369    0.270
       208  -9.1792    158.7637    174.9268   6.1943543352e+01   1.6522410653e+01     0.307407    0.2322027  69.08  0.001113293    2.245    0.555
       209  -9.3301    104.0270    174.4024   7.4874727965e+01   2.5065938871e+01    0.4778323    0.2537695  59.15  0.001650248    2.844    0.648
       210  -8.7148     12.8820    176.0598   1.0054702854e+02   3.5495460960e+01    0.3073068    0.1432977  55.36  0.001485339    1.836    0.455
       211 -10.5990     75.9463    170.1743   8.1949381619e+01   3.0038019053e+01     1.168355    0.4866561 -80.06   0.00378667    4.362    0.771
       212  -9.8391     81.6681    155.1435   7.8189987492e+01   3.2741164868e+01    0.5422242    0.5204805 -27.83  0.002056978    1.153    0.133
       213  -8.3401    224.6483    174.1994   4.9750944210e+01   7.2970864603e+00    0.1668971    0.1270857 -34.53 0.0007317913    1.413    0.292
       214  -9.5995    175.8030    171.9819   5.7928783791e+01   1.4428440007e+01    0.3187555    0.2480029 -41.04  0.001002456    1.399    0.285
       215  -8.4278    143.1256    172.6307   6.4992010342e+01   1.9364290156e+01     0.214479    0.1867293 -58.62  0.000613566    1.397    0.284
       216  -9.0998     45.2043    170.8029   9.0907231360e+01   3.3686751888e+01    0.3933942    0.2125845  71.12  0.001283897    2.092    0.522
       217  -8.4109    134.6726    171.2144   6.6713441928e+01   2.0965959354e+01    0.1961681    0.1766174 -88.82 0.0006542195    1.432    0.301
       218  -9.4853    121.3284    170.2144   6.9790077230e+01   2.3273132580e+01    0.3326614    0.2595401  88.92  0.001218381    1.813    0.448
       219  -9.0048    230.2977    169.0682   4.7988740568e+01   7.2548745049e+00     0.295842    0.1696396 -39.53  0.001781082    1.772    0.436
       220  -8.4626    205.8017    169.9847   5.2065968139e+01   1.0384817733e+01    0.2011005    0.1561703 -43.46 0.0009239272    1.552    0.356
       221  -8.2940    198.4845    169.9365   5.3324712454e+01   1.1421147591e+01     0.174793    0.1094925 -36.01  0.000497953    1.527    0.345
       222  -8.5199    149.9018    169.4124   6.2901067669e+01   1.8887869240e+01    0.2325775    0.1938957 -74.50  0.001117433    1.702    0.413
       223  -7.5669     68.3773    170.6882   8.4171261756e+01   3.0927179008e+01    0.1562812   0.09025104  55.16 0.0002950929    1.793    0.442
       224  -8.4260    244.7450    169.1249   4.5911968206e+01   5.4721106943e+00    0.1583515    0.1263716 -23.54 0.0005226492    1.239    0.193
       225  -8.2078    237.1249    169.3017   4.7024195439e+01   6.3721523111e+00    0.1522029    0.1216392 -12.02 0.0007005457    1.082    0.076
       226  -9.2339    166.8035    168.2704   5.9072633000e+01   1.6427363249e+01    0.2590064    0.2230416  87.24 0.0006464543    1.817    0.450
       227  -8.1079     88.7897    168.8254   7.8163318374e+01   2.8535259051e+01    0.2042928    0.1530852  57.12  0.001000516    1.388    0.280
       228  -8.4725    218.8002    168.1419   4.9598043592e+01   8.8744537412e+00     0.167518    0.1413414 -23.90 0.0004977895    1.230    0.187
       229  -7.9597    211.4023    168.1739   5.0801525875e+01   9.8707292828e+00    0.1627758    0.1012694 -42.43 0.0007043951    1.755    0.430
       230  -8.7293    111.7119    167.3595   7.1771791139e+01   2.5378004866e+01      0.34671    0.2345322  71.42  0.001305487    2.220    0.549
       231  -8.8804    191.8773    166.4565   5.3874775827e+01   1.2907559600e+01     0.247848     0.162618 -38.15 0.0007138854    1.506    0.336
       232  -8.4325    184.9923    166.3828   5.5137359659e+01   1.3946614585e+01    0.2194722    0.1688863 -48.45  0.000624645    1.579    0.367
       233  -9.7317    137.4816    164.5712   6.4886229690e+01   2.1801905963e+01    0.6614761    0.2902154  51.66  0.002324693    3.495    0.714
       234  -9.9721     94.8413    162.6093   7.5555979822e+01   2.9032302181e+01    0.8107677    0.4086964  66.14  0.002557246    4.361    0.771
       235  -8.8159     20.5829    166.0714   9.7825684045e+01   3.7238495040e+01    0.3692192    0.1230056  43.65  0.001503252    2.378    0.579
       236  -8.2464    234.0879    164.7145   4.6656018728e+01   7.3413568498e+00    0.1874705    0.1270443 -32.94 0.0005553168    1.357    0.263
       237  -9.3636     33.5739    163.2299   9.3731024558e+01   3.6734093528e+01    0.6198877    0.1751912  47.61  0.002171642    3.121    0.680
       238  -8.0439    240.3555    164.1244   4.5651601696e+01   6.6308045078e+00    0.1537265   0.08586366 -37.63 0.0005470475    1.692    0.409
       239  -8.7394    212.8984    163.5041   4.9706719616e+01   1.0326775437e+01    0.2174918    0.1504978 -34.62  0.000478893    1.372    0.271
       240  -8.6122    159.3730    164.0414   5.9857124301e+01   1.8343613972e+01    0.2213648    0.1860025  58.98 0.0008005828    1.545    0.353
       241  -8.5110    246.1261    162.8746   4.4629874704e+01   6.0801776381e+00    0.1589973    0.1258113 -25.95 0.0005311964    1.237    0.192
       242  -8.6370    204.8122    162.4941   5.0865946974e+01   1.1618061435e+01    0.2221895    0.1449165 -46.54 0.0006802592    1.825    0.452
       243  -9.3809      3.5669    162.1921   1.0268893530e+02   3.9483010146e+01    0.4517104    0.1470332  42.36  0.001921451    2.343    0.573
       244  -8.7524    151.7743    160.9591   6.0941855076e+01   2.0141906013e+01    0.2657038    0.2129541 -84.97  0.001058294    1.955    0.488
       245  -9.1147     60.5139    160.8371   8.5310294177e+01   3.4277503650e+01    0.3672483    0.3423788 -83.07  0.001804809    1.136    0.119
       246  -7.6648    222.2813    161.6230   4.7872411609e+01   9.3020699462e+00    0.1084217   0.08769099 -49.74 0.0003983432    1.712    0.416
       247  -8.9804    177.4061    160.4678   5.5489474442e+01   1.6080543511e+01    0.2378233     0.212933 -59.08 0.0008328313    1.471    0.320
       248  -8.9937    227.0495    158.7395   4.6618062058e+01   9.0526964036e+00    0.2674736    0.1984677 -57.55  0.001258453    2.252    0.556
       249  -9.7136    250.2164    157.6472   4.3156057635e+01   6.2310101112e+00    0.2825043    0.1656787 -28.21 0.0008480241    1.348    0.258
       250  -8.9193    246.7383    155.6234   4.3257740695e+01   6.9111496123e+00    0.3776134    0.1633219 -16.38  0.001623461    3.535    0.717
       251  -8.5339    237.3742    159.1599   4.5186809534e+01   7.6430226588e+00    0.1602701   0.08811984 -39.09 0.0009400219    1.754    0.430
       252  -8.7410    196.9005    157.9432   5.1381420878e+01   1.3470482792e+01     0.241648    0.1630997 -56.98 0.0009542239    2.286    0.563
       253  -8.4179    128.1290    158.7452   6.6100578111e+01   2.4508596028e+01    0.2260307    0.1953105 -72.94 0.0006442934    1.409    0.290
       254  -9.5692    105.7726    157.7477   7.1750764487e+01   2.8402656394e+01    0.4568891    0.3059696  71.46  0.001022449    2.174    0.540
       255  -8.1578    188.2455    157.4556   5.2851685400e+01   1.4873140438e+01    0.1962934    0.1520183 -55.20 0.0006997889    1.722    0.419
       256  -9.0854    167.6508    157.1638   5.6817234298e+01   1.8214079265e+01    0.2832837    0.2339863 -82.67  0.001082393    1.912    0.477
       257  -8.3809    218.0207    156.5121   4.7592011270e+01   1.0600578080e+01    0.2181624    0.1425372 -41.65  0.000730268    1.610    0.379
       258  -9.7022     49.5360    155.4457   8.8068121105e+01   3.6941171447e+01    0.4714233    0.2465458  45.83  0.001764645    1.741    0.426
       259  -8.6179    157.7402    155.9208   5.8671980053e+01   2.0078447686e+01    0.2314385     0.188936 -60.78 0.0007652395    1.551    0.355
       260  -9.1681    119.4913    155.0236   6.7616138248e+01   2.6732552642e+01    0.3633386    0.2555263  83.05  0.001620937    2.301    0.565
       261  -9.5032    241.8431    154.0318   4.3634016110e+01   7.7319565563e+00     0.286321    0.2173457  70.14  0.001748923    2.840    0.648
       262  -8.5702    144.6129    154.8111   6.1400899309e+01   2.2506624123e+01    0.2975166    0.2154443  57.27  0.001287811    1.740    0.425
       263  -9.5998    132.8455    152.6857   6.3800821616e+01   2.4945221128e+01    0.4535038    0.3311421  70.61  0.001162116    2.018    0.504
       264  -8.9479    133.5831    148.2204   6.2750174854e+01   2.5728209343e+01    0.2986465    0.2268506 -24.95 0.0009156945    1.469    0.319
       265  -9.4195     68.2068    153.7394   8.2051382757e+01   3.4995263535e+01    0.4570664    0.2277115  57.64  0.001410131    2.428    0.588
       266  -9.6776     29.1655    149.6097   9.4006476079e+01   4.0566378890e+01     0.709678    0.2981952  75.38  0.002642909    2.932    0.659
       267  -9.0254     20.2642    152.1966   9.7062290178e+01   4.0699723588e+01    0.2719531     0.124591  48.71 0.0008410812    1.928    0.481
       268  -8.3287      8.9759    153.0000   1.0067195543e+02   4.1369517882e+01    0.2057845   0.07169772  18.18 0.0007961286    2.899    0.655
       269  -8.7930    189.5466    150.0561   5.1172593122e+01   1.5855731900e+01     0.256509    0.2012276 -57.42 0.0009084431    1.712    0.416
       270  -8.0577    182.4125    151.1487   5.2717396743e+01   1.6827772185e+01    0.1774586    0.1175886 -48.61 0.0008698766    1.720    0.419
       271  -8.1815    162.5746    150.7227   5.6615310207e+01   2.0207370519e+01    0.1799512    0.1284553 -51.15 0.0009372397    1.593    0.372
       272  -8.5888     98.4752    150.6595   7.2561710364e+01   3.1182025624e+01    0.3061553    0.2100808  70.22 0.0007903202    1.937    0.484
       273  -9.4965    248.9223    149.1121   4.1792052262e+01   7.4556694371e+00    0.2645486    0.1301295 -30.64 0.0007643079    1.622    0.383
       274  -8.8860    243.2521    149.6345   4.2639022200e+01   8.1154162992e+00    0.2185485     0.123972 -32.34 0.0009765494    1.444    0.307
       275  -8.0990    204.8322    155.1582   4.9482563415e+01   1.2704554883e+01    0.1720664    0.1246565 -12.94 0.0004848237    1.301    0.231
       276  -8.3152    213.0471    149.6383   4.7075162043e+01   1.2302245596e+01    0.1993878    0.1444989 -36.60 0.0004876136    1.327    0.246
       277  -8.5111      2.8405    149.8319   1.0246214950e+02   4.2572947249e+01    0.1967701     0.126566  58.35 0.0006038386    1.347    0.258
       278  -8.4543    198.8994    148.5443   4.9212903563e+01   1.4615751309e+01     0.213698    0.1643963 -47.47 0.0005152299    1.509    0.337
       279  -9.9757     89.2962    146.1074   7.4451282745e+01   3.3721747265e+01    0.6804026    0.3902203  80.52  0.002394501    3.338    0.700
       280  -9.7099     39.8642    147.6707   9.0335657296e+01   3.9987890780e+01    0.5602751    0.2444876  57.17  0.001727142    2.506    0.601
       281  -9.5036    233.7549    147.3319   4.3521957577e+01   9.6815418498e+00    0.2486004    0.1289463 -31.50 0.0009522864    1.602    0.376
       282 -10.4223     55.1472    144.5213   8.4951844090e+01   3.9014765607e+01    0.9141408    0.4298222  65.84  0.003235775    3.052    0.672
       283  -8.4195    223.2449    146.5318   4.4899701883e+01   1.1262271813e+01    0.2121549     0.137482 -30.40 0.0004965168    1.310    0.237
       284 -10.6234    148.9223    144.9578   5.8452011431e+01   2.3662715547e+01    0.5316429     0.392591  87.60  0.001603988    2.369    0.578
       285  -9.0643     77.9155    146.6704   7.8005035288e+01   3.5338871097e+01    0.2831358    0.1915891  84.45 0.0008053317    1.872    0.466
       286  -9.1323     13.4848    146.0729   9.8866303392e+01   4.2790755440e+01    0.3667452    0.1884274  54.57  0.001298061    1.762    0.433
       287  -8.7038    240.4007    145.2282   4.2208261852e+01   9.0622283506e+00    0.2036178   0.09375337 -36.01 0.0005656521    1.820    0.450
       288 -10.0284    242.7147    142.6897   4.1423323336e+01   9.0842010114e+00    0.3861223    0.1530325 -23.86   0.00173822    2.824    0.646
       289  -8.2252    175.8053    146.0807   5.2978893358e+01   1.8779455673e+01    0.1914642    0.1804207 -63.05 0.0006515962    1.325    0.246
       290  -9.9266    139.0786    144.8995   6.0746648495e+01   2.5428731770e+01    0.3841711    0.2868738 -84.24  0.001260657    2.106    0.525
       291  -8.8389    247.2056    143.5859   4.1000977835e+01   8.3763349136e+00    0.2066401    0.1216366 -29.90 0.0005716413    1.349    0.259
       292  -7.2105    218.3004    144.6302   4.5282453019e+01   1.2250929766e+01    0.1157205   0.09073202 -54.86 0.0007031722    1.741    0.426
       293  -7.7918    194.4474    143.9389   4.9071940001e+01   1.6046330686e+01     0.167312    0.1064133 -56.91 0.0006645021    2.345    0.574
       294  -8.7423    165.6057    143.8484   5.4585097662e+01   2.0926177107e+01    0.2363002    0.2104321  85.25 0.0007324701    1.517    0.341
       295  -9.7145    125.1171    142.4311   6.3730510964e+01   2.8440858791e+01    0.4895307    0.3477419  89.63  0.001419937    2.297    0.565
       296  -9.4377      3.0172    141.7087   1.0208127227e+02   4.4613269912e+01    0.4190916    0.1875412  72.46  0.001699272    2.111    0.526
       297  -9.9203     73.0140    129.1020   7.6593734192e+01   4.0461277701e+01    0.4290006    0.2944934  74.76  0.001160485    1.786    0.440
       298 -10.4133     69.6311    140.7855   7.9689052289e+01   3.8009546502e+01    0.5121229    0.3324359  65.81   0.00183536    1.792    0.442
       299  -9.6623     70.0674    133.7474   7.8394084924e+01   3.9724164143e+01     0.427333    0.2821077  -9.07  0.001759787    2.368    0.578
       300  -8.2239    250.5951    140.7670   4.0045419701e+01   8.2936456240e+00    0.1546716   0.08473416 -37.11 0.0004383337    1.571    0.363
       301  -8.3931    181.9106    141.2225   5.0805680784e+01   1.8570924905e+01    0.1891027    0.1790466 -52.00 0.0006807241    1.265    0.209
       302  -9.6257     23.3778    137.8891   9.4964722195e+01   4.4114056844e+01    0.5846152    0.2349627  59.89  0.001677644    2.683    0.627
       303  -8.4974    172.4362    138.3703   5.2049435989e+01   2.0703292304e+01    0.2673904    0.2015535 -78.89 0.0008783494    2.254    0.556
       304  -7.8463    218.5637    138.4699   4.4032578100e+01   1.3097530806e+01    0.1220411    0.1018168 -21.72 0.0001948654    1.043    0.041
       305  -8.3798    207.5812    137.8646   4.5627192282e+01   1.4885602351e+01    0.2322807    0.1337066 -45.26 0.0008435844    1.832    0.454
       306  -8.7229    197.5073    137.4136   4.7210057938e+01   1.6581255790e+01    0.2549124     0.184816 -52.30 0.0008475683    1.671    0.401
       307  -7.9472    206.7127    146.1732   4.7427572375e+01   1.3768101742e+01    0.1850854    0.1382617 -42.34 0.0005285202    1.416    0.294
       308 -10.1630    106.7873    143.8001   6.8952948726e+01   3.1362366365e+01     0.767091    0.5483197 -89.29  0.002772834    1.986    0.497
       309 -10.4032     83.2666    133.1647   7.3987100923e+01   3.7828207145e+01    0.6077954    0.4133883 -66.21  0.001538778    1.575    0.365
       310  -8.4466    246.9201    130.1216   3.8502138668e+01   1.0145076190e+01    0.1976929     0.123896 -35.68 0.0005210618    1.339    0.253
       311  -9.0224    248.5391    134.9356   3.9214299922e+01   9.3061314934e+00    0.2434681    0.1431294 -39.96 0.0007754213    1.574    0.365
       312  -9.2487     38.8894    135.7672   8.9365888648e+01   4.3177649081e+01    0.3742026    0.2279498  62.63  0.001034556    1.693    0.409
       313  -8.7218     37.1939    131.4169   8.9457464914e+01   4.4503743088e+01    0.2198576    0.1931687 -89.37  0.000477852    1.098    0.090
       314  -7.9579    187.7298    135.3676   4.8506744442e+01   1.8553812516e+01    0.1272686    0.1015816 -62.03 0.0002783892    1.665    0.399
       315  -8.7896    151.1168    135.2964   5.5919409087e+01   2.5133820202e+01     0.289033     0.122491  35.19  0.001077826    2.604    0.616
       316  -8.4076     57.2724    135.0097   8.2910676038e+01   4.1184547678e+01    0.2058522    0.1913214  77.49 0.0008114902    1.045    0.043
       317  -7.9441    231.4747    134.0149   4.1285200046e+01   1.1809840072e+01     0.175568   0.09761899 -33.28 0.0003516335    1.492    0.330
       318  -8.5574    179.2154    133.6499   4.9723724520e+01   2.0325787733e+01    0.2580448    0.1954867 -59.59 0.0008144922    1.695    0.410
       319  -8.8343    112.8221    133.1550   6.5123272492e+01   3.2704033003e+01      0.33328    0.2488383  71.86   0.00112232    1.737    0.424
       320  -8.7497    237.4673    133.2657   4.0325630671e+01   1.1050757318e+01    0.1630689   0.09160603 -40.26 0.0008941556    1.635    0.388
       321  -9.2238    143.2157    131.8042   5.6983539948e+01   2.7301441794e+01    0.3299568    0.2541799 -76.61 0.0009338158    1.812    0.448
       322 -10.6626    132.4571    130.0720   5.9229759092e+01   2.9700712666e+01    0.7949515    0.4388958 -47.66   0.00223036    1.852    0.460
       323  -8.4282    250.8215    129.8371   3.7967859773e+01   9.6506854499e+00    0.3371293   0.07176908 -32.47   0.00122773    4.003    0.750
       324  -9.6984     97.9904    128.7323   6.8519372800e+01   3.6403965568e+01    0.6041105    0.2161143 -54.03  0.002038321    2.859    0.650
       325  -9.6509     13.0600    129.0361   9.7921270016e+01   4.7248435422e+01    0.5797542    0.2263073  59.98   0.00170325    2.641    0.621
       326  -7.9775    204.4524    130.1972   4.4555742228e+01   1.6561467457e+01    0.1747187    0.1085828 -44.11 0.0006163007    1.610    0.379
       327  -8.0211    192.8514    130.0934   4.6479745411e+01   1.8535830139e+01    0.1885227    0.1667056 -48.80 0.0003294335    1.270    0.213
       328  -9.2245    168.3467    129.3076   5.0914371278e+01   2.3057062753e+01    0.2665342    0.2224477 -79.33 0.0004532213    1.641    0.391
       329  -9.4387    152.8251    128.5831   5.4056452882e+01   2.6109815312e+01    0.4428045    0.2402305 -52.90 0.0009507661    2.141    0.533
       330  -7.8261    220.4579    129.5853   4.1968355581e+01   1.4087724542e+01    0.1215675    0.1024727 -22.06  0.000114558    1.026    0.025
       331  -8.2135    211.6760    129.0771   4.3182251404e+01   1.5552014606e+01    0.1979406    0.1366886 -46.21 0.0009103322    1.531    0.347
       332 -10.5646     60.2054    125.2208   8.0335648191e+01   4.3334179665e+01      0.78922    0.4294054  69.74  0.002712955    2.634    0.620
       333 -10.7356     45.2414    123.5895   8.5504290963e+01   4.5688030266e+01     1.272415    0.5381005  66.79  0.003807131    4.147    0.759
       334  -9.8024    117.8661    124.9795   6.1937499421e+01   3.3591978106e+01    0.5380367    0.3464092  71.66  0.001245045    2.549    0.608
       335  -7.7809    228.4931    125.4493   3.9993069155e+01   1.3438571601e+01    0.1206422   0.09950727 -25.68 0.0002006241    1.039    0.038
       336  -8.8442    179.2537    124.4633   4.7709565470e+01   2.1897057351e+01    0.2593149    0.2168566 -64.28 0.0007387187    1.479    0.324
       337 -10.2431     28.1043    120.2050   9.1520564694e+01   4.8393536439e+01     1.083496    0.4884534  88.06  0.004107627    2.581    0.613
       338  -8.3259    162.7582    136.1362   5.3558751571e+01   2.2838274408e+01    0.2028192    0.1891106 -66.09 0.0008241839    1.267    0.211
       339  -8.1196    188.4369    124.1697   4.5971648015e+01   2.0280073578e+01     0.188156    0.1163311 -46.69 0.0006436426    1.666    0.400
       340  -9.1706    158.6328    121.3306   5.1131260373e+01   2.6371758613e+01    0.3308482    0.2296287 -64.31  0.001065057    1.953    0.488
       341  -7.9709    195.0289    121.9745   4.4352906296e+01   1.9465136758e+01    0.1959632    0.1545576 -62.85 0.0006270955    1.639    0.390
       342  -8.5735    171.9574    121.4513   4.8430067716e+01   2.3785787016e+01    0.2481768    0.1815762 -51.89 0.0004519407    1.487    0.328
       343  -8.3670     84.7719    122.3808   7.1371603281e+01   4.0248258646e+01     0.220346    0.1455327  22.50 0.0007906071    1.732    0.423
       344  -7.6940    203.2575    121.6629   4.2936839435e+01   1.8081462357e+01    0.1244609   0.09387193 -54.87 0.0002225883    1.576    0.365
       345  -9.8090    131.1491    118.6272   5.6929469749e+01   3.2364873927e+01    0.5264741    0.3641292  84.11   0.00203272    2.459    0.593
       346  -9.7339     70.9994    119.3264   7.5436430564e+01   4.3270289041e+01    0.5007345    0.3064327 -88.19   0.00199332    2.259    0.557
       347  -9.9885    141.7129    117.7971   5.4121727036e+01   3.0415518314e+01    0.6514346    0.3557133 -50.39  0.001163978    1.939    0.484
       348  -9.5335      2.9060    116.9871   1.0092681045e+02   5.1066271005e+01    0.5784803    0.2002906  60.42  0.002127706    2.950    0.661
       349  -8.5539    241.5866    116.8129   3.6559831244e+01   1.2648640110e+01    0.1697698   0.08784105 -40.22  0.000940136    1.671    0.402
       350  -7.8834    231.5268    117.4842   3.7968788931e+01   1.4078138806e+01    0.1210794   0.09863543 -30.79 0.0008089509    1.068    0.063
       351  -8.1601    185.9152    115.9632   4.4581783142e+01   2.2102881255e+01    0.2039159    0.1589245 -65.29 0.0006224951    1.648    0.393
       352  -9.8190    109.6138    114.2430   6.1777349637e+01   3.7616074730e+01    0.5160745    0.3549513 -83.72  0.001452451    2.200    0.545
       353  -8.3297    193.0526    115.0511   4.3148726265e+01   2.0935380297e+01    0.2000027    0.1533502 -61.33 0.0004825964    1.622    0.383
       354 -10.0787     92.8763    112.5421   6.6540535563e+01   4.1220238319e+01    0.5608851    0.3862962 -81.08  0.001246961    1.943    0.485
       355  -9.9219     79.0617    112.5019   7.1181215729e+01   4.3691386147e+01    0.5766394    0.3719253  77.17  0.001740861    2.263    0.558
       356  -8.6838     59.6092    114.6341   7.8658917205e+01   4.6193677996e+01    0.3762591    0.2021082   8.52  0.001304306    3.078    0.675
       357  -8.6635    250.4995    114.5131   3.5049092194e+01   1.1654549792e+01    0.1294478      0.11526  78.53 -6.41531e-05    1.619    0.382
       358  -8.2076    167.4026    114.1585   4.7634912218e+01   2.5971869636e+01    0.1969001     0.126178 -49.35 0.0004955935    1.627    0.386
       359 -10.0789    133.8146    109.1969   5.3938492154e+01   3.3791297478e+01    0.6354381    0.3149309 -52.12   0.00215077    2.221    0.550
       360  -9.7988    121.7576    112.2703   5.7860222912e+01   3.5624651695e+01    0.4602952    0.3551968  84.02  0.001032901    1.724    0.420
       361  -8.7765    123.6345    107.6819   5.6197027031e+01   3.6232217064e+01    0.2420973    0.1871034  -2.85  0.001070815    1.756    0.430
       362  -8.4699    174.8526    111.7404   4.5618015243e+01   2.4936196139e+01    0.2482896     0.168735 -61.31 0.0006036336    1.918    0.479
       363  -8.5223    159.1048    111.5607   4.8710978088e+01   2.8107963702e+01    0.2636084    0.1914361 -55.94  0.000550368    1.533    0.347
       364 -10.1710     66.4598    109.4180   7.5056614544e+01   4.6536459266e+01    0.6477932    0.3509588 -64.67  0.002265835    1.915    0.478
       365  -9.8790     14.4788    110.6506   9.5903541556e+01   5.2068813835e+01    0.5535664    0.2682203  77.70  0.001914377    2.203    0.546
       366  -8.7876      2.9786    109.5684   1.0046354058e+02   5.3040558089e+01    0.2715175    0.1624781 -22.35  0.001295826    2.065    0.516
       367 -10.5419    249.0432    107.7691   3.3881616734e+01   1.2730987255e+01    0.4062317    0.2065035 -37.90  0.002342632    1.575    0.365
       368  -7.9863     41.9657    109.3470   8.4569984003e+01   4.9890610562e+01    0.2377295    0.1187041  -7.91 0.0007046519    4.378    0.772
       369  -8.3941    189.0665    107.5732   4.2106502182e+01   2.2893572544e+01    0.2668729    0.1658269 -48.51 0.0008007145    1.652    0.395
       370  -9.0804    109.0795    106.8650   6.0103716070e+01   3.9405351224e+01    0.2989555    0.2055637 -22.53  0.001244404    2.039    0.510
       371  -9.2781    119.0136    105.7018   5.6950319862e+01   3.7623330627e+01    0.5008686      0.27426 -60.76  0.001886666    2.371    0.578
       372 -10.6078    108.6190     98.5205   5.8043637274e+01   4.1385757782e+01    0.8834231    0.4901613  65.65  0.001252203    3.013    0.668
       373  -8.9091    107.1806     92.7931   5.6887968079e+01   4.2969107841e+01    0.6674014    0.3537887  25.59  0.002164896    3.296    0.697
       374 -10.7230     23.1028    102.6994   9.1439545804e+01   5.3575490420e+01    0.8496168    0.3611156  57.47  0.002251333    2.775    0.640
       375  -9.7730    150.5921    103.1390   4.8441777168e+01   3.1462732931e+01    0.4775028    0.2758489 -57.54   0.00135337    2.180    0.541
       376  -8.7642     78.4851    104.8033   6.9613438758e+01   4.5727109351e+01    0.3581479    0.2246749  12.15  0.001278513    2.421    0.587
       377 -10.5662     45.8327    102.0934   8.1711682928e+01   5.1376880334e+01    0.9084857    0.4192061  61.41  0.002996965    3.300    0.697
       378  -8.4980    166.6161    103.8485   4.5289153555e+01   2.7981856582e+01    0.2598037    0.1952311 -63.12 0.0007099333    1.587    0.370
       379  -8.6854     93.2357    104.5709   6.4480166884e+01   4.3072653464e+01    0.2154967    0.1497477  25.90 0.0009289849    1.647    0.393
       380  -9.9570    128.3865    101.6216   5.3361140392e+01   3.6513974380e+01    0.3696058    0.2935513 -82.22 0.0008784126    1.581    0.368
       381  -9.3354      6.6727    102.8970   9.8474326754e+01   5.4642285643e+01    0.2797208    0.1740386  60.93 0.0007948972    1.574    0.365
       382  -7.9883    175.5323    101.9920   4.3144704317e+01   2.6486838245e+01    0.2140818     0.128332 -40.08 0.0006465272    1.551    0.355
       383  -8.2849    159.8326    100.9978   4.5930982723e+01   2.9909438494e+01    0.2219031    0.1876676 -63.47 0.0005772251    1.293    0.227
       384  -9.2076     82.0237     99.7118   6.7091828870e+01   4.6360437778e+01    0.3919487     0.275722 -88.84  0.001032954    1.921    0.480
       385  -8.5172     63.7917    101.3744   7.4313838531e+01   4.9039916356e+01    0.2106387    0.1476458  20.64 0.0006766243    1.606    0.378
       386 -10.0231     64.0611     95.6519   7.2867833279e+01   5.0477332498e+01    0.6263304    0.3818344  76.87  0.001938754    2.563    0.610
       387  -9.1994     94.9439     96.5766   6.1821441574e+01   4.4635940061e+01    0.3537716    0.2460696 -64.79 0.0005616862    1.620    0.383
       388  -7.4629    183.7043     96.3601   4.0331414204e+01   2.5780605119e+01     0.142348    0.1012921 -62.63 0.0004015016    1.705    0.413
       389  -9.3260    139.7606    104.2323   5.1211652588e+01   3.3549934164e+01    0.3785907    0.2848241 -64.66 0.0008804278    1.566    0.362
       390  -8.5131    164.9440     94.0515   4.3129375729e+01   3.0072175508e+01    0.2944882     0.186926 -49.76 0.0007363866    1.604    0.376
       391  -9.3129    246.0448     93.0102   3.1219524015e+01   1.5084024072e+01    0.1870258    0.1199021 -53.64  0.001056808    1.714    0.416
       392  -8.3656    176.2166     92.9149   4.0762060214e+01   2.7886972374e+01    0.2171927    0.1756635 -56.81 0.0006282122    1.285    0.222
       393  -9.7459    139.1429     91.4164   4.7922041055e+01   3.6218856961e+01    0.5834607    0.2535276 -45.80  0.001190606    2.302    0.566
       394 -10.1295    123.5826     91.2263   5.1769126333e+01   3.9727611441e+01    0.6470617    0.4241288  37.41  0.001285225    1.661    0.398
       395  -9.3035     45.9001     92.2747   7.9709347796e+01   5.3993053597e+01    0.4738537    0.2627531   4.08  0.001752609    2.797    0.642
       396  -8.9715     22.2319     90.4333   9.0139879361e+01   5.6984221368e+01    0.5468283    0.2666512 -45.62  0.002264955    2.161    0.537
       397  -9.4820      5.2436     91.7530   9.8181602709e+01   5.7723979341e+01    0.4183599    0.1895471  61.61  0.001287013    2.370    0.578
       398  -7.9508    157.8297     91.7861   4.3940317537e+01   3.2013814868e+01    0.1988684    0.1648401 -64.58 0.0004905679    1.308    0.236
       399  -9.5071     34.9715     89.8509   8.4128911225e+01   5.5936467876e+01    0.5207744    0.2814526  78.85  0.001660038    2.554    0.608
       400 -10.0720     86.4714     86.0066   6.1744772501e+01   4.8816462434e+01    0.6302583    0.4179631 -70.35   0.00174138    1.904    0.475
       401  -9.3668     66.0838     87.1736   6.9883608612e+01   5.2305793601e+01     0.711376    0.3072216  19.89  0.001894249    4.906    0.796
       402  -7.5662    164.3010     87.6124   4.1561137014e+01   3.1337828394e+01    0.1536182     0.107008 -66.31 0.0007015758    1.791    0.442
       403  -9.7703     48.6436     84.1893   7.6632055044e+01   5.5759888222e+01    0.6154391    0.3421535  64.79  0.001902669    2.652    0.623
       404  -9.7341    104.8825     83.0992   5.4741257763e+01   4.5598152086e+01    0.4755183     0.339444 -81.38 0.0009483334    1.964    0.491
       405  -8.3082    157.9460     83.9360   4.1794181395e+01   3.3387252377e+01    0.2184051      0.20437 -50.77 0.0005390645    1.020    0.020
       406  -8.9920    140.9630     82.5838   4.4999238248e+01   3.7494567580e+01    0.2862653    0.1988056 -57.18 0.0005932158    1.568    0.362
       407  -8.4167     64.3094     82.4619   6.9319102811e+01   5.3788087768e+01    0.2599706    0.1850158 -84.35 0.0006815605    1.778    0.438
       408  -9.4779     10.2793     81.1051   9.4650728850e+01   6.0336296834e+01     0.478855    0.2057962  53.05  0.001565605    2.619    0.618
       409  -7.6315    185.6352     82.2805   3.6505218338e+01   2.7646321290e+01    0.1399874    0.1011365 -69.42 0.0007013956    1.681    0.405
       410  -8.0399    151.1503     89.1178   4.4604447675e+01   3.3973828116e+01    0.2048257    0.1685816 -66.23 0.0004254164    1.327    0.246
       411  -9.5344     24.8237     80.3654   8.7222758335e+01   5.9485841381e+01    0.5386324     0.296638  72.07  0.001503023    2.313    0.568
       412  -8.7606    119.3967     80.0478   4.9595638617e+01   4.2965862694e+01    0.3238325      0.22368 -62.74  0.000898254    1.702    0.412
       413  -8.9002     74.6752     80.1185   6.4411672421e+01   5.2507140162e+01    0.3705111    0.2494619 -81.64  0.001002944    2.118    0.528
       414  -8.9086    249.5051     80.5107   2.8291452506e+01   1.6122216025e+01    0.1176182   0.09093183 -36.43 0.0008105261    1.016    0.016
       415  -8.0660    150.3820     80.2729   4.2296262101e+01   3.5752633688e+01    0.2127214    0.1305695 -47.94 0.0007044541    1.619    0.382
       416  -8.2584    166.8412     79.1981   3.8828407233e+01   3.2209576275e+01    0.2187967    0.1795301 -56.48 0.0005036466    1.210    0.173
       417  -8.8752    129.2297     79.0221   4.6728147639e+01   4.0890715841e+01    0.2139995    0.1916159 -41.41 0.0003464399    1.127    0.113
       418  -9.3827    127.9365     74.8713   4.5777851618e+01   4.1991183377e+01    0.3896765    0.2366089 -56.08 0.0007780306    1.871    0.466
       419  -8.1079    184.0000     78.0151   3.5666267180e+01   2.8658153024e+01    0.2317597   0.07250886 -34.83 0.0007994098    2.922    0.658
       420  -8.0459    174.6494     77.7873   3.7102233811e+01   3.0714178920e+01    0.2054904    0.1164764 -44.32 0.0004444326    1.647    0.393
       421  -7.7487    189.4668     76.4872   3.4455385619e+01   2.7738626802e+01    0.1376273    0.1204739 -49.38 8.332811e-05    1.051    0.048
       422  -8.3411    140.5025     75.0474   4.2884527734e+01   3.8992395012e+01    0.2260281    0.1439538 -41.85  0.000445296    1.533    0.348
       423  -9.7438     82.5172     72.3683   5.8930595634e+01   5.2764828362e+01    0.4922006    0.3181576 -71.54  0.001170228    2.161    0.537
       424  -8.2434    163.5670     73.2763   3.7778027057e+01   3.3931079080e+01    0.2682326    0.1273991 -40.80 0.0008885032    1.953    0.488
       425  -8.7299    115.6833     72.2973   4.8171358929e+01   4.5379097464e+01    0.4149843    0.1864468 -40.76   0.00151703    2.265    0.558
       426  -8.3004     42.7136     72.6300   7.6476169026e+01   5.9559116253e+01    0.2493544    0.1789661  86.84 0.0006043011    1.702    0.412
       427  -7.8271    175.5312     72.4805   3.5535757020e+01   3.1364461180e+01    0.1393748    0.1294687 -46.41 0.0008093704    1.028    0.028
       428  -9.2027    105.9076     71.3857   5.0699297567e+01   4.7838686383e+01    0.3384988    0.2133477 -58.88 0.0009570202    1.855    0.461
       429  -9.2641     95.1757     70.9102   5.3954883670e+01   5.0368924594e+01    0.4708031    0.2573405 -58.58  0.001261345    2.271    0.560
       430  -9.2647     97.2078     61.1586   4.9876117270e+01   5.1915229689e+01    0.5538205    0.3489635 -21.27   0.00200302    2.372    0.578
       431  -8.9362     28.2107     70.9589   8.3551416247e+01   6.1672505479e+01    0.3536862    0.1813223 -27.71  0.001349746    2.693    0.629
       432  -8.6722     31.9541     68.4830   8.0957696759e+01   6.1930888794e+01    0.3047696    0.1876504  20.01  0.001225961    1.725    0.420
       433  -9.3559     51.4152     69.3011   7.1247936913e+01   5.9156225010e+01    0.4753513    0.2758425 -78.12  0.001440373    2.488    0.598
       434  -8.0227    156.9942     69.9716   3.8033694848e+01   3.5997375262e+01    0.1811173    0.1585458 -44.67 0.0004964875    1.093    0.085
       435  -8.9586     16.6680     69.8579   8.9594793993e+01   6.2945267786e+01    0.2724376     0.186233  66.36 0.0007848897    1.627    0.385
       436  -8.7474    147.1000     67.9947   3.9365329102e+01   3.8668905411e+01    0.2986604    0.1991842 -47.36 0.0006143273    1.466    0.318
       437  -8.6708    121.8324     66.0313   4.4484516282e+01   4.5114280836e+01    0.3140579        0.201 -59.63  0.000748236    1.839    0.456
       438  -8.7034    138.6017     65.8353   4.0476162166e+01   4.1085091224e+01    0.2917352    0.2026919 -61.07 0.0007015362    1.603    0.376
       439  -9.9551     63.1599     73.2302   6.7072182081e+01   5.6261602260e+01    0.5416196    0.3260685 -68.64  0.001399517    2.033    0.508
       440  -8.8980    110.2390     63.5450   4.6768241785e+01   4.8373406952e+01    0.3121814    0.2378959 -78.68 0.0006431428    1.609    0.379
       441  -8.8783     37.0807     63.8310   7.6938714616e+01   6.2526711791e+01    0.3017049    0.2364991  75.78  0.001396666    1.502    0.334
       442  -8.6126     64.8091     62.7777   6.2857800491e+01   5.8435862068e+01    0.2538066    0.1657924  -9.54 0.0009446489    2.764    0.638
       443  -7.8935    158.4261     61.5272   3.5300632591e+01   3.7028691657e+01    0.1459625    0.1318941 -62.18 0.0001383863    1.044    0.042
       444  -9.6364     73.3584     59.3010   5.7921069998e+01   5.7540589558e+01     0.448274    0.2724854 -58.31  0.001104924    1.887    0.470
       445  -8.1430     52.3733     61.4129   6.8222551709e+01   6.0926779459e+01    0.2843986    0.1428344  17.51  0.000945013    3.278    0.695
       446  -7.6524     68.6507     60.6977   6.0424233791e+01   5.8173895411e+01    0.1551112    0.1210609  -2.32 0.0007039544    1.695    0.410
       447  -7.9189    147.2234     58.9483   3.6563615567e+01   4.0141984529e+01    0.1947245    0.1169647 -37.51 0.0005015783    1.619    0.382
       448  -7.9105     89.2883     59.6389   5.1984030508e+01   5.4034446151e+01    0.1584155    0.1209571 -81.73 0.0007024521    1.690    0.408
       449  -8.5898    130.8375     57.3563   3.9439517021e+01   4.4445556883e+01    0.2607864    0.1922353 -50.50 0.0005487751    1.358    0.264
       450  -9.7353     23.5000     56.3241   8.2635867040e+01   6.5915641233e+01    0.5111284    0.2953875  72.71  0.001883525    2.519    0.603
       451  -9.6384      7.3857     56.7137   9.2701835104e+01   6.6962743534e+01    0.3564348    0.2275127  70.35  0.001054149    1.778    0.438
       452  -8.1751    139.9898     55.9751   3.7039429743e+01   4.2402787037e+01    0.2367153    0.1676018 -66.93 0.0004793704    1.594    0.373
       453  -9.2115    119.2256     55.3045   4.1482440846e+01   4.7684166431e+01    0.4105422    0.2330501 -51.05    0.0012614    1.900    0.474
       454  -8.7315     44.3319     55.3377   7.0270653935e+01   6.3627373825e+01    0.3185238      0.23781  81.96  0.001013393    1.796    0.443
       455  -9.2692     62.8863     54.4397   6.0621739984e+01   6.0671045767e+01     0.340793    0.2206145 -54.66 0.0006443844    1.630    0.387
       456  -8.9840     54.2344     53.8535   6.4552307843e+01   6.2376605797e+01    0.4029429    0.2525499 -72.90  0.001219143    2.312    0.567
       457  -8.5986    105.9233     53.1333   4.4257875652e+01   5.1353415554e+01      0.24057    0.2005081 -78.78 0.0006047194    1.325    0.245
       458  -9.4221     92.4776     50.2925   4.7305039650e+01   5.5115330306e+01    0.4547117    0.2578442 -53.04  0.001206384    2.025    0.506
       459  -8.4616     74.1990     52.0081   5.4736774026e+01   5.8903743829e+01    0.2476822    0.1779881 -10.27 0.0005733946    2.048    0.512
       460  -8.9219    129.8643     49.2578   3.6896105990e+01   4.6019673541e+01    0.2670914    0.1947013 -48.97 0.0006836663    1.366    0.268
       461  -8.3313    144.9936     48.6974   3.3716421340e+01   4.2295321303e+01    0.2506648    0.1484196 -34.36 0.0007250751    1.681    0.405
       462  -8.2622    120.9590     47.2989   3.8198086455e+01   4.8590956517e+01    0.2077546    0.1918707  77.82  0.000494012    1.036    0.035
       463  -8.3478    112.2298     46.6750   4.0112001215e+01   5.0901674924e+01    0.2595117    0.1921531 -50.26 0.0006997955    1.387    0.279
       464  -8.9922     82.2606     46.2948   4.9240994458e+01   5.8242957335e+01    0.3218476    0.2483736 -62.93 0.0007130548    1.493    0.330
       465  -8.4803     45.1117     44.6304   6.5709560847e+01   6.5973736490e+01    0.2348436     0.198598 -67.10 0.0005964694    1.313    0.238
       466  -8.9555     16.8440     44.5909   8.3671926027e+01   6.9440360270e+01    0.2587452    0.1931701 -80.60  0.000675831    1.444    0.308
       467  -8.8269    148.6364     43.3621   3.1349597046e+01   4.2165938139e+01    0.2299984    0.1535819 -65.07 0.0006693547    1.623    0.384
       468  -8.7974    132.8378     43.1217   3.4146361689e+01   4.6209130931e+01    0.2315187    0.1882542 -64.49 0.0004305716    1.235    0.190
       469  -9.3070     69.7714     41.4539   5.2084433158e+01   6.1937326712e+01    0.4102536    0.2803715 -72.12  0.001185334    2.203    0.546
       470  -9.0313     58.2228     42.3476   5.7781420430e+01   6.4128520915e+01    0.3586658    0.2512928 -70.50  0.001262046    1.989    0.497
       471  -9.8970      5.1713     41.5917   9.1243825027e+01   7.0929126410e+01    0.4609317    0.2324764  85.56  0.001987077    2.468    0.595
       472  -8.8421     93.2973     41.9862   4.3651755604e+01   5.6399060573e+01    0.3586503    0.2205849  24.95  0.001374671    2.584    0.613
       473  -8.7570     95.4681     37.7646   4.1198585729e+01   5.6564337825e+01     0.322224    0.2086124 -54.85 0.0007382887    1.766    0.434
       474  -7.9370    140.3829     41.1978   3.2061472514e+01   4.4563540514e+01    0.2058432    0.1244517 -45.17 0.0003912965    1.607    0.378
       475  -8.5451    105.9446     41.1212   3.9609405337e+01   5.3394433875e+01     0.236713    0.1952103 -73.89  0.000542182    1.313    0.238
       476  -8.6347     36.9300     40.4971   6.8822220776e+01   6.8145321649e+01    0.2573759    0.1993727 -75.14 0.0006993547    1.579    0.367
       477  -7.9678    160.5322     39.5174   2.8297198313e+01   3.9739255887e+01    0.1440405    0.1260451 -66.06 5.525874e-05    1.046    0.044
       478  -8.2989     80.5230     36.5132   4.5589068454e+01   6.0397824727e+01    0.2503372     0.134212 -48.71 0.0006229628    2.095    0.523
       479  -7.7694    133.5232     36.4378   3.1661140654e+01   4.6997196961e+01    0.1472722    0.1346138 -82.80    5.165e-05    1.020    0.019
       480  -9.2868     26.2200     35.0273   7.3642697326e+01   7.0788312713e+01    0.3540776    0.2327494 -66.54 0.0009709956    1.694    0.410
       481  -8.2523    126.0147     35.3216   3.2702323130e+01   4.9099418150e+01    0.2056837    0.1809315  78.02 0.0003503735    1.076    0.071
       482  -8.3346    111.9668     34.5000   3.5443419553e+01   5.2864560025e+01    0.2632826    0.1849079 -72.92 0.0006924708    1.681    0.405
       483  -7.9813     88.9980     34.2561   4.1670515300e+01   5.8727208726e+01    0.2064322    0.1955938  73.56 0.0005547459    1.032    0.031
       484  -8.5393    119.4894     33.1054   3.3210104300e+01   5.1108437936e+01    0.2462666    0.1919668 -74.03 0.0006502086    1.355    0.262
       485  -8.6528     60.7343     32.5682   5.1913859115e+01   6.5508071633e+01    0.2637627    0.2297064 -66.16 0.0005579639    1.329    0.248
       486  -8.9596     48.5385     33.0354   5.8439079454e+01   6.7816486093e+01    0.2495681     0.196949  56.99 0.0006350773    1.440    0.305
       487  -8.9334     12.8271     30.0241   8.1908504869e+01   7.3268746921e+01    0.3393194     0.208011  87.96  0.001112319    2.324    0.570
       488  -8.3758     72.3530     31.0628   4.6111116443e+01   6.3214955981e+01    0.2537027     0.199596  87.02 0.0007137241    1.607    0.378
       489  -8.7943    101.6534     29.1673   3.5778054187e+01   5.6294317102e+01    0.2305473    0.1729915 -54.92 0.0005111828    1.422    0.297
       490  -8.8310     81.5793     27.3555   4.0895324478e+01   6.1612351637e+01     0.309658    0.2114058 -65.34  0.000879134    1.919    0.479
       491  -9.0747      3.7600     27.6043   8.8792386250e+01   7.4415550221e+01     0.250701    0.1705057 -87.13 0.0008522271    1.657    0.397
       492  -8.6260     91.9670     26.4576   3.7214122870e+01   5.9154964106e+01    0.2773692    0.1907521 -52.39 0.0007091635    1.606    0.377
       493  -8.1208     34.7633     22.9467   6.1590024706e+01   7.2151541814e+01    0.2127406    0.1646652 -88.79  0.001066997    2.046    0.511
       494  -7.8070    104.3205     22.6560   3.2298069902e+01   5.6473602569e+01    0.1562672    0.1054939 -66.83 0.0007049809    1.727    0.421
       495  -8.8761     63.5549     20.6831   4.4300811020e+01   6.6867748181e+01    0.3374904    0.2103797 -53.39  0.001033999    2.017    0.504
       496  -8.7076     48.4610     21.4267   5.2157673240e+01   6.9964331013e+01    0.2340192    0.2259881  24.44 0.0006803615    1.060    0.057
       497  -8.1927     19.4314     21.1965   7.2439802110e+01   7.4616521233e+01    0.1794711    0.1285968 -69.43   0.00084457    1.695    0.410
       498  -7.9076    120.5038     20.5572   2.8097049265e+01   5.2459468138e+01    0.1458991    0.1309714 -86.88 0.0002423674    1.034    0.033
       499  -8.8371     74.3167     19.4514   3.9398620370e+01   6.4516713066e+01    0.2893468    0.2232359 -62.04    0.0005947    1.537    0.349
       500  -7.8317     39.1349     18.4151   5.5948561205e+01   7.2245384103e+01    0.1873017    0.1247834  51.80 0.0005560851    1.680    0.405
       501  -8.0183    112.5483     16.9563   2.8113235661e+01   5.4986962062e+01    0.2030089    0.1411333 -30.53 0.0004104374    1.522    0.343
       502  -8.1363     87.9626     17.3583   3.4005781185e+01   6.1381436899e+01    0.2033886    0.1718834  67.40 0.0005118609    1.106    0.096
       503  -8.1999     29.9887     15.9262   6.0801373005e+01   7.4235361479e+01    0.1949117    0.1671315  81.10  0.000621467    1.648    0.393
       504  -7.9132    191.4961    249.5189   6.6655914185e+01   1.6962771367e+00    0.1057412   0.07700433  11.52 0.0008091502    1.079    0.073
       505  -7.9847     17.4321     13.9410   7.0126718471e+01   7.6348659396e+01    0.1642352    0.1172213 -88.09 0.0004316066    2.379    0.580
       506  -7.6307     83.6806     11.2978   3.2117471273e+01   6.3193558545e+01    0.1443771    0.1051564 -70.59 0.0003174459    1.617    0.381
       507  -9.0846    175.6678    247.5762   6.9226448419e+01   3.5997453292e+00    0.2224295    0.1919735  58.91  0.001162472    2.160    0.537
       508  -8.7199    156.6151    248.2938   7.2862227322e+01   5.6044953114e+00    0.2489768    0.1456888  46.17  0.001137634    2.323    0.569
       509 -10.2422    102.6602    246.1234   8.3531104748e+01   1.2069042681e+01    0.3024298    0.2220021  54.72 0.0006361913    1.561    0.359
       510  -8.3753     94.0397    249.2442   8.5622093690e+01   1.2556209867e+01    0.1937926   0.08977819  44.86 0.0007448596    1.963    0.491
       511  -8.3042    218.4692    247.3577   6.1885016671e+01  -7.5533492175e-01    0.2070258   0.08863211 -37.50   0.00128248    2.599    0.615
       512  -8.8056    132.1272    247.6102   7.7588819784e+01   8.4710558796e+00    0.2032514    0.1471036  48.35 0.0007695246    1.671    0.401
       513  -7.9917    112.8692    248.2638   8.1591089340e+01   1.0579241220e+01    0.1428621    0.1301934  32.79  0.001106724    1.258    0.205
       514  -8.8971    242.8501    246.1590   5.7988075561e+01  -2.8778552288e+00    0.2479576   0.08867712 -23.75  0.001428611    2.735    0.634
       515  -9.2673    224.4954    245.5141   6.0688660210e+01  -1.1369404717e+00    0.2179604    0.1355613 -19.07  0.001093779    1.402    0.287
