#   1 NUMBER                 Running object number                                     
#   2 MAG_AUTO               Kron-like elliptical aperture magnitude                    [mag]
#   3 X_IMAGE                Object position along x                                    [pixel]
#   4 Y_IMAGE                Object position along y                                    [pixel]
#   5 X_WORLD                Barycenter position along world x axis                     [deg]
#   6 Y_WORLD                Barycenter position along world y axis                     [deg]
#   7 A_WORLD                Profile RMS along major axis (world units)                 [deg]
#   8 B_WORLD                Profile RMS along minor axis (world units)                 [deg]
#   9 THETA_WORLD            Position angle (CCW/world-x)                               [deg]
#  10 FWHM_WORLD             FWHM assuming a gaussian core                              [deg]
#  11 ELONGATION             A_IMAGE/B_IMAGE                                           
#  12 ELLIPTICITY            1 - B_IMAGE/A_IMAGE                                       
         1 -15.7566    244.8934     55.3813   5.1112200793e+01   1.6958309788e+01      9.61121     2.245261 -21.48   0.02874498    4.092    0.756
         2 -13.3654    243.4922    196.9155   8.1633442162e+01   2.4397416865e+00     3.302447       1.0296 -15.75   0.01077383    8.040    0.876
         3 -10.0564    104.0034    242.4984   1.0903707226e+02   1.7363875406e+01    0.1483503    0.1391702 -15.15  0.001388196    1.690    0.408
         4 -10.3039    224.6222    249.4169   9.1496029541e+01   8.6283155511e-01    0.1725389    0.1480205   6.00   0.00115615    1.465    0.318
         5 -11.0273    209.8122    248.5211   9.3488925784e+01   2.8411587367e+00    0.2746185    0.2096174   9.55  0.002239443    1.349    0.259
         6 -10.3165    140.3943    248.0874   1.0380371655e+02   1.2056034612e+01    0.2351251    0.1850455   4.50  0.001977236    1.859    0.462
         7  -9.4967     61.4949    249.0052   1.1605898301e+02   2.1519838843e+01   0.09998368   0.07318605 -45.33 0.0008106759    2.613    0.617
         8 -10.4989    242.2966    247.0256   8.8768971495e+01  -1.1989790682e+00    0.2059643    0.1370264   1.02 0.0009946983    1.487    0.328
         9 -10.5982    233.0981    245.9430   8.9901442927e+01   3.3550041679e-02    0.2407443    0.1674458  11.78  0.001212853    1.285    0.222
        10 -10.5052    176.5714    245.0937   9.8001168461e+01   7.5479147850e+00    0.2810484    0.1978277  -0.47  0.002223643    1.938    0.484
        11  -9.6502    163.5457    245.7884   1.0004416950e+02   9.2275139177e+00    0.1688328     0.100275 -48.08  0.001276807    2.494    0.599
        12  -9.6866    156.9015    246.5173   1.0112843128e+02   1.0041052603e+01    0.1576401    0.1247868   9.30  0.001350236    1.606    0.377
        13 -13.0292    224.4827    177.8034   8.1380495674e+01   7.1204952063e+00     2.474406     1.060826 -12.14   0.01025812    4.174    0.760
        14 -11.9953    234.7417    147.9553   7.4324356318e+01   8.5391696986e+00     2.121198     0.728634 -14.76  0.005992347    7.233    0.862
        15 -13.7924    228.8147    192.7814   8.3161022834e+01   4.9819135964e+00     3.767001     1.236877 -21.09   0.01572523    4.699    0.787
        16 -10.8750    191.4900    246.3633   9.5912849680e+01   5.4364313391e+00    0.2941457    0.2294406   4.58  0.002257567    1.467    0.318
        17 -10.0632    169.4681    241.1725   9.8671444839e+01   8.8862860472e+00     0.213839    0.1527768   8.76   0.00150352    1.785    0.440
        18  -9.8983    214.1473    240.0649   9.1877733238e+01   2.9456200952e+00    0.1711904    0.1298095  -9.09  0.000787854    1.549    0.355
        19  -9.3574    125.1774    240.8418   1.0555401539e+02   1.4856034537e+01     0.128343    0.1004387  30.77   0.00108031    1.376    0.273
        20  -9.7526    219.6926    239.3894   9.0996503887e+01   2.2632871084e+00    0.1456195    0.1158358  -4.72 0.0008558625    1.458    0.314
        21 -10.2801    183.6658    238.3086   9.6197152639e+01   7.2250623923e+00    0.2487515    0.1867878 -18.72  0.001694392    1.756    0.430
        22  -9.5401    134.8489    239.8822   1.0394060244e+02   1.3691854528e+01     0.150387    0.1105158  34.69  0.001232738    1.247    0.198
        23  -9.2490    117.6244    239.7945   1.0666624741e+02   1.5961530933e+01    0.1153688   0.08690801  85.89 0.0007608233    1.678    0.404
        24  -9.8009     68.7733    240.4068   1.1448308781e+02   2.1834718364e+01    0.1319258   0.07232939  35.94 0.0009550008    1.709    0.415
        25 -10.2635    159.5477    236.9684   9.9773233072e+01   1.0670692782e+01    0.2364343    0.1913327   8.45  0.001996855    1.530    0.347
        26  -9.7207    148.8151    238.8809   1.0164641849e+02   1.1928952012e+01    0.1537298     0.110641  31.26  0.001235497    1.277    0.217
        27 -11.0549    204.9973    233.9934   9.2488064249e+01   4.6904901238e+00    0.2957314     0.235395 -15.53  0.001913002    1.564    0.361
        28 -10.9635    190.9810    233.4720   9.4533892912e+01   6.6707789032e+00    0.3365015    0.2691107 -23.24  0.002271718    1.638    0.389
        29 -10.4236    177.0196    234.2138   9.6759793976e+01   8.5384193102e+00    0.3024106    0.1792262 -23.78  0.002099178    2.529    0.605
        30  -9.7693     90.8517    236.2810   1.1069737849e+02   1.9775683480e+01    0.1496288     0.126671 -21.34  0.001243975    2.140    0.533
        31  -9.7263    139.4489    235.2102   1.0277927347e+02   1.3607622066e+01    0.1891837     0.132323  27.19  0.001160978    1.507    0.336
        32  -9.1833    129.4117    235.7756   1.0443882093e+02   1.4891620938e+01    0.1079246   0.09558851 -25.61 0.0006897558    1.671    0.402
        33  -9.9061     78.7678    236.3965   1.1265315738e+02   2.1212446802e+01    0.1362206   0.07336605  36.45 0.0009559085    1.681    0.405
        34 -11.1268    216.1972    232.3561   9.0633317096e+01   3.3004605876e+00    0.3192178     0.234682  11.16  0.001783956    1.291    0.226
        35  -9.6660    170.7528    233.4163   9.7645350863e+01   9.4905424561e+00    0.1701713    0.1319705  -8.36  0.001380866    1.708    0.415
        36  -9.1054    152.8155    233.1926   1.0044925385e+02   1.2004634936e+01     0.138527   0.09802584  28.56  0.001067502    1.353    0.261
        37  -9.0689    165.5237    232.5305   9.8368688997e+01   1.0311155941e+01    0.1043431   0.07401771  37.31 0.0001524074    1.035    0.034
        38  -9.7781    144.9646    231.5399   1.0153889197e+02   1.3273987093e+01    0.1622891     0.136931   6.42  0.001142699    1.557    0.358
        39  -9.5891    133.6694    230.8814   1.0330166203e+02   1.4898910895e+01    0.1747225    0.1244222 -34.75  0.001326822    2.155    0.536
        40  -9.6351    122.9932    231.5178   1.0509826960e+02   1.6261511111e+01    0.1595582    0.1419961  -9.40  0.001374701    1.676    0.403
        41  -9.6491    100.3005    231.3362   1.0879921497e+02   1.9243300241e+01   0.08789853   0.07159962  22.77 0.0006560004    1.660    0.397
        42 -10.2170     55.9738    231.0060   1.1603303763e+02   2.4548784940e+01    0.1494142   0.09744622  21.18  0.001028721    2.582    0.613
        43  -9.4005    158.0580    229.9667   9.9277685138e+01   1.1630166145e+01    0.1536649    0.1063683  19.34 0.0007906817    1.678    0.404
        44  -9.6451    173.9992    227.8735   9.6515882587e+01   9.6058599287e+00    0.1790936    0.1366315  -1.22  0.001405429    1.661    0.398
        45  -9.3445    152.3289    228.4054   1.0003238857e+02   1.2606910732e+01    0.1422877    0.1244298  13.66 0.0008066056    1.379    0.275
        46  -9.7448    113.6192    228.7115   1.0639294086e+02   1.7858474389e+01    0.1440006    0.1124316  18.96   0.00111591    1.751    0.429
        47 -10.3671    211.8083    226.2161   9.0502575046e+01   4.4275597365e+00    0.2584542    0.1508207 -12.55  0.001248623    2.193    0.544
        48  -8.9093    138.4191    227.8065   1.0223078957e+02   1.4614141302e+01    0.1150931    0.0972556 -21.82 0.0009431432    1.714    0.417
        49 -10.3099    198.9205    225.9391   9.2413740749e+01   6.2625601637e+00    0.2169322    0.1670307  10.14  0.001268131    1.325    0.245
        50  -9.5578    184.5586    226.7462   9.4728541932e+01   8.2213077582e+00    0.1649853    0.1234517  12.83  0.001048603    1.422    0.297
        51  -9.8919    163.3143    226.0640   9.8011605245e+01   1.1316412235e+01     0.228375    0.1568891   4.78  0.001576097    2.135    0.532
        52 -10.1779    206.0593    224.1664   9.1103910496e+01   5.4170502561e+00    0.2321303    0.1658016  -4.05  0.001427775    1.587    0.370
        53  -9.9827    190.6237    224.8661   9.3558062685e+01   7.5432311790e+00    0.2199968    0.1634598 -10.26   0.00130782    1.652    0.395
        54 -10.7393    193.5213    217.3867   9.2164711036e+01   7.8641462838e+00    0.3348514    0.2335292 -13.55  0.001825108    1.780    0.438
        55  -9.1721    143.5930    226.2898   1.0123250016e+02   1.4074680883e+01     0.111438   0.09883965 -16.62 0.0009385687    1.558    0.358
        56  -9.3847    155.4162    224.1965   9.9082288112e+01   1.2649159054e+01    0.1546056    0.1026621 -37.95    0.0011271    2.084    0.520
        57  -9.2834    120.5751    225.2005   1.0492935719e+02   1.7378717107e+01    0.1134763   0.09858803 -37.01 0.0009462886    1.683    0.406
        58  -8.8991    170.4719    224.0336   9.6634455486e+01   1.0514371512e+01    0.1278326   0.08311685  -1.25 0.0008091822    2.477    0.596
        59  -9.5539    129.1509    224.1220   1.0340032228e+02   1.6344512399e+01    0.1572679    0.1188473  32.87  0.001224548    1.307    0.235
        60  -9.8841    180.5849    221.7679   9.4755002716e+01   9.2971480540e+00    0.2087908    0.1505237 -19.20  0.001189608    1.811    0.448
        61 -10.0529    148.3172    221.6206   9.9966906670e+01   1.3960619436e+01    0.2095727    0.1725829   3.95  0.001661956    1.596    0.373
        62  -8.9407    135.4961    223.4853   1.0228329038e+02   1.5543846250e+01    0.1060141   0.07791813  43.11 0.0008102281    1.036    0.035
        63  -9.9613    185.9618    220.2882   9.3722399674e+01   8.6709604554e+00    0.2203151    0.1468142 -24.41  0.001511545    1.952    0.488
        64  -9.6041    174.6796    221.4844   9.5661955041e+01   1.0181169176e+01    0.1919024    0.1319182  14.84 0.0009674632    1.686    0.407
        65  -8.9594    114.5258    221.9869   1.0565322871e+02   1.8612520377e+01    0.1186598   0.08734269 -23.02 0.0008097118    2.534    0.605
        66  -9.7694    200.1371    209.6869   9.0099845635e+01   7.6598694978e+00    0.2264129    0.1452125 -22.64  0.001573196    1.905    0.475
        67 -10.6088    210.4100    199.8445   8.7081745230e+01   7.0972812498e+00    0.2843216    0.2490761  14.63  0.001524519    1.235    0.190
        68 -10.1130    209.4119    193.4476   8.6278195842e+01   7.9002443673e+00    0.2524038    0.1674715  -0.77  0.001104624    1.700    0.412
        69  -9.9766    210.3684    187.5768   8.5213206475e+01   8.3621864854e+00    0.2419633    0.1723733   7.52  0.001050867    1.405    0.288
        70 -10.7484    202.3179    217.4271   9.0800034142e+01   6.5808523939e+00    0.2962819    0.2245289 -15.82  0.002226409    1.566    0.361
        71  -9.4416    204.6019    212.1203   8.9733955445e+01   6.7586894345e+00    0.2026746    0.1196104 -12.89 0.0008785485    2.219    0.549
        72 -10.2795    206.3041    206.4907   8.8686297484e+01   7.0573111896e+00    0.2905757    0.1980818   7.50  0.001325029    1.557    0.358
        73  -9.1211    206.0000    202.0553   8.8099550072e+01   7.5462547057e+00    0.1487347    0.1052421  17.07 0.0006192253    1.300    0.231
        74  -9.2764    165.7634    220.4288   9.6975508353e+01   1.1587937351e+01    0.1552533   0.07721722  35.31 0.0009479432    1.633    0.388
        75 -10.5451    210.8085    217.3315   8.9485713260e+01   5.3646224043e+00    0.2595749    0.1801622 -22.81  0.001298259    1.738    0.425
        76 -10.0551    210.1395    211.3465   8.8770758738e+01   6.0194906987e+00    0.2927446    0.1588372  14.81  0.001384037    2.282    0.562
        77  -9.2492    213.3916    206.7584   8.7623310927e+01   5.9755596425e+00    0.1365255   0.09092614  -4.98 0.0006352187    1.681    0.405
        78  -9.5753    158.8859    217.9084   9.7809696200e+01   1.2873886350e+01    0.1649485    0.1200701  26.67  0.001219819    1.337    0.252
        79 -10.1906    170.9280    215.2944   9.5522204995e+01   1.1406348585e+01     0.247702    0.1545663 -28.72   0.00167512    2.207    0.547
        80  -9.2233    140.5177    220.9565   1.0119014236e+02   1.5148912470e+01    0.1228941   0.08775183 -10.17 0.0008088784    2.467    0.595
        81  -9.7470    179.4825    215.9640   9.4216743380e+01   1.0071194127e+01    0.2063658    0.1176498  30.64 0.0009419331    1.521    0.343
        82  -9.2763    165.3261    215.0215   9.6408654983e+01   1.2263694712e+01    0.1426151    0.1204445  31.15 0.0006742402    1.151    0.131
        83  -9.6339    143.4494    214.6729   1.0002513020e+02   1.5507346322e+01    0.2241246    0.1367541  19.23  0.001313931    2.454    0.592
        84  -9.2695    185.6982    214.0583   9.2976148459e+01   9.3557819120e+00    0.1450416    0.1169442  25.48  0.001138108    1.129    0.115
        85  -9.5451    154.6910    212.6937   9.7903543051e+01   1.4107354669e+01    0.1640975     0.130941 -18.07  0.001236405    1.709    0.415
        86  -9.2380    132.2097    213.6172   1.0182728303e+02   1.7259555490e+01     0.156164   0.08113905  35.91 0.0009450408    1.681    0.405
        87 -10.1701    177.1987    209.2754   9.3737986021e+01   1.1145492068e+01    0.2338683    0.1847434 -14.36  0.001308903    1.568    0.362
        88 -10.1119    192.9696    208.8360   9.1121956228e+01   8.8190983379e+00    0.2151095    0.1584047 -18.35  0.001181975    1.638    0.389
        89  -9.5771    186.8060    209.6571   9.2222809032e+01   9.6580517270e+00    0.1897139    0.1247853   7.89  0.001094752    1.910    0.476
        90  -9.8553    161.3145    209.2111   9.6372114262e+01   1.3542228674e+01    0.2298243    0.1662393   9.29  0.001574919    1.801    0.445
        91  -9.0701    171.4050    206.7422   9.4370232885e+01   1.2311238223e+01    0.1631276    0.1036964 -22.68  0.001039653    2.232    0.552
        92  -9.4749    173.1750    202.8026   9.3558253321e+01   1.2501829881e+01    0.1755385     0.118683  16.79  0.001052697    1.715    0.417
        93  -8.8907    167.6544    207.6810   9.5117101346e+01   1.2769568096e+01      0.11151   0.07282235  20.90 0.0007049161    1.727    0.421
        94  -9.3081    183.1452    206.1450   9.2350136945e+01   1.0593927621e+01    0.1728283    0.1201019  21.96  0.000935911    1.392    0.282
        95  -9.2669    156.4727    205.9139   9.6788427745e+01   1.4673676156e+01    0.1347624    0.1112697 -39.51  0.001023049    1.572    0.364
        96  -9.7635    150.0042    205.9532   9.7903535107e+01   1.5642473800e+01     0.168074    0.1201734  18.87  0.001130512    1.687    0.407
        97 -10.5958    198.1314    202.3794   8.9398749810e+01   8.7125477613e+00    0.3112652    0.2033564  -4.64  0.001513488    1.918    0.479
        98 -10.1471    139.9631    203.9996   9.9418855292e+01   1.7398792314e+01    0.1662185    0.1243832  16.21  0.001133746    1.718    0.418
        99  -9.6459    178.9982    202.6964   9.2570476359e+01   1.1617544066e+01    0.1915841    0.1370908  13.55  0.001169297    1.560    0.359
       100  -9.3080    192.9676    201.3069   9.0080555464e+01   9.6193801007e+00    0.1600861    0.1097433  34.75 0.0007112786    1.117    0.105
       101 -10.0797    165.2364    200.6429   9.4619076306e+01   1.3986515747e+01    0.2328638    0.1487434   7.46  0.001319294    2.530    0.605
       102  -9.9444    187.0093    202.1308   9.1169106483e+01   1.0447116508e+01    0.2192088    0.1642487 -21.26  0.001070672    1.617    0.382
       103  -9.2025    131.3513    201.3193   1.0063430999e+02   1.9042430861e+01     0.107478   0.07947358  19.04 0.0007047703    1.742    0.426
       104 -10.3109    202.3767    195.9399   8.7779579438e+01   8.7358910553e+00    0.2840655    0.1910759  -4.23  0.001434756    1.747    0.427
       105  -9.4835    205.0621    189.9476   8.6437385112e+01   8.9521766603e+00    0.2043664    0.1318321 -15.50 0.0008808945    1.811    0.448
       106  -9.2611    191.3854    196.7941   8.9693840529e+01   1.0360131646e+01    0.1402205   0.09974491 -10.65 0.0009427341    1.689    0.408
       107  -9.7423    194.2654    193.4198   8.8725255696e+01   1.0282655020e+01    0.2009647    0.1540623  -6.95  0.001097713    1.462    0.316
       108  -9.7181    176.6910    196.1646   9.2059677781e+01   1.2741829355e+01    0.1943828    0.1454947  -1.29  0.001325054    1.642    0.391
       109  -9.3693    170.1121    196.4948   9.3227515704e+01   1.3736722249e+01    0.1815786    0.1387717  18.10  0.001088073    1.376    0.274
       110  -9.2800    149.4751    197.0293   9.6895425826e+01   1.6886137777e+01    0.1407212    0.1139332 -42.89 0.0007898621    1.573    0.364
       111 -10.0094    184.4928    194.8936   9.0564024744e+01   1.1660474277e+01    0.2567544    0.1786831   1.49  0.001213052    1.800    0.444
       112  -8.7942    156.6898    196.6579   9.5577053161e+01   1.5816555939e+01    0.1112837   0.07934061  17.17 0.0007045079    1.696    0.410
       113  -9.4237    140.5115    195.9851   9.8362761861e+01   1.8404890280e+01    0.1366872   0.09597258 -14.20 0.0008094335    2.454    0.592
       114  -9.9794    199.2396    189.6725   8.7342644466e+01   9.9083079214e+00    0.2432693    0.1712601   3.78  0.001242637    1.574    0.365
       115  -9.5187    161.9899    190.9892   9.3882858903e+01   1.5719384348e+01    0.1782669    0.1272089  15.62  0.001130768    1.692    0.409
       116  -9.8754    193.3544    186.9904   8.7904395652e+01   1.1156737624e+01    0.2705268    0.1586668  20.77  0.001304039    1.918    0.479
       117  -9.5106    185.7809    189.3085   8.9528532863e+01   1.2109023032e+01    0.2063356     0.134038   4.17  0.001210105    2.082    0.520
       118  -9.6125    172.6487    189.4935   9.1806075298e+01   1.4202656488e+01      0.19017    0.1447957 -26.42  0.001094239    1.607    0.378
       119  -9.7214    179.0101    188.5396   9.0568307660e+01   1.3294342207e+01    0.2015063    0.1527805  -3.31  0.001152472    1.581    0.368
       120  -9.2451    156.8300    186.7739   9.4216506678e+01   1.7106887543e+01    0.1876278    0.1154897  13.06 0.0009420905    2.787    0.641
       121  -9.6087    166.7782    184.7854   9.2153635893e+01   1.5759434818e+01    0.1883641    0.1144391  12.39 0.0009438156    2.718    0.632
       122  -8.7432    150.6840    185.6917   9.5179785881e+01   1.8243574622e+01    0.1135804   0.08318125  18.69 0.0007029853    1.631    0.387
       123 -10.2972    203.4819    182.1875   8.5469828882e+01   1.0055853818e+01    0.2795768    0.1975497  -6.04  0.001204538    1.572    0.364
       124  -8.7113    173.3400    184.2999   9.0923556111e+01   1.4748579051e+01    0.1193347   0.07977524  20.44 0.0007035822    1.667    0.400
       125 -10.2056    211.2463    180.8513   8.3988662799e+01   8.9388298534e+00    0.3855595    0.2362845  -0.70  0.001722309    2.000    0.500
       126 -10.5397    219.0855    166.4598   8.0259780486e+01   9.2090972676e+00    0.4355133    0.2657828   2.09  0.001886615    1.913    0.477
       127  -9.8828    221.5329    160.6563   7.8814256812e+01   9.4328743251e+00    0.2633677    0.1777756   0.21 0.0008227057    1.527    0.345
       128  -9.5791    215.2105    175.7545   8.2500209266e+01   8.8418441164e+00    0.2516392    0.1261353 -18.47 0.0008073924    2.467    0.595
       129  -9.2451    215.5971    172.2348   8.1835393608e+01   9.1604573715e+00    0.1673399    0.1157987  17.08 0.0006687898    1.337    0.252
       130  -9.8716    183.9352    181.4682   8.8647559170e+01   1.3357843671e+01    0.2525121    0.1824611  -3.47  0.001604082    1.683    0.406
       131  -8.8577    140.6399    183.6921   9.6759395092e+01   2.0134137463e+01     0.116014    0.0846605  18.47 0.0007040601    1.735    0.424
       132  -9.4676    197.3307    181.3087   8.6347650811e+01   1.1163834086e+01    0.1899146     0.132673 -10.37   0.00102247    1.656    0.396
       133  -9.4377    176.8310    179.9108   8.9642965291e+01   1.4734385878e+01    0.1838097     0.141305  18.82  0.001212941    1.315    0.239
       134  -9.8635    191.0798    177.7686   8.6833423406e+01   1.2620648597e+01    0.2312015    0.1655352 -19.26  0.001242786    1.611    0.379
       135 -10.0312    205.3346    175.5696   8.4076761442e+01   1.0496894403e+01    0.2721934    0.1814364  -5.07  0.001523578    1.728    0.421
       136  -9.7539    197.8947    175.3152   8.5275096165e+01   1.1771501494e+01     0.215423    0.1605127  -4.09  0.001084377    1.463    0.316
       137  -8.9760    169.4916    176.5256   9.0424203835e+01   1.6408864799e+01    0.1220697   0.09839913  31.44 0.0001907797    1.089    0.082
       138 -10.2967    100.9944    175.9882   1.0346079499e+02   2.7427207659e+01    0.1665237    0.1336558  58.46   0.00115893    1.025    0.024
       139  -9.7864    210.5432    174.3623   8.3018664763e+01   9.7658906633e+00     0.227478    0.1636114  12.46  0.001075061    1.333    0.250
       140  -9.4189    182.6846    174.4450   8.7747827013e+01   1.4450266595e+01    0.1931317    0.1375439   0.23  0.001049351    1.734    0.423
       141  -9.3577    192.9805    171.9427   8.5547344265e+01   1.3010542124e+01    0.1919697    0.1278359  13.19 0.0009846401    1.716    0.417
       142  -8.7588    187.5295    171.4786   8.6412343002e+01   1.4000897402e+01    0.1234922    0.0987573  27.26 0.0008084434    1.075    0.070
       143  -9.4088    212.1614    168.2527   8.1697876628e+01   1.0179836802e+01    0.1955503    0.1438173  -0.12 0.0007862197    1.373    0.272
       144  -9.8480    205.4800    167.5848   8.2683180039e+01   1.1395449778e+01    0.2516213    0.1787128  16.53  0.001016335    1.360    0.265
       145  -9.2077    178.9965    167.7719   8.7300390671e+01   1.5957179874e+01     0.169891    0.1263461  -0.38 0.0008307824    1.614    0.381
       146  -9.7028    191.9189    163.7134   8.4315334643e+01   1.4225582623e+01    0.2588685    0.1673328  -8.96  0.001425605    1.986    0.497
       147  -9.3704    199.6817    163.4061   8.2922008177e+01   1.2901721126e+01    0.2018234    0.1364631  -0.31  0.001140221    1.741    0.425
       148 -10.3296    213.3041    161.3504   8.0272599562e+01   1.0772425787e+01    0.3215839    0.2102869  -4.86  0.001484484    1.701    0.412
       149  -9.7467    205.6378    159.8988   8.1279505006e+01   1.2283209157e+01     0.275429    0.1791222   6.86  0.001194665    1.793    0.442
       150 -10.3163    226.7467    155.9131   7.7101523674e+01   9.0592273706e+00    0.3794232    0.2024051 -11.62  0.001312295    2.202    0.546
       151 -10.3750    228.3804    150.8058   7.5865687805e+01   9.3369556737e+00    0.5070671    0.1945084 -18.15  0.002007882    3.630    0.725
       152  -8.8155    177.2904    157.3691   8.5808159688e+01   1.7684579085e+01    0.1285317   0.09075499  11.65 0.0006262615    1.714    0.417
       153  -9.3901    222.1919    155.0597   7.7661361103e+01   9.9434112793e+00    0.2002338    0.1228095 -21.06  0.001033127    1.681    0.405
       154  -9.8402    221.6510    151.0121   7.6971486582e+01   1.0497444751e+01    0.2532133    0.1698161   1.44  0.001038831    1.552    0.356
       155  -9.5839    216.3448    155.1325   7.8618589445e+01   1.0960340784e+01    0.2285602    0.1570699   4.90 0.0009100539    1.508    0.337
       156  -9.3911    197.3004    155.3435   8.1862460291e+01   1.4336750139e+01    0.2153864    0.1437012 -13.10 0.0009837175    1.735    0.424
       157 -12.1625    238.4090    218.6052   8.5583807842e+01   1.3803816104e+00    0.6774406    0.3081731 -17.99  0.004221268    2.613    0.617
       158 -12.4783    243.1984    149.8066   7.3414986426e+01   6.8965498773e+00     1.892298    0.8096098   2.46  0.005436991    7.331    0.864
       159  -8.4899    202.3554    150.3073   8.0036363608e+01   1.4060045096e+01    0.1350649   0.08593682  19.09 0.0005218358    1.722    0.419
       160  -9.5690    215.3681    147.5045   7.7305642913e+01   1.2033603780e+01    0.2248833    0.1770526  -0.84 0.0008207734    1.211    0.174
       161  -9.2935    208.4813    143.4702   7.7649984803e+01   1.3793048258e+01    0.2131836    0.1169533 -15.51  0.001018646    2.228    0.551
       162 -10.0855    223.5689    145.1812   7.5518230484e+01   1.0824418100e+01    0.3007243    0.1870846   2.53   0.00111167    1.807    0.447
       163 -10.4063    230.0098    139.3546   7.3325373997e+01   1.0327472053e+01    0.3724045    0.1730858 -25.36  0.001773406    2.152    0.535
       164  -9.1488    214.3635    140.8819   7.6144994373e+01   1.3020123799e+01    0.1798954    0.1109072 -11.89 0.0007371848    1.800    0.444
       165  -9.5425    224.4237    139.1541   7.4161788390e+01   1.1368245924e+01    0.2195621    0.1160326 -19.78 0.0008181487    1.985    0.496
       166  -9.4079    218.9507    136.6210   7.4516652344e+01   1.2683421252e+01    0.2649717    0.1467298  -5.64  0.001197161    2.357    0.576
       167  -9.6616    225.8840    132.3298   7.2505910613e+01   1.1898376111e+01    0.2543291    0.1519398  -5.16  0.001257443    1.887    0.470
       168  -9.9690    221.0119    127.5658   7.2257855554e+01   1.3394785603e+01    0.2539152    0.1676578  -2.78   0.00101295    1.616    0.381
       169 -12.4770    248.3072    123.5784   6.7268858854e+01   8.7467802272e+00     1.864354    0.2621521 -26.73  0.005174018    6.316    0.842
       170 -13.8273    247.5429    217.3081   8.4104114949e+01   2.4122706830e-01      2.21723    0.4849178 -25.03  0.009553405    5.677    0.824
       171 -12.2134    248.7401    179.8785   7.8087405469e+01   3.1420461840e+00    0.8962879    0.2404205 -31.17   0.00399775    3.927    0.745
       172 -12.8649    247.2137    159.6138   7.4695146970e+01   5.2584602791e+00     1.527681    0.6050003 -15.18  0.006855285    3.112    0.679
       173 -12.8486    236.8553    193.9894   8.2146502567e+01   3.6665277671e+00     2.005202    0.4603956 -23.33  0.006552152    7.836    0.872
       174  -9.4219    218.2625     89.3456   6.3624696704e+01   1.8800173230e+01    0.1450862    0.1000633  11.61 0.0004228336    1.602    0.376
       175 -11.9556    241.3307    178.3060   7.8904208026e+01   4.4159028355e+00    0.6042444    0.2643304 -24.75  0.002611143    2.390    0.582
       176  -9.6543    124.6382    248.3436   1.0625636438e+02   1.4066440800e+01    0.1544197    0.1234895 -45.17  0.001374771    1.880    0.468
       177 -10.8445    215.0481     79.9306   6.1643997581e+01   2.0735809450e+01    0.2264384    0.1976856  -0.13 0.0007208717    1.068    0.063
       178  -9.3864    211.4740     75.9484   6.1110492577e+01   2.2074508264e+01    0.2253858     0.135072 -24.30 0.0009643814    1.582    0.368
       179  -9.4612    132.7729    246.0212   1.0480287712e+02   1.3275745735e+01    0.1357849    0.1031269   8.96  0.001076895    1.981    0.495
       180  -8.9164    114.1561     70.1973   7.9569071760e+01   4.5797707074e+01    0.1935587     0.168653 -82.05 0.0002800981    1.266    0.210
       181  -8.9949    151.5744    245.1892   1.0181936416e+02   1.0886834912e+01    0.1071305   0.09025503  -4.89 0.0009391002    1.649    0.393
       182  -8.8212    212.4738     65.4996   5.8051855229e+01   2.3196365098e+01    0.1465731    0.1338035  -3.41 3.642081e-05    1.020    0.020
       183  -9.6144    113.1551    245.0668   1.0778786182e+02   1.5905151894e+01    0.1425265    0.1092688  37.41  0.001047547    1.291    0.225
       184  -9.0454    203.2872     65.3492   5.9386936364e+01   2.5414855974e+01    0.1551742    0.1082681  16.73 0.0007022892    1.660    0.397
       185 -10.9209    225.1897    242.0510   9.0536862158e+01   1.3362238880e+00    0.2699645    0.1842844  -8.93  0.001983177    1.661    0.398
       186  -9.3046    206.6481     58.1814   5.6792095432e+01   2.5536039271e+01    0.2175422    0.1338157 -12.66 0.0009487506    1.716    0.417
       187 -10.1061    201.7721    241.2705   9.3826077560e+01   4.5007935998e+00    0.1994436     0.160101  -3.83  0.001280016    1.472    0.321
