#   1 NUMBER                 Running object number                                     
#   2 MAG_AUTO               Kron-like elliptical aperture magnitude                    [mag]
#   3 X_IMAGE                Object position along x                                    [pixel]
#   4 Y_IMAGE                Object position along y                                    [pixel]
#   5 X_WORLD                Barycenter position along world x axis                     [deg]
#   6 Y_WORLD                Barycenter position along world y axis                     [deg]
#   7 A_WORLD                Profile RMS along major axis (world units)                 [deg]
#   8 B_WORLD                Profile RMS along minor axis (world units)                 [deg]
#   9 THETA_WORLD            Position angle (CCW/world-x)                               [deg]
#  10 FWHM_WORLD             FWHM assuming a gaussian core                              [deg]
#  11 ELONGATION             A_IMAGE/B_IMAGE                                           
#  12 ELLIPTICITY            1 - B_IMAGE/A_IMAGE                                       
         1 -13.4862    222.9533      7.7971   3.4514782673e+01   2.8727229837e+01     1.201945    0.9455886  53.96  0.004350187    1.484    0.326
         2 -14.2917    196.1563     38.3387   4.4858418901e+01   3.1452727162e+01     2.274286     1.484392  14.62   0.01015638    2.576    0.612
         3 -11.1598     74.6983     13.1760   6.1968468614e+01   6.2745226282e+01    0.4305321    0.2661619  65.25  0.001661413    2.493    0.599
         4 -11.4167    248.4851    232.4866   7.9723520806e+01  -9.4648133841e+00    0.3286976    0.2299612 -29.63  0.002168079    1.533    0.347
         5 -19.4627     12.4680    148.0327   1.1988807156e+02   4.2154249866e+01     19.17427     4.637326 -76.78   0.06546063    3.946    0.747
         6  -8.9054     58.0279    227.9953   1.1699816559e+02   1.9676572176e+01    0.1655182    0.1336471  66.52   0.00035517    1.005    0.005
         7  -8.2086     76.0209    220.9328   1.1268917701e+02   1.8743730560e+01     0.275301    0.1648711 -63.37  0.001082903    1.762    0.433
         8  -9.3616     59.7319    220.4558   1.1599719544e+02   2.0974134548e+01     0.278293    0.2467453 -13.51  0.001865917    1.675    0.403
         9 -10.1383     51.6936    219.3675   1.1753079075e+02   2.2185416257e+01    0.3312873     0.139062  56.27  0.001576936    2.298    0.565
        10 -10.3886     49.3059    216.6482   1.1778344910e+02   2.3029220595e+01    0.2721047    0.2544682 -52.97  0.001856448    1.420    0.296
        11 -10.2167    163.3416    216.8169   9.3512578346e+01   5.8584688946e+00    0.1955395    0.1574307  37.36 0.0008413239    1.134    0.118
        12  -8.6355     63.0813    213.9225   1.1469213280e+02   2.1893960845e+01     0.142461    0.1367341  67.42 0.0003585341    1.237    0.192
        13 -10.0736     72.0000    248.9407   1.1606779176e+02   1.3948403294e+01    0.1797332    0.1263843  88.90  0.001190505    1.463    0.317
        14  -9.7278     90.0694    212.8747   1.0880703694e+02   1.8406134769e+01    0.2473112    0.1728545  57.13 0.0005513823    1.331    0.249
        15  -9.0128     57.5056    211.5195   1.1563223205e+02   2.3101520948e+01     0.201873    0.1410076 -86.49 0.0006156384    1.362    0.266
        16  -9.6777     56.4085    208.4906   1.1557621922e+02   2.3878290430e+01    0.3414235    0.1824384  89.59  0.001706803    2.096    0.523
        17 -10.4824    150.0142    208.4970   9.5013199170e+01   9.6290402882e+00    0.3771277    0.2154887  16.91  0.001558752    2.593    0.614
        18  -9.4044     41.8858    208.0445   1.1857986653e+02   2.5690631060e+01    0.2758549    0.1476477  69.15  0.001017702    1.863    0.463
        19  -9.6163     35.6664    208.6300   1.1990450975e+02   2.6255093682e+01     0.153858   0.09968183  60.42 0.0009426223    1.333    0.250
        20 -10.8148     65.9851    207.1573   1.1339152251e+02   2.2945577421e+01    0.2250453    0.1870195 -87.66 0.0003073816    1.138    0.121
        21 -11.5653     64.1550    202.3427   1.1328278076e+02   2.4220570346e+01    0.2506991    0.2043653 -66.87 0.0003960114    1.280    0.219
        22  -8.1343    224.2518    206.6639   7.9484403120e+01  -2.4717578330e+00    0.1105887    0.1030698 -47.48 0.0002539784    1.564    0.361
        23  -9.1062     93.2922    205.7596   1.0721764808e+02   1.9414287641e+01    0.2319293    0.2041136  13.98 0.0007949965    1.385    0.278
        24  -9.1746     96.4962    201.9989   1.0600512027e+02   1.9728955777e+01    0.2437154    0.1257574 -56.57  0.001138323    2.026    0.507
        25 -10.9416    192.6498    194.6070   8.3430151969e+01   4.7135543185e+00     1.260868    0.7051528 -65.27  0.003651404    6.572    0.848
        26 -10.3351     26.3615    203.4909   1.2141121595e+02   2.8320983998e+01    0.3728883    0.1080684  49.35  0.001613146    2.993    0.666
        27 -11.0932    133.0259    194.4861   9.6500028696e+01   1.5329900253e+01    0.2709453    0.2579625 -41.76   0.00101853    1.130    0.115
        28 -12.5325     52.9205    197.0063   1.1520516515e+02   2.6795195858e+01     0.502479    0.2915059 -44.14  0.002523486    2.378    0.579
        29 -10.0857     38.8980    199.8572   1.1851100971e+02   2.7784233200e+01    0.2101356     0.163495  58.49  0.001000048    1.159    0.137
        30 -10.4553     72.0448    244.7990   1.1571156681e+02   1.4690845376e+01    0.3083908    0.1913081  75.32 0.0009380031    1.674    0.403
        31 -10.3374    203.9810    196.9793   8.1583082495e+01   2.3560994189e+00    0.1733443    0.1482275   8.20  0.001026601    1.013    0.013
        32  -9.1485     82.3005    194.6700   1.0828957937e+02   2.3427848403e+01    0.2282448    0.2037976 -80.50 0.0009584312    1.114    0.102
        33  -8.6037     79.6847    192.3507   1.0859708603e+02   2.4317628018e+01    0.2232379    0.1686206  81.36 0.0007578494    1.350    0.259
        34 -11.1328    149.6472    188.7150   9.1682932960e+01   1.3557332289e+01    0.6002929    0.3919254 -78.21  0.002459989    2.799    0.643
        35 -10.9713    126.3248    192.1803   9.7665631358e+01   1.6969656682e+01    0.3431336    0.1950608  34.89  0.001561734    1.702    0.413
        36 -11.0070     72.7447    187.4141   1.0959002953e+02   2.6399027815e+01    0.4706941    0.2517812  71.10  0.001998788    2.560    0.609
        37 -12.6522     64.1064    183.8181   1.1118191465e+02   2.8373139537e+01    0.7907081    0.6796037 -43.13  0.004835076    1.400    0.286
        38  -9.2807    238.6714    185.3205   7.2716778830e+01  -1.4767655012e+00    0.1167967    0.1069662 -63.58  0.000704805    1.688    0.408
        39  -9.2792     93.5118    184.2436   1.0419961166e+02   2.4095944850e+01     0.468418    0.3006951  21.66  0.001680162    1.981    0.495
        40 -10.8243     99.3622    180.7000   1.0223892422e+02   2.3983360780e+01    0.2895711    0.2656976   9.22 0.0006087575    1.264    0.209
        41 -10.0101    187.9125    176.1688   8.0764989661e+01   8.9103148576e+00    0.3534168    0.3152102 -53.19  0.001659158    1.337    0.252
        42  -8.7967    149.1252    176.1688   8.9440577710e+01   1.6239928138e+01    0.2005146    0.1885036  29.25 0.0004119356    1.019    0.018
        43  -9.9360    146.6392    172.0253   8.9212334922e+01   1.7584847223e+01    0.3552079    0.2416815 -70.18  0.001512904    2.077    0.519
        44 -10.4187     53.6687    173.0799   1.1238339973e+02   3.2178202644e+01    0.2888644    0.2045304  66.59 0.0005067874    1.403    0.287
        45  -9.9984     47.3536    172.9253   1.1390105762e+02   3.2951185695e+01    0.5013272    0.3283146 -29.17  0.001753459    2.390    0.582
        46  -9.7463     84.3000    173.9164   1.0491064571e+02   2.7872803185e+01    0.2295724    0.2017724  34.40  0.000322515    1.215    0.177
        47  -8.7112    194.0153    171.5013   7.8510639042e+01   8.6365362789e+00    0.2172818    0.1382305  39.62  0.001021698    1.560    0.359
        48  -9.4299    185.4691    169.6892   7.9935885734e+01   1.0601190040e+01    0.2558098    0.1412163 -45.43 0.0005799455    1.901    0.474
        49 -10.2757    240.4819    169.0251   6.9083223442e+01   7.9601022291e-01    0.2065656    0.1177247 -33.24 0.0004137715    1.570    0.363
        50 -10.0447    137.6637    168.9534   9.0759083522e+01   1.9940850151e+01    0.3517272    0.2142148  40.21  0.001562021    1.589    0.371
        51 -10.5769     56.5131    166.1853   1.1080463875e+02   3.3473180152e+01    0.5050439    0.2500203 -37.32   0.00196455    3.345    0.701
        52 -11.5659     93.6440    151.3726   9.8661838880e+01   3.1808445984e+01    0.6919485    0.5486053 -24.83  0.002204789    1.541    0.351
        53 -10.7770    133.8291    145.2641   8.6733986174e+01   2.5987303897e+01     1.186733    0.3256612 -54.12  0.002925138    5.141    0.805
        54  -9.3173    112.6571    151.0041   9.3495942564e+01   2.8651656030e+01    0.2572968     0.204101  55.11 0.0006907119    1.333    0.250
        55  -9.1566    174.8470    149.1215   7.7743734095e+01   1.6791817427e+01    0.2273057    0.2129783 -77.16 0.0005393637    1.260    0.207
        56 -10.5392    105.8051    137.7309   9.2553128468e+01   3.3033445942e+01    0.5249922    0.3284856 -27.99  0.002126402    2.187    0.543
        57 -10.4112    105.9859    130.8452   9.0965195959e+01   3.4646578581e+01    0.4122387     0.333712 -65.57  0.001147815    1.304    0.233
        58 -11.5438     93.7255    137.3727   9.5865029530e+01   3.5190532171e+01    0.2926493    0.2576092 -37.69 0.0003083002    1.167    0.143
        59 -10.3985    135.8003    128.3554   8.2244494399e+01   2.9421387037e+01    0.6945997    0.1241223 -49.72   0.00137202    7.352    0.864
        60  -8.2170     97.5071    129.4512   9.3070226702e+01   3.6472348773e+01    0.1504127    0.1434115 -81.93 0.0002651736    1.081    0.075
        61  -9.1799    160.9941    128.0075   7.5886505973e+01   2.4127562403e+01    0.2519704    0.2006377 -81.25  0.001136745    1.715    0.417
        62 -10.3114    101.2014    124.7873   9.0931455366e+01   3.6947331339e+01    0.2947146    0.2423097 -21.79 0.0005028737    1.365    0.268
        63 -10.8226    120.0544    122.8822   8.5119974006e+01   3.3858129471e+01    0.5348325    0.3381292 -14.71  0.001945333    2.712    0.631
        64  -9.3071    109.2504    118.1053   8.6978856670e+01   3.7052775436e+01    0.2402997    0.2170925  34.28 0.0003653949    1.140    0.123
        65 -10.0840    231.2152    113.7203   5.8430778568e+01   1.1786754516e+01     0.264308    0.2591683  10.84 0.0008002072    1.122    0.109
        66 -10.7751    113.9192    128.9893   8.8307056904e+01   3.3620863410e+01    0.3654399    0.3489304 -15.44  0.001248293    1.068    0.064
        67  -9.0295    167.7144    112.6866   7.0394928829e+01   2.5805740681e+01    0.3178626    0.2311852 -78.48  0.001318668    2.090    0.522
        68 -11.8687    118.6036    109.0143   8.1934967405e+01   3.7305447060e+01     0.784777    0.5817777 -54.33  0.003091215    1.413    0.292
        69  -9.6228    205.4876    110.2403   6.2024913906e+01   1.7799355254e+01    0.3029488    0.2367069  38.72 0.0008645022    1.374    0.272
        70  -9.6921    134.4982    102.4978   7.5775015307e+01   3.5376653192e+01     0.325743    0.1513278 -46.99  0.001167445    2.204    0.546
        71 -10.5220     66.3956    104.3659   9.6856309604e+01   4.7329168673e+01     0.270751    0.2537557 -78.92  0.001289784    1.160    0.138
        72 -12.0627     49.0675    249.2869   1.2030184033e+02   1.6740030560e+01    0.1909105    0.1414319  84.27 0.0005346034    1.242    0.195
        73  -9.4734    168.0098    232.2259   9.4968201425e+01   2.5070136110e+00    0.2242544    0.1860954  30.24 0.0007530865    1.046    0.044
        74  -8.7610    156.4614     82.4649   6.4557727523e+01   3.4301906171e+01    0.1526352     0.150082   4.78 5.526439e-05    1.005    0.005
        75  -8.7944     64.7050     70.0935   8.8006160191e+01   5.5270190797e+01    0.1941857     0.159489 -30.51 0.0002784979    1.081    0.075
        76 -11.3038    247.8963    245.2260   8.1967996228e+01  -1.0921066186e+01    0.3265853    0.2129988  23.06  0.002187113    1.284    0.221
        77 -12.8701    180.3772     52.3879   5.1083635763e+01   3.3391139441e+01    0.7297727    0.6284704  32.60 0.0008904165    1.293    0.227
        78  -8.6529     83.8901    245.6075   1.1351903862e+02   1.2960919972e+01    0.1618493   0.08552106  49.34  0.000897743    1.559    0.359
        79  -9.4009    189.8051     14.9107   3.9471820118e+01   3.5719001787e+01    0.1940122    0.1732485  53.79 0.0007538804    1.211    0.174
