#   1 NUMBER                 Running object number                                     
#   2 MAG_AUTO               Kron-like elliptical aperture magnitude                    [mag]
#   3 X_IMAGE                Object position along x                                    [pixel]
#   4 Y_IMAGE                Object position along y                                    [pixel]
#   5 X_WORLD                Barycenter position along world x axis                     [deg]
#   6 Y_WORLD                Barycenter position along world y axis                     [deg]
#   7 A_WORLD                Profile RMS along major axis (world units)                 [deg]
#   8 B_WORLD                Profile RMS along minor axis (world units)                 [deg]
#   9 THETA_WORLD            Position angle (CCW/world-x)                               [deg]
#  10 FWHM_WORLD             FWHM assuming a gaussian core                              [deg]
#  11 ELONGATION             A_IMAGE/B_IMAGE                                           
#  12 ELLIPTICITY            1 - B_IMAGE/A_IMAGE                                       
         1 -12.3038     59.3329     49.6169   9.8157550430e+01   5.9585672840e+01     0.795804    0.4273629 -49.87  0.003931193    1.600    0.375
         2 -12.4496     76.5829     38.2932   8.7832724763e+01   5.9159589944e+01     0.898025    0.5559337 -31.89  0.004490518    1.526    0.345
         3 -13.2463    197.6350     27.8840   5.6412386903e+01   3.2010124787e+01     1.137445    0.7929623  22.67   0.00526351    1.745    0.427
         4 -11.8255    204.9105     19.0952   5.2780390576e+01   3.1106369583e+01    0.5550188    0.3558079  43.08  0.001102607    1.708    0.415
         5 -12.8788    210.4807     11.3471   4.9827849296e+01   3.0475325244e+01    0.8284616    0.6916602 -38.21  0.003040745    1.147    0.128
         6 -10.7123     12.6175      5.7731   1.0146070417e+02   7.3040493099e+01    0.1639819   0.09141015 -55.27 0.0009593905    1.705    0.413
         7 -10.7331     75.2543    178.3985   1.1845389430e+02   2.9619690609e+01    0.2954687    0.2338726  79.84 0.0008093764    1.075    0.070
         8 -14.9028    243.1784    233.4637   9.6162010950e+01  -4.3341114472e+00     1.906312      1.22346 -18.22   0.01071649    1.718    0.418
         9 -14.5927    208.6453    241.0530   1.0247723212e+02  -2.3782769224e-02     2.836087     1.406762  35.10   0.01782389    1.550    0.355
        10 -14.1018    100.2721    248.3336   1.2037762518e+02   1.4791456101e+01     2.286258    0.3804007  40.77  0.008447134    5.091    0.804
        11 -15.1983    155.5218    241.9711   1.1099707699e+02   7.7989144461e+00     3.337759    0.8204631  48.66   0.01361694    3.679    0.728
        12 -16.5767     66.8475    217.5202   1.2347637206e+02   2.3747569905e+01     8.861129     4.189176  81.83   0.02204029    2.543    0.607
        13 -11.2084     47.9748    175.9829   1.2362432469e+02   3.3474581121e+01    0.4275867     0.341525 -52.91  0.002918239    1.716    0.417
        14 -11.1712     50.5322    169.8803   1.2257444413e+02   3.4378829490e+01    0.4180276    0.2913326  44.81  0.002519318    1.450    0.310
        15 -14.6677     13.7893    207.5743   1.3175803804e+02   3.1225114900e+01    0.9800851    0.5465319  46.62  0.004459721    1.553    0.356
        16 -11.6288    133.6560    171.0350   1.0569174358e+02   2.1951421003e+01    0.7517713    0.3859362 -46.16  0.003669172    2.243    0.554
        17 -14.6257     32.2215    239.5934   1.3029962416e+02   2.4200043199e+01    0.9181961    0.3559779  58.98  0.006103955    1.850    0.459
        18 -14.2749     57.6133    127.7832   1.1614220011e+02   4.2413640325e+01     2.286309    0.8170026 -62.05   0.01006472    2.399    0.583
        19 -12.3081     71.6456    164.6490   1.1767111167e+02   3.2799435787e+01    0.4500791    0.3009952 -51.24  0.001182572    1.836    0.455
        20 -13.1504     75.9637    156.9118   1.1580927723e+02   3.3788557629e+01     0.981359    0.4968142  57.48  0.003607578    1.982    0.495
        21 -12.1804     90.7471    144.3392   1.1072636833e+02   3.4263469459e+01    0.4810385    0.3067996  42.37 0.0005849025    1.583    0.368
        22 -11.1595     83.8036    168.1189   1.1553936247e+02   3.0435943500e+01     0.326062    0.2349657 -67.48 0.0004171529    1.392    0.282
        23 -11.7104    107.7007    147.9731   1.0747523003e+02   3.0807267816e+01    0.3474013    0.3101321 -63.04  0.002174568    1.181    0.153
        24 -12.1086    103.5496    144.6025   1.0784850011e+02   3.2183187327e+01    0.4289502    0.3917018 -23.21  0.002659561    1.434    0.303
        25 -13.8988     90.2691    157.1326   1.1272303349e+02   3.1692070935e+01     2.374426      1.37042 -89.43   0.01156078    2.244    0.554
        26 -10.7142    133.4166    143.2608   1.0093422170e+02   2.7203422454e+01    0.5301608    0.1344622 -51.95  0.001612017    4.469    0.776
        27 -10.4096     59.0601    167.1359   1.2056519481e+02   3.3908542281e+01    0.2894672     0.221961  88.30  0.001233823    1.108    0.097
        28 -11.4083    113.3697    132.0438   1.0332107606e+02   3.3124521561e+01    0.3829201    0.2784134 -18.49   0.00183267    2.261    0.558
        29 -10.1862    105.9944    131.0246   1.0486806998e+02   3.4618559929e+01    0.2183163    0.1975997  86.62  0.001287404    1.024    0.023
        30 -10.7453     99.8966    129.2363   1.0599346372e+02   3.6022681268e+01    0.2808614    0.2491356  -2.53    0.0016427    1.531    0.347
        31  -9.1889    108.4878    120.9693   1.0227572380e+02   3.6329235361e+01    0.1994316    0.1319085 -55.34 -7.667855e-05    1.470    0.320
        32 -13.0987     56.2540    108.9804   1.1355838194e+02   4.6797711359e+01    0.8434343    0.6328456 -88.55  0.004109161    1.265    0.210
        33  -9.5374    167.4159    112.1876   8.6669378022e+01   2.6175786522e+01    0.2792772    0.2196216 -73.60 0.0007850755    1.636    0.389
        34 -10.6298     83.3613    110.0595   1.0645359138e+02   4.2860775962e+01     0.318033    0.1180199 -56.96  0.001243616    2.471    0.595
        35 -14.2623     70.0805    143.9174   1.1541709269e+02   3.7308845134e+01     1.429436    0.7975744  37.84  0.007634445    1.920    0.479
        36 -11.0860     94.9200     89.6113   9.8587864070e+01   4.5521059535e+01    0.4233584    0.3134923 -55.48  0.002221754    1.255    0.203
        37 -11.3900     89.8906     88.7932   9.9800861715e+01   4.6551873837e+01    0.5326552    0.3691451  88.02  0.002496277    2.051    0.512
        38 -10.9938     84.1081     87.8620   1.0122876227e+02   4.7697388728e+01    0.4957002    0.3323535 -56.70  0.002544333    1.362    0.266
        39 -11.6948     73.7980     54.1935   9.4638286110e+01   5.6535099580e+01    0.7600893    0.1654543 -47.35  0.002280444    4.030    0.752
        40 -12.6265     67.7799     66.2581   1.0044233739e+02   5.4898905591e+01    0.9705271    0.6749688  13.52    0.0049925    2.027    0.507
        41 -15.2473    109.8658    231.4929   1.1741074771e+02   1.5847092790e+01     2.071169    0.9359801  51.30   0.01228287    1.734    0.423
        42 -12.6986    178.1038    219.6054   1.0456609830e+02   7.0728313345e+00    0.6666823    0.2926674  38.37  0.003526795    1.899    0.473
        43 -11.0927    143.1625    208.1378   1.0912024807e+02   1.4272218442e+01    0.3921492    0.3444497 -66.64  0.002242061    1.366    0.268
        44  -9.8997     23.7581    194.6059   1.2942473950e+02   3.2549165645e+01     0.196637    0.1218949  63.13  0.001453895    1.214    0.177
        45 -15.8675      9.4939    238.6708   1.3361074922e+02   2.6596790901e+01     2.081506     1.087789  87.44    0.0167393    1.588    0.370
        46 -10.3090     71.0998    184.2685   1.1986889376e+02   2.9057241037e+01    0.3174944    0.2184028 -40.83  0.001377293    2.421    0.587
        47 -11.8192    188.5632     34.9358   5.9941459662e+01   3.3528108009e+01    0.4363225    0.3653996   9.97  0.001467737    1.311    0.237
