#   1 NUMBER                 Running object number                                     
#   2 MAG_AUTO               Kron-like elliptical aperture magnitude                    [mag]
#   3 X_IMAGE                Object position along x                                    [pixel]
#   4 Y_IMAGE                Object position along y                                    [pixel]
#   5 X_WORLD                Barycenter position along world x axis                     [deg]
#   6 Y_WORLD                Barycenter position along world y axis                     [deg]
#   7 A_WORLD                Profile RMS along major axis (world units)                 [deg]
#   8 B_WORLD                Profile RMS along minor axis (world units)                 [deg]
#   9 THETA_WORLD            Position angle (CCW/world-x)                               [deg]
#  10 FWHM_WORLD             FWHM assuming a gaussian core                              [deg]
#  11 ELONGATION             A_IMAGE/B_IMAGE                                           
#  12 ELLIPTICITY            1 - B_IMAGE/A_IMAGE                                       
         1 -13.4413    221.4819      6.9589   3.5844468600e+01   2.8804243639e+01     1.424642     1.021184  52.66  0.005921694    1.612    0.380
         2 -14.2886    195.2881     37.5919   4.6416102829e+01   3.1556028126e+01      2.82796     1.680661  27.03   0.01164964    2.785    0.641
         3 -10.7109     78.2444     14.5293   6.3064774187e+01   6.2165150794e+01     0.586993    0.2854423  65.35  0.002169903    4.086    0.755
         4  -9.8820    249.0115    227.4987   8.0905091123e+01  -9.2254621892e+00    0.1800816   0.09922908  31.09  0.001041949    1.617    0.382
         5 -19.4930     12.6118    144.3810   1.2083700772e+02   4.3252967828e+01     19.00396      4.39828 -76.47   0.06424341    4.068    0.754
         6  -9.5077     50.4658    224.6018   1.1958278746e+02   2.1656996985e+01     0.174563      0.09394  86.23 0.0006152479    1.904    0.475
         7 -10.2404     40.2964    224.1560   1.2148906335e+02   2.2952055668e+01    0.2239244     0.130201  73.36 0.0007934047    1.526    0.345
         8  -8.2013     76.4744    224.3719   1.1444653004e+02   1.8311320664e+01    0.1225827   0.09869224  59.56 9.158433e-05    1.034    0.033
         9  -8.7086     65.0000    223.8618   1.1668385341e+02   1.9960823348e+01    0.1610036   0.06405307 -69.13   0.00075017    2.592    0.614
        10  -8.6950     61.2785    220.2059   1.1709427251e+02   2.1173054483e+01     0.148653   0.08046703  39.29 0.0002392805    1.717    0.418
        11 -10.5796     54.6898    222.1473   1.1856372618e+02   2.1622044799e+01    0.2382232    0.1279388  50.64 0.0005761461    1.556    0.357
        12 -10.2242     56.6745    218.4165   1.1785367554e+02   2.2121181965e+01    0.3834977     0.172155  75.14  0.001667541    3.003    0.667
        13  -8.5192     80.9541    220.0052   1.1309577021e+02   1.8544512104e+01    0.2017313    0.1211949  62.58 0.0005805415    1.607    0.378
        14  -8.3615     77.2669    220.3432   1.1388383811e+02   1.8996152361e+01     0.109326   0.09611524 -35.83 0.0003662615    1.605    0.377
        15  -8.1650    168.0198    248.0022   9.9138137365e+01   1.7356079493e-01    0.1424859     0.111937  32.27  0.000930184    1.015    0.015
        16  -9.2817     48.6516    217.5013   1.1936649742e+02   2.3296803555e+01    0.2025639    0.1149413  27.54 0.0008886454    2.252    0.556
        17  -9.0723     27.8446    214.8555   1.2320814393e+02   2.6193631864e+01    0.1638561    0.1496911  51.13  0.001246565    1.387    0.279
        18 -10.8174    183.9256    210.5186   9.0165449068e+01   3.3884628551e+00    0.4111639    0.3533923  43.17  0.002499803    1.236    0.191
        19  -8.6036     56.7061    209.3279   1.1702928188e+02   2.3985015020e+01    0.3138264    0.1714203 -82.51  0.001677177    1.849    0.459
        20  -8.2356     58.8712    206.3520   1.1629677321e+02   2.4335279039e+01    0.1396601    0.1366729 -83.90            0    1.333    0.250
        21 -10.2614     28.8400    209.6770   1.2266027990e+02   2.7148164630e+01    0.1539818    0.1142038  62.50 0.0004056574    1.129    0.115
        22  -8.9404    164.4743    209.5105   9.4012172224e+01   6.9521343672e+00    0.1369745    0.1196605  26.26 5.413498e-05    1.032    0.031
        23  -8.5235     42.6408    209.0518   1.1987466497e+02   2.5746222412e+01     0.159307    0.1118917  82.29 0.0001255688    1.218    0.179
        24 -10.8815     65.4272    204.9933   1.1477664091e+02   2.3768680327e+01    0.3504517    0.1904585 -77.78 0.0007658103    1.890    0.471
        25 -11.1807    195.5423    205.6516   8.6958967531e+01   2.1807718891e+00    0.4456468    0.2328698  32.65  0.002096759    1.786    0.440
        26 -10.8759    193.8874    196.0096   8.5508700541e+01   4.0719560543e+00     1.093653    0.6988489 -72.15  0.003910702    4.582    0.782
        27 -10.3047     29.7069    205.0452   1.2215618855e+02   2.8020836553e+01    0.3133874    0.1001138  46.56  0.001468334    2.572    0.611
        28  -9.3322     96.4950    201.4289   1.0759234329e+02   2.0044245723e+01    0.2573542    0.1295927 -62.82  0.001193899    2.111    0.526
        29 -12.7088     53.9350    198.5182   1.1658021562e+02   2.6634326970e+01    0.5129801    0.2941936 -51.55  0.002710675    2.113    0.527
        30  -7.9969     93.3133    205.3461   1.0879612289e+02   1.9712695384e+01    0.1241167    0.1040135 -20.07 0.0007046873    1.714    0.416
        31 -11.4762    133.9031    196.2897   9.8459064774e+01   1.4869163959e+01    0.4239422    0.2581695 -61.88  0.001325277    1.962    0.490
        32  -8.8809     69.4861    199.4523   1.1330864758e+02   2.4409740543e+01     0.129966    0.1084339  71.06 -2.115649e-05    1.023    0.023
        33  -9.2702     38.3882    199.1196   1.1992142211e+02   2.8335654672e+01    0.1558608    0.1126376  82.92 0.0002035115    1.162    0.140
        34  -8.9608     81.9149    194.5147   1.0996406282e+02   2.3729894301e+01    0.2152778    0.1616942  70.87 0.0009809112    1.279    0.218
        35  -9.7423    105.4468    193.9989   1.0454891122e+02   2.0198592548e+01    0.2915874     0.169871  52.40  0.001390628    1.676    0.403
        36 -11.5657    127.0565    191.9706   9.9301283096e+01   1.6960665837e+01    0.3807729    0.2976816 -61.85  0.001984393    1.393    0.282
        37  -8.1928     77.6224    192.3018   1.1065809339e+02   2.4836774284e+01    0.1839373    0.1199393  87.79 0.0007488125    1.675    0.403
        38 -10.1170     74.2050    188.6776   1.1098689322e+02   2.6126566199e+01    0.3085555    0.1890904  67.60 0.0007745274    1.753    0.429
        39  -8.8165     96.7213    190.5824   1.0605888829e+02   2.2339033934e+01    0.1873918    0.1163285  49.36 0.0007800671    1.505    0.336
        40 -11.9138     61.7294    186.5985   1.1359031616e+02   2.8281854208e+01    0.8116803    0.5938728 -60.99  0.002763059    1.408    0.290
        41 -11.8751     67.1964    182.7795   1.1187622889e+02   2.8423356067e+01     0.591575    0.4159866 -61.70  0.002363355    1.418    0.295
        42 -11.2877    119.2644    187.8508   1.0042251220e+02   1.9190347399e+01    0.3241234    0.2709727 -32.14  0.001785699    1.431    0.301
        43 -10.7136    149.1658    187.7955   9.3569120568e+01   1.3813741547e+01    0.3384036    0.2511256  53.89   0.00172894    1.405    0.288
        44  -8.9752     42.6053    188.5470   1.1807376310e+02   3.0175261577e+01    0.1523073    0.1022804  54.69  0.000673487    1.360    0.265
        45  -9.1776     94.1672    186.7996   1.0611144822e+02   2.3574936831e+01    0.2063793     0.168921  74.23 0.0007247736    1.191    0.160
        46 -10.6220     98.6927    181.3872   1.0424091452e+02   2.4063422291e+01    0.4797826    0.3445573 -13.84  0.001796557    2.361    0.576
        47 -10.0584    158.3096    235.5333   9.9287775190e+01   3.6185964245e+00    0.2433679     0.213312  28.34 0.0009050447    1.071    0.066
        48 -10.2516    150.1499    178.1251   9.1549723031e+01   1.5593157139e+01    0.4469962    0.2788836 -72.59  0.001778871    2.708    0.631
        49 -10.2383    189.2008    177.5925   8.2860752506e+01   8.1893455119e+00    0.4838241    0.3366976 -53.33  0.002351746    1.768    0.434
        50  -9.3143    238.3286    176.3146   7.3089966339e+01  -4.7145739272e-01    0.1403423   0.09314274   2.01 0.0005925603    1.674    0.403
        51  -9.8166     55.5791    174.3503   1.1358749354e+02   3.1868851988e+01    0.3187108     0.194429  58.07  0.001669651    1.625    0.385
        52 -10.2600     46.0493    172.8757   1.1567657619e+02   3.3349258507e+01    0.3543231    0.2958786  31.42  0.001203083    1.426    0.299
        53  -8.2966    194.6378    173.3018   8.0846882359e+01   7.9345104686e+00    0.1392319    0.1175178  80.80 0.0007036451    1.725    0.420
        54  -9.3245    125.3147    172.3129   9.6306448235e+01   2.1495622542e+01    0.1449066    0.1166475  -7.99 0.0002797665    1.639    0.390
        55 -10.5026    139.1176    171.0269   9.2758423291e+01   1.9194498368e+01    0.3691799    0.2170397  37.31  0.001091123    1.669    0.401
        56 -11.0332    143.9112    178.2365   9.3008583433e+01   1.6754161844e+01    0.4491507    0.2939062 -53.44   0.00153487    1.656    0.396
        57 -10.4327    240.0514    169.2955   7.1334953619e+01   3.3616165980e-01     0.187856    0.1610333   1.88 0.0005367888    1.061    0.058
        58  -9.1497    168.2415    233.3382   9.6998363623e+01   2.3478952926e+00    0.2562581    0.1650453  59.53  0.001315234    2.145    0.534
        59 -10.6360     58.7976    165.8322   1.1173585842e+02   3.3466418385e+01    0.3099091    0.2059501 -68.43  0.001670893    1.375    0.273
        60 -11.4470     93.9305    151.7785   1.0045243828e+02   3.1741303746e+01    0.6968409    0.5363992 -32.81  0.003504511    1.566    0.361
        61 -10.7142    133.9259    145.8051   8.8805779803e+01   2.5803308056e+01     1.313677    0.3387144 -54.67  0.002973014    6.176    0.838
        62  -9.7412    187.4644    151.7947   7.7675418720e+01   1.3423508001e+01    0.2734284    0.2434113  84.42   0.00078435    1.432    0.302
        63  -9.5120    174.8619    149.2806   7.9843704213e+01   1.6553874297e+01    0.2590362    0.2123817 -54.38 0.0007062161    1.347    0.258
        64  -8.0694    109.3191    147.6780   9.5579966596e+01   3.0067926592e+01    0.1553838    0.1161415  77.92 0.0007044009    1.669    0.401
        65 -10.3679     53.3238    230.5545   1.1950406741e+02   2.0145723943e+01    0.3014055    0.1608374 -88.48  0.001700202    1.936    0.484
        66 -10.5643    105.9732    138.0394   9.4459258620e+01   3.2961289749e+01    0.5549782    0.3572728 -29.41   0.00231957    2.093    0.522
        67 -11.5948     93.9428    137.8092   9.7725028797e+01   3.5107437713e+01    0.2833086    0.2573039 -44.11 0.0003656693    1.130    0.115
        68 -10.5012    105.8993    130.6758   9.2852998899e+01   3.4730241234e+01    0.3916476    0.3279515 -58.85  0.001210486    1.173    0.148
        69  -9.8818    135.9121    129.3647   8.4466036950e+01   2.9116081685e+01    0.4119902    0.1895205 -48.74   0.00148758    2.194    0.544
        70 -10.2743    114.0600    129.0678   9.0223236030e+01   3.3583591576e+01    0.3657625    0.3021443 -17.44 0.0009976932    1.435    0.303
        71  -9.0626    160.7089    127.7216   7.7928726394e+01   2.4100714366e+01    0.3311801    0.1916051 -61.90  0.001182948    2.569    0.611
        72 -10.3451    101.3880    124.9804   9.2818410013e+01   3.6904381929e+01    0.3159216    0.2392005 -33.21 0.0007375296    1.453    0.312
        73 -10.3507    120.6953    122.8047   8.6891712853e+01   3.3740853341e+01    0.4116443    0.3359241 -18.04  0.001971179    1.434    0.303
        74  -9.2118    135.0000    120.4586   8.2472425652e+01   3.1307284369e+01    0.3460807   0.08918264 -45.60 0.0009224564    3.836    0.739
        75 -10.3866     72.1649    250.2822   1.1757230052e+02   1.4093728106e+01    0.1845912    0.1194277  52.45 0.0003405602    1.200    0.166
        76  -9.2488    109.2800    118.4277   8.8988989866e+01   3.6992625597e+01    0.2601818    0.2027081 -48.59 0.0004107464    1.242    0.195
        77  -8.3386    114.2934    118.3448   8.7550496196e+01   3.6042386931e+01     0.159207    0.1217465 -15.27 0.0003209401    1.663    0.399
        78 -10.0017    231.2785    113.7279   6.0411872672e+01   1.1249742562e+01     0.289385    0.2657185 -15.96 0.0007774181    1.072    0.067
        79  -9.1462    167.5431    112.3556   7.2379665989e+01   2.5740140576e+01    0.3519093    0.2522389 -74.14  0.001451471    2.034    0.508
        80 -11.3540    118.3119    110.0673   8.4273835161e+01   3.7134271895e+01    0.6423488    0.4865808  60.76  0.002265264    1.544    0.352
        81  -9.4758    205.1906    110.2534   6.4090485067e+01   1.7491036984e+01      0.32283    0.2392104  51.96  0.001006529    1.432    0.302
        82  -9.7052    134.5667    104.6964   7.8372934848e+01   3.4862466070e+01     0.484806    0.1534127 -41.83   0.00143861    3.163    0.684
        83  -9.0597     64.0833     99.5198   9.8236874712e+01   4.8884332311e+01    0.1970243    0.1423902  28.42 0.0004916273    1.541    0.351
        84 -10.3148     58.9249    229.7727   1.1837533359e+02   1.9593240860e+01    0.1734682     0.137084  82.52 0.0004368719    1.144    0.126
        85 -11.5292     51.7699     89.9395   1.0008576925e+02   5.2677809364e+01    0.3956317    0.3387449 -75.23  0.001692248    1.279    0.218
        86  -8.7820    184.3074     77.0600   5.9174086075e+01   2.8349147324e+01    0.2167948    0.1951503 -40.59 0.0006682817    1.092    0.084
        87  -9.5674     65.5717     70.4097   8.9627958797e+01   5.5203649778e+01    0.2625979    0.2256334  54.42  0.001316995    1.476    0.322
        88 -11.6285    249.1143    247.2168   8.4202958720e+01  -1.1537289342e+01    0.5581944    0.2876158 -21.61  0.003329352    1.915    0.478
        89 -12.7216    179.6985     51.6245   5.2740382741e+01   3.3539376845e+01    0.8332002    0.7251129  -1.04  0.001066289    1.341    0.254
        90  -9.6454     72.4026    245.4593   1.1713532922e+02   1.4915407073e+01    0.2713141    0.1232764  61.48 0.0001715126    2.237    0.553
        91 -10.1497    189.5783     14.9145   4.0983552904e+01   3.5638136751e+01    0.2584766    0.1842503  86.16 0.0006765917    1.326    0.246
        92  -8.6418     44.5579    230.4760   1.2114308628e+02   2.1222067542e+01    0.1191797    0.0852847  67.49 0.0003925768    1.094    0.086
