#   1 NUMBER                 Running object number                                     
#   2 MAG_AUTO               Kron-like elliptical aperture magnitude                    [mag]
#   3 X_IMAGE                Object position along x                                    [pixel]
#   4 Y_IMAGE                Object position along y                                    [pixel]
#   5 X_WORLD                Barycenter position along world x axis                     [deg]
#   6 Y_WORLD                Barycenter position along world y axis                     [deg]
#   7 A_WORLD                Profile RMS along major axis (world units)                 [deg]
#   8 B_WORLD                Profile RMS along minor axis (world units)                 [deg]
#   9 THETA_WORLD            Position angle (CCW/world-x)                               [deg]
#  10 FWHM_WORLD             FWHM assuming a gaussian core                              [deg]
#  11 ELONGATION             A_IMAGE/B_IMAGE                                           
#  12 ELLIPTICITY            1 - B_IMAGE/A_IMAGE                                       
         1 -12.5871    156.1597     56.8706   7.6231549630e+01   3.8800606307e+01     1.230235     1.140509 -86.94  0.003195515    1.202    0.168
         2 -13.1955    168.5917     41.5306   6.8643507138e+01   3.7974503381e+01     1.442247     1.101901  -0.62  0.004459296    1.469    0.319
         3 -13.0400    184.9166     13.0648   5.6429378154e+01   3.7112060733e+01     3.016244    0.8310487  53.58  0.009732346    3.134    0.681
         4 -12.6287    185.9734      6.5717   5.4139726710e+01   3.7473470755e+01     1.219471     0.661157  79.54  0.003834517    2.019    0.505
         5 -11.9516    241.5182    242.1383   9.9816548105e+01  -3.6598790001e+00    0.1988113    0.1430508  33.28 0.0003131173    1.163    0.140
         6  -8.4352    159.9894    249.5346   1.1304811860e+02   7.5221456555e+00    0.1398216    0.1159063  45.88 0.0002985326    1.169    0.144
         7  -8.8795    137.3658    250.2138   1.1659723011e+02   1.0680598212e+01    0.1610079    0.1108663  52.27 0.0003737531    1.101    0.092
         8 -10.4559    133.4670    248.5554   1.1704724511e+02   1.1427330789e+01    0.1837634    0.1620096  59.20 0.0006362521    1.259    0.206
         9 -18.7797     61.0527    231.2537   1.2703310253e+02   2.3224084111e+01      4.06044     2.869977  55.73   0.02380942    1.137    0.120
        10 -10.1597    202.2937    170.6635   9.4946782926e+01   1.0293301528e+01    0.3148885    0.2584068 -82.09  0.001790825    1.941    0.485
        11 -10.2101    204.6179    167.5449   9.3965739089e+01   1.0279975139e+01    0.5017279     0.379001 -51.27  0.002805473    1.774    0.436
        12  -8.6197    198.8374    179.1287   9.7051162565e+01   9.7991434628e+00    0.1770151    0.1610376  51.48 0.0005000837    1.251    0.201
        13 -10.5731    143.8436    175.2873   1.0658487854e+02   2.0223203528e+01    0.5000615    0.1910722  36.40  0.001989734    3.015    0.668
        14 -10.4530    137.1348    171.8633   1.0737014749e+02   2.1950406494e+01    0.3266693    0.2365356 -86.39  0.001870123    1.789    0.441
        15 -10.2455    132.4728    169.0607   1.0786587693e+02   2.3227599054e+01    0.3761489    0.2713256 -77.85  0.001765416    1.701    0.412
        16 -10.2117    126.7263    173.6890   1.0968467590e+02   2.3395317439e+01    0.4227669    0.2274982  60.67  0.002091266    2.091    0.522
        17  -9.9846     33.6132    175.8932   1.2811344044e+02   3.5505562470e+01    0.1561467    0.1396914  43.85 0.0004114564    1.495    0.331
        18 -10.4195    156.9217    199.7985   1.0768883631e+02   1.4257023181e+01    0.2629887    0.2071217  49.61  0.001146282    1.068    0.064
        19 -11.3420    194.6774    169.0092   9.6005053496e+01   1.1935707514e+01    0.3993064     0.384907 -89.98 0.0008709354    1.310    0.237
        20  -9.8869    192.4021    163.7894   9.5461940783e+01   1.3102710015e+01    0.3100038    0.2283766  23.42  0.001120013    1.379    0.275
        21  -9.7644    112.7322    170.6022   1.1203147879e+02   2.6207110694e+01    0.3499932    0.2615247  18.84  0.002027042    1.987    0.497
        22 -10.1811     22.1062    167.7414   1.2974399075e+02   3.8137780246e+01    0.3053491    0.2634404  -4.81  0.001584157    2.039    0.510
        23  -9.6652    122.3790    166.3708   1.0948682706e+02   2.5399860494e+01    0.2355966    0.1770418  65.68 0.0003023352    1.291    0.225
        24 -10.4009    163.3485    203.3226   1.0703652649e+02   1.2701266389e+01    0.3189003    0.2313843 -85.96  0.001194221    2.172    0.540
        25  -9.2113    246.7862    164.2128   8.6285819016e+01   3.0041240980e+00    0.1741654    0.1514103  17.51 0.0005313583    1.142    0.125
        26  -9.3252    247.4274    159.5458   8.5273615149e+01   3.4165581418e+00    0.2142032    0.1738846  15.93 0.0001714659    1.005    0.005
        27  -9.1981    121.8721    199.1214   1.1389801202e+02   1.9981703076e+01    0.1706378    0.1418232  51.00 0.0005723691    1.098    0.089
        28  -9.2606    189.0103    158.4693   9.5087667368e+01   1.4528063509e+01    0.3320639    0.2095979   6.04  0.001509046    2.540    0.606
        29  -8.8592    168.9810    157.3601   9.8686062027e+01   1.8554528219e+01    0.1871159    0.1495738  43.91 0.0004326344    1.114    0.103
        30  -9.1596    141.1668    241.8735   1.1521501338e+02   1.1141539699e+01    0.2333219    0.1056346  49.32  0.001086863    1.668    0.400
        31  -8.7043    162.8872    236.5658   1.1121120026e+02   8.5671450366e+00    0.1794959    0.1364791 -56.62  0.001374301    1.824    0.452
        32  -8.6961    247.4415    154.6857   8.4303841413e+01   3.9697134384e+00     0.161246    0.1095481  -7.19 0.0005518158    1.444    0.307
        33 -10.5062    133.8721    146.4467   1.0384622051e+02   2.7032490566e+01     1.111726    0.2953593 -55.90  0.003084733    6.190    0.838
        34 -10.1059    170.6242    184.0164   1.0291098762e+02   1.4175508915e+01     0.504312    0.2191205  55.69  0.002136216    2.813    0.644
        35 -10.3359    215.5421    152.7761   8.9197274306e+01   1.0188779734e+01    0.2296232    0.1940498  31.76 0.0003303552    1.067    0.063
        36 -10.5822    172.6343    189.3719   1.0337663162e+02   1.3059179065e+01    0.3234828    0.2509032  22.46  0.001556893    1.375    0.273
        37  -9.9274    101.7499    145.9885   1.1074633249e+02   3.2587194409e+01    0.2488293    0.1646728  50.76  0.000523732    1.410    0.291
        38 -10.6105     27.2967    145.0049   1.2702215287e+02   4.2084211686e+01    0.2893671    0.2148988 -41.40  0.001996039    2.005    0.501
        39 -11.6640      4.5031    140.0069   1.3149360032e+02   4.4978422026e+01    0.7128729    0.3542015 -87.31  0.004583811    1.579    0.367
        40  -9.3230     23.8381    141.5264   1.2747620775e+02   4.3099945979e+01    0.1595088     0.138699  70.58 0.0006243258    1.226    0.184
        41 -10.7956    115.2758    137.6708   1.0634351681e+02   3.2001726812e+01    0.4687826    0.2706773 -44.01  0.001867446    1.993    0.498
        42  -8.9932    153.9272    203.4874   1.0871148540e+02   1.4228192185e+01    0.3072519    0.1998541  84.36   0.00163982    2.715    0.632
        43 -11.0319    105.2356    137.1310   1.0851917665e+02   3.3790926363e+01    0.2557486    0.2198086  64.41 0.0003751511    1.081    0.075
        44 -11.1980     38.0691    125.6893   1.2268565507e+02   4.5041691557e+01    0.3327892    0.2603897 -40.59  0.002248087    1.723    0.420
        45 -12.4907     47.5543    124.4036   1.2024429654e+02   4.4330712096e+01    0.5760554    0.4683231  16.13   0.00385658    1.746    0.427
        46 -10.2401     44.1941    130.2014   1.2175398276e+02   4.3463123982e+01    0.3162658    0.1731124  60.37  0.001250648    1.843    0.458
        47  -8.8743    234.7278    134.9602   8.2210954356e+01   8.7822116067e+00    0.2169972    0.1720853  36.57 0.0009689088    1.191    0.160
        48 -10.3821    135.1400    122.2520   9.8818496472e+01   3.1388053650e+01     0.486932     0.181266 -52.35   0.00175086    3.051    0.672
        49  -9.4337    160.4482    128.7252   9.4689430405e+01   2.5108517702e+01    0.3277698    0.2455394 -65.59   0.00164413    1.671    0.402
        50 -10.4127    120.0494    128.6766   1.0358357188e+02   3.2944955155e+01    0.3536425    0.2565826 -33.46  0.001202942    1.737    0.424
        51 -10.4279     19.1422    129.2018   1.2747029534e+02   4.6025492937e+01    0.2516982    0.1907449 -50.76  0.001007762    1.643    0.391
        52 -10.2653     25.8924    127.1217   1.2571707954e+02   4.5880904728e+01    0.2306657    0.1369463  43.22  0.001454389    1.739    0.425
        53  -9.7580    108.5589    124.7925   1.0551407933e+02   3.5737364253e+01    0.2403993    0.2272213 -38.08 0.0005176484    1.222    0.182
        54  -8.3207      4.1340    181.4458   1.3375564168e+02   3.7202780107e+01    0.1202405   0.08092921  48.55 0.0003484843    1.429    0.300
        55 -11.6552      4.0048    121.2386   1.3030555851e+02   4.8814448697e+01    0.5076641    0.2652377  87.97  0.003215748    1.556    0.357
        56 -10.5695      4.8068    112.9663   1.2945875522e+02   5.0478074101e+01    0.2633437    0.1771956  77.01  0.001763996    1.265    0.210
        57  -8.9177    113.8735    118.6117   1.0301806932e+02   3.6075691920e+01    0.2099938    0.1870136 -46.87 0.0006307247    1.192    0.161
        58 -10.9216     45.4315    134.2446   1.2193093072e+02   4.2484991416e+01    0.2929047    0.2147489  77.58  0.001123836    1.196    0.164
        59 -10.3002     27.9596    118.8473   1.2436870755e+02   4.7442572585e+01     0.205405    0.1366692 -77.56 0.0007044566    1.218    0.179
        60  -9.0771    175.9799    231.9698   1.0858481774e+02   7.1044966476e+00    0.1666321    0.1285742  43.32 0.0006599647    1.065    0.061
        61 -10.1642     65.1121    100.2196   1.1191821126e+02   4.7510545698e+01    0.7594043    0.3977816  71.12  0.003081549    3.346    0.701
        62 -11.8319     62.0237    108.8362   1.1428467579e+02   4.6016085939e+01    0.5390759     0.420083  35.11  0.002459252    1.495    0.331
        63 -10.2740     65.5139    105.4703   1.1277253056e+02   4.6311423742e+01    0.3193531    0.2354093  52.07  0.001114579    1.421    0.296
        64  -9.0061    136.2213    180.3289   1.0879133288e+02   2.0696015676e+01     0.188252    0.1354162  36.90 0.0009316296    1.371    0.271
        65  -9.3806    134.4314    106.2762   9.5355509255e+01   3.4647304643e+01    0.3544591    0.1376683 -47.34  0.001299919    2.622    0.619
        66  -8.5245    113.4592     95.4678   9.7883055809e+01   4.0908615386e+01    0.1393356    0.1336696 -68.38  9.81702e-05    1.004    0.004
        67  -8.4292    175.1841     88.4926   8.1697949942e+01   2.8917289130e+01    0.2031368    0.1466041  50.89 0.0003081879    1.374    0.272
        68  -8.1454    146.4355     81.4679   8.5977964627e+01   3.6823503937e+01    0.1471626    0.1444824 -14.58 0.0001332102    1.008    0.008
        69  -9.5390    231.3440     79.5495   6.9390833319e+01   1.6952281749e+01    0.2644981    0.2192616  16.42  0.000234064    1.228    0.185
        70  -8.6898    117.8554     71.1856   9.0050965721e+01   4.4927159612e+01    0.2067286    0.1915531 -66.31 0.0003469726    1.134    0.118
        71  -9.5440    150.5134    247.0320   1.1426122859e+02   9.1768396817e+00    0.1896875    0.1644436  74.73  0.001036806    1.380    0.275
        72 -10.6513    204.3016    177.4196   9.5799636239e+01   9.0349037510e+00    0.4821761    0.2741191 -49.99  0.002423656    2.592    0.614
        73  -9.1382    167.8136    246.5190   1.1152440116e+02   6.7113271140e+00    0.1468177    0.1323169  40.66 0.0004366468    1.262    0.208
        74 -10.4209    130.0700     48.9982   7.9609512246e+01   4.6311106153e+01    0.2324024    0.2110052 -26.62   0.00125826    1.067    0.062
        75 -11.4266    172.6286     34.0451   6.5392810449e+01   3.7934884765e+01    0.4594282    0.3799992  -4.16 0.0008522525    1.271    0.213
        76  -9.2635    225.5785     30.8381   5.6746236311e+01   2.4517325540e+01      0.34959    0.2060675 -23.34  0.001594165    1.645    0.392
        77 -10.3760    187.8504    241.8893   1.0789506892e+02   4.2293133581e+00    0.2831452    0.1677285 -43.33 0.0007228411    2.364    0.577
