#   1 NUMBER                 Running object number                                     
#   2 MAG_AUTO               Kron-like elliptical aperture magnitude                    [mag]
#   3 X_IMAGE                Object position along x                                    [pixel]
#   4 Y_IMAGE                Object position along y                                    [pixel]
#   5 X_WORLD                Barycenter position along world x axis                     [deg]
#   6 Y_WORLD                Barycenter position along world y axis                     [deg]
#   7 A_WORLD                Profile RMS along major axis (world units)                 [deg]
#   8 B_WORLD                Profile RMS along minor axis (world units)                 [deg]
#   9 THETA_WORLD            Position angle (CCW/world-x)                               [deg]
#  10 FWHM_WORLD             FWHM assuming a gaussian core                              [deg]
#  11 ELONGATION             A_IMAGE/B_IMAGE                                           
#  12 ELLIPTICITY            1 - B_IMAGE/A_IMAGE                                       
         1 -12.2659     43.2578     20.2009   9.2119836317e+01   6.5308854926e+01    0.5792657    0.2581648  33.26   0.00205336    2.036    0.509
         2 -12.3319    216.0475     15.0485   5.5740801040e+01   3.0227539354e+01    0.5103642    0.4162034  83.36  0.002167645    1.160    0.138
         3 -13.1363    189.6374      8.5335   5.6976993322e+01   3.6698957701e+01    0.7289374    0.3279085 -65.83  0.003338895    2.741    0.635
         4 -11.8008     58.0103      8.0443   8.1975787342e+01   6.4318149749e+01    0.4161721    0.2748417  28.08  0.002761984    1.250    0.200
         5 -11.6774     44.1587      8.5536   8.7001429083e+01   6.6423574920e+01    0.2246204    0.1814837  -0.51 0.0008745543    1.165    0.141
         6  -9.6904    109.5088      8.4976   6.8758237777e+01   5.4507912499e+01    0.1208025    0.1009216  52.80 0.0008104702    1.028    0.027
         7 -11.8693    167.1413      2.0236   5.7991431063e+01   4.2344124204e+01    0.4901167    0.1507092  72.04  0.002004463    2.882    0.653
         8 -10.2748    232.3619    224.3017   9.6508451383e+01  -8.5979480506e+00    0.1339144   0.08805504  -2.60  0.000132031    1.724    0.420
         9  -9.6060    185.5176    223.0443   1.0546795111e+02  -1.0000942824e+00    0.1976281    0.1328921 -43.79 0.0008207034    1.542    0.351
        10 -10.7508    149.0189    223.2318   1.1328175702e+02   5.2880722029e+00    0.2029887    0.1599483 -88.37 0.0008172177    1.642    0.391
        11  -9.9299    174.0000    222.0111   1.0769610624e+02   1.1648224858e+00      0.22575   0.07868007 -47.38 0.0008117993    3.008    0.668
        12 -10.7704    226.1747    221.1669   9.7089939488e+01  -7.1722692188e+00    0.1654403    0.1551712 -46.70 0.0008440066    1.357    0.263
        13  -9.7504    211.0000    217.9731   9.9413483898e+01  -4.2751940800e+00     0.217674   0.07213571 -43.15 0.0008054607    2.963    0.663
        14 -11.5108    223.6364    213.6275   9.6178722432e+01  -5.5017526437e+00    0.3724611     0.245342   9.78  0.001920254    1.802    0.445
        15 -10.5564    237.9667    211.1466   9.3070237587e+01  -7.2401331215e+00    0.1903131    0.1557591  69.97  0.001021689    2.036    0.509
        16 -10.7587    115.8949    209.3632   1.1846202419e+02   1.4117260751e+01    0.3578768    0.1668967 -60.93  0.001418215    2.336    0.572
        17  -9.6663    131.6492    204.3042   1.1398381752e+02   1.2461955692e+01     0.153959    0.1110737  71.27 0.0007040933    1.703    0.413
        18 -10.3932     49.2338    202.1333   1.3279365280e+02   2.6053852141e+01    0.2709628    0.1417777  60.91  0.001081611    2.051    0.512
        19  -9.7607     41.4781    202.0020   1.3451277934e+02   2.7052940463e+01    0.1967891    0.1137955 -72.60 0.0005054113    1.527    0.345
        20 -10.9711      4.8556    199.4834   1.4211986890e+02   3.1526293363e+01    0.3148909    0.1570445  55.89  0.001087865    1.937    0.484
        21 -10.3601    149.3088    198.6579   1.0891448275e+02   1.0465609957e+01    0.1517158    0.1165323  80.37  0.000424223    1.693    0.409
        22 -10.2085    112.7878    198.2000   1.1736230152e+02   1.7242513266e+01     0.260509    0.1522247  74.17  0.000956438    2.829    0.646
        23 -12.4514    160.3568    192.1885   1.0518222690e+02   9.8036409719e+00    0.7783025    0.5626157  81.76  0.003017364    2.072    0.517
        24  -9.8205    215.3960    194.2100   9.4041123034e+01  -6.5012348511e-01    0.2007643    0.1241081 -51.04 0.0009533596    1.754    0.430
        25 -10.0708     94.4850    186.4636   1.1982828963e+02   2.3202227431e+01    0.3275255    0.1367571 -75.10 0.0008104545    5.790    0.827
        26 -10.1313    109.3100    185.9805   1.1609531142e+02   2.0772372664e+01    0.2435347    0.1225038 -78.64 0.0007041249    4.207    0.762
        27 -10.5842    224.0183    183.9628   9.0381861912e+01  -1.8234237336e-01    0.1711683    0.1519078 -26.84 0.0007253825    1.007    0.007
        28 -10.4816    183.3678    183.0186   9.8299798180e+01   7.3794073042e+00     0.400853    0.1744616 -43.37  0.001516005    2.250    0.556
        29  -9.7507    137.3469    178.6675   1.0788507907e+02   1.7307990065e+01    0.1623744    0.1200095  79.19 0.0007049283    1.766    0.434
        30  -9.9753    129.0007    177.7476   1.0972604692e+02   1.9128263962e+01    0.2071905    0.1307614  40.83 0.0008933621    1.593    0.372
        31  -9.7692     28.5057    176.5532   1.3461582407e+02   3.4660720134e+01    0.1320263     0.109429 -81.33 4.585721e-05    1.019    0.019
        32 -11.9992     35.8620    173.6012   1.3246882323e+02   3.4592764861e+01    0.4759202    0.2576357  59.19  0.002244977    2.099    0.524
        33 -10.1028    176.3314    171.6538   9.7462777076e+01   1.1188167398e+01    0.1563599    0.1212982 -89.14 0.0007049783    1.761    0.432
        34 -11.0708     55.4793    167.1951   1.2660972170e+02   3.3827359636e+01    0.4835641    0.2595539 -83.59  0.001996283    2.316    0.568
        35 -11.0130    120.9943    168.7642   1.0992874715e+02   2.2812709095e+01    0.2937931    0.2008253 -69.66  0.001241459    1.658    0.397
        36  -9.7126     88.2427    168.2275   1.1824068365e+02   2.8753424959e+01    0.2427869    0.1215938 -70.92 0.0008394847    2.472    0.595
        37 -10.4420    139.1320    165.1369   1.0468225477e+02   2.0149360520e+01    0.4028926    0.2539082  89.43  0.001387211    3.074    0.675
        38 -11.3927    106.4319    157.7592   1.1144041138e+02   2.8218525805e+01    0.6410125    0.4394004  78.25  0.002698704    2.023    0.506
        39 -10.9260    168.0110    157.5735   9.6265569987e+01   1.5990059669e+01    0.3921407    0.2758164  75.30  0.001650544    2.030    0.507
        40 -11.2393    118.8102    156.9404   1.0804250884e+02   2.6106680579e+01    0.3758444    0.3095707  66.12   0.00183804    1.315    0.240
        41  -9.9523     68.7344    154.7591   1.2100510732e+02   3.5136720782e+01    0.2286958    0.1034345  45.35 0.0008931244    2.406    0.584
        42 -10.3430    218.2686    156.1495   8.5728854577e+01   6.2390076770e+00    0.3554445    0.1143946 -45.14   0.00120647    2.839    0.648
        43  -9.5073     23.4406    153.5455   1.3299483194e+02   4.0788230636e+01    0.1319775     0.108426 -75.97 0.0001584767    1.022    0.022
        44 -10.3072    189.8346    150.7220   9.0059073698e+01   1.2968385083e+01    0.3059328    0.1963121 -67.80  0.001248198    2.149    0.535
        45 -11.0466    242.9649    151.0000   8.0419398986e+01   2.7583768681e+00    0.2011841   0.07936359  47.07 0.0008040969    2.954    0.661
        46 -10.9871    107.3059    145.7849   1.0866620381e+02   3.1000645898e+01     0.551202    0.3300283  77.46  0.001827036    3.402    0.706
        47 -10.3844    148.4812    144.9857   9.7958286850e+01   2.2945457806e+01     0.229487    0.1372752 -70.42 0.0008102638    2.563    0.610
        48 -10.0975    181.9730    141.9700   8.9722631479e+01   1.6481693615e+01    0.2522017    0.1893322 -81.61  0.001135201    1.740    0.425
        49 -10.7838     83.0164    132.0187   1.1240427348e+02   3.8587787882e+01    0.2423706    0.1823991  82.29  0.001138073    1.726    0.421
        50 -11.9172     98.2752    127.4072   1.0696878512e+02   3.7080906048e+01    0.9100557    0.5370143 -84.92  0.002833407    4.091    0.756
        51 -10.1184     12.3344    129.6514   1.3267106037e+02   4.7479621888e+01    0.1294077   0.08720943  74.41 0.0007047938    1.776    0.437
        52 -10.2216    131.7010    131.3506   9.8896062294e+01   2.9617405847e+01    0.1621597     0.124077 -87.15 0.0007036574    1.690    0.408
        53 -10.3307     59.4604    124.9644   1.1784442463e+02   4.3760515091e+01    0.3843052    0.2161047  78.10  0.001219182    4.628    0.784
        54 -11.1602     43.5144    122.6927   1.2222715626e+02   4.6247768291e+01    0.6154175      0.33368 -86.68  0.002310352    3.377    0.704
        55 -11.2520     27.4501    121.3758   1.2687327773e+02   4.8185058818e+01    0.6511887    0.3217329  87.66  0.002156018    4.792    0.791
        56 -11.7886    193.4125    118.6814   8.2056652605e+01   1.8861927598e+01    0.5671401    0.4172509 -76.23  0.002007975    1.631    0.387
        57 -10.2966     71.5863    120.6840   1.1322835045e+02   4.3075034631e+01    0.3211334    0.2044727  68.52  0.001328169    2.547    0.607
        58 -10.7054      2.6686    116.1088   1.3346849111e+02   5.1292938911e+01    0.4143462    0.1889579 -85.04  0.001780734    2.920    0.658
        59 -11.1158    140.5669    116.8627   9.3080571907e+01   3.0972130605e+01    0.5142672    0.1497405 -46.81   0.00149755    3.418    0.707
        60 -10.5842    108.0241    112.0475   1.0039768442e+02   3.8781798653e+01    0.5256503    0.1987774 -55.55  0.001627135    3.368    0.703
        61 -11.0303     78.6398    112.2283   1.0906746506e+02   4.3952549740e+01     0.510465     0.290639 -76.95   0.00173437    3.682    0.728
        62 -12.2456    159.8190    110.5888   8.6992386851e+01   2.8019803940e+01    0.7792107    0.4168459 -58.71  0.002916052    2.339    0.572
        63 -10.4107     91.7591    110.9475   1.0479996423e+02   4.2042286476e+01    0.4616818     0.176777 -58.08  0.001432675    3.536    0.717
        64 -10.9098    174.4809    110.9096   8.3940630682e+01   2.4640152099e+01    0.4429536    0.2549859 -47.53  0.001493093    1.687    0.407
        65  -9.2374     98.9731    112.2375   1.0302198881e+02   4.0452927482e+01    0.1819863     0.126329  40.25 0.0008437502    1.491    0.329
        66 -11.2320     14.0857    109.4954   1.2888468443e+02   5.2036334286e+01    0.5776758    0.2348281 -66.24  0.002623369    2.150    0.535
        67 -12.4844    141.0283    104.1641   8.9691010503e+01   3.3555582592e+01    0.6580762    0.4410677 -61.99  0.002872382    1.767    0.434
        68 -10.8462    122.4741    112.3604   9.6540439038e+01   3.5808113667e+01    0.4391831    0.2589054 -66.06  0.001647488    2.475    0.596
        69 -11.8699     44.6169    101.3042   1.1727183357e+02   5.1059343936e+01    0.6250245    0.3922116 -87.17  0.002694405    2.907    0.656
        70 -10.0799      6.9973    103.8026   1.3012818981e+02   5.3806201873e+01    0.1860149    0.1255913  57.79  0.001072067    2.012    0.503
        71 -12.0278    127.7354    101.1415   9.2199787388e+01   3.7077315999e+01    0.5277756    0.3283761 -62.50  0.002168672    2.088    0.521
        72 -12.7638    110.5546    100.2207   9.6546349188e+01   4.0830461936e+01     1.124866    0.5822998  61.77  0.003819824    3.322    0.699
        73 -10.7084     81.9857    100.6318   1.0506140617e+02   4.5984198350e+01     0.249443    0.2079037 -80.94  0.001103444    1.522    0.343
        74  -9.9861     98.4924    120.4977   1.0523723740e+02   3.8659114680e+01     0.150659    0.1438997 -41.89 0.0008105938    1.016    0.016
        75 -10.2550     89.9643     97.5244   1.0178318870e+02   4.5279644063e+01    0.2062029    0.1422787  37.14  0.000349667    1.492    0.330
        76 -10.5735     63.7816     97.1773   1.0993514139e+02   4.9526132882e+01    0.2264625    0.1537958  78.17 0.0009562044    2.865    0.651
        77 -12.9079    170.4024     90.9922   7.9812990119e+01   2.9438951391e+01     0.419579    0.3464856 -80.85  0.000954006    1.284    0.221
        78 -10.6884     34.2000     89.2766   1.1793602952e+02   5.4779497037e+01    0.3491219    0.1751893 -68.50  0.001491657    2.760    0.638
        79 -11.5287     42.3105     87.9828   1.1478907102e+02   5.4195676115e+01    0.3879028    0.2301719  -2.60  0.001378981    2.322    0.569
        80 -10.6714     86.6783     87.2781   9.9913859321e+01   4.7954399276e+01    0.3963649    0.2671252 -80.63  0.001597789    3.008    0.668
        81 -10.9406     46.7787     83.4380   1.1203259434e+02   5.4619272839e+01    0.5612164    0.3466869  70.31   0.00204965    4.788    0.791
        82 -10.9388    104.9165     83.5350   9.3430968036e+01   4.5275481142e+01    0.4759066    0.3196563 -83.22  0.001862156    3.055    0.673
        83 -10.6377     24.1730     80.6865   1.1939126187e+02   5.7501770230e+01    0.3015552    0.1870082 -83.82  0.001396139    3.050    0.672
        84 -11.0227     82.6142     73.6309   9.7135905838e+01   5.1256932651e+01    0.4056665    0.2735807 -79.55  0.001613916    3.482    0.713
        85 -12.3820    223.5919     70.5278   6.6391410124e+01   2.0990848891e+01    0.2776389    0.2216066  87.83 0.0001614771    1.181    0.153
        86 -10.8911      6.9543     85.0244   1.2654478926e+02   5.7881855833e+01    0.1879429    0.1401502 -43.59 0.0003599363    1.073    0.068
        87 -10.7608     62.4391     70.2969   1.0276231408e+02   5.5088722938e+01    0.2535619    0.1160999 -40.33  0.001132169    2.068    0.517
        88 -10.6095     52.0090     70.5253   1.0649036000e+02   5.6487672898e+01    0.2572429    0.1834987 -41.07  0.001034572    1.299    0.230
        89  -9.9147    196.4697     68.0000   6.9638483421e+01   2.7393118851e+01    0.3056813   0.07499096  59.85 0.0009431686    4.003    0.750
        90 -11.8471     20.7685     52.3263   1.1283666649e+02   6.3177027212e+01    0.7683523    0.3992244 -61.80  0.003707147    2.992    0.666
        91 -10.6836     39.3458     53.0137   1.0567691814e+02   6.1147160890e+01    0.2989599    0.1884073 -28.28 0.0008047482    1.436    0.304
        92 -13.5296     30.9965     59.8890   1.1109515386e+02   6.0869050181e+01     1.212813    0.7679029  28.14  0.005507009    1.701    0.412
        93 -11.7634    237.7110     63.7147   6.3265063926e+01   1.9107864745e+01    0.2629878    0.1390026 -88.04  0.001182902    2.514    0.602
        94 -10.3631     73.0168     58.5167   9.5439354318e+01   5.5477588165e+01    0.2670113    0.1602565 -54.97  0.001110438    2.412    0.585
        95 -11.1632      8.8346     56.7477   1.1899595349e+02   6.3330769782e+01    0.4509059    0.3629732  67.16  0.002975211    2.130    0.531
        96 -10.2703    119.9705     56.8268   8.1467719899e+01   4.6672040056e+01    0.2272999    0.1613991  82.81  0.001087602    2.023    0.506
        97 -11.4674     19.4504     59.3647   1.1547823449e+02   6.2037465184e+01    0.2763356    0.2020589  -7.43 0.0009746833    1.304    0.233
        98 -10.6904    161.0542     53.0099   7.1766941485e+01   3.7893434191e+01    0.4010198     0.168642  71.13  0.001394227    3.304    0.697
        99 -12.3723    149.4669     51.9808   7.3645161640e+01   4.0734643192e+01    0.3317997    0.2459221  56.97 0.0003883913    1.239    0.193
       100 -10.6269    124.0063     47.1596   7.7602361809e+01   4.7167251747e+01    0.2008953    0.1935685 -20.66 0.0003395544    1.130    0.115
       101 -10.3649     82.4316     47.0440   8.8608431940e+01   5.5594855476e+01    0.2262596    0.1781693  56.89 0.0006291588    1.528    0.346
       102 -10.7604    157.0203     45.0124   7.0368496327e+01   3.9940441868e+01    0.2477963    0.1730912  62.53  0.000469251    1.293    0.227
       103 -11.6418     71.5865     42.5436   9.0487029221e+01   5.8119579039e+01    0.5985711    0.3101982  55.55  0.002669038    2.873    0.652
       104 -11.2972      6.9305     43.0254   1.1573703087e+02   6.5869171144e+01    0.4213032    0.2646053  40.17  0.002603894    2.398    0.583
       105 -11.7442     41.7304     37.6965   9.9425901865e+01   6.3237999725e+01    0.6230291    0.3018349  13.54  0.002629801    3.011    0.668
       106 -11.7391     46.5489     35.9829   9.6943858755e+01   6.2844555722e+01    0.5583763    0.2597388  20.58  0.001939744    2.721    0.632
       107 -10.4854     83.2475     38.1565   8.5317925774e+01   5.6646679941e+01    0.3015425    0.1640701  50.52  0.001501278    1.843    0.457
       108 -11.1620    120.1865     34.3018   7.4552486669e+01   4.9630779077e+01    0.2856275    0.2284122  57.40 0.0006514316    1.138    0.122
       109 -10.3115     73.7564     32.8581   8.6350068309e+01   5.9013261018e+01    0.2216358    0.1662041  69.82  0.001247162    2.139    0.532
       110  -9.8985    105.6648     30.6557   7.6750979029e+01   5.3142328007e+01    0.2378417    0.1229311  55.87 0.0007105445    1.779    0.438
       111 -10.1669    102.3266     30.6478   7.7567522003e+01   5.3831266381e+01    0.2323784     0.158277  62.05  0.001296327    1.543    0.352
       112 -11.9884    204.0052     21.4287   5.8241559965e+01   3.2110995162e+01    0.2802149    0.1558634 -89.30  0.001477706    1.782    0.439
       113 -11.4257    224.1551    249.2946   1.0239684937e+02  -1.1334145724e+01    0.3506848    0.1510042  31.91  0.001694177    2.201    0.546
       114 -12.3469     22.4150    239.3852   1.4175109182e+02   2.0885394524e+01    0.6216404    0.2506728  71.41  0.002757234    2.847    0.649
       115 -11.0687    240.0139     20.4993   5.4699223758e+01   2.4596455071e+01    0.2274422    0.1640682 -88.38 0.0004776409    1.141    0.123
       116  -9.9683    134.2871     17.9739   6.6924305699e+01   4.8264733080e+01    0.1675355    0.1512435  61.93 0.0004657541    1.063    0.059
       117 -11.4679      8.2663    240.6178   1.4440057905e+02   2.2168118445e+01    0.1938947    0.1775876  53.17 0.0009921063    1.472    0.321
       118 -10.8567     12.8714    227.2414   1.4265211804e+02   2.4529689361e+01    0.2373042    0.1381309 -76.21 0.0006616131    1.462    0.316
       119 -10.2052    104.4572    225.4406   1.2344055345e+02   1.2462430368e+01    0.2438416    0.1316788 -74.44  0.001032196    2.384    0.580
       120 -10.9177     95.3141    224.8175   1.2536588326e+02   1.4081808884e+01    0.2826464    0.1951108  74.99  0.001443898    1.586    0.370
