#   1 NUMBER                 Running object number                                     
#   2 MAG_AUTO               Kron-like elliptical aperture magnitude                    [mag]
#   3 X_IMAGE                Object position along x                                    [pixel]
#   4 Y_IMAGE                Object position along y                                    [pixel]
#   5 X_WORLD                Barycenter position along world x axis                     [deg]
#   6 Y_WORLD                Barycenter position along world y axis                     [deg]
#   7 A_WORLD                Profile RMS along major axis (world units)                 [deg]
#   8 B_WORLD                Profile RMS along minor axis (world units)                 [deg]
#   9 THETA_WORLD            Position angle (CCW/world-x)                               [deg]
#  10 FWHM_WORLD             FWHM assuming a gaussian core                              [deg]
#  11 ELONGATION             A_IMAGE/B_IMAGE                                           
#  12 ELLIPTICITY            1 - B_IMAGE/A_IMAGE                                       
         1 -13.6344    120.5108     10.5185   7.3530348970e+01   5.3345337561e+01      5.67902     2.133937 -47.37   0.01907119    4.340    0.770
         2 -15.4486    205.6102     62.2326   7.5104069412e+01   2.5621527514e+01     12.86914     7.442565 -66.47   0.05212356    2.380    0.580
         3 -13.3227    169.7986     68.0440   8.2918458107e+01   3.3566410268e+01     3.478167     1.967032  33.73   0.01342839    2.378    0.579
         4 -14.0079    188.5446     30.4990   6.8757476562e+01   3.4228143839e+01     2.614416     1.426497  37.95  0.006268814    2.409    0.585
         5 -15.0963    227.8634     42.9389   6.7173431350e+01   2.3043743524e+01     2.828269     2.183504 -74.37   0.01590148    1.291    0.225
         6 -15.5492    233.5979      5.0322   5.7526234205e+01   2.6196977660e+01      2.34783      1.23741  58.22   0.01211606    2.023    0.506
         7 -13.8890    249.4026      3.0955   5.5966590121e+01   2.2896882717e+01    0.8597649    0.3848841 -25.57  0.003858622    2.479    0.597
         8 -14.6223    249.0685     25.4881   6.0938921279e+01   2.0458468747e+01     1.365095     0.611165 -25.75  0.003236449    2.482    0.597
         9 -15.6055    244.7022     18.7774   5.9786355876e+01   2.2203717543e+01     3.796743    0.1437509  61.18   0.01026632    7.128    0.860
        10 -13.6218    215.7409      8.9375   5.9943081124e+01   2.9951700605e+01     1.044093    0.6266408 -60.83  0.005457331    1.622    0.383
        11  -8.7883    142.2962     14.5307   7.0869717851e+01   4.7680411260e+01    0.3178228    0.1313424 -25.18  0.001218954    2.548    0.608
        12  -9.4029    143.3445      8.4455   6.8607577141e+01   4.8001339786e+01    0.4036106    0.1880295 -10.72  0.001469405    2.814    0.645
        13  -8.6346    144.0000      2.9888   6.6649299151e+01   4.8315825877e+01    0.2766935   0.07719199 -20.39 0.0009410186    3.986    0.749
        14  -9.2929    133.7227    146.8650   1.1191719785e+02   2.5964744596e+01     0.432811    0.1448069 -49.73  0.001421513    3.038    0.671
        15 -12.8017     52.3769    165.8475   1.3482351910e+02   3.4702807353e+01     1.173451    0.7403938  42.84  0.003326422    1.606    0.377
        16  -9.3796    228.3524    172.4157   9.7667753009e+01   2.5038273464e+00    0.2595261    0.1603007 -35.06     0.001335    1.581    0.368
        17  -9.8751    219.1677    169.9571   9.8817335819e+01   4.5600946988e+00    0.3756135    0.2232511  63.65  0.001539151    3.084    0.676
        18 -10.2257    230.2394    166.3531   9.6085750983e+01   3.1053618351e+00    0.2966328    0.1812032 -28.69 0.0008235177    1.575    0.365
        19  -9.9846    240.3037    162.3041   9.3507468056e+01   1.9263135070e+00    0.2421278     0.171124  68.99  0.001181509    2.471    0.595
        20  -8.5174    203.4891    160.5034   9.9777251517e+01   9.1345523763e+00    0.1415157    0.1313335   3.92 0.0008105758    1.007    0.007
        21  -9.1875    243.5481    156.4857   9.1739710560e+01   2.2360043427e+00    0.1335035    0.1168701 -12.56 0.0001381478    1.035    0.034
        22  -9.5235    237.5673    249.2504   1.0974039783e+02  -9.0252814806e+00    0.1467533    0.0918557 -11.08 0.0008911139    1.645    0.392
        23  -9.3231    208.9787    250.0000   1.1469037247e+02  -5.0211868206e+00    0.1957637   0.05293526  39.86 0.0008091985    2.990    0.665
        24  -8.5827    192.0311    144.0237   9.8395726678e+01   1.4432055508e+01    0.2163461    0.1807483 -75.76  0.000342334    1.555    0.357
        25  -9.0085    183.7633    142.7995   9.9800382788e+01   1.6408893277e+01    0.2162795    0.1967852   6.23 0.0007325148    1.123    0.110
        26 -10.8620    187.6945    137.4502   9.7754643095e+01   1.6585336747e+01     0.396054    0.2786394  38.18    0.0018832    1.454    0.312
        27 -10.7956    210.6289    136.4498   9.3062440348e+01   1.1903105019e+01    0.3806041    0.3340561   7.38  0.001836141    1.160    0.138
        28 -10.6896    213.3913    131.3412   9.1365264526e+01   1.2220565042e+01    0.4126595    0.2320097  44.21  0.001826792    1.843    0.457
        29 -10.4894     61.7572    134.8063   1.2803617595e+02   4.0751411450e+01    0.3854699    0.2268079  82.03  0.001448486    2.338    0.572
        30 -11.0324    199.3759    133.7610   9.4565903450e+01   1.4762922675e+01    0.5118254    0.3474951 -75.75    0.0020645    2.654    0.623
        31  -8.6849    116.0277    135.0058   1.1373219522e+02   3.2017207052e+01    0.2102658    0.2035391 -84.87  0.001176162    1.011    0.010
        32 -11.8606     57.9451    161.1172   1.3291685344e+02   3.5092061656e+01    0.6154754    0.3823802 -81.68   0.00119468    1.558    0.358
        33  -8.9512     74.6660    130.9783   1.2386008520e+02   3.9887174981e+01    0.2045777    0.1633471 -70.33  0.001130278    1.160    0.138
        34  -9.6198    215.1798    241.9646   1.1242139130e+02  -4.9816178077e+00    0.1944538    0.1182392   1.19  0.001094981    2.049    0.512
        35 -11.1443    204.4155    128.3074   9.2308360568e+01   1.4668067780e+01    0.4539056    0.2780955 -26.25  0.001992271    1.768    0.434
        36 -11.9092    205.8227    123.2496   9.0828944598e+01   1.5270502425e+01     0.629685     0.410924  36.36  0.002895815    1.679    0.404
        37 -10.3031    135.1395    128.0639   1.0734499709e+02   2.9782007738e+01    0.5727544    0.3417078 -43.06  0.002454669    1.688    0.408
        38  -9.9744    160.5663    128.3682   1.0140890762e+02   2.4287003440e+01    0.4187424    0.3370007 -82.43  0.001992917    1.585    0.369
        39 -10.4702    217.5953    126.4944   8.9470749254e+01   1.2178299999e+01    0.4221689    0.2492573 -12.94  0.001675573    2.497    0.600
        40 -13.0763    188.1319    123.2992   9.4265821360e+01   1.9167290944e+01     1.213758     1.098859 -12.31  0.006484051    1.130    0.115
        41 -10.5146    192.5582     92.5489   8.5479069220e+01   2.3795195951e+01    0.4873408    0.3671973  52.30  0.001609499    1.365    0.268
        42 -10.4436    188.9079    113.6817   9.1702505305e+01   2.0799336047e+01    0.3954982    0.3188792  81.99 0.0009927128    1.556    0.357
        43 -11.8352    187.6584    105.3393   8.9799589001e+01   2.2637420818e+01    0.9951438    0.6761262   0.53  0.004041953    2.294    0.564
        44 -12.3096    225.5877    118.5548   8.6213327759e+01   1.1849680589e+01     1.335519    0.8182225 -84.98  0.004387218    4.572    0.781
        45  -9.9747    221.2389    119.9660   8.7285768896e+01   1.2528245318e+01    0.2657124     0.255832 -40.61 0.0007374489    1.089    0.082
        46 -10.2200    205.4321    102.1702   8.5654240219e+01   1.9097081213e+01     0.357326    0.2273846 -54.07  0.001567194    1.781    0.438
        47 -12.6166    213.7162    114.9307   8.7376224026e+01   1.5014687733e+01     1.140414    0.7179354 -68.04  0.002611896    2.669    0.625
        48 -12.2255    205.6048    110.3112   8.7681914015e+01   1.7624584840e+01    0.6391024    0.5501283 -44.67  0.002719972    1.141    0.123
        49 -11.5831    179.9647     78.8549   8.4084220579e+01   2.9229690492e+01    0.8248612    0.6947258 -77.52  0.004164159    1.336    0.252
        50 -10.6429    167.9163    113.6721   9.6077242355e+01   2.5607084351e+01    0.4239507    0.3447016 -80.70  0.001045056    1.538    0.350
        51 -10.6227    134.7149    107.7273   1.0232033615e+02   3.4258517982e+01    0.5491206    0.2641972 -40.25  0.002067816    2.107    0.525
        52 -11.2244    118.0127    109.6837   1.0717555504e+02   3.7313703794e+01    0.4077143    0.3348473 -74.29  0.001827613    1.388    0.280
        53  -8.7113    135.0000    119.9286   1.0539725439e+02   3.1579685467e+01    0.2549857    0.0862405 -45.72 0.0007984178    2.915    0.657
        54 -10.0893    126.0821    109.8816   1.0509997174e+02   3.5624839795e+01    0.3117165    0.2260131 -55.41  0.000713443    1.422    0.297
        55 -11.9566    123.3503    102.7533   1.0391454150e+02   3.7730726938e+01    0.9431471    0.6838117  60.75  0.003863006    1.592    0.372
        56  -8.3023     26.2199    230.5761   1.4556324647e+02   2.4328576727e+01    0.1249577   0.09465109  40.04 0.0005340048    1.560    0.359
        57 -10.7140     86.2949    221.6415   1.3386702301e+02   1.8465169488e+01    0.2844982    0.1790018  88.07  0.001638631    1.762    0.432
        58  -9.0393    140.5471    104.2111   9.9919066511e+01   3.3720312730e+01    0.2446904    0.1845484  40.42 0.0007798281    1.371    0.271
        59  -9.5364    110.5074    113.0254   1.1004987821e+02   3.8037703233e+01     0.228532    0.1432551 -48.53 0.0004619337    1.533    0.348
        60  -9.2296    147.0013     99.9875   9.7191312971e+01   3.3134672570e+01    0.2375292    0.2259168  -5.00 0.0006066537    1.094    0.086
        61 -11.8645    186.4511     95.9792   8.7556903242e+01   2.4633721420e+01     1.538208    0.4692714 -42.41  0.004731666    3.186    0.686
        62 -10.7381    133.4557     96.7712   9.9630915221e+01   3.6824586577e+01    0.3657903    0.2803493 -54.77  0.000770513    1.370    0.270
        63 -10.5314    206.5083     93.6940   8.3286648014e+01   2.0314783115e+01    0.5392116    0.3639838 -81.36   0.00157148    2.264    0.558
        64  -9.5723    156.3303     93.5188   9.3203135419e+01   3.2252783441e+01    0.5010884    0.3195955  24.81  0.001972339    2.242    0.554
        65  -9.9226    171.5759    205.5813   1.1470072216e+02   7.3726978266e+00    0.2186377    0.1951059  40.46 0.0006364848    1.071    0.066
        66 -10.7909    140.4276     89.5818   9.5823291441e+01   3.6711789572e+01    0.4009639    0.3538516 -80.97  0.000728609    1.294    0.227
        67  -9.8377    126.6993     90.6849   9.9629800287e+01   3.9546919466e+01    0.2925487    0.2588924 -82.64  0.001498526    1.301    0.231
        68 -11.0893      4.2311     89.1119   1.3752009609e+02   5.6778879222e+01    0.3480255    0.1764233 -66.89  0.001963888    1.492    0.330
        69  -8.3476    111.4071     87.2970   1.0279229519e+02   4.3447778520e+01    0.2070372    0.1387989 -53.46  0.000578069    1.569    0.363
        70  -9.1224    168.4194     91.3451   8.9939219649e+01   2.9793460730e+01    0.4381038    0.2886248  47.87  0.001941568    1.539    0.350
        71  -7.8042     78.3439     86.6865   1.1254712275e+02   4.9554747268e+01     0.140839    0.1115956  84.77 0.0006897397    1.709    0.415
        72 -10.6719    171.6357     82.9482   8.6893251459e+01   3.0548187975e+01     0.531132    0.3906838  24.55  0.002404068    1.699    0.411
        73 -13.3245     16.0746    190.7002   1.4490898884e+02   3.3179853530e+01     0.826455    0.6147361  82.18  0.003807681    1.018    0.017
        74  -9.2608    191.8901    192.7214   1.0845178186e+02   5.8625749973e+00    0.5296663    0.2784413 -62.42  0.001716597    5.323    0.812
        75 -10.9747    186.7802     72.3691   8.0991693877e+01   2.8644007115e+01    0.4278684    0.2688212  37.32  0.001434089    1.904    0.475
        76 -10.7493    191.9954     69.1409   7.9177468421e+01   2.7882199503e+01    0.3479822    0.2863128  48.19  0.001670102    1.265    0.210
        77 -10.4994    100.5221     62.4989   9.8073141983e+01   5.0494739319e+01    0.4783995    0.2180836  32.59  0.001723314    2.936    0.659
        78 -10.4252    126.7359     59.1841   8.9710264721e+01   4.5447568625e+01    0.3075037    0.2290281 -63.82 0.0009835694    1.728    0.421
        79  -9.2323     95.7256     55.5649   9.7106826778e+01   5.2683817221e+01    0.2472935    0.1733196 -56.18  0.001188864    1.792    0.442
        80 -10.8222    216.1073    189.0652   1.0317833277e+02   2.1139962170e+00     0.732076    0.3272626  54.32  0.002739075    3.608    0.723
        81 -10.7742    115.8365     53.9301   9.0746950506e+01   4.8773949927e+01    0.3678562    0.2401029  55.73  0.001213082    1.638    0.389
        82 -11.4945     37.1285    183.3841   1.4004850918e+02   3.2579225830e+01    0.3159886     0.216015  69.98  0.001993982    1.269    0.212
        83  -8.9267    118.0435    150.0535   1.1636420784e+02   2.8254153893e+01    0.2127202     0.199574  88.79 0.0003210517    1.035    0.034
        84  -8.1351     82.7162     51.3609   9.9729344672e+01   5.5854546830e+01    0.1331982    0.1093837 -67.89 0.0003647313    1.679    0.404
        85 -10.5690    122.9026     48.4790   8.6993917414e+01   4.8054715543e+01    0.4158472    0.1896453  46.44  0.001648629    2.134    0.531
        86  -8.6887     71.1948     43.9818   1.0090197247e+02   5.9106300590e+01    0.1828024   0.09639706 -38.51 0.0006100364    1.768    0.434
        87 -10.4084    126.6135     41.3400   8.3559474747e+01   4.8252595726e+01    0.3213924     0.232575  21.24   0.00150964    1.589    0.371
        88  -8.7564    204.1227     41.0523   6.9595912426e+01   2.8994301747e+01    0.1886001    0.1811612 -13.64 0.0003402534    1.170    0.146
        89 -10.4309    122.7233     38.2534   8.3383381987e+01   4.9594153040e+01    0.2887621    0.2381405  39.92  0.001570974    1.160    0.138
        90  -9.7751    106.8090     36.5222   8.6819488500e+01   5.3413642959e+01    0.2578023    0.1908461 -27.71  0.000734705    1.351    0.260
        91  -8.7286    180.2790    148.5560   1.0182738607e+02   1.6042336190e+01    0.2158687    0.1366592  33.83 0.0009533403    1.692    0.409
        92  -9.2087    118.0200     20.2330   7.7773031046e+01   5.2933834877e+01    0.2142902     0.190612 -13.41 0.0003930802    1.164    0.141
        93  -9.5849    222.1977    178.0790   9.9915250891e+01   2.7271714919e+00    0.2381468    0.1835474  71.21  0.001238666    2.123    0.529
        94 -12.6122     69.1020    147.6859   1.2822243591e+02   3.6736136088e+01     1.994068     1.028129 -55.28  0.008897912    1.823    0.452
        95 -12.8392     46.2657    170.3693   1.3674628834e+02   3.4408880456e+01     1.274127    0.5597106  30.72  0.001542122    2.688    0.628
