#   1 NUMBER                 Running object number                                     
#   2 MAG_AUTO               Kron-like elliptical aperture magnitude                    [mag]
#   3 X_IMAGE                Object position along x                                    [pixel]
#   4 Y_IMAGE                Object position along y                                    [pixel]
#   5 X_WORLD                Barycenter position along world x axis                     [deg]
#   6 Y_WORLD                Barycenter position along world y axis                     [deg]
#   7 A_WORLD                Profile RMS along major axis (world units)                 [deg]
#   8 B_WORLD                Profile RMS along minor axis (world units)                 [deg]
#   9 THETA_WORLD            Position angle (CCW/world-x)                               [deg]
#  10 FWHM_WORLD             FWHM assuming a gaussian core                              [deg]
#  11 ELONGATION             A_IMAGE/B_IMAGE                                           
#  12 ELLIPTICITY            1 - B_IMAGE/A_IMAGE                                       
         1 -12.0298    176.7347     23.5730   4.6738011058e+01   3.8190411172e+01    0.8794074    0.8130016  65.93  0.005273493    1.080    0.074
         2  -9.5358    120.0616      8.6344   5.1540598266e+01   5.3868141122e+01    0.2999703    0.2739664  74.14  0.001158867    1.166    0.143
         3  -8.2255    237.9457      3.8779   3.5382693491e+01   2.5619549281e+01    0.1666956    0.1519907  84.19            0    1.239    0.193
         4  -8.5386    132.0798     17.9700   5.2498737613e+01   5.0048298269e+01    0.2049606    0.1817698  47.03 0.0003139566    1.031    0.030
         5  -9.0364    108.9847    250.0677   1.1160759611e+02   8.9616188951e+00    0.1628251     0.132552  55.65  0.001133906    1.050    0.047
         6 -18.5878     65.1457    218.3430   1.1700290048e+02   2.1060558462e+01     4.960476     4.165904 -89.25   0.01418097    1.184    0.155
         7  -9.6704    144.1940    209.3656   9.9437799572e+01   1.0485642543e+01    0.4413243    0.3346789 -28.54  0.002439952    1.674    0.403
         8  -9.0657    220.4574    210.1417   8.4301661961e+01  -2.7384042575e+00    0.2612416    0.2169148 -57.00  0.001085735    1.822    0.451
         9  -8.7674    165.4051    209.6736   9.5054073080e+01   6.7140231155e+00    0.2298778    0.1330866 -51.03 0.0007504246    2.036    0.509
        10  -9.2352    208.7176    204.8128   8.5555374559e+01  -3.3125302735e-03    0.2734406    0.1872102  45.48  0.001106705    1.557    0.358
        11 -10.3825    240.0709    203.1008   7.9465798461e+01  -4.8237126937e+00    0.2289091    0.1909798  11.71 0.0003435489    1.092    0.084
        12  -9.8769    209.2399    200.1097   8.4594589781e+01   6.4373910815e-01    0.3423232    0.1726432  35.94  0.001613359    1.841    0.457
        13  -9.4841    210.0697    195.1909   8.3516246235e+01   1.2835376187e+00    0.2103356    0.1806208 -14.45  0.000365272    1.132    0.117
        14  -8.0436    236.6399    191.1965   7.7821278174e+01  -2.5657033180e+00    0.1733531    0.1086929 -22.39 0.0002574805    1.545    0.353
        15  -8.9671    154.4193    236.5705   1.0128488879e+02   4.0630807166e+00    0.3191141    0.2161504 -20.53  0.001739347    2.203    0.546
        16 -10.4421    125.9551    230.6365   1.0614006427e+02   9.6714126754e+00    0.6493022     0.438578 -71.83  0.002761058    1.852    0.460
        17  -9.2380    154.9479    189.5826   9.3858028840e+01   1.2332272044e+01    0.2513562    0.2009606 -72.65 0.0003728528    1.553    0.356
        18  -9.6148    202.1772    187.0363   8.3497223356e+01   4.0310843772e+00     0.252144    0.1904245  33.51  0.001108209    1.241    0.194
        19 -10.8366    119.8881    234.1589   1.0777266279e+02   1.0014454245e+01    0.2942351    0.2200914 -45.10 0.0008119577    1.706    0.414
        20  -8.7893    164.2457    186.8499   9.1339919981e+01   1.1123121360e+01    0.2055674    0.1895464  70.44 0.0005720387    1.216    0.177
        21  -8.9795      1.5738    183.1777   1.2711262285e+02   3.5370115859e+01    0.1682995    0.1047825 -79.54 0.0004330245    1.315    0.239
        22 -10.1104    131.4290    181.1089   9.7655900179e+01   1.8412488526e+01    0.3715301    0.2106263  49.43            0    1.722    0.419
        23  -9.2680    198.9645    175.1700   8.1781264849e+01   6.6946773899e+00     0.227295    0.2177377 -22.08            0    1.136    0.120
        24 -11.0279    158.3397    171.7982   8.9778785079e+01   1.5245864540e+01    0.6926072    0.4496616 -81.57  0.002661536    2.982    0.665
        25 -13.8733     38.4177    238.5132   1.2355073665e+02   2.0476687453e+01     0.397552    0.3281284 -79.38  0.001295175    1.408    0.290
        26  -7.9506    165.9844    234.2597   9.8703750003e+01   2.5436304976e+00     0.179718    0.1370443  36.57 0.0004435338    1.086    0.079
        27  -8.7873    134.4398    233.6314   1.0482958281e+02   7.7868672707e+00    0.2441535    0.1769564  41.80 0.0009025745    1.151    0.131
        28  -8.6399    151.3246    231.0725   1.0113909267e+02   5.4622211561e+00    0.3616646    0.2347908  -0.56  0.001472504    2.886    0.653
        29 -11.2777    148.6624    156.8184   8.8966137124e+01   2.0329532709e+01    0.5995785    0.4156164  60.76  0.002710586    1.680    0.405
        30 -11.0536    152.5763    150.8430   8.6763846410e+01   2.0822945362e+01    0.6969145    0.4539441  88.49  0.002507153    3.076    0.675
        31 -10.0484    152.3529    144.4521   8.5399564373e+01   2.2255288301e+01    0.3213341    0.2826903 -51.15   0.00164884    1.156    0.135
        32  -8.2347    142.8001    232.5778   1.0303524165e+02   6.6090113653e+00    0.2294172     0.148465 -49.59   0.00090105    1.849    0.459
        33  -7.7736     18.4264    154.4329   1.2126018603e+02   4.0415606037e+01    0.1219967   0.09738331 -80.56 0.0001190867    1.079    0.073
        34  -8.6157      1.7645    152.6535   1.2503342482e+02   4.2128026306e+01    0.2425783    0.1258124 -89.42  0.001103479    1.593    0.372
        35  -7.9914    234.4969    151.9907   7.0159149723e+01   4.0165950382e+00     0.195155    0.1116038 -54.53 0.0008104916    2.554    0.608
        36  -8.9435    187.6623    151.9814   7.9173389847e+01   1.3276602330e+01     0.211938     0.188175 -34.73 0.0004961615    1.122    0.109
        37 -10.5431    144.6907    150.9604   8.8669383527e+01   2.2413933586e+01    0.4809344    0.3500538  -3.96  0.002068283    2.077    0.519
        38 -11.4152    143.9694    146.0140   8.7766095452e+01   2.3654885383e+01    0.5779836    0.4758655  74.20  0.002835747    1.410    0.291
        39  -9.5797    156.9456    229.6830   9.9827705152e+01   4.7624067950e+00    0.4763804    0.1748764  33.93  0.001819751    2.758    0.637
        40  -9.3289     17.9023    148.5367   1.2082338065e+02   4.1837976746e+01    0.2866012    0.2457992 -50.41  0.001082296    1.385    0.278
        41 -10.0232    157.1165    147.8745   8.5043149716e+01   2.0517531853e+01    0.3775216    0.2951468 -78.43 0.0009396154    1.656    0.396
        42 -11.1814    160.9518    224.5353   9.8278478216e+01   4.9427880999e+00    0.6484092    0.4563304  41.00  0.001953978    1.215    0.177
        43  -8.5804     14.1075    143.9771   1.2131918411e+02   4.3214915008e+01    0.1762024    0.1410934 -82.63 0.0003241238    1.034    0.033
        44  -9.9775    161.6509    141.0218   8.2430782431e+01   2.1019699600e+01    0.3770828    0.3096451 -27.09  0.001851254    1.310    0.236
        45  -9.2888    154.4637    137.4478   8.3286944825e+01   2.3329313381e+01    0.3288696    0.2330011 -89.46  0.001167107    2.241    0.554
        46 -11.5828    135.5980    125.6668   8.5132178476e+01   2.9966197914e+01     1.501998    0.2667524 -49.33  0.003212096    6.385    0.843
        47 -10.2025    152.0044    129.4070   8.1957276969e+01   2.5610412569e+01    0.4969682    0.3112089  75.12  0.001747544    2.908    0.656
        48  -9.7391    159.5354    128.6237   7.9971486650e+01   2.4125961387e+01    0.3762563    0.2924663  39.39  0.001780154    1.310    0.236
        49  -8.7138    153.6154    212.7373   9.7983953799e+01   8.2319572259e+00    0.2609003    0.2162794  82.39  0.001020316    1.519    0.341
        50 -11.4464    157.1700    218.7223   9.8170086555e+01   6.5678067471e+00    0.8773985    0.3762153  35.03  0.003767581    2.211    0.548
        51 -10.3261    145.0704    122.8375   8.2036383565e+01   2.8563590132e+01    0.4301898    0.2716921  64.37  0.001694913    2.104    0.525
        52  -9.6025    202.0846    121.1018   6.8998027481e+01   1.6131486712e+01    0.2339861    0.2315378  56.12  0.000276842    1.076    0.070
        53 -10.0756    109.6639    121.5134   9.1077793468e+01   3.6137196134e+01    0.2953272     0.260582 -19.60 0.0007546592    1.285    0.222
        54  -9.4275    108.2245    117.9805   9.0631722331e+01   3.7240088650e+01    0.2340666    0.2283041 -32.61 0.0004612072    1.060    0.057
        55 -10.0810    153.0097    216.9720   9.8757142849e+01   7.5851514707e+00    0.4729576    0.3462073   1.14  0.001938111    1.914    0.478
        56  -8.8083    135.0900    228.5918   1.0404736248e+02   8.5510451273e+00    0.4240883     0.202189  56.28  0.001853556    2.529    0.605
        57  -8.4914    221.8966    227.6261   8.7063474888e+01  -5.4001587457e+00    0.1882841    0.1426184   0.79 0.0003573805    1.206    0.171
        58  -7.5652    206.9715    118.0328   6.7318708182e+01   1.5626178700e+01    0.1792993     0.166218 -32.58 0.0003284141    1.022    0.021
        59  -9.4223    168.0893    113.5005   7.4172230663e+01   2.5363603215e+01    0.4713913    0.3183882 -68.50  0.001900429    2.087    0.521
        60  -8.8690    130.1772    238.9820   1.0633136580e+02   7.5620119755e+00    0.2030669    0.1643504 -47.14 0.0006023534    1.535    0.349
        61 -10.0763    179.5203    223.5018   9.4428608938e+01   1.9921401773e+00    0.2244117    0.2196079  89.48 0.0008771928    1.300    0.231
        62 -10.4371    178.8657    219.2491   9.3880640134e+01   2.7792703730e+00    0.3981704    0.2422164  58.41   0.00190119    2.315    0.568
        63  -9.7724    107.8905    109.1708   8.8522068428e+01   3.9356488929e+01    0.2841739    0.2292764 -36.10 0.0009968356    1.273    0.214
        64  -8.0366     23.0122    107.5697   1.1436211975e+02   5.1182217465e+01    0.1603034    0.1281376  15.98 0.0005673923    1.563    0.360
        65 -10.5587    107.1462    105.1559   8.7689676738e+01   4.0422438448e+01    0.5030932    0.2064056  49.61  0.001700521    2.876    0.652
        66 -10.3011    145.0367    219.6266   1.0078810785e+02   8.4748611677e+00    0.7350974    0.5188682  76.07  0.003875453    1.984    0.496
        67  -8.8027    137.0449    223.0849   1.0291156031e+02   9.2002790430e+00    0.1943663    0.1647063  44.65 0.0003934636    1.012    0.012
        68  -9.8168     26.9022     98.3451   1.1160000143e+02   5.3063696197e+01    0.3386578    0.2917216 -18.21  0.001893678    1.357    0.263
        69  -8.2445     12.4612    219.8953   1.2708553469e+02   2.6820043200e+01    0.1841937    0.1472875  79.14  0.001274916    1.174    0.148
        70  -7.6807    250.7730    238.0163   8.3727129331e+01  -1.0794409121e+01    0.1337173   0.08311037 -24.41 0.0003231113    1.569    0.363
        71  -9.2289     91.2556     97.6314   9.0459891115e+01   4.5059421555e+01    0.2624254    0.1919123 -50.10 0.0003095745    1.291    0.225
        72  -9.4819      4.6565     89.6103   1.1750225842e+02   5.6580194010e+01     0.334419    0.1833984 -15.83  0.001813623    2.484    0.597
        73  -9.8501    124.7946     82.0028   7.6028121763e+01   4.1774056278e+01    0.5393589    0.3559398  62.42    0.0022974    1.868    0.465
        74 -10.2641    107.3757     77.4770   7.9615122771e+01   4.6392490328e+01    0.3217854    0.2531563 -33.08 0.0003289732    1.257    0.204
        75  -8.2747    118.8738     75.8094   7.5744589590e+01   4.4304961253e+01    0.1982294    0.1796204  86.41 0.0002628158    1.288    0.223
        76  -8.8300    203.7387     73.5743   5.6513307853e+01   2.4267642603e+01    0.3283456    0.2103345 -26.84  0.001217011    1.705    0.413
        77 -10.9587    152.0785     67.3208   6.4651085409e+01   3.8114890538e+01    0.4559549    0.3989294  65.61 0.0009267329    1.167    0.143
        78 -12.1000    164.3340     54.3109   5.8070448009e+01   3.7190669363e+01     1.084663    0.9798732  -4.57  0.004244056    1.236    0.191
        79  -8.1885    144.0894     59.8702   6.4125778142e+01   4.1343937786e+01    0.2368888     0.206143 -83.84 0.0008890129    1.311    0.237
        80 -10.7737    169.0702     45.4469   5.4489676124e+01   3.7309832779e+01    0.4766462    0.4525294  -7.44 0.0007312347    1.158    0.136
        81 -10.8753    182.0289     28.2364   4.7331428810e+01   3.6290687076e+01    0.6161358    0.4073676  21.77  0.002822701    2.239    0.553
        82  -8.3447      5.0947    215.4661   1.2817355924e+02   2.8392540921e+01    0.1401908    0.0863538  49.65 0.0004856964    1.436    0.304
        83  -9.4464    105.4828    246.3016   1.1188353571e+02   1.0114874574e+01    0.1619855    0.1465724  46.45 0.0002763313    1.225    0.184
        84  -9.1495    165.0143     21.1923   4.7764565955e+01   4.1443040699e+01    0.2145551    0.1997365 -27.21 0.0005136273    1.187    0.157
        85  -9.6831    116.2647    244.1681   1.0961351014e+02   8.8525120078e+00    0.3769071    0.1537654  44.14  0.001117508    1.941    0.485
