#   1 NUMBER                 Running object number                                     
#   2 MAG_AUTO               Kron-like elliptical aperture magnitude                    [mag]
#   3 X_IMAGE                Object position along x                                    [pixel]
#   4 Y_IMAGE                Object position along y                                    [pixel]
#   5 X_WORLD                Barycenter position along world x axis                     [deg]
#   6 Y_WORLD                Barycenter position along world y axis                     [deg]
#   7 A_WORLD                Profile RMS along major axis (world units)                 [deg]
#   8 B_WORLD                Profile RMS along minor axis (world units)                 [deg]
#   9 THETA_WORLD            Position angle (CCW/world-x)                               [deg]
#  10 FWHM_WORLD             FWHM assuming a gaussian core                              [deg]
#  11 ELONGATION             A_IMAGE/B_IMAGE                                           
#  12 ELLIPTICITY            1 - B_IMAGE/A_IMAGE                                       
         1 -13.6777     66.1599     48.9948   7.8911841958e+01   5.9458416293e+01     1.592023    0.7050441 -27.68   0.00606471    3.001    0.667
         2 -13.0553     51.5391     68.8497   9.1414591538e+01   5.7699989940e+01    0.7546836    0.7149526 -71.81  0.004746398    1.288    0.223
         3 -15.5566      6.0733     67.4308   1.0966786655e+02   6.1958796893e+01     2.111575    0.9934927 -64.26  0.008559499    1.759    0.431
         4 -12.9202    120.6523     26.0953   5.3358777810e+01   5.1619078293e+01     1.135349    0.5543045  51.78  0.005103949    1.776    0.437
         5 -14.5279    166.8049     29.2565   4.5658795993e+01   3.9898339571e+01     1.115937    0.9143479  71.14  0.004107581    1.105    0.095
         6 -14.7466    146.9652     29.9481   4.9229567590e+01   4.4764550919e+01     1.771439    0.8872362  65.78  0.007711567    1.897    0.473
         7 -13.5135    139.8319     22.1621   4.8059984736e+01   4.7420344675e+01     1.075054    0.3186246  62.79  0.003135226    2.976    0.664
         8 -14.8442    122.7709     36.6809   5.6581155307e+01   4.9806516077e+01     1.913162    0.7076315  44.50  0.005896043    2.664    0.625
         9 -13.8328    101.0103     49.1564   6.6934005306e+01   5.2896802649e+01    0.8162626    0.6845006  71.23  0.001960692    1.489    0.328
        10 -11.9047    232.6266      2.1824   3.1949001791e+01   2.7361840342e+01    0.3848354    0.2317737  63.66  0.001775075    1.730    0.422
        11 -15.2227    218.3552     16.7112   3.6252310128e+01   2.8943114306e+01      1.87564     1.088056 -28.70   0.01001422    1.955    0.489
        12 -13.7293    189.0362     26.2250   4.1721199449e+01   3.4762728311e+01     1.712337    0.5691589 -56.60  0.004935795    5.360    0.813
        13 -14.5179     41.2293      6.0801   7.0753583727e+01   6.9548143114e+01     2.078282     1.027877   3.03  0.009000452    3.297    0.697
        14 -13.5915      2.7132     10.7668   9.4066972559e+01   7.3067071614e+01    0.8637854    0.4014998 -49.24  0.005019161    1.985    0.496
        15 -13.0892      7.9483      2.6569   8.6985583462e+01   7.3896650747e+01     0.546198    0.3885251  39.49  0.002436909    2.246    0.555
        16 -16.0308     14.1380     20.3331   9.1579777886e+01   7.0659904019e+01     1.966113    0.9128268 -29.76   0.01064023    1.934    0.483
        17 -14.2101     24.7611     14.0195   8.2962705757e+01   7.0625685189e+01    0.7062788    0.3507652  25.07  0.003568368    1.958    0.489
        18 -15.4621     97.5684     12.3261   5.3808133526e+01   5.8361470106e+01     1.820236    0.7370859  51.38  0.007203579    2.031    0.508
        19 -11.6761     46.6122     13.2698   7.1891293336e+01   6.7878090887e+01    0.2933149    0.2103288  36.77  0.001478119    1.435    0.303
        20 -11.4657    153.0337      9.1111   4.1790422249e+01   4.5473715520e+01     0.210274    0.2007528 -14.92  0.001019284    1.235    0.190
        21 -12.2430     71.3310     17.5358   6.4038214354e+01   6.3176210912e+01    0.3688055    0.2348522 -21.91  0.001187313    1.607    0.378
        22 -11.0517     68.3698      9.7173   6.1546989751e+01   6.4592704395e+01    0.2233305    0.1428119  55.65 0.0009974225    1.758    0.431
        23 -12.1285    118.7467      2.9361   4.5481229111e+01   5.4339825254e+01     0.415487    0.2672212 -88.73  0.002115406    1.980    0.495
        24 -12.2487     79.5745      2.2716   5.4549810313e+01   6.3096958326e+01    0.6245016    0.1828643  48.18  0.002577835    2.596    0.615
        25 -12.1681     61.5931      2.0297   6.0321126596e+01   6.6600766134e+01    0.3574123    0.1900964  51.68  0.001310643    1.852    0.460
        26 -13.9864    189.4581     14.9957   3.8768146521e+01   3.5926343701e+01     1.442725    0.6823211 -54.99  0.006528797    2.262    0.558
        27 -13.6499    241.9199     34.7501   3.8063733759e+01   2.1573982638e+01    0.8216113    0.5430793  87.31   0.00301947    1.487    0.327
        28 -12.2735     60.4532     17.6199   6.8141158750e+01   6.5111850896e+01    0.3975359    0.2363037 -31.04  0.002201561    1.725    0.420
        29 -11.7043     49.0146    181.6423   1.1326279301e+02   3.0947019144e+01    0.3703096    0.2272598 -49.87  0.001909436    1.879    0.468
        30 -12.0471     52.2359    250.4245   1.1859515517e+02   1.5999473444e+01    0.1775278    0.1191884  54.15 0.0008105718    1.151    0.131
        31 -12.4845     57.3525    246.8299   1.1737104580e+02   1.6029084767e+01    0.4899595    0.1645478  35.97  0.002249963    2.634    0.620
        32 -13.5029     28.2891    246.2308   1.2272515738e+02   1.9583375630e+01    0.4613197    0.2837734  65.38  0.003111608    1.263    0.208
        33 -11.7707      2.6776    249.8380   1.2734664859e+02   2.1551416842e+01    0.2643804    0.1644277  52.94  0.001572356    1.258    0.205
        34 -13.8436      9.0173    245.5871   1.2609299189e+02   2.1718824992e+01    0.7552913    0.3835732  56.49  0.003514855    1.466    0.318
        35 -12.2296    198.5253    181.5361   7.7861458446e+01   5.7005426376e+00    0.2745732    0.2635809  77.21  0.001219225    1.327    0.246
        36 -11.8443     85.7095    180.9953   1.0413313651e+02   2.6096717254e+01    0.2056182    0.1834915 -86.02  0.001186491    1.080    0.074
        37 -11.5613     95.5948    171.2043   1.0010194907e+02   2.6851125157e+01    0.2130737    0.1291193 -49.07 0.0009587266    1.746    0.427
        38 -13.1865    124.1829    166.5938   9.1945775535e+01   2.2923582166e+01    0.6527604    0.4313289 -70.61  0.002858756    1.886    0.470
        39 -11.8112     77.3697    156.9277   1.0257800543e+02   3.3160637014e+01    0.4086136    0.2812813  34.98   0.00143558    1.513    0.339
        40 -13.1692     74.0039    153.1270   1.0287293174e+02   3.4592112887e+01    0.6735114    0.5018236  28.44  0.002891337    1.491    0.329
        41 -12.2439     13.7784    159.1093   1.1966291557e+02   3.9846211004e+01    0.4156257    0.1747466 -60.01  0.002006454    2.102    0.524
        42 -11.6739     85.9406    152.8608   9.9525020919e+01   3.2853110837e+01    0.3852619    0.1873157 -49.01  0.001550515    2.099    0.524
        43 -11.6591    103.1783    150.1804   9.4276358441e+01   3.0630309301e+01    0.4253217    0.2761499 -33.82  0.001824625    1.947    0.486
        44 -12.2193     60.1342    148.8524   1.0605184146e+02   3.7550603123e+01    0.2292518    0.2089007  42.51  0.000771932    1.183    0.155
        45 -10.7314     62.9559    138.7127   1.0357203105e+02   3.9713370537e+01    0.1916495    0.1787636  86.40 0.0004247966    1.054    0.052
        46 -14.2735    231.4230    129.6027   6.0592631982e+01   8.8889247619e+00     1.060071    0.9320564  55.74  0.006231523    1.307    0.235
        47 -12.2361     44.0000    134.0091   1.0839548861e+02   4.3163434181e+01    0.3402646    0.1608213 -79.57   0.00136257    2.492    0.599
        48 -10.5019     10.9663    134.2529   1.1797698644e+02   4.6020946728e+01     0.136216    0.1083901  28.13 0.0006139981    1.507    0.337
        49 -11.6937    133.1040    127.2823   8.1052665421e+01   3.0259060495e+01    0.4827604    0.2126541 -37.05  0.001585209    2.788    0.641
        50 -13.6319    120.3749    102.4884   7.8098162867e+01   3.8520048899e+01    0.7789319    0.3601038  39.78  0.002838895    2.245    0.555
        51 -14.3494    105.5052    121.5678   8.7349355687e+01   3.7116103545e+01     1.704401     1.159707  31.46  0.007657126    1.587    0.370
        52 -15.1121    106.8020    105.2658   8.2812572837e+01   4.0665013540e+01     1.870644     1.500148  19.47  0.009091717    1.406    0.289
        53 -11.2920     59.9890    125.3860   1.0204712253e+02   4.3424772219e+01     0.329731    0.2051555   0.35  0.001360495    2.580    0.612
        54 -12.8645     28.3581    122.4468   1.1136919334e+02   4.7546888857e+01    0.4269638    0.2607757 -61.91  0.002282271    1.374    0.272
        55 -11.2439    181.2254    121.3981   6.8096591195e+01   2.0934336163e+01    0.2164294    0.1480218  60.05  0.000749746    1.670    0.401
        56 -11.9267     78.4752    110.9807   9.3102130242e+01   4.4329507723e+01    0.4619225    0.2660251  50.10  0.001963762    2.051    0.512
        57 -12.3917     88.2225    109.5422   8.9646572124e+01   4.3078907110e+01    0.4774701    0.3130953 -61.59  0.002147762    1.629    0.386
        58 -12.5847     77.0062    117.1089   9.4987783997e+01   4.3072588729e+01    0.5523534    0.4476929  82.71  0.002824039    1.466    0.318
        59 -13.1913     85.0487    115.3096   9.2044525953e+01   4.2231607756e+01    0.7264346    0.3924365  30.64  0.002242244    2.054    0.513
        60 -11.8064      4.1036    119.9144   1.1838050919e+02   4.9904045238e+01    0.5211832    0.1813747  14.70  0.002243896    3.774    0.735
        61 -13.6433      2.1961     97.2465   1.1616757067e+02   5.5371541483e+01    0.8047566    0.2343263 -72.60  0.003216823    2.880    0.653
        62 -14.8843     26.5714     93.8950   1.0712323218e+02   5.4594498811e+01     1.440643     1.137485   1.36  0.008820216    1.469    0.319
        63 -11.4317    121.5255    112.3679   8.0430548802e+01   3.6076354310e+01    0.2624421    0.1492818  42.69 0.0006837561    1.770    0.435
        64 -12.3271     62.1580    108.9316   9.7963345871e+01   4.7187636559e+01    0.6546981    0.3704055 -68.42   0.00285331    1.957    0.489
        65 -11.6135    176.8080    110.4455   6.6285284699e+01   2.4117369396e+01    0.3863367    0.2793229  -6.62  0.001652871    1.971    0.493
        66 -11.3747     45.5639    109.8442   1.0367945083e+02   4.8968359508e+01    0.3381077    0.2607851  73.59  0.001840323    1.546    0.353
        67 -12.4050     32.4925    110.3102   1.0810169733e+02   5.0152075651e+01    0.2692316    0.2322849 -62.33  0.001669271    1.005    0.005
        68 -13.3301      6.0500     43.9124   1.0398282586e+02   6.6884725491e+01    0.8249552      0.34783  15.02  0.004286464    2.625    0.619
        69 -14.2580     17.8552    111.0575   1.1299254265e+02   5.1149318634e+01    0.8690591    0.6005486 -45.60   0.00368638    1.384    0.277
        70 -12.0351    136.1557    103.1398   7.3971945295e+01   3.4941527195e+01    0.6491941    0.2312511  44.03  0.002067873    2.830    0.647
        71 -13.3177    249.3036     98.1578   5.0990097681e+01   1.0741721660e+01    0.5901178    0.1956951 -40.30  0.002304626    2.512    0.602
        72 -12.1799     42.7126     90.8490   1.0062798335e+02   5.3812719400e+01     1.002514    0.4207116 -73.53  0.003197009    4.390    0.772
        73 -12.3905     52.4707     98.0257   9.8795241273e+01   5.1027171301e+01    0.8061908    0.4142562 -12.98  0.002614616    4.581    0.782
        74 -12.7678     49.1532     94.2856   9.9100451970e+01   5.2298970557e+01    0.5113221    0.4901067  78.81  0.002317395    1.186    0.157
        75 -12.5240     61.1480     98.1560   9.5799910191e+01   4.9899213140e+01    0.3782546    0.3123926 -87.21  0.002048797    1.451    0.311
        76 -12.5806    136.6592     95.5390   7.1718440717e+01   3.6420462757e+01    0.4892617    0.3250288  57.63  0.001568942    1.649    0.394
        77 -10.7449     67.5063     97.5006   9.3442759822e+01   4.9174094550e+01    0.1435585    0.1327444 -42.20 1.131426e-05    1.008    0.008
        78 -11.4296     65.4326    126.4129   1.0056090710e+02   4.2449814173e+01    0.3195371    0.2513092  61.16  0.001679237    1.411    0.291
        79 -11.9990     90.4069     88.3125   8.3206075536e+01   4.7538814373e+01    0.4275527    0.3460032  49.39  0.001764972    1.351    0.260
        80 -13.5063    237.4119     80.2735   4.8599581117e+01   1.5974336993e+01    0.5394817    0.3505451  77.51   0.00271626    1.856    0.461
        81 -12.7150    188.2524     84.4324   5.7247306276e+01   2.6315331078e+01    0.7283899    0.3165261  43.16  0.002331977    2.769    0.639
        82 -13.1222    135.0433     80.6624   6.7792400432e+01   3.9748656517e+01    0.7594977    0.6159024  17.39   0.00319326    1.440    0.306
        83 -13.7590    164.0497     71.4575   5.8385906795e+01   3.4436023714e+01     1.570493    0.8352693  53.53  0.006503579    1.822    0.451
        84 -13.4999    161.0106     80.9093   6.1723293559e+01   3.3510201823e+01    0.9088047    0.6210401  14.94  0.003654019    2.314    0.568
        85 -14.4403    169.4515     77.1070   5.8884133193e+01   3.2136594527e+01     1.373138    0.6677081  51.38  0.005160428    2.016    0.504
        86 -13.4385    170.7918    243.1720   9.4202110976e+01  -1.1003113647e-01    0.6231478    0.3945198  24.09  0.003495746    1.476    0.322
        87 -12.3405     37.7056     68.2105   9.6796893277e+01   5.9405661655e+01     1.948648    0.4043765  22.59  0.005133715    7.512    0.867
        88 -11.4709     43.3121     64.8913   9.3533637762e+01   5.9507667024e+01    0.2227812     0.170004 -43.30  0.000606508    1.162    0.140
        89 -11.5947     40.1573    243.3822   1.2037513683e+02   1.8776142124e+01    0.2819524    0.1463562 -89.02  0.001629386    1.922    0.480
        90 -13.6969     87.5317     65.3486   7.6957921695e+01   5.2761768979e+01     1.104725    0.6528304  13.00  0.004222873    2.755    0.637
        91 -13.0220     70.6620     75.6780   8.6241742782e+01   5.3574682555e+01    0.5822904    0.4787051  -8.95   0.00217215    1.256    0.204
        92 -12.3048     77.1228     73.8458   8.3352275259e+01   5.2916858514e+01    0.4650545    0.3029389 -32.81  0.001364403    1.552    0.356
        93 -13.2745     55.2953     82.1233   9.3780280146e+01   5.4345877370e+01    0.5762839    0.4813271 -12.46  0.002488991    1.228    0.185
        94 -14.1854     60.9577     75.7815   8.9858832154e+01   5.4981313122e+01     1.021075    0.5290979 -48.92  0.001431681    1.778    0.438
        95 -13.1952    213.2990     78.5866   5.1589707505e+01   2.1483823807e+01     1.033283    0.6169226  79.09  0.004518759    2.209    0.547
        96 -12.3414    218.4839     74.4925   4.9838382352e+01   2.0979279095e+01    0.3706266    0.2328749  64.73  0.001749713    1.686    0.407
        97 -12.2583    214.3418     71.8938   4.9806611589e+01   2.2327376869e+01    0.4244362    0.3385105  54.37  0.001849348    1.350    0.260
        98 -12.0376    114.1371     80.1904   7.3380445482e+01   4.4524860702e+01    0.3941725    0.3413491 -60.78 0.0009555308    1.296    0.228
        99 -13.3614    249.2853     84.7175   4.8073011743e+01   1.2877419898e+01    0.5191754    0.3133584 -33.47  0.002688795    1.569    0.363
       100 -14.3143     11.1175    102.5758   1.1394632358e+02   5.3625346606e+01    0.7582831    0.7379545 -23.26  0.005109107    1.221    0.181
       101 -10.7127     38.9636     80.2874   9.9497100093e+01   5.6621976035e+01     0.177288    0.1588958 -24.50 0.0003784664    1.095    0.087
       102 -11.8153     42.0739     76.6120   9.7344362765e+01   5.7120572216e+01    0.3314149    0.2152654 -54.56  0.001639063    1.393    0.282
       103 -13.9380     96.5213    238.7922   1.0886828636e+02   1.2170042951e+01      0.64806    0.4392886  48.97  0.002765134    1.220    0.181
       104 -12.6454    241.5985     71.3142   4.6072283440e+01   1.6494582788e+01    0.4242551    0.2759617 -77.24  0.002175996    1.842    0.457
       105 -13.6992    199.1488     69.7044   5.1562819659e+01   2.6205806488e+01    0.7711115    0.5042377  53.65  0.002369259    1.572    0.364
       106 -12.0557    199.7653     62.2931   4.9570789754e+01   2.7225925563e+01    0.3798307    0.2799759 -33.91  0.001553073    1.402    0.287
       107 -13.3976    133.4773     66.0778   6.3698329647e+01   4.2771871719e+01    0.9202443    0.7421293   1.84  0.003982626    1.495    0.331
       108 -11.5816    100.2678     64.8142   7.2621327206e+01   5.0371187208e+01    0.3509874    0.3205151  32.47  0.001887245    1.077    0.071
       109 -13.8099    178.0167     57.2525   5.1742289502e+01   3.3283932872e+01    0.9077396    0.6347388 -49.96  0.003073937    1.449    0.310
       110 -12.4279     79.7116     61.0318   7.8199244451e+01   5.4993925282e+01    0.4864549    0.3408165  24.18  0.002217781    1.488    0.328
       111 -13.1663     81.3696     54.5819   7.5337995304e+01   5.5868328543e+01    0.6971052    0.4694161  26.62  0.002835244    1.529    0.346
       112 -10.9444     38.8170     60.3275   9.4017605551e+01   6.0943064929e+01    0.2352672    0.1767031 -78.48  0.001281997    1.965    0.491
       113 -12.3108     24.6520     60.0745   1.0001632685e+02   6.2323924995e+01    0.3744276     0.188971 -49.62  0.001946488    1.606    0.377
       114 -14.5314    119.6664     54.4425   6.3469750629e+01   4.7932198725e+01    0.9716605    0.7294114  32.27  0.002298103    1.368    0.269
       115 -11.1659    147.4889    239.4702   9.8412401041e+01   4.1596289195e+00    0.1298926    0.1076713  37.56 0.0003438904    1.031    0.030
       116 -12.2181     24.7956    217.5291   1.2165490140e+02   2.5659247936e+01    0.6084216    0.4016333  57.68  0.003966394    1.247    0.198
       117 -11.3901     14.6233    224.0995   1.2402219613e+02   2.5344654550e+01    0.3373035     0.205319  66.09  0.001243702    1.297    0.229
       118 -13.6082     25.8117    227.4227   1.2208250526e+02   2.3520439805e+01    0.6521887    0.3410537 -58.45   0.00371083    2.289    0.563
       119 -12.5654    109.7638     42.4338   6.1973392456e+01   5.2008148999e+01     0.424113    0.2271539  52.16  0.001227492    1.766    0.434
       120 -13.3094     20.7456    225.2577   1.2292312540e+02   2.4490691677e+01    0.4479643     0.392144  83.75  0.002581132    1.256    0.204
       121 -11.0325     47.6201     56.9806   8.9243227662e+01   6.0604743485e+01     0.225273    0.1897814  57.47  0.001329285    1.670    0.401
       122 -12.8495    247.4260     53.7362   4.1588872758e+01   1.7866031598e+01    0.4242145    0.3192585 -64.15   0.00248854    1.179    0.152
       123 -12.8532    248.7754     49.1120   4.0467585079e+01   1.8232917316e+01    0.4161333    0.3486957  69.56   0.00265632    1.328    0.247
       124 -11.8462    231.0750     55.5536   4.3778235069e+01   2.1069117954e+01    0.3840216    0.1257355  64.29   0.00146376    3.175    0.685
       125 -13.1502     91.6498     58.4013   7.3191698334e+01   5.3250938732e+01    0.5539252    0.5079114 -60.52  0.002298598    1.316    0.240
       126 -12.4607    135.4589     50.5620   5.8249614065e+01   4.4808746538e+01     0.553346    0.3263282  34.36   0.00235778    2.009    0.502
       127 -13.1839     66.1863    223.3272   1.1362613482e+02   1.9506976917e+01      0.71525    0.5451447  33.77  0.004449324    1.415    0.293
       128 -13.0706    158.1177     44.3506   5.1587411581e+01   4.0119098809e+01    0.6987752    0.5101389  35.26  0.003325915    1.566    0.361
       129 -13.8766     63.3317    214.6174   1.1339969411e+02   2.1712800020e+01    0.7859927    0.4324192  58.69  0.004083087    1.710    0.415
       130 -12.6389     94.6611    218.3784   1.0696536334e+02   1.6465663851e+01    0.3489207    0.2162822  45.02  0.001492099    1.397    0.284
       131 -11.6792    185.5994    213.7946   8.6528559680e+01   2.2708508246e+00    0.1757594     0.129271 -51.80 0.0009565641    1.703    0.413
       132 -12.6050     75.8247     37.3294   7.0771167026e+01   5.9699413733e+01    0.3335823    0.2513593  37.61 0.0008329077    1.278    0.217
       133 -12.0645     69.5470     36.4781   7.2745552827e+01   6.0945537247e+01    0.4635368    0.2077401  35.73  0.001221605    2.202    0.546
       134 -11.2400     22.9908     50.1999   9.7868334333e+01   6.4479544218e+01    0.2504731    0.1535655   3.56 0.0008186841    1.784    0.439
       135 -13.0762      9.7960    211.1869   1.2423608883e+02   2.8473160775e+01    0.6754951     0.369249  39.47  0.004156276    1.747    0.427
       136 -10.8081    136.5261    211.1022   9.6650849455e+01   1.1150233929e+01    0.1925853    0.1388183 -54.61  0.001021726    1.563    0.360
       137 -11.6293     72.2611    207.0498   1.1064371485e+02   2.2136789660e+01    0.3097073    0.2140193  56.81  0.001745812    1.298    0.230
       138 -10.7679    150.5620    206.6359   9.2814883271e+01   9.5947592674e+00    0.2818164    0.1197336  27.02 0.0009537115    3.316    0.698
       139 -12.3812     57.4046    203.3383   1.1358696725e+02   2.4938741650e+01    0.4617072    0.2421281 -87.85  0.002199827    2.137    0.532
       140 -12.4887     46.2238     33.7689   8.1242335518e+01   6.4971767516e+01    0.4728565    0.3112516 -19.27  0.002692125    1.456    0.313
       141 -10.3093     32.0112     31.0000   8.6736012158e+01   6.7166669498e+01    0.1803024    0.0647274  28.57 0.0005373697    2.850    0.649
       142 -12.9455     56.3028     27.4241   7.4202960203e+01   6.4476492143e+01    0.6449016    0.2919832  41.44  0.002224175    2.222    0.550
       143 -12.8820     67.9396     24.6918   6.8413520049e+01   6.2904302517e+01    0.6589236    0.3253576  42.37  0.003212678    1.888    0.470
       144 -10.9947     97.9327     27.1582   5.9579375091e+01   5.6652211532e+01    0.2021282     0.183847  65.69  0.001223878    1.264    0.209
       145 -11.4671     36.0133     24.4599   8.2027591506e+01   6.7758166660e+01    0.2307733    0.1979376 -80.79  0.001119096    2.307    0.566
       146 -12.2161     46.5162     21.0277   7.5582901305e+01   6.6861826164e+01    0.3421861    0.2404151   1.28 0.0008018324    1.329    0.248
       147 -11.0069     53.1534     20.1964   7.2306720042e+01   6.5975711881e+01    0.3786881    0.1405591  30.82  0.001521782    3.073    0.675
       148 -11.9816     41.1579    205.9137   1.1739740812e+02   2.6345917182e+01    0.2029653    0.1399601  69.36  0.001226242    1.258    0.205
       149 -10.9472     55.3232     41.0694   8.0245110977e+01   6.2484198909e+01    0.1766546    0.1465846 -19.89 0.0003974185    1.089    0.082
       150 -12.4256     17.0204    195.0250   1.2174271264e+02   3.1285775855e+01    0.8865246    0.2754171 -73.22   0.00391316    2.714    0.632
       151 -13.5458     30.0363    169.1252   1.1658331998e+02   3.5995357680e+01    0.7431328    0.4448343 -44.29  0.002431133    2.096    0.523
       152 -13.1594     22.2462    181.2856   1.1954212925e+02   3.3899298461e+01    0.6619221    0.3843692 -58.44  0.002994802    1.764    0.433
       153 -14.7400      8.5612    183.3800   1.2277348698e+02   3.4649515965e+01     1.061701    0.9319081  72.43  0.007749689    1.177    0.151
       154 -14.8362    212.9442     41.2453   4.2561955242e+01   2.7153223132e+01     2.421066    0.7226166  71.66  0.007805305    4.190    0.761
       155 -14.6488     16.3029    175.8351   1.2046918879e+02   3.5705683391e+01     2.128598    0.6487797  51.66  0.008649579    3.287    0.696
       156 -12.6009     40.6660    195.5591   1.1659786891e+02   2.8707000330e+01     0.394471    0.1745598  89.80   0.00169506    2.656    0.623
       157 -12.0638    163.8553    194.9904   8.7846710275e+01   9.4841245695e+00    0.3247543    0.1999064 -71.96  0.001259087    3.179    0.685
       158 -11.7148    248.3941    195.8153   7.1296065307e+01  -4.8008552776e+00    0.1854783    0.1012444 -24.58 0.0009580817    1.730    0.422
       159 -11.8592    200.9768    192.0099   7.9413501455e+01   3.4006958124e+00     0.299787    0.2286967 -30.15  0.001261828    1.297    0.229
