#   1 NUMBER                 Running object number                                     
#   2 MAG_AUTO               Kron-like elliptical aperture magnitude                    [mag]
#   3 X_IMAGE                Object position along x                                    [pixel]
#   4 Y_IMAGE                Object position along y                                    [pixel]
#   5 X_WORLD                Barycenter position along world x axis                     [deg]
#   6 Y_WORLD                Barycenter position along world y axis                     [deg]
#   7 A_WORLD                Profile RMS along major axis (world units)                 [deg]
#   8 B_WORLD                Profile RMS along minor axis (world units)                 [deg]
#   9 THETA_WORLD            Position angle (CCW/world-x)                               [deg]
#  10 FWHM_WORLD             FWHM assuming a gaussian core                              [deg]
#  11 ELONGATION             A_IMAGE/B_IMAGE                                           
#  12 ELLIPTICITY            1 - B_IMAGE/A_IMAGE                                       
         1 -12.7640    235.6411     32.7246   3.2453762414e+01   2.4558932416e+01    0.6555523    0.6153525 -10.25  0.003924358    1.551    0.355
         2 -11.8272    213.1564     25.7200   3.2993509916e+01   2.9968859267e+01    0.3384958    0.2173405 -29.52  0.001987295    1.821    0.451
         3 -11.0008    152.6138      9.2085   3.5619394633e+01   4.5240363562e+01    0.1557922     0.121769  -2.67  0.000954837    1.701    0.412
         4 -13.6139     91.8957    243.0701   1.0384091697e+02   1.0955871559e+01     1.523669    0.5957648  50.17  0.006182563    2.763    0.638
         5 -12.0820    173.0128    250.0121   8.7311366616e+01  -1.9195549434e+00    0.4653876    0.3900436   8.51  0.002464087    1.032    0.031
         6 -12.0024     59.3371    247.8957   1.1128502887e+02   1.4255263269e+01    0.4842488    0.3579417  89.18  0.003069299    1.379    0.275
         7 -12.1415     51.8835    245.7712   1.1265758489e+02   1.5589065517e+01    0.5740528    0.2925816  59.32  0.001990896    1.921    0.479
         8 -12.8465     30.7497    248.3187   1.1712120980e+02   1.7477320746e+01     1.072402    0.3452251  32.66  0.004886887    2.773    0.639
         9 -14.2038      7.0066    241.6828   1.2135136690e+02   2.1217693067e+01     2.887475     1.023753 -84.43    0.0138146    2.733    0.634
        10 -13.2346     23.9042    194.2314   1.1455970964e+02   3.0171157692e+01     1.024885    0.6552932  42.55  0.005666014    1.529    0.346
        11 -13.9862     11.8768    201.2083   1.1790860339e+02   2.9627274216e+01     1.050024      0.68526  81.45  0.003162031    1.351    0.260
        12 -14.1405    102.1428    236.6624   1.0082030590e+02   1.0798197369e+01     1.695084      1.05143  53.67  0.006978181    1.677    0.404
        13 -13.1517     80.5178    230.8844   1.0501394077e+02   1.5032283423e+01    0.7577928    0.6860344 -71.29  0.003234982    1.192    0.161
        14 -12.7975     74.0528    224.2717   1.0575199129e+02   1.7335664981e+01    0.7643492    0.5202205  35.38  0.002719167    1.383    0.277
        15 -11.1530     45.8669    238.1506   1.1330131793e+02   1.7873109296e+01    0.3476594    0.2952136  82.35   0.00235695    1.113    0.102
        16 -12.0380    155.7890    232.9356   8.8349277661e+01   3.5220056761e+00     0.414911    0.2717815  26.03  0.002209039    1.395    0.283
        17 -11.9800     57.2003    224.0000   1.0956937082e+02   1.9567143461e+01    0.6112581     0.417842 -76.04  0.002246852    1.470    0.320
        18 -10.5149     51.4548    217.3450   1.1022996719e+02   2.1759663245e+01    0.3844207    0.2402114  74.53   0.00140527    1.692    0.409
        19 -11.4540     71.9064    245.7391   1.0844034101e+02   1.3100440006e+01    0.2550674    0.2191725  55.39  0.001573886    1.014    0.013
        20 -10.5489     40.3617    212.3296   1.1230871948e+02   2.4192799222e+01    0.5047771    0.1736236  50.90   0.00198459    2.943    0.660
        21 -10.1122    202.8655    209.2594   7.4383068493e+01   6.8707285921e-01    0.2692073    0.1538206 -18.02   0.00123988    2.088    0.521
        22 -11.2428     48.4340    205.9928   1.0980444686e+02   2.4744031471e+01    0.5796459    0.3419812  88.36  0.002771058    1.840    0.456
        23 -10.3983     44.2358    201.6208   1.1036612243e+02   2.6265399281e+01     0.373724    0.2316228 -63.88  0.001826215    1.552    0.356
        24 -12.9628      5.6778    205.8639   1.1959745133e+02   2.9088972243e+01    0.4627505    0.3670944 -89.71 0.0007700493    1.082    0.076
        25 -11.0076     40.1222    179.4129   1.0899450544e+02   3.2159289849e+01    0.2459932    0.2346018 -38.85 0.0005147728    1.213    0.176
        26 -11.5118      2.0120    177.0377   1.1845608683e+02   3.6175123490e+01    0.4537975    0.1467354 -81.44  0.001798207    2.843    0.648
        27 -11.2839     48.3674    172.8226   1.0597478916e+02   3.2901661837e+01    0.2554236    0.2338828 -47.15 0.0004287347    1.180    0.153
        28 -13.7270     30.3009    143.5940   1.0719983338e+02   4.2291126703e+01       1.7699     1.091234 -63.82    0.0089681    1.397    0.284
        29 -13.2156      6.6754    114.9101   1.1071039003e+02   5.1325667583e+01     1.021232    0.7367182  21.73  0.006054279    1.637    0.389
        30 -13.2168     21.3601    126.1052   1.0746914869e+02   4.7523977219e+01     1.076974    0.6576866  77.90  0.005122671    2.079    0.519
        31 -13.1845      4.1517    126.2551   1.1301208908e+02   4.8648532500e+01    0.8768516    0.5977836 -54.67  0.003593281    1.265    0.210
        32 -14.5585      6.0901    143.5143   1.1438117787e+02   4.4201576984e+01     1.934224     1.027576 -82.99   0.00732541    1.724    0.420
        33 -13.4048     14.3880    133.6102   1.1073515019e+02   4.6140612344e+01    0.9306081    0.6897289 -87.76  0.004470834    1.306    0.234
        34 -10.0894     61.9182    162.8959   1.0075316280e+02   3.3782481101e+01    0.2123979    0.1979338 -71.07 0.0003897679    1.016    0.016
        35 -12.5148     46.4688    159.3543   1.0466054336e+02   3.6568297033e+01    0.5073664    0.2985055 -32.85  0.001418372    2.228    0.551
        36 -10.9988     70.7254    156.3907   9.7120254549e+01   3.4269815901e+01    0.4795593    0.3546429 -20.69  0.001289987    1.706    0.414
        37 -11.8923    112.6504    144.7372   8.2616849532e+01   3.0380180054e+01    0.7003109    0.5084994 -33.43  0.003181434    1.486    0.327
        38 -11.4048     67.8359    143.3945   9.5619939888e+01   3.8019957247e+01    0.6910411    0.4011062  60.60  0.002660714    2.427    0.588
        39  -9.7616     87.8565    143.3193   8.9517541262e+01   3.5030919471e+01    0.2651088    0.2096228 -65.38 0.0007847496    1.295    0.228
        40 -10.9238     75.4325    141.0847   9.2831411193e+01   3.7524306418e+01      0.30115     0.249411 -50.16 0.0004965957    1.145    0.126
        41 -11.9136    109.6497    136.4790   8.1587941791e+01   3.2942484546e+01    0.4807359    0.4184363  83.66  0.001921471    1.358    0.264
        42 -12.6020    104.8347    131.6008   8.1842309289e+01   3.5012476414e+01    0.7492525    0.5321025  26.56  0.002445996    1.535    0.349
        43 -11.3500    122.9786    130.6848   7.6453004953e+01   3.1771185644e+01    0.3831027    0.2679443   1.97  0.001553206    2.112    0.527
        44  -9.8872     89.1823    127.8045   8.5682538259e+01   3.8694580497e+01    0.2185348    0.2082929  85.86 0.0004685283    1.141    0.124
        45 -10.8959     94.8626    132.1394   8.4945910695e+01   3.6655929635e+01     0.422036    0.3991882  39.83  0.002248534    1.101    0.091
        46 -12.0487     50.6236    118.6237   9.6280693746e+01   4.6556969848e+01     0.511635    0.4820161   1.94  0.002994565    1.135    0.119
        47 -11.2434     93.2282    118.5187   8.2174720390e+01   4.0256870329e+01    0.6044709    0.4191133  24.10  0.002731113    1.602    0.376
        48 -10.8668     75.9934    119.3277   8.7902273224e+01   4.2913668123e+01     0.274135    0.2193266 -88.97  0.001327412    1.587    0.370
        49 -10.9388     22.9948    111.9953   1.0462409844e+02   5.0941149362e+01    0.3244064    0.2660308 -33.32  0.001368274    1.206    0.171
        50 -10.0179     93.6866    110.1365   7.9875006055e+01   4.2153439645e+01    0.2760596    0.2133663  46.98  0.001328555    1.396    0.284
        51 -11.2922     51.5123    109.5171   9.3992153853e+01   4.8710828990e+01    0.3173695    0.2408587 -53.62  0.001665317    1.201    0.168
        52 -10.8502    245.5015    108.4980   4.6780062028e+01   1.1602923854e+01    0.1298389    0.1071458 -45.43 -0.0002472189    1.008    0.008
        53 -11.0689     52.3435     90.9392   8.9110497599e+01   5.3016285890e+01    0.4103748    0.3245315 -60.76  0.002217288    1.351    0.260
        54 -11.4651     24.9287     88.0225   9.9101336342e+01   5.6570498855e+01    0.4210094    0.3800173 -16.30  0.001692295    1.137    0.121
        55 -11.4432      3.2920     80.2585   1.0622380783e+02   5.9788080690e+01    0.2999617    0.2201065 -54.09  0.001866455    1.101    0.091
        56 -11.7664      1.4999     85.4556   1.0792186523e+02   5.8677623984e+01    0.6236203    0.1220164 -69.75  0.001833806    5.165    0.806
        57 -11.3227     10.4486     83.5690   1.0396712417e+02   5.8636124102e+01    0.3437338    0.1778208 -16.91  0.001661497    2.246    0.555
        58 -12.7391     29.1600     57.1250   8.8825516134e+01   6.2862511788e+01     1.343029    0.6456654  13.27   0.00621728    2.387    0.581
        59 -12.4860     31.8142     48.5711   8.4669832254e+01   6.4207991945e+01    0.8300743    0.6773843  36.42   0.00521378    1.544    0.352
        60 -13.4082     10.5736     57.9089   9.7756555707e+01   6.4251051171e+01    0.9133651    0.6931257 -33.23  0.004657212    1.051    0.048
        61 -12.4153     19.2370     60.5076   9.4446849683e+01   6.3080423740e+01      0.66846    0.4664655  53.88  0.003638865    2.291    0.564
        62 -12.1461    229.3553     43.8390   3.5269278363e+01   2.4390306168e+01    0.4198992     0.373199 -75.67  0.002959775    1.137    0.121
        63 -13.7077    139.2153    236.5116   9.2525778846e+01   5.3504204721e+00    0.9633322     0.871313  51.11  0.005632182    1.229    0.186
        64 -11.3758    219.8278     35.3688   3.4417350096e+01   2.7413166932e+01    0.4255872    0.2048182  63.48  0.002222549    2.066    0.516
        65 -10.8448     70.1343     31.4276   6.1837467683e+01   6.1124600058e+01    0.2232366    0.1765903 -72.60  0.001203269    2.256    0.557
        66 -14.0915    124.6947    237.0023   9.5817939008e+01   7.4266684435e+00     1.441812     1.039909  55.75  0.005729211    1.558    0.358
        67 -11.2242    151.0080     19.2963   3.8640988289e+01   4.4651877503e+01    0.1906441    0.1545268  72.86  0.001180004    1.075    0.070
