#   1 NUMBER                 Running object number                                     
#   2 MAG_AUTO               Kron-like elliptical aperture magnitude                    [mag]
#   3 X_IMAGE                Object position along x                                    [pixel]
#   4 Y_IMAGE                Object position along y                                    [pixel]
#   5 X_WORLD                Barycenter position along world x axis                     [deg]
#   6 Y_WORLD                Barycenter position along world y axis                     [deg]
#   7 A_WORLD                Profile RMS along major axis (world units)                 [deg]
#   8 B_WORLD                Profile RMS along minor axis (world units)                 [deg]
#   9 THETA_WORLD            Position angle (CCW/world-x)                               [deg]
#  10 FWHM_WORLD             FWHM assuming a gaussian core                              [deg]
#  11 ELONGATION             A_IMAGE/B_IMAGE                                           
#  12 ELLIPTICITY            1 - B_IMAGE/A_IMAGE                                       
         1 -12.6510    193.5470     26.4164   6.6624504707e+01   3.3725919179e+01     1.115925    0.6297941 -40.22   0.00477708    1.809    0.447
         2 -13.4622    203.3629     15.8575   6.2863265802e+01   3.2575345147e+01     1.580475     1.168098  30.67  0.008874414    1.927    0.481
         3  -8.8003     32.3333      2.9939   9.6966111308e+01   6.9078431350e+01      0.17977   0.07177235 -12.86 0.0007051592    4.358    0.771
         4  -9.8210    227.6362    203.7847   1.0243840015e+02  -4.4173699572e+00    0.2888995    0.2262215 -56.81 0.0006653625    1.725    0.420
         5 -12.2711    139.0701    247.6027   1.2702310413e+02   3.8472168482e+00    0.8064399    0.4866665  49.51  0.004443289    1.408    0.290
         6 -11.0158    127.1374    248.5106   1.2941163191e+02   5.7002126982e+00    0.4307012    0.2306114 -45.60  0.002185676    2.447    0.591
         7 -10.7813     81.9681    249.1766   1.3785990915e+02   1.2743395403e+01     0.495508    0.1742657  37.36   0.00208409    3.145    0.682
         8 -12.6538    101.3169    249.8709   1.3440378182e+02   9.6542059698e+00    0.9080682    0.7978742  22.02  0.006069667    1.608    0.378
         9 -12.3966     89.8201    245.5594   1.3606528507e+02   1.2237250756e+01    0.8268019    0.4260038  61.04  0.004300683    1.845    0.458
        10  -9.9563     84.0182    238.4745   1.3640268194e+02   1.4474096595e+01    0.2034199     0.141761  70.43  0.000350454    1.255    0.203
        11 -13.6352      4.4771     20.2665   1.1677619600e+02   6.9548562263e+01     8.526118          nan -47.62   0.02101197   11.281    0.911
        12 -10.9833     68.1156    192.6898   1.3430885481e+02   2.6531050746e+01    0.4425204    0.2602261 -45.27  0.002001906    2.262    0.558
        13 -11.0429     73.0790    185.7582   1.3229748774e+02   2.7404997211e+01    0.3136338     0.239949 -55.17 0.0006164905    1.404    0.288
        14 -10.7532     75.8352    229.1190   1.3696646894e+02   1.7553053814e+01    0.3517954    0.1922549  67.99  0.001014261    1.866    0.464
        15  -9.3613    191.8572    193.2306   1.0738006376e+02   4.0382972134e+00    0.4334573      0.22548 -62.16  0.001481614    3.761    0.734
        16  -7.8739    181.4747    192.4710   1.0938011082e+02   6.2180411258e+00    0.1435314    0.1361035  28.50 0.0001651223    1.005    0.005
        17 -10.3611     81.9960    174.0685   1.2852699584e+02   2.8796501674e+01    0.2669946    0.2258388 -58.27 0.0003562763    1.224    0.183
        18 -12.5074     69.4708    171.4288   1.3106888529e+02   3.1277209256e+01    0.5207042    0.2886186 -44.31   0.00137902    2.247    0.555
        19  -9.2304     72.0679    163.2919   1.2918863283e+02   3.2840110532e+01    0.3654011    0.2173024  65.87  0.001677862    2.025    0.506
        20 -11.9407     57.5282    130.2251   1.2719456034e+02   4.2713138107e+01     1.478086    0.5241551 -71.87  0.003861742    6.064    0.835
        21 -12.6059     68.3156    145.7057   1.2715526804e+02   3.7589832543e+01     1.371908    0.7520519 -88.95  0.003549341    2.977    0.664
        22  -9.2446    100.9830    149.4908   1.1944685150e+02   3.1526762204e+01    0.2853188    0.2660351 -49.39 0.0008036997    1.131    0.116
        23  -8.9830    103.6692    145.5114   1.1794021567e+02   3.1999277317e+01    0.3293945    0.2085203 -32.76  0.001384707    2.114    0.527
        24 -11.3390     89.7629    148.7675   1.2217898817e+02   3.3603867151e+01    0.2930293    0.2545399 -35.84 0.0005561644    1.313    0.238
        25 -12.1035     33.3602    150.5399   1.3674215765e+02   4.0630677502e+01    0.7865298    0.2417934 -62.93  0.003236128    2.498    0.600
        26  -8.7075    133.2406    141.4953   1.0956131636e+02   2.7212082151e+01    0.3429949    0.1228387 -58.43 0.0008947043    4.409    0.773
        27  -9.1081    111.3334    135.4844   1.1376189620e+02   3.2961639087e+01     0.313835    0.2385643  -6.87  0.001012984    1.939    0.484
        28 -10.0088     69.2101    134.8191   1.2489080972e+02   4.0072279879e+01    0.2529081     0.203465  16.37 0.0007146199    1.574    0.365
        29  -9.8787     98.9754    132.5505   1.1637160836e+02   3.5908812519e+01    0.2947334    0.2390039 -22.29 0.0009654433    1.515    0.340
        30 -12.8583     14.3748    240.2825   1.4874940774e+02   2.3135843582e+01     1.224714     0.645984  58.24  0.008080593    1.511    0.338
        31 -13.6883     15.6975    166.1330   1.4266259704e+02   3.8708864575e+01     4.355529     1.584717  77.60   0.01125635    8.678    0.885
        32 -12.3231     43.5560    225.3647   1.4265062689e+02   2.2715199425e+01    0.4409261    0.3596993  82.84 0.0009050258    1.134    0.118
        33  -8.7136    108.0312    122.8885   1.1168048338e+02   3.6515939045e+01    0.2141841     0.206736 -55.55 0.0003139504    1.022    0.021
        34 -10.0917    168.0121    113.0100   9.4253759538e+01   2.5723973445e+01    0.3745436    0.2921864 -80.26 0.0007012543    1.581    0.367
        35  -8.6981    203.9812    111.0100   8.6426373275e+01   1.7657126424e+01    0.2427187    0.1921677   8.65  0.001131517    1.726    0.421
        36  -9.8192     44.4989    130.0394   1.3072033264e+02   4.4285991324e+01    0.2115372    0.1122187 -63.59  0.001033726    1.593    0.372
        37 -11.8561     88.5277    165.9515   1.2562930382e+02   2.9690411104e+01     1.754256    0.6282794  52.17  0.001355254    3.584    0.721
        38 -10.3972     44.1916    109.0219   1.2682776136e+02   4.9188757875e+01    0.3498848    0.1543466  44.22  0.001535499    2.834    0.647
        39 -14.8803     52.7119    215.1131   1.3998587651e+02   2.3688008722e+01     6.453606     1.235217  44.52    0.0234458    4.004    0.750
        40 -15.1410      6.6012    209.8489   1.4811328084e+02   3.0013711142e+01     8.861832      0.84203 -72.18   0.02755262    6.245    0.840
        41 -10.2066     78.9938    232.9143   1.3676518235e+02   1.6322672609e+01    0.2146384    0.1697883  85.58 0.0003957836    1.124    0.110
        42  -9.0350    128.1567     54.6757   8.6707538561e+01   4.5724944480e+01    0.2393021    0.1905351 -47.87 0.0007499922    1.388    0.280
        43 -10.4723    117.7292     48.0182   8.7121523429e+01   4.9007046809e+01    0.4156852    0.2868543  76.95 0.0008853254    2.146    0.534
        44 -11.7565    187.6385     35.9107   6.9870925290e+01   3.3996406731e+01    0.9244239    0.6186846 -78.10  0.004614862    1.679    0.405
        45  -9.5747    247.5832    249.2032   1.0704104799e+02  -1.4012869382e+01    0.1630942   0.09676261 -17.31 0.0009561444    1.734    0.423
        46  -8.9161     73.6239    245.7047   1.3902928657e+02   1.4617344333e+01    0.1028751    0.0965822   5.11 0.0007024377    1.744    0.427
        47 -10.4218    189.3882     15.6476   6.4442653231e+01   3.5950935834e+01    0.2656192    0.1847037  85.32   0.00100452    1.327    0.246
        48 -13.9122     34.4423    247.5271   1.4594297506e+02   1.9463577327e+01     5.416255       1.5999  33.23   0.01205023    6.287    0.841
