#   1 NUMBER                 Running object number                                     
#   2 MAG_AUTO               Kron-like elliptical aperture magnitude                    [mag]
#   3 X_IMAGE                Object position along x                                    [pixel]
#   4 Y_IMAGE                Object position along y                                    [pixel]
#   5 X_WORLD                Barycenter position along world x axis                     [deg]
#   6 Y_WORLD                Barycenter position along world y axis                     [deg]
#   7 A_WORLD                Profile RMS along major axis (world units)                 [deg]
#   8 B_WORLD                Profile RMS along minor axis (world units)                 [deg]
#   9 THETA_WORLD            Position angle (CCW/world-x)                               [deg]
#  10 FWHM_WORLD             FWHM assuming a gaussian core                              [deg]
#  11 ELONGATION             A_IMAGE/B_IMAGE                                           
#  12 ELLIPTICITY            1 - B_IMAGE/A_IMAGE                                       
         1 -11.8226    104.4516     12.1370   3.5978655284e+02   5.7015277733e+01    0.5045962    0.3200666 -27.58  0.001570275    1.742    0.426
         2 -12.7460    105.5735     19.9700   2.7087743354e+00   5.5887628781e+01    0.3666086    0.2807099 -75.22 0.0006090119    1.337    0.252
         3 -12.2468    112.5403     25.2558   3.3871866904e+00   5.3516805873e+01    0.7921209    0.3296517  56.18  0.003263462    2.205    0.546
         4 -11.8260     58.1454     29.4004   2.1176801197e+01   6.5824178767e+01    0.5774096    0.3801298 -12.22  0.001167014    2.162    0.537
         5 -12.8819    164.1102     27.4932   3.5659721776e+02   4.0646122740e+01     0.612222     0.289931  63.29  0.002539371    2.083    0.520
         6 -11.0551     20.6349     21.8870   3.8582900208e+01   7.3723456893e+01    0.5592133     0.289979 -36.96  0.002695047    2.017    0.504
         7 -11.6417    179.6536     20.4355   3.5316023667e+02   3.7925178337e+01    0.5914387       0.2483  49.35  0.002440702    3.525    0.716
         8 -11.6618     35.4965     18.2644   2.6532167140e+01   7.1984343236e+01    0.6025319    0.4723544 -33.35   0.00306322    1.336    0.252
         9 -12.2626     48.4635     12.7287   1.6400380537e+01   7.0228560231e+01    0.7532062    0.2644919  52.55  0.003001581    2.553    0.608
        10 -11.5763      9.1131     19.5050   4.6551251334e+01   7.5547977088e+01    0.6525834    0.3195848  -3.87 0.0003994958    3.330    0.700
        11 -10.8342     16.7041     13.3224   3.6546501246e+01   7.5780433598e+01    0.2336124    0.2079842 -37.84 0.0006118162    1.234    0.190
        12 -12.1656    164.3300     18.3484   3.5398804600e+02   4.1651095676e+01    0.4100681    0.2950508  37.65  0.002176558    1.970    0.492
        13 -11.7839     22.9531     10.6320   2.9933956845e+01   7.5292528752e+01      1.21815    0.5078836  38.77  0.005527188    2.243    0.554
        14 -11.4819    127.3264     15.1431   3.5728254630e+02   5.0965676661e+01    0.5011876    0.2765649 -21.15  0.001635498    2.189    0.543
        15 -11.7120    134.2318     14.6436   3.5619075513e+02   4.9302371500e+01    0.6874374     0.264318  62.63  0.002905294    2.326    0.570
        16 -10.5749     88.8318      7.9546   1.0598589744e+00   6.1328999531e+01    0.2976374    0.2670541 -73.64  0.001153689    1.137    0.120
        17 -10.5236    225.5914     13.4868   3.4844986883e+02   2.9254645523e+01    0.1963113    0.1457768 -44.97 7.491232e-05    1.177    0.150
        18 -11.0455    243.3008     14.4846   3.4779613659e+02   2.5953014896e+01     0.193076    0.1606773 -11.85   0.00144461    1.756    0.430
        19 -10.9971    186.8576     14.8478   3.5115013092e+02   3.6954737111e+01    0.2327349    0.1496315 -51.30 0.0009219433    1.278    0.217
        20 -11.1857     85.8503     13.9656   4.4853880555e+00   6.1454341662e+01    0.6342491    0.3581204 -36.98  0.003105083    1.872    0.466
        21 -11.0275    190.7745     12.0797   3.5018200379e+02   3.6403401911e+01    0.3185983    0.1068231 -39.66  0.001192104    2.270    0.560
        22 -10.9424     16.7644     10.0244   3.4322436296e+01   7.6323090263e+01    0.2267007    0.2024919  37.85 0.0005215077    1.271    0.213
        23 -11.3905    211.8721      9.9792   3.4840811880e+02   3.2269322006e+01    0.3229178    0.1950449 -27.62  0.001212867    1.762    0.432
        24 -10.7371    121.2319     11.3476   3.5679506281e+02   5.2879081623e+01    0.3473101    0.1870252 -88.10  0.001594668    1.965    0.491
        25 -11.2941     63.7085      9.9005   8.7833753922e+00   6.7185131610e+01    0.3543676      0.20983  56.59 0.0004059875    1.485    0.327
        26 -10.3889     62.4781      6.5185   7.3190870661e+00   6.7824103500e+01    0.2549837    0.2063921  43.68 0.0009349092    1.157    0.135
        27 -11.2083    168.4393      9.6360   3.5119161237e+02   4.1622487094e+01     0.415787    0.1947178  66.99  0.001645302    2.070    0.517
        28 -10.3484    145.2198      9.5861   3.5329313662e+02   4.7122871181e+01    0.1978379    0.1592439  23.93 0.0006354007    1.722    0.419
        29 -10.4747      1.3130      8.0872   4.7500114997e+01   7.8474727649e+01     0.307979   0.09861896 -54.19  0.001307946    2.973    0.664
        30 -11.5376    185.4041      6.5088   3.4914409111e+02   3.8136312895e+01    0.2853105    0.1651751 -61.10  0.001238776    1.437    0.304
        31  -9.6320     78.1694      7.3799   3.2594133984e+00   6.4004819594e+01    0.1869821    0.1172621  78.67 0.0005200976    1.624    0.384
        32  -9.8494      5.6359      8.9532   4.3648137579e+01   7.7892927668e+01    0.1711621    0.1441915 -25.80 0.0008972522    1.108    0.097
        33 -10.6931    128.9834      4.7571   3.5347428893e+02   5.1571642544e+01    0.1919255    0.1680886 -85.21            0    1.041    0.039
        34 -11.4493    134.0081      2.5301   3.5217236560e+02   5.0528386380e+01    0.4471986    0.2531295  84.67  0.001638727    1.591    0.372
        35 -11.0406     40.7636      4.1179   1.4577578903e+01   7.2862058636e+01     0.323866    0.2041105  34.89   0.00096302    1.557    0.358
        36 -10.0620     22.2348      4.3236   2.5951636318e+01   7.6333456919e+01    0.3113014   0.09553968 -42.35  0.001191705    3.744    0.733
        37 -10.4232    223.6418      2.3887   3.4618464878e+02   3.0761384904e+01    0.2139674    0.1605322 -79.06 0.0008015517    1.237    0.191
        38 -10.8490    218.6799      3.2739   3.4659157770e+02   3.1620529706e+01    0.2211998    0.1588784 -84.02 0.0008746721    1.307    0.235
        39 -10.6689    142.2407      3.1265   3.5155244114e+02   4.8459335243e+01     0.261469    0.1455289 -50.15  0.001362101    1.649    0.393
        40  -9.3331     29.0031      1.7080   1.9374397030e+01   7.5465278491e+01    0.1654841    0.1147443  57.75 0.0004779813    1.588    0.370
        41 -11.4003    207.4760      2.4673   3.4693762897e+02   3.3907937355e+01    0.5578091    0.1820413 -87.06  0.002386959    3.437    0.709
        42 -10.6474    210.3394      1.3159   3.4654171066e+02   3.3447580336e+01    0.1965028    0.1584419  61.92 0.0006114768    1.620    0.383
        43 -11.0971    114.0134      2.1399   3.5437413969e+02   5.5540872655e+01    0.4330877    0.2206612  82.26  0.001354832    1.823    0.451
        44 -10.4806    105.9061      2.3521   3.5559876193e+02   5.7558763800e+01     0.346056    0.1893176 -70.20  0.001621677    2.047    0.511
        45 -10.2283    152.5351      1.5492   3.5016174470e+02   4.6123881789e+01    0.2358212    0.1332659  86.67 0.0006356736    1.588    0.370
        46  -9.6874     12.3086      2.0209   3.2289856084e+01   7.8210995715e+01    0.1702857    0.1442541  -1.92  0.001043329    1.066    0.062
        47 -10.0472      1.9319      1.8043   4.2569137810e+01   7.9536815318e+01    0.1908502    0.1382386 -11.71 0.0009322423    1.307    0.235
        48 -11.0921    153.9260      6.6607   3.5156648747e+02   4.5315007128e+01    0.2230408    0.1644623 -51.27 0.0003154003    1.230    0.187
        49 -10.0243     48.9390    122.5089   5.4594057266e+01   4.5772301811e+01    0.2304793    0.1495081  27.01 0.0006609749    1.592    0.372
        50 -11.5385    243.7358    241.6534   2.8913123064e+01  -3.9694877878e+00    0.2245409    0.1189453  -8.43  0.001441743    1.705    0.413
        51 -10.2066    239.4951    250.4518   3.0744541601e+01  -4.5985308414e+00    0.1577922   0.08758224  -6.00 0.0007893598    1.517    0.341
        52 -11.5640    248.0547    248.9308   2.9284938317e+01  -5.1311314035e+00     0.344102    0.2428207  44.13  0.002355382    3.416    0.707
        53 -11.6906    242.5052    247.5113   2.9900140299e+01  -4.5222995323e+00    0.2865602    0.1328179 -30.95  0.001805902    1.792    0.442
        54 -10.0224    202.0103    250.2561   3.6681930955e+01  -1.2190990729e+00    0.1358155   0.07403915  21.33 0.0008755624    1.564    0.360
        55 -10.6234     43.6519    117.5868   5.5733297482e+01   4.7780140866e+01    0.6426883    0.2429414 -76.77  0.001967239    3.537    0.717
        56 -10.1902     79.0696    114.6200   4.2139978613e+01   4.3243182128e+01    0.3076111    0.2226916 -46.79 0.0009743656    1.419    0.295
        57  -9.5657     58.5254    115.4446   4.9665828729e+01   4.6341126952e+01    0.1519051    0.1457628  80.07  7.77712e-05    1.011    0.011
        58 -11.0742     35.3379    102.8947   5.6422443697e+01   5.2758256787e+01    0.4661873    0.2608928   1.06 0.0003260321    2.588    0.614
        59 -11.9123     26.6011    105.9900   6.0685656260e+01   5.2834821217e+01    0.7162737    0.5934216 -46.32   0.00383902    1.229    0.186
        60 -11.5347     22.5630    114.0216   6.3559909267e+01   5.1005688468e+01    0.5630541    0.3161533   0.30  0.002187686    2.331    0.571
        61 -11.5419     27.3931    112.1284   6.1314964438e+01   5.1075638445e+01    0.5756088    0.3624564  61.82  0.001422809    1.744    0.427
        62 -12.2437      2.8097    111.5444   7.1366575442e+01   5.3113381749e+01    0.5416499    0.3471317 -70.11  0.001573758    1.408    0.290
        63 -11.4337      3.0442    104.3600   7.0593061498e+01   5.5059561234e+01    0.4854951    0.3001717  31.76  0.001120106    1.669    0.401
        64  -9.3421     67.3398    114.6349   4.6259233674e+01   4.5200485683e+01    0.1691394    0.1151211  69.85 0.0007030315    1.841    0.457
        65 -10.0740     48.8845    111.7879   5.2613087493e+01   4.8676145445e+01    0.2224385    0.2110943 -14.83 0.0007074666    1.148    0.129
        66 -10.8094      7.8120    114.5368   6.9612729043e+01   5.1994530518e+01     0.314873    0.2394376 -75.59 0.0005664863    1.202    0.168
        67 -11.7857     79.6574    108.1819   4.0401558874e+01   4.4763216383e+01     0.606378    0.4160265  12.64  0.002358334    2.038    0.509
        68 -11.3650     15.5658    108.8875   6.5776132070e+01   5.2998228109e+01    0.4715161    0.4046237   2.29  0.002390165    1.301    0.231
        69 -11.5423     17.6317    101.4066   6.3865256596e+01   5.4883935405e+01    0.4918894    0.2573418  84.84  0.001161863    2.240    0.554
        70 -10.3899    105.4347    107.7731   3.2067027256e+01   3.9930989035e+01    0.2244464    0.1438122 -39.76 0.0009530205    1.688    0.408
        71 -10.6549     47.4812    102.5210   5.1260988411e+01   5.1345289584e+01    0.5481467    0.2849691 -41.74  0.002136534    2.211    0.548
        72 -11.0710     50.5519    100.7799   4.9616710039e+01   5.1380961367e+01    0.6271768    0.2821591 -46.31  0.002311257    2.366    0.577
        73 -10.4988     91.4536    102.6625   3.5042679843e+01   4.3906146273e+01    0.3656125    0.3217304   7.03  0.001840159    1.345    0.256
        74 -10.0196     85.9589    103.2671   3.7012168188e+01   4.4816056623e+01    0.2148415    0.2014727  42.89 0.0004734503    1.082    0.075
        75  -9.4036     57.4966    103.4944   4.7453667661e+01   4.9649145202e+01    0.1529753    0.1455324  80.54 0.0008103278    1.040    0.039
        76 -10.6642      8.3354     95.7659   6.7271047653e+01   5.7086364458e+01    0.2721703    0.2535245  37.58  0.001621091    1.144    0.126
        77 -11.4100    210.3887     98.1167   8.4021844867e+00   2.0793070441e+01    0.2060519    0.1856909 -51.41 0.0002667372    1.096    0.087
        78 -10.3142     82.9623     83.0000   3.2316811638e+01   5.0183678614e+01    0.8021209    0.3830206  31.51  0.002783624    2.780    0.640
        79 -10.2862     83.0108     93.2037   3.5294608852e+01   4.7800663813e+01    0.2760058    0.2074845  31.31 0.0004429992    1.437    0.304
        80 -10.9027     77.2686     96.5700   3.8251203157e+01   4.8073767138e+01    0.4198615    0.2525657  54.30  0.001195438    1.882    0.469
        81 -11.6491     79.1655     93.1735   3.6639079873e+01   4.8543116656e+01    0.9147433    0.3912512 -55.86  0.003235535    2.440    0.590
        82 -11.4454     75.6497     78.8930   3.3686275086e+01   5.2566658941e+01    0.6619473    0.4456743  55.48  0.002973185    1.615    0.381
        83 -10.4081     76.9849     75.4938   3.2103861935e+01   5.3069491228e+01    0.3870921    0.2460985  66.48  0.001358552    2.168    0.539
        84 -12.2378     68.0872     95.2866   4.1306699476e+01   5.0031356798e+01    0.5169094    0.3870781  27.61 0.0007674582    1.436    0.303
        85 -11.4129     22.6146     94.6686   6.0543498815e+01   5.6286772498e+01    0.5209349    0.2784477 -33.09   0.00214078    2.279    0.561
        86 -12.5324    248.3486     94.8696   3.3882526549e+00   1.5113379264e+01     0.445189    0.2776992 -22.95  0.002703748    1.767    0.434
        87 -10.2445     30.5192     96.0034   5.7206178657e+01   5.5147113590e+01    0.2303566    0.1375633 -66.76 0.0009056727    1.584    0.369
        88 -10.3580     43.1666     94.6326   5.1332415607e+01   5.4009499872e+01    0.2954354    0.2772152 -40.66  0.001309052    1.088    0.081
        89 -10.1972     43.9170     90.4759   5.0030577991e+01   5.4998326630e+01    0.2453426    0.1966324 -60.18 0.0003009123    1.207    0.172
        90  -9.5258    125.8510     93.8210   2.2775215421e+01   3.8695293349e+01    0.2034523    0.1714572 -89.71 0.0003512429    1.304    0.233
        91 -11.5643     28.5233     85.2504   5.5925378291e+01   5.8219937289e+01    0.6904808    0.4670664  42.97   0.00160929    1.547    0.354
        92 -10.1668     36.9507     85.5259   5.1999194051e+01   5.7183879177e+01    0.2736261    0.1486389  20.63  0.001138073    2.037    0.509
        93 -10.0120     35.4384     92.2486   5.4223570957e+01   5.5600233252e+01    0.2623626     0.220831  82.51 0.0008263921    1.259    0.206
        94  -9.3450     38.4993     90.4932   5.2451854420e+01   5.5694431482e+01    0.2141682    0.1467085   6.66 0.0007503927    1.764    0.433
        95 -10.5204     19.4933     91.0147   6.1356736254e+01   5.7545937159e+01    0.3725404    0.1249393 -68.04  0.001320327    2.645    0.622
        96 -10.5377     18.2654     86.5659   6.1154628490e+01   5.8840309365e+01    0.3436304    0.2651543  -9.07  0.001404194    1.449    0.310
        97 -10.9549     98.2547     90.6773   2.9563862673e+01   4.5307322590e+01    0.2556211    0.2537022 -23.90 0.0003320986    1.080    0.074
        98 -11.1240     52.2697     87.2357   4.5567783682e+01   5.4633072810e+01    0.4335004     0.280321 -52.87  0.001380481    1.504    0.335
        99 -11.3930      5.8040     88.1533   6.7464156987e+01   5.9291300781e+01     0.587949    0.3501915   7.83   0.00223902    1.871    0.465
       100 -10.2168     66.5697     88.4567   4.0025886607e+01   5.1984774105e+01    0.3347677    0.2241326 -19.23 0.0008635868    2.284    0.562
       101  -9.9023    104.5024     86.9456   2.6585879462e+01   4.4798485066e+01     0.230512    0.1498056 -46.20 0.0005669981    1.537    0.349
       102 -10.2614     90.4952     85.7394   3.0587141334e+01   4.8029389304e+01    0.3782579    0.2818213 -86.65  0.001695554    1.749    0.428
       103  -9.9218    118.5449     85.5927   2.2302270494e+01   4.1997329704e+01    0.2790765    0.1472192 -40.31 0.0009517909    1.956    0.489
       104 -11.6775     44.5335     84.0713   4.8146647191e+01   5.6563596614e+01    0.5357707    0.4612292  77.39  0.002095967    1.272    0.214
       105 -13.2934    247.4300     76.0283   3.5978597267e+02   1.7815725528e+01    0.6977938    0.3096942 -35.20  0.003795316    1.797    0.443
       106  -9.1737    143.5064     84.3943   1.6128631003e+01   3.6648879817e+01    0.1435177    0.1368685 -75.24 0.0001871985    1.038    0.036
       107 -12.2985     60.8580     83.3784   4.0871106585e+01   5.4210203182e+01    0.3450471    0.2925317  53.51 0.0005093059    1.216    0.178
       108 -10.7399     58.0763     77.9669   4.0431700890e+01   5.5988882475e+01    0.3049732    0.2144742 -60.65 0.0004529449    1.464    0.317
       109 -10.4379    112.8250     82.4643   2.2897862725e+01   4.3912796368e+01    0.3711677    0.2821953  67.64  0.001516573    1.421    0.296
       110 -10.8101      2.5566     81.0772   6.8119934579e+01   6.1352050304e+01    0.5315107    0.2364911  76.60  0.002016755    2.910    0.656
       111 -10.7915      2.1228     71.1152   6.6888822105e+01   6.3984451611e+01    0.4700114    0.2073105 -67.56  0.002051869    1.956    0.489
       112 -13.1947      5.5360     61.6053   6.3208687632e+01   6.6231830929e+01    0.7999955    0.4821828 -10.63  0.001341793    1.848    0.459
       113 -10.3812     67.4184     81.2382   3.7579536188e+01   5.3572391268e+01    0.3288463    0.2511649 -15.94  0.001518258    1.724    0.420
       114 -10.6726     89.1284     77.1156   2.8366013395e+01   5.0215491163e+01    0.5372303    0.3056237  51.72    0.0021338    1.802    0.445
       115 -10.7633     94.5519     75.4616   2.6075268087e+01   4.9403380840e+01    0.4697298    0.3412878 -66.64  0.000938322    1.587    0.370
       116  -9.4809    118.9954     78.2699   2.0012067398e+01   4.3364066155e+01    0.2031736    0.1895062 -83.73            0    1.035    0.033
       117 -11.1856     53.2686     76.0494   4.1944699613e+01   5.7242617941e+01      0.40084    0.3628245  70.26  0.001638496    1.185    0.156
       118 -10.1250     47.1316     74.7094   4.4332969322e+01   5.8523067009e+01    0.4161023    0.2198403 -29.64  0.001486433    2.965    0.663
       119  -9.1826    158.7683     75.9801   1.0896762236e+01   3.4758722928e+01    0.1714253    0.1111148 -40.69 0.0002664287    1.451    0.311
       120 -10.8045     14.2665     74.4603   6.0882640549e+01   6.2347971493e+01    0.3551715    0.2890521  76.49  0.001760879    1.340    0.254
       121  -9.8926    103.2061     74.3048   2.3075954474e+01   4.7728733410e+01    0.2948692    0.2257504 -84.15  0.001381973    1.595    0.373
       122 -11.6859     27.6339     73.2465   5.3547982730e+01   6.1419391613e+01      0.33224    0.2713652   3.11 0.0002696362    1.317    0.241
       123 -10.5210     80.3199     71.2105   2.9472166840e+01   5.3329188402e+01    0.5263392    0.2942049 -57.52  0.002129388    2.048    0.512
       124 -10.7397     34.7490     71.2141   4.9342722266e+01   6.1094861825e+01    0.4328032    0.2247084  34.82  0.001533953    1.917    0.478
       125 -10.3298     40.8339     72.7391   4.6751136405e+01   5.9914125521e+01    0.3368695    0.2611077   2.40 0.0008735114    1.491    0.330
       126 -10.9960     40.3916     68.7200   4.5763369705e+01   6.0954323632e+01    0.3361512     0.309166  -7.04   0.00131603    1.121    0.108
       127 -11.6102     39.5823     56.5236   4.2121175779e+01   6.3921105706e+01    0.3245186    0.2359177  34.53 0.0005744639    1.371    0.271
       128 -11.5677     43.4440     60.4285   4.1510641983e+01   6.2454799683e+01    0.4908831    0.2569693 -57.11 0.0008500739    1.973    0.493
       129 -11.6878     46.4649     59.5042   3.9674953803e+01   6.2190710243e+01      0.69634    0.2625208  44.63   0.00242615    2.901    0.655
       130 -11.5065    122.6817     68.4495   1.6083961098e+01   4.4375293936e+01    0.4094139    0.2632625  45.29 0.0006580882    1.678    0.404
       131  -9.8767     13.6485     67.4086   5.9730845074e+01   6.4208100000e+01    0.5421864    0.1860735   4.43  0.001642232    4.717    0.788
       132  -9.9082    222.6765     67.2932   2.8937385289e-01   2.3166016677e+01    0.1260442   0.07590203 -60.18 0.0002351328    1.616    0.381
       133  -9.5340    218.5236     67.5074   7.5232142295e-01   2.3888408268e+01    0.1250397     0.099071 -50.43 0.0008101659    1.006    0.006
       134 -10.4034    102.0138     66.8445   2.0978698738e+01   4.9473965604e+01    0.2585908    0.2176862 -39.10 0.0003305943    1.247    0.198
       135 -10.9526    105.5204     63.4820   1.8856318934e+01   4.9303310507e+01    0.2650868    0.2585198  35.82  0.000597687    1.126    0.112
       136  -9.7669    202.1279     63.3083   1.5530876924e+00   2.7602308452e+01    0.1880506    0.1401871 -39.38 0.0006516603    1.213    0.175
       137 -11.2696     92.5108     62.4906   2.2348472067e+01   5.2470791892e+01    0.3728811    0.2573969  69.06 0.0007567009    1.685    0.407
       138 -10.2721     58.5249     61.9257   3.4910681576e+01   5.9589890392e+01    0.3094727     0.269993  85.54  0.001648555    1.330    0.248
       139  -9.6327    159.5085     62.4958   7.0835111102e+00   3.6817955912e+01    0.2336834    0.1203741  50.34   0.00101572    2.179    0.541
       140  -9.4404    150.9798     60.9312   8.0644541902e+00   3.9027767886e+01    0.1700664    0.1509464 -61.14 0.0005246589    1.039    0.037
       141  -9.9216    113.7013     60.7264   1.5778956130e+01   4.7883329155e+01    0.2588352    0.1826417 -39.12  0.001242733    1.461    0.316
       142  -9.7706     84.3216     61.2995   2.4608717602e+01   5.4518953217e+01    0.1478998    0.1192149  10.72            0    1.625    0.385
       143  -9.7015     64.5328     60.7304   3.1893573093e+01   5.8721082830e+01    0.3108916    0.2287233  71.18   0.00145154    1.769    0.435
       144 -11.2657    118.2394     55.8220   1.3044652030e+01   4.7648360273e+01    0.8872936    0.4680164 -73.99  0.002728708    4.268    0.766
       145 -10.6589    124.4163     56.9451   1.2018480237e+01   4.5976424127e+01    0.2818217     0.226241  42.57 0.0003381012    1.405    0.289
       146 -10.9417    126.1030     52.8081   1.0308329738e+01   4.6247507193e+01    0.4441286    0.2535605 -20.42  0.001477985    2.658    0.624
       147  -9.4996     29.4925     60.4770   4.8938257352e+01   6.4355937307e+01    0.3322591    0.2262929 -57.21  0.001183637    1.423    0.297
       148 -11.1313     25.5037     56.7649   5.0035529612e+01   6.5704990376e+01    0.5014659    0.3454956 -64.89  0.001710918    1.495    0.331
       149  -9.9331     21.4840     57.5365   5.2632289252e+01   6.5953568919e+01    0.2467504    0.2288423 -25.24 0.0008305563    1.034    0.032
       150 -10.6701    106.4661     58.4537   1.6880813350e+01   4.9998269741e+01    0.2759008    0.2063851  68.06 0.0005920053    1.365    0.267
       151 -12.4133     73.9421     49.7413   2.3914771405e+01   5.8978548522e+01     1.236933    0.4501834 -53.04  0.003752831    4.121    0.757
       152 -10.8462     87.8856     56.6653   2.1726044890e+01   5.4618525795e+01    0.5996081    0.2270847 -35.86  0.001993162    3.205    0.688
       153  -9.9580     88.0149     49.5022   1.8975954089e+01   5.5885391640e+01    0.3500002    0.2557092 -20.19  0.001673944    1.747    0.428
       154  -9.8160     33.5781     56.8572   4.5483781179e+01   6.4688257203e+01    0.2319371    0.1795741  15.62 0.0005484546    1.349    0.259
       155  -9.8160     50.2470     56.4278   3.6698197037e+01   6.2242796416e+01    0.2060179    0.1317677  46.91 0.0009517733    1.632    0.387
       156 -10.3876      9.4691     55.5414   5.9419018390e+01   6.7482975842e+01    0.2644344    0.2036386  29.58  0.001019943    1.377    0.274
       157 -10.1327    156.7664     53.8409   5.0829827736e+00   3.8787115343e+01    0.3530001    0.1905245 -80.98  0.001383376    2.800    0.643
       158 -10.1202    155.2582     48.5154   3.7828406675e+00   3.9927417551e+01    0.2869649    0.1898259 -13.58  0.001087844    2.263    0.558
       159 -11.3611     31.1893     53.1835   4.5543769433e+01   6.5845578771e+01     0.424042    0.2683099   3.79  0.001938173    2.034    0.508
       160 -10.7673     60.2099     50.9312   2.9958227553e+01   6.1564608346e+01    0.5106056    0.3078963 -59.88  0.002220498    2.090    0.522
       161 -10.2643     61.7639     46.2769   2.7358878775e+01   6.2158560076e+01    0.3588928    0.1941733 -30.73  0.001462231    2.376    0.579
       162 -11.6414    243.5683     51.1551   3.5513263476e+02   2.1663239603e+01    0.3170144    0.1760176 -87.18  0.001327895    2.245    0.555
       163  -9.2176    202.3342     52.3050   3.5894459387e+02   2.9101076778e+01    0.1136834   0.09881716  18.64 0.0004479083    1.665    0.399
       164 -11.1176    110.1137     40.2292   9.4679062527e+00   5.2094285353e+01    0.6499339    0.5034927 -41.57  0.003029594    1.328    0.247
       165 -12.0392    119.8120     37.6295   6.4548172909e+00   5.0077193718e+01    0.8060871    0.3537906 -46.20  0.002587614    2.312    0.567
       166 -10.4735    112.3486     50.2215   1.2521833801e+01   4.9996126569e+01    0.3325258    0.2691515 -18.63   0.00112029    1.519    0.342
       167 -11.1156    116.8979     47.8510   1.0640519884e+01   4.9270814382e+01    0.4444999    0.3752621  44.26  0.001483439    1.303    0.233
       168 -10.7246    116.5912     43.2405   9.1004825454e+00   5.0054806424e+01    0.3116774    0.2827848   1.62  0.001026969    1.364    0.267
       169  -9.6248     55.3176     50.0641   3.1804342918e+01   6.2667166726e+01    0.1839056    0.1794403 -23.38  0.001071229    1.042    0.040
       170 -10.4512     82.4693     47.6833   2.0069242243e+01   5.7467519627e+01    0.3934853     0.249352 -16.01  0.001614083    2.525    0.604
       171 -12.3197     41.8990     44.2744   3.6069647138e+01   6.6191573554e+01    0.9433175    0.3665136  35.76  0.003053054    2.561    0.610
       172 -10.3889     23.3682     37.2272   4.4143206777e+01   7.0337337627e+01    0.4574808      0.24654  46.45  0.002066137    2.272    0.560
       173 -10.7412     29.4576     45.4240   4.3656252751e+01   6.7801233114e+01    0.4305346    0.2451222 -16.57  0.001731134    2.799    0.643
       174 -11.0110     26.3762     42.9244   4.4560475066e+01   6.8743919910e+01    0.3645343    0.2565268  47.16  0.001247347    1.628    0.386
       175  -9.7543      2.0969     48.3596   6.2472490916e+01   6.9692163401e+01    0.1794938    0.1674847  -4.01  0.001147796    1.116    0.104
       176 -10.4702     20.6891     45.6122   4.9210422571e+01   6.8820534774e+01    0.2490108    0.2002972 -21.80 0.0005048163    1.238    0.192
       177 -10.0267     13.8486     45.8600   5.3799041995e+01   6.9442295339e+01    0.2173253    0.1635177 -30.65  0.000748836    1.287    0.223
       178  -9.9800    155.9616     42.3007   1.8750890649e+00   4.0643369277e+01    0.2502481     0.197686 -30.53 0.0008256538    1.391    0.281
       179  -9.2004    139.4840     43.5250   4.7949840190e+00   4.4412856472e+01    0.1391261    0.1286085 -84.67 0.0002187256    1.060    0.056
       180 -10.1574     57.1968     41.8333   2.7440637604e+01   6.3893131467e+01    0.2550369    0.1777372  51.44  0.001273208    1.453    0.312
       181 -10.4499     18.2379     40.4267   4.8904169043e+01   7.0241388477e+01     0.282082    0.1739641 -36.75  0.001424397    1.618    0.382
       182 -11.5286     79.0281     35.4843   1.6135855318e+01   6.0265667224e+01    0.6723378     0.453692 -32.65  0.002766265    1.616    0.381
       183 -10.5555    249.7518     38.9531   3.5228801307e+02   2.2114407471e+01    0.1901815    0.1310172 -67.44 0.0003797633    1.321    0.243
       184 -11.1857      3.6785     36.4454   5.8021811071e+01   7.2391483466e+01     0.441275     0.322639 -48.90  0.001179647    1.230    0.187
       185 -10.1008     60.5702     36.7679   2.3664941104e+01   6.4110838924e+01    0.2630883    0.1730771 -39.44 0.0006322047    1.599    0.375
       186 -10.7403     63.5358     33.3721   2.0847144879e+01   6.4050358794e+01    0.5965267    0.1849351  42.80  0.001940138    3.459    0.711
       187 -10.4402    175.7020     34.4644   3.5725362614e+02   3.7131622378e+01    0.2973478    0.1605567 -60.62  0.001144974    1.793    0.442
       188 -10.9953    229.0020    248.2002   3.2030967395e+01  -3.4502582266e+00    0.1519764   0.08074415 -17.46 0.0007561214    1.617    0.381
       189 -11.0336    219.3354    248.1389   3.3543060606e+01  -2.5810497572e+00    0.1812497    0.1101819   6.67  0.001284584    1.354    0.261
       190  -9.9000    197.5162    243.9888   3.6610645271e+01   1.9404834975e-02    0.1554887   0.07160693 -20.48 0.0008101322    2.529    0.605
       191 -10.8468    240.0726     32.4684   3.5158248567e+02   2.4516150189e+01    0.2165911    0.1858629  34.95  0.001119897    1.830    0.454
       192 -10.5558    153.1574     35.7092   3.2401624073e-01   4.2195407866e+01    0.2298829    0.2005032 -58.08 0.0005182019    1.086    0.079
       193  -9.1731    217.0251     31.9820   3.5300670105e+02   2.8799623577e+01    0.1441432    0.1089913 -53.97            0    1.025    0.025
       194 -10.7747     46.4150     24.0459   2.3857962194e+01   6.9037977060e+01    0.3217705    0.2508412   8.30  0.001486404    1.476    0.323
       195 -10.1734     46.7827     19.9347   2.1395681343e+01   6.9588081177e+01    0.2680361    0.2118117 -56.31 0.0009574238    1.565    0.361
       196 -11.2413    125.4265    240.8576   5.0156403207e+01   8.4568878662e+00    0.2900442   0.09654864  38.91  0.001240572    2.752    0.637
       197 -11.3775     48.7659     30.0821   2.5850650198e+01   6.7603512478e+01    0.6953897    0.2725316  40.51  0.002580246    2.529    0.605
       198 -10.6421      9.6291     29.9776   5.1016148682e+01   7.3354760437e+01    0.4624255       0.2606  15.20  0.002356824    1.802    0.445
       199 -10.9358    170.7382     30.0359   3.5658696499e+02   3.8808022463e+01    0.3792101    0.1739043  83.92 0.0009716581    2.441    0.590
       200 -10.7294    131.7338    240.4332   4.8774548291e+01   7.7844592088e+00    0.1697933   0.09873692  17.16 0.0006676754    1.588    0.370
       201 -12.2198    127.6771     28.4389   1.8243999029e+00   4.9345412896e+01    0.7787709    0.3762117  79.53  0.001714842    2.297    0.565
       202 -11.7625     26.4554     27.4203   3.7430071091e+01   7.1877575273e+01    0.4596943    0.3318998 -56.07  0.001711648    1.597    0.374
       203 -10.2601     76.6728    240.3329   6.0893410152e+01   1.4243757604e+01    0.1312046   0.07649898  51.48 0.0007051542    1.715    0.417
       204 -10.5191    189.0637     27.3013   3.5411003260e+02   3.5068293538e+01    0.2963755    0.2158057  46.57  0.001745571    1.864    0.464
       205 -11.0385    183.6316     26.6305   3.5441908785e+02   3.6329362093e+01    0.3606583    0.1658559 -41.39  0.001076115    1.813    0.448
       206 -11.1845    230.3696     26.5435   3.5094539331e+02   2.6929685607e+01     0.196044    0.1848315 -62.22 0.0009253943    1.342    0.255
       207 -11.8634    149.2914     22.3804   3.5679793305e+02   4.4765464075e+01    0.5240636    0.2629676  69.25  0.002191431    1.864    0.463
       208 -10.7397    149.8069     27.6135   3.5833073146e+02   4.4021455877e+01    0.4589245    0.1329132  62.90  0.001694859    3.058    0.673
       209 -11.1170    142.8234     25.3676   3.5854937948e+02   4.5985593670e+01    0.3998799    0.1624235  75.71  0.001602352    2.524    0.604
       210  -9.7162     97.2624     25.9918   6.9501413588e+00   5.7226307469e+01    0.1930076    0.1811707  88.26 0.0009212836    1.043    0.041
       211  -9.7820    206.3169     25.5493   3.5231925672e+02   3.1670872681e+01    0.1398853    0.1080216  75.53 0.0003962486    1.422    0.297
       212 -10.8184    134.2731     22.2275   3.5871212437e+02   4.8456161868e+01    0.3142103    0.2827538 -34.57  0.001777492    1.252    0.201
       213 -11.5366    238.5828    234.6841   2.8694092886e+01  -2.7187528509e+00    0.1847553    0.1109999  21.20  0.001362685    1.597    0.374
       214 -10.6016    169.3786     22.9884   3.5479052628e+02   3.9958727451e+01    0.2347196    0.1726543  84.16 0.0002919065    1.280    0.219
       215 -10.9205     68.9092     20.3231   1.2471295333e+01   6.4748347221e+01    0.3567843    0.2909835 -36.00  0.001386191    1.329    0.247
       216  -9.0249    218.3472    231.3334   3.1352636092e+01  -4.1684683161e-01    0.1154495   0.06446394  -7.85  0.000704894    1.769    0.435
       217  -9.4492     39.6001     15.2088   2.2343653615e+01   7.1678167864e+01    0.1817517    0.1647349   3.20 0.0005504405    1.097    0.088
       218  -9.0975     23.6822    231.6657   7.2611672281e+01   2.1499767768e+01    0.1122932   0.09043386 -28.23 0.0007048371    1.696    0.410
       219 -10.2322    177.4998     28.9868   3.5561215977e+02   3.7406819228e+01    0.1943081    0.1153375 -35.84 0.0006550922    1.585    0.369
       220  -9.7261    249.6378    230.1372   2.6432027290e+01  -3.1572562479e+00    0.1444076   0.06791577 -25.94 0.0009430299    1.695    0.410
       221  -9.9852    246.4637    230.4937   2.6938252924e+01  -2.9227350943e+00    0.1017063    0.0717405 -11.58 0.0003443353    1.030    0.029
       222 -11.1100    247.3266     20.6708   3.4882701248e+02   2.4596393362e+01    0.1922085   0.09920701 -64.81  0.001208817    1.682    0.405
       223  -9.3585     53.4672     21.5251   1.9144762814e+01   6.7988902136e+01    0.1355979    0.1218105  32.10 0.0008086946    1.051    0.049
       224  -9.6665    216.7027     19.9573   3.5035564868e+02   3.0247389359e+01    0.1698878    0.1191837 -49.99 0.0004161898    1.111    0.100
       225 -11.4433    248.7305    223.8511   2.5648288071e+01  -2.3422146015e+00    0.2545515     0.147576  -2.32  0.001801031    1.579    0.367
       226  -9.7613    246.6915    220.3624   2.5424898638e+01  -1.7414808540e+00     0.181645    0.1236491 -45.86  0.001273684    2.180    0.541
       227  -9.5851     74.9768     19.0239   9.8604400715e+00   6.3496188970e+01    0.2234886    0.1517048  31.97 0.0008872892    1.710    0.415
       228 -11.4774    235.8497     16.1834   3.4849342419e+02   2.7085821395e+01     0.210542    0.1634749 -85.96  0.001582071    1.339    0.253
       229  -8.8938    171.3401    208.3363   3.6260840574e+01   8.1935602278e+00     0.131026   0.08347601  -8.32 0.0005192424    1.758    0.431
       230 -10.6923      4.3702    204.8059   7.6180310196e+01   2.9007555701e+01    0.1685468    0.1059154 -72.76 0.0005333548    1.690    0.408
       231 -11.6978      6.6397    185.7548   7.4802874635e+01   3.3317688109e+01    0.3589485    0.2413354  37.90  0.002025565    1.321    0.243
       232 -11.0016    228.5172     15.5261   3.4872987405e+02   2.8491793972e+01    0.2155628    0.1422321 -58.70 0.0005451012    1.151    0.131
       233 -11.9525      2.9830    182.3504   7.5666430666e+01   3.4429150960e+01    0.5241969    0.2387271 -67.19   0.00242832    2.218    0.549
       234  -9.1064     34.5526    180.4985   6.6552419091e+01   3.2085764145e+01    0.1392745    0.1219159  59.03 0.0001222106    1.012    0.012
       235 -10.5953     16.0170    173.6974   7.1469553329e+01   3.5549019271e+01    0.2754261    0.1576563  64.17  0.001336244    1.647    0.393
       236 -12.2154      9.3959    166.7678   7.3024893008e+01   3.7858830276e+01    0.3585536    0.3011782  11.04  0.001343916    1.361    0.265
       237  -9.8546    111.9620     14.7004   3.5948289267e+02   5.4863450018e+01    0.1941379    0.1576237  79.92 0.0004996291    1.100    0.091
       238 -12.5629     13.0618    160.3657   7.1491006252e+01   3.9231044106e+01    0.5258652    0.3681667 -39.60   0.00271264    1.729    0.422
       239  -9.4041    157.2794    165.6798   3.1856246570e+01   1.7843709978e+01    0.1265546    0.1093643 -88.87 0.0006503663    1.582    0.368
       240 -10.6800     18.0201    165.0063   7.0273892120e+01   3.7608024664e+01    0.2216971    0.1560351 -41.37  0.001138063    1.711    0.416
       241 -10.0316    205.0371    163.1790   2.2376193505e+01   1.1080533600e+01    0.2204316     0.154592 -35.16 0.0008697773    1.231    0.188
       242 -11.6508    106.9387     31.5961   6.9518111005e+00   5.4097577466e+01    0.6061092    0.3327666  42.30  0.002626114    2.166    0.538
       243  -9.8989     28.6839    160.3325   6.6553093702e+01   3.7848931397e+01    0.1568733   0.09132467  58.37 0.0007046921    1.687    0.407
       244 -11.8777     16.5116    147.8848   6.9431832212e+01   4.2261408849e+01    0.8410272    0.2102935 -81.64  0.002444798    4.350    0.770
       245 -11.2432     21.0647    150.4826   6.8134031209e+01   4.1175641567e+01    0.2961642    0.2614729  -6.03 0.0003755008    1.332    0.249
       246 -11.9103     24.6124    147.1924   6.6637354158e+01   4.1738696252e+01     0.805087    0.3078285 -44.89 0.0009058449    3.395    0.705
       247 -11.0866      9.3069    154.8812   7.2318004455e+01   4.0964262021e+01    0.2367897    0.1525826  71.54  0.001196321    1.449    0.310
       248 -10.0269    104.5060    154.0140   4.2515453925e+01   2.9117183749e+01    0.2387565    0.2047093  37.26  0.001257776    1.139    0.122
       249  -9.9593     55.4097    152.7787   5.7101814367e+01   3.6814249295e+01    0.2137158    0.1291088 -55.79 0.0009495282    1.680    0.405
       250 -10.7708      4.5267    153.4904   7.3768626233e+01   4.1675385813e+01    0.2433438   0.09855502  33.70  0.001027536    2.188    0.543
       251  -9.0539    240.6886    152.3599   1.5096999981e+01   7.9758873952e+00     0.110195   0.07974751 -54.05 0.0007042055    1.744    0.427
       252  -9.9577     44.6755    149.5368   6.0172357352e+01   3.8997245257e+01    0.3975283    0.3141813 -87.00  0.002064342    1.253    0.202
       253 -10.5270     47.0347    145.3102   5.8823047828e+01   3.9846761733e+01    0.3478236    0.2528909 -77.45  0.001711569    1.368    0.269
       254 -12.1099      3.9353    142.3140   7.3279420375e+01   4.4687734642e+01    0.6606817    0.3289895  40.96  0.002787397    1.863    0.463
       255 -10.7870     32.9353    143.9588   6.3452425435e+01   4.1796660956e+01    0.3175339     0.256343  59.76 0.0007494214    1.182    0.154
       256 -10.7338     40.4409    137.8185   6.0065352364e+01   4.2646382209e+01     0.325187     0.259885  76.29 0.0009118571    1.246    0.197
       257 -11.9216     12.3758    135.5129   6.9816645354e+01   4.5934863094e+01    0.6041543    0.2669572 -49.86  0.002431677    2.428    0.588
       258  -9.3368     97.9502    135.9980   4.0845901303e+01   3.4581036434e+01    0.1783859    0.1747535 -86.85 0.0003485234    1.014    0.014
       259 -11.4264     30.3095    132.6023   6.3011353777e+01   4.5159243173e+01    0.3551903    0.2898543 -22.77 0.0009438035    1.447    0.309
       260 -11.6247     24.1872    136.4759   6.5678487671e+01   4.4687372151e+01    0.5019226    0.2880696 -41.56  0.002201094    2.042    0.510
       261 -11.0655     11.0379    125.4828   6.9405367964e+01   4.8773782972e+01    0.6329912    0.2473348 -45.68  0.002327357    2.917    0.657
       262  -9.4196     26.5555    127.4376   6.3753688005e+01   4.6944398915e+01    0.1441384    0.1345573  87.80 5.455826e-05    1.015    0.015
       263 -11.0251     20.6385    133.8927   6.6681583920e+01   4.5710048533e+01    0.2872523    0.2772532 -43.77  0.001021945    1.146    0.128
       264  -9.7818      1.7768    124.7708   7.2845093480e+01   4.9564798227e+01    0.2050716    0.1436845  62.65  0.001067972    1.367    0.269
       265 -11.0447    104.1434    122.4883   3.6049657352e+01   3.6719057810e+01    0.3333079    0.2807658  41.01 0.0009527848    1.194    0.163
