#   1 NUMBER                 Running object number                                     
#   2 MAG_AUTO               Kron-like elliptical aperture magnitude                    [mag]
#   3 X_IMAGE                Object position along x                                    [pixel]
#   4 Y_IMAGE                Object position along y                                    [pixel]
#   5 X_WORLD                Barycenter position along world x axis                     [deg]
#   6 Y_WORLD                Barycenter position along world y axis                     [deg]
#   7 A_WORLD                Profile RMS along major axis (world units)                 [deg]
#   8 B_WORLD                Profile RMS along minor axis (world units)                 [deg]
#   9 THETA_WORLD            Position angle (CCW/world-x)                               [deg]
#  10 FWHM_WORLD             FWHM assuming a gaussian core                              [deg]
#  11 ELONGATION             A_IMAGE/B_IMAGE                                           
#  12 ELLIPTICITY            1 - B_IMAGE/A_IMAGE                                       
         1 -11.1973     66.8919     14.9724   3.1473787527e+01   6.3952383643e+01    0.3000585    0.1342974 -22.20  0.001421847    2.565    0.610
         2 -11.7070     74.2436     13.5027   2.8446377230e+01   6.2726719987e+01    0.1995516    0.1642547 -11.07 0.0003805637    1.271    0.213
         3 -11.8112     81.1365      8.8409   2.4464728484e+01   6.1820639903e+01    0.1694739    0.1552894  50.76 0.0003096369    1.177    0.151
         4 -11.2338     89.5414      3.9865   2.0293529486e+01   6.0511643544e+01    0.2311589     0.180212 -68.13  0.001418195    1.772    0.436
         5 -10.7009    114.5021      7.0581   1.5930961265e+01   5.4762820712e+01     0.161028    0.1269374 -19.63 0.0004380673    1.486    0.327
         6 -10.5998    103.5206      7.4530   1.8344281187e+01   5.7197486369e+01    0.1264506    0.1063143  51.10 5.368764e-05    1.005    0.005
         7 -11.5548    122.0707      5.0337   1.3842401462e+01   5.3195392982e+01    0.1875461    0.1588148  61.11 0.0002910586    1.015    0.015
         8 -11.8537    100.6114      2.2849   1.7083440603e+01   5.8268291354e+01    0.3731799     0.148484  56.70  0.001759697    1.973    0.493
         9 -10.5809    144.4311      2.0308   9.4080963656e+00   4.8193448264e+01    0.1550811    0.1254309 -29.36 0.0002832224    1.470    0.320
        10 -10.1587    187.2516    241.2855   5.7720609643e+01  -3.4065818130e+00    0.1195532   0.08771396   0.94 -0.000275831    1.472    0.321
        11 -11.4321    245.3132    249.9774   4.8395877671e+01  -1.2598927943e+01    0.1557651    0.1193925  -7.25 0.0004431235    1.083    0.077
        12 -11.6666    237.5221    248.7500   4.9548316725e+01  -1.1483870836e+01     0.308203    0.1709579 -31.89   0.00186249    1.750    0.429
        13 -11.3741    124.4503    250.1922   7.1696321298e+01   4.9147477558e+00    0.2193335    0.1611185  23.31  0.001274902    1.493    0.330
        14 -12.2831     98.7741    248.9898   7.6815790764e+01   9.0818614287e+00    0.2850929    0.2135696 -37.68  0.001232304    1.905    0.475
        15 -11.7740     84.3093    250.5733   7.9908748142e+01   1.0916926272e+01    0.3728673    0.1072297  36.35  0.001433762    3.100    0.677
        16 -15.9524     25.4734    171.2743   8.5158358880e+01   3.6284920059e+01     3.904145      1.68922  80.86   0.01521613    3.042    0.671
        17 -15.8569     16.7716    211.2743   9.0485605290e+01   2.7784737703e+01     3.321709    0.4617596  46.32   0.01167095    4.351    0.770
        18 -15.8802      4.5352    214.9465   9.3196755976e+01   2.8184579788e+01     1.352228    0.6215412  82.21  0.007162399    1.923    0.480
        19 -15.7169     13.9526    225.4076   9.1956545243e+01   2.4997406853e+01    0.7671799    0.6496266   2.43  0.005266386    1.948    0.487
        20 -17.2446      6.0322    238.5358   9.4167499586e+01   2.3081111409e+01      1.83066     0.971429  79.05   0.01124361    1.536    0.349
        21 -15.9487     17.6273    234.8153   9.1807005139e+01   2.2633518055e+01    0.8592871    0.6139084 -51.31  0.005319377    2.023    0.506
        22 -12.1479    107.1548    240.1347   7.4081253521e+01   9.4985285302e+00    0.2319228    0.1732135 -58.44 0.0005919078    1.536    0.349
        23 -13.2582    102.5934    237.8814   7.4779306946e+01   1.0650296144e+01    0.4081119    0.2782438  20.14  0.002133481    1.934    0.483
        24 -11.0968     89.5028    241.0694   7.7883417548e+01   1.2009675184e+01    0.1670951    0.1230594 -71.21 0.0004809739    1.478    0.323
        25 -12.1202    116.2144    240.5741   7.2227390297e+01   7.9908416972e+00    0.3913198    0.1134442  37.04   0.00142071    3.037    0.671
        26 -10.7735    239.6896    239.3297   4.7642244913e+01  -1.0505409513e+01   0.09675625   0.09560327  53.54 0.0003492535    1.667    0.400
        27 -11.6735    148.1387    239.0223   6.5322087865e+01   3.1505130334e+00    0.2526846     0.169054  31.43 0.0007851307    1.368    0.269
        28 -11.6939     79.4461    237.1628   7.9575979321e+01   1.4278825272e+01    0.2511889    0.2110626  40.54 0.0007417967    1.250    0.200
        29 -10.5277    209.4883    234.4705   5.2333564134e+01  -5.6688534236e+00     0.122286    0.1066782  12.89 -4.367075e-05    1.097    0.088
        30 -10.8911    144.8298    234.1940   6.5326311824e+01   4.5665349756e+00    0.1731766    0.1447382  13.51  0.001025018    1.302    0.232
        31 -10.6326    158.4662    233.4884   6.2360470598e+01   2.4606353257e+00    0.1321873    0.1160885  32.33 0.0002796567    1.009    0.009
        32 -11.4651    182.0000    230.9640   5.7136834597e+01  -9.0446988524e-01    0.2983677    0.1806485 -41.96  0.001578046    1.795    0.443
        33 -12.2982    178.2545    228.5792   5.7511924230e+01   1.0232275206e-01    0.2651376    0.2147855  45.83 0.0002875398    1.293    0.226
        34 -11.0571    219.5180    230.9629   4.9874086989e+01  -6.5863389536e+00    0.1787218    0.1133829 -36.04  0.001031135    1.591    0.371
        35 -14.6940     34.4161    205.5978   8.6274593678e+01   2.7145731107e+01     1.287803    0.9619969 -47.50  0.005019926    1.772    0.436
        36 -12.4218    231.7284    227.6917   4.7098972560e+01  -7.8112491359e+00     0.288074    0.1931197 -21.52 0.0005218374    1.395    0.283
        37 -11.3612    194.2187    228.7746   5.4343364737e+01  -2.4648957569e+00    0.1860862    0.1403644   3.98  0.000599898    1.361    0.265
        38 -11.6392    112.1685    228.0813   7.1511013629e+01   1.1102083072e+01     0.242858    0.1923504  13.60  0.001346429    1.620    0.383
        39 -12.5883    115.6728    224.5443   7.0273655574e+01   1.1254327284e+01    0.3856353    0.2351385 -88.54  0.001720689    2.495    0.599
        40 -12.8663     91.4406    226.3941   7.5832112697e+01   1.4724534601e+01    0.3779004    0.2348779 -47.81  0.001924463    2.012    0.503
        41 -12.2245    105.8710    226.4924   7.2684027753e+01   1.2440430364e+01    0.2399469    0.2140137 -10.26   0.00143805    1.483    0.326
        42 -11.3817    222.2410    225.5044   4.8446438461e+01  -6.1519076716e+00    0.2045699    0.1545293 -27.25 0.0003107504    1.269    0.212
        43 -11.2349    156.2005    225.7953   6.1660265437e+01   4.2368082806e+00    0.1818172    0.1528001   1.14 0.0006972852    1.328    0.247
        44 -15.4351      7.5854    185.2390   9.0623826620e+01   3.4621404446e+01     2.401511    0.8892933  57.40   0.01065575    2.699    0.630
        45 -13.0398     77.3552    220.0329   7.8200480099e+01   1.8212707413e+01     0.375558    0.2344245 -70.43  0.001473064    1.642    0.391
        46 -10.7558     90.4707    210.2539   7.4060423551e+01   1.8390756564e+01    0.1780172    0.1282106 -84.18 0.0001990771    1.463    0.317
        47 -12.9839     67.8995    223.8232   8.0674355643e+01   1.8745061797e+01    0.5381705    0.2093031 -73.20 0.0003575377    2.897    0.655
        48 -13.5031     63.9927    215.7549   8.0698410187e+01   2.1069586266e+01    0.8497493     0.305543  41.19   0.00214553    2.382    0.580
        49 -12.8924     85.4980    212.3628   7.5467309093e+01   1.8689183023e+01     0.593426    0.4924861  79.84  0.001811825    1.128    0.114
        50 -12.1886     79.2171    212.5821   7.6924588466e+01   1.9590296669e+01    0.3084465    0.2356796  76.18 0.0006145528    1.240    0.193
        51 -11.3140    212.6575    222.3882   4.9699261860e+01  -4.2585400306e+00    0.2767502    0.1701309  -2.94  0.001368666    2.135    0.532
        52 -11.8865    159.9104    222.3058   6.0322656215e+01   4.2629491431e+00      0.33305    0.2112443  43.73 0.0009726238    1.473    0.321
        53 -12.4318    124.7392    221.7445   6.7883085065e+01   1.0324400347e+01    0.2772493     0.199869  46.24  0.001018535    1.239    0.193
        54 -11.9867    246.2262    220.4716   4.3318002632e+01  -8.7161181829e+00    0.2038631    0.1430811 -28.72 0.0002840766    1.285    0.222
        55 -12.3443    237.9266    219.9071   4.4657100604e+01  -7.5159110913e+00    0.3094374    0.1656972 -33.53  0.001685772    1.735    0.424
        56 -11.4064    222.9865    220.4788   4.7441573738e+01  -5.4880244065e+00    0.1875919     0.153806  -9.43  0.001209474    1.075    0.070
        57 -12.6168    173.2319    219.6497   5.7084525751e+01   2.5092696144e+00    0.3339896    0.2624133 -30.41 0.0007648572    1.365    0.267
        58 -12.3165     87.5272    220.6693   7.6018021081e+01   1.6548753430e+01    0.2415695    0.2045374  57.96  0.000363371    1.037    0.035
        59 -12.4715    231.7533    218.6143   4.5525227799e+01  -6.4612218364e+00    0.4080355    0.1309948 -33.97  0.001597104    3.308    0.698
        60 -11.6220     73.7859    212.8574   7.8188180239e+01   2.0329063405e+01    0.5872142    0.3473985  11.87  0.002326999    3.568    0.720
        61 -12.4112    145.1912    216.0634   6.2511436039e+01   7.9847805665e+00    0.3857876    0.3419206 -43.54  0.002275672    1.239    0.193
        62 -13.0477    140.1156    210.8773   6.2811044243e+01   9.9171458446e+00    0.5953066    0.4162661 -73.25  0.002936899    1.844    0.458
        63 -11.7977    129.9938    217.2672   6.6062156494e+01   1.0352713235e+01    0.2331627    0.1463427 -56.02 0.0009122009    1.753    0.430
        64 -12.7590    108.4865    215.8752   7.0696671942e+01   1.4255802824e+01      0.32994    0.2610012 -88.66   0.00133054    1.365    0.268
        65 -11.8839    193.0697    215.1349   5.2255977059e+01   2.3890029266e-02     0.211511    0.1985596  16.71            0    1.112    0.101
        66 -11.2124    207.9633    215.3226   4.9363888821e+01  -2.3909613063e+00      0.17725    0.1488959  11.71 0.0003380089    1.076    0.070
        67 -10.8198    155.7858    213.8071   5.9830770940e+01   6.5934456894e+00    0.2358327    0.1505753  -6.67 0.0009581401    2.855    0.650
        68 -11.5441    120.6662    214.2930   6.7715691816e+01   1.2559018559e+01    0.1432724    0.1313206  46.19  0.000299035    1.057    0.054
        69 -11.8927    247.5777    212.8857   4.1755434572e+01  -7.7885605668e+00    0.1998697    0.1648541  25.81 0.0004974218    1.317    0.240
        70 -11.7881    125.0028    212.9602   6.6537032695e+01   1.2102017923e+01    0.2093859    0.1895554  54.84  0.000357931    1.019    0.018
        71 -11.4464    180.8236    211.8439   5.4177073424e+01   2.6527444008e+00    0.1742621    0.1579296  59.86 0.0002569855    1.302    0.232
        72 -13.0219    228.9744    207.0820   4.3967300782e+01  -4.2580146401e+00    0.3893389     0.305343 -45.13  0.001389541    1.463    0.316
        73 -11.8100    113.0587    210.0258   6.8826652499e+01   1.4760995421e+01    0.2112522    0.1946856  59.68 0.0005069189    1.032    0.031
        74 -11.5454    242.3155    207.9947   4.1780513048e+01  -6.3297105547e+00    0.1739533    0.1352331 -23.10 0.0003299134    1.123    0.110
        75 -11.9615    181.3009    207.8459   5.3375449030e+01   3.3086445237e+00    0.4244458    0.1843255  32.21  0.001688789    2.458    0.593
        76 -11.8645     59.3798    207.1260   8.0824448624e+01   2.3661302068e+01    0.4269256    0.2507473 -53.32  0.001962482    1.958    0.489
        77 -11.5780     63.6357    208.1515   7.9966056461e+01   2.2842442861e+01    0.2907178    0.1754916  35.87 0.0006840092    1.677    0.404
        78 -11.4554     70.5489    207.4909   7.8309142281e+01   2.2017718658e+01    0.2700481    0.2346067  45.07  0.001244401    1.212    0.175
        79 -10.9791     67.6897    207.6821   7.8987357736e+01   2.2381981143e+01    0.1736094     0.140365  17.68 0.0004882742    1.649    0.393
        80 -11.9908    205.0613    206.3179   4.8314416384e+01  -4.0001384431e-01    0.2145548     0.181922 -34.99 0.0002417636    1.210    0.174
        81 -12.6638    159.8850    206.5437   5.7713739469e+01   7.3051522779e+00    0.3736742    0.2525105  36.73 0.0007890604    1.388    0.279
        82 -12.6162    145.3261    203.1154   6.0360681589e+01   1.0602483840e+01    0.6085551     0.265105 -46.88  0.002418969    2.462    0.594
        83 -11.9798    141.5003    197.1659   6.0213495128e+01   1.2553563841e+01    0.4082021    0.2571864 -72.84  0.001752505    2.250    0.556
        84 -10.7458    138.3096    197.3000   6.0971623599e+01   1.3104391094e+01    0.1418787    0.1146691  -4.37 0.0001772332    1.600    0.375
        85 -11.6413    103.0582    206.5251   7.0637992457e+01   1.7201756507e+01    0.3107196    0.2423595  17.29  0.001028564    1.632    0.387
        86 -11.4293    123.7100    205.5276   6.5694221024e+01   1.3916128959e+01    0.2326982    0.1280617 -55.73 0.0007202636    1.940    0.485
        87 -11.2341    116.8980    205.5032   6.7267475193e+01   1.5098614943e+01    0.2340803    0.1863929  71.29 0.0006170401    1.319    0.242
        88 -12.0903     54.9700    205.4364   8.1650517254e+01   2.4640836526e+01    0.2214853    0.1563172  85.67  0.000655125    1.310    0.237
        89 -10.4864    176.2995    205.6571   5.4033710374e+01   4.5861153755e+00    0.1344712    0.1108332  79.42 0.0007036275    1.673    0.402
        90 -12.9654     93.9562    183.3909   6.9389168963e+01   2.4098644219e+01    0.5558108     0.289595 -51.09  0.002357666    2.021    0.505
        91 -12.6442     89.5951    183.0927   7.0438991859e+01   2.4884016678e+01    0.6348532    0.3039091 -63.20 0.0009367508    2.108    0.526
        92 -12.8855     89.9525    201.7786   7.3056644898e+01   2.0401402256e+01    0.6110235    0.3327745 -44.17  0.001126312    2.400    0.583
        93 -12.1122    100.1531    195.1720   6.9671560679e+01   2.0276414103e+01    0.4927713    0.3704856  53.45  0.001566422    1.247    0.198
        94 -12.6066     92.8760    193.2816   7.1155252984e+01   2.1915559251e+01     0.528588    0.3567336  73.03  0.001620897    1.672    0.402
        95 -11.0870    166.9710    202.9921   5.5552457218e+01   6.7481148546e+00    0.2177105    0.1657307  -2.88 0.0003355524    1.633    0.388
        96 -11.1617    212.2241    199.9992   4.5771996641e+01  -4.6976738420e-01    0.2006423    0.1570805 -70.55  0.001067492    1.993    0.498
        97 -11.9909    135.8016    199.6236   6.1944832302e+01   1.3055227344e+01     0.413315    0.2305171  67.11   0.00148695    3.172    0.685
        98 -11.6939     84.0859    198.5717   7.4018199496e+01   2.2065591703e+01    0.4054636    0.2379958  86.16  0.001246124    2.207    0.547
        99 -11.6900     80.6075    193.8542   7.4218676051e+01   2.3713843001e+01    0.7517046    0.3567524  46.18  0.003234464    1.968    0.492
       100 -11.3007     62.6776    176.9343   7.6390491554e+01   3.0448009369e+01    0.3259939    0.1991155  37.56 0.0008619391    1.668    0.400
       101 -11.6546     77.2358    177.4771   7.2731718972e+01   2.8200217545e+01    0.3290778    0.2593606  68.03  0.000978121    1.231    0.188
       102 -12.1788     64.6507    182.9139   7.6690099065e+01   2.8700026693e+01     0.583821    0.2854852 -53.86  0.002543341    2.113    0.527
       103 -13.0833     69.8180    186.5919   7.5889059651e+01   2.7066923179e+01    0.5341269     0.334137  63.84  0.001543346    1.662    0.398
       104 -12.5780     75.3674    185.6141   7.4375746550e+01   2.6488202103e+01    0.7969321    0.3137432 -63.91  0.003089716    2.472    0.595
       105 -10.1855    198.6791    197.2954   4.7907756173e+01   2.2697069654e+00    0.1277974    0.1105275  79.65 0.0004349665    1.615    0.381
       106 -12.3211    122.7256    196.6651   6.4507969160e+01   1.6043438573e+01    0.4035302     0.269164  63.22  0.001871259    1.723    0.420
       107 -12.5395    120.6418    191.3662   6.4127091735e+01   1.7611704820e+01    0.2680544    0.2399239  68.53 0.0003242146    1.088    0.081
       108 -13.2910    120.4373    186.4944   6.3349203357e+01   1.8766718750e+01    0.6835282    0.2833071  37.24 0.0005148307    2.391    0.582
       109 -12.9440    118.0356    179.7230   6.2754249110e+01   2.0781943606e+01     0.827787    0.3793195  59.89  0.002563656    3.726    0.732
       110 -12.5856    194.0355    193.3124   4.8090019820e+01   3.8102146931e+00    0.4910412    0.3089048 -14.17  0.001662418    2.270    0.559
       111 -12.3331    189.7061    193.3871   4.8986687532e+01   4.5591942899e+00     0.428475    0.2831547  27.56  0.001598655    1.589    0.371
       112 -11.7627    178.0399    196.4357   5.1991728418e+01   6.0534150885e+00    0.2126942    0.1325122  37.45 0.0003197407    1.552    0.356
       113 -12.4704    151.7470    195.0613   5.7505803187e+01   1.1125911589e+01    0.3561513    0.2708893  48.46 0.0009754013    1.292    0.226
       114 -11.0584    217.9161    193.9249   4.3558061105e+01  -3.4212216460e-01    0.1916946    0.1676523 -83.60 0.0008764099    1.680    0.405
       115 -11.4586     69.6704    193.9145   7.6874497003e+01   2.5324395259e+01    0.1900152    0.1761898  73.18 0.0003074601    1.114    0.103
       116 -11.2506    212.4131    193.2080   4.4459734827e+01   6.8782512102e-01    0.1869504    0.1229912 -49.48  0.000949357    1.689    0.408
       117 -12.1218    162.4572    192.0870   5.4564166345e+01   9.7697273724e+00    0.3599569     0.290308 -73.09  0.001143934    1.527    0.345
       118 -12.3850     50.6093    190.0077   8.1004249517e+01   2.8852481611e+01    0.2860288    0.2526518  42.50 0.0006421859    1.270    0.213
       119 -13.6805     50.3628    183.4037   8.0306590380e+01   3.0485347202e+01    0.4060214    0.3134431  71.52 0.0008527983    1.180    0.153
       120 -11.3246    234.4844    190.0150   3.9818413837e+01  -2.3045710067e+00    0.1992129    0.1150639 -38.16  0.001028659    1.580    0.367
       121 -12.0500    134.5859    189.8328   6.0542179832e+01   1.5424558157e+01    0.2733517    0.2314947   2.88 0.0006028697    1.447    0.309
       122 -12.1658    156.4785    188.4948   5.5234959052e+01   1.1635542498e+01    0.2415964    0.2031614 -59.25 0.0008486602    1.280    0.219
       123 -11.4664    110.0820    187.8423   6.6103614115e+01   2.0294022082e+01    0.2358219    0.1901976  70.43 0.0007950884    1.272    0.214
       124 -12.0968     99.5167    185.8736   6.8392567383e+01   2.2574642220e+01     0.328563    0.2483209  73.23  0.001650574    1.404    0.288
       125 -12.5544     42.8924    186.8349   8.2513762392e+01   3.0572765555e+01    0.3852145    0.2070098  44.84  0.001716739    1.764    0.433
       126 -10.6247    226.5329    187.4842   4.0748372682e+01  -6.2376767765e-01    0.1329725     0.115545 -14.17 0.0002413206    1.023    0.022
       127 -11.8161    194.8629    186.7601   4.6665231220e+01   4.9015496309e+00    0.2479375    0.1928304  58.54 0.0007439026    1.583    0.368
       128 -11.7206    247.4425    185.8610   3.6824626614e+01  -3.5810929106e+00    0.2365539    0.1718698  21.43  0.001299114    1.476    0.323
       129 -11.9708    164.4827    185.3033   5.2836876310e+01   1.0801613570e+01    0.2627968    0.2485372  48.46 0.0004506162    1.070    0.065
       130 -11.3048    167.5255    181.9732   5.1518892466e+01   1.0921457688e+01    0.2226296    0.1439306 -46.70 0.0008388605    1.575    0.365
       131 -10.8762    210.4681    182.5059   4.2763383868e+01   2.9454957075e+00    0.1377415    0.1245312 -12.92 0.0001355034    1.019    0.019
       132 -12.0652    199.9371    181.9944   4.4714853050e+01   4.8985485841e+00    0.3914366    0.2185068  47.96  0.001124347    1.981    0.495
       133 -10.5770    246.4641    179.5220   3.5779751012e+01  -2.4005901091e+00    0.1289449    0.1081057 -21.13 5.791491e-05    1.019    0.018
       134 -11.5305    166.3719    177.5288   5.0900626975e+01   1.2077870281e+01    0.2942628    0.2023343  70.86  0.001262534    2.148    0.534
       135 -11.5585    143.9099    181.4344   5.6808918410e+01   1.5548318876e+01    0.4182244    0.1422077  40.19  0.001381967    2.851    0.649
       136 -12.9440    148.7411    176.1478   5.4658608570e+01   1.5796008090e+01    0.3631129    0.3203453  72.27 0.0009150636    1.224    0.183
       137 -11.2525    137.4165    177.2058   5.7552308008e+01   1.7740356736e+01    0.2043506    0.1453829 -66.13 0.0004067508    1.583    0.368
       138 -11.4624     57.3070    176.5896   7.7718023655e+01   3.1261214072e+01    0.2643572     0.193002  85.33  0.000914888    1.319    0.242
       139 -10.8472     53.4449    177.4485   7.8811108255e+01   3.1554518021e+01    0.2092717    0.1148897  47.77 0.0009616102    1.769    0.435
       140 -11.2639    106.1746    175.8488   6.5050584241e+01   2.3833680112e+01    0.1987391    0.1817473 -25.49 0.0005793002    1.302    0.232
       141 -14.8342     67.8112    247.5895   8.2936689526e+01   1.3830709986e+01     1.875645     0.649982  46.46  0.005925446    2.274    0.560
       142 -10.3151    242.6636    175.3059   3.5595455913e+01  -1.1131207822e+00    0.1210123    0.1016202 -70.08 0.0006284165    1.672    0.402
       143 -11.5509    224.4864    175.0025   3.8680314934e+01   1.9001942755e+00    0.2360306    0.1974166  65.77  0.001348776    1.605    0.377
       144 -12.5400    126.9625    173.9624   5.9487238153e+01   2.0478350848e+01    0.3709111    0.2203895 -67.24  0.001516628    2.043    0.511
       145 -13.0314    130.8960    169.6978   5.7695939670e+01   2.0726138909e+01    0.4388259    0.2894746  35.51  0.001963893    1.568    0.362
       146 -11.1852     48.1422    174.8381   7.9834281062e+01   3.2870331002e+01    0.2906691    0.1473302  79.08  0.001165758    2.595    0.615
       147 -11.2299     12.9853    173.8419   8.8457636246e+01   3.6844601946e+01    0.3134747    0.1141696 -58.99  0.001375886    2.514    0.602
       148 -12.6960     90.6414    172.2943   6.8444317982e+01   2.7355727248e+01    0.5366026       0.2566 -51.53  0.002152951    2.131    0.531
       149 -11.1671    235.3775    171.4185   3.6061828628e+01   7.1787345710e-01    0.2540893    0.1129467  28.92 0.0009586673    3.473    0.712
       150 -12.0831    197.1496    170.2884   4.2915459041e+01   7.6690439037e+00    0.2650911    0.1878749 -30.81  0.001313323    1.441    0.306
       151 -11.9383     61.8889    170.5663   7.5712843742e+01   3.2142255533e+01    0.3130541    0.2428267  85.33  0.001323524    1.234    0.190
       152 -12.2732    156.8223    165.7563   5.0681512148e+01   1.6510051696e+01    0.2374183    0.2285088 -88.80  0.000628478    1.069    0.065
       153 -12.3970    153.0000    168.9928   5.2234886940e+01   1.6553275677e+01    0.3782115    0.2216251 -47.16  0.001005271    1.725    0.420
       154 -13.0048    151.3026    164.9253   5.1798966292e+01   1.7801849667e+01    0.4433046    0.3482178  33.34 0.0007028591    1.328    0.247
       155 -12.2344    123.4846    167.5157   5.9122905403e+01   2.2659487824e+01    0.2798638    0.2343701 -27.09  0.001088765    1.427    0.299
       156 -12.3720    106.4298    167.2023   6.3437076078e+01   2.5889362313e+01    0.2663337    0.2421856  56.06 0.0002646203    1.074    0.069
       157 -10.4518    219.3540    198.2595   4.4105035544e+01  -1.3182337947e+00    0.1332862   0.09393565   3.13  0.000293617    1.614    0.380
       158 -12.8061     55.3711    163.7649   7.6478731439e+01   3.4721766153e+01    0.3661013    0.3067654   8.47  0.001699436    1.565    0.361
       159 -12.1514     41.5272    168.1201   8.0713041462e+01   3.5331396928e+01    0.3008287    0.1898167  35.98  0.001563944    1.682    0.405
       160 -13.4366     11.7964    167.7588   8.8212431001e+01   3.8414209286e+01     0.537568    0.3077232  23.26  0.002908432    2.176    0.541
       161 -12.7784     87.8301    164.9505   6.7942975598e+01   2.9641661012e+01    0.4585029    0.2414478  41.50  0.001934282    1.870    0.465
       162 -12.3810     83.8992    163.3631   6.8724683308e+01   3.0675725711e+01    0.3978175    0.2018794 -56.81  0.001029861    1.885    0.469
       163 -10.5533     72.3511    165.2914   7.2146770729e+01   3.1972767399e+01    0.1418932    0.1127018 -27.28 0.0007028476    1.673    0.402
       164 -10.7894    235.9844    163.9824   3.4478735492e+01   1.9155892297e+00    0.1591779    0.1375704 -29.08 0.0009648494    1.012    0.012
       165 -11.0252    206.0076    163.7643   3.9830347533e+01   7.2775872266e+00     0.182041    0.1194886  42.84 0.0005286338    1.609    0.379
       166 -11.8176     66.1145    163.6773   7.3573792743e+01   3.3283605204e+01    0.2977027    0.1083054  40.99  0.001102385    2.646    0.622
       167 -12.5948     46.9247    161.7107   7.8463340588e+01   3.6298009018e+01    0.3929361    0.3047402  60.98  0.002207586    1.271    0.214
       168 -12.5143     36.9901    162.0935   8.1164963445e+01   3.7347289644e+01    0.4282421    0.2305859  43.50  0.001915469    1.874    0.466
       169 -12.9736     30.1989    161.3670   8.2871665523e+01   3.8249852218e+01    0.3211519    0.2579663 -46.55 0.0006636452    1.432    0.302
       170 -12.1325     16.4846    149.5044   8.5190067158e+01   4.2474646201e+01    0.3131789    0.1496296  29.82  0.001408085    2.322    0.569
       171 -14.1690     33.9134    148.1561   8.0215490107e+01   4.1169827263e+01    0.8928773    0.3453939  28.56  0.002942147    2.857    0.650
       172 -12.7612     27.6407    154.5188   8.2748801039e+01   4.0210916336e+01    0.5492117    0.3019294 -88.70   0.00193083    1.840    0.456
       173 -11.7185     21.0422    153.6299   8.4421263986e+01   4.1055199480e+01    0.3501877    0.2045999 -53.22   0.00108856    1.697    0.411
       174 -12.5313     25.0147    149.3082   8.2838147007e+01   4.1760952861e+01     0.322259    0.2401912  23.00  0.001209292    1.634    0.388
       175 -12.2566     21.3010    148.9714   8.3818171164e+01   4.2185875852e+01    0.2405616    0.1909449 -60.60 0.0003970343    1.214    0.176
       176 -16.2445     34.6222    227.5342   8.7986363823e+01   2.2249704850e+01     1.875031     1.546332 -34.27   0.01203689    1.935    0.483
       177 -13.4077      4.8061    160.2053   8.9280414308e+01   4.0807603088e+01     0.422354    0.2756066 -61.92  0.001610236    1.422    0.297
       178 -12.5403    170.4376    159.4881   4.6274564063e+01   1.5128976695e+01    0.3103658    0.2608229 -89.98  0.001550315    1.443    0.307
       179 -12.4734    188.1440    158.3399   4.2242178903e+01   1.1805656637e+01     0.356268    0.2770491  31.60 0.0004943835    1.382    0.276
       180 -11.2264    149.8374    158.6427   5.0828751607e+01   1.9517051719e+01    0.2201717    0.1397379  52.63 0.0003653417    1.669    0.401
       181 -11.0807    105.4756    158.0696   6.1962070854e+01   2.8304363274e+01    0.2304716    0.2049674  49.75 0.0004997208    1.121    0.108
       182 -13.2875     77.9269    155.3748   6.8975587650e+01   3.3629707394e+01    0.5965694    0.2640835  52.42  0.000549683    2.702    0.630
       183 -11.7094    121.6991    156.0542   5.7289039167e+01   2.5747990056e+01    0.2130973    0.1966667 -62.57 0.0002839969    1.076    0.071
       184 -12.8860     62.9207    154.4896   7.3007600170e+01   3.6055713566e+01    0.4476102      0.23266 -74.26  0.001862266    2.051    0.512
       185 -10.5184     53.7797    156.6183   7.5875639931e+01   3.6731883308e+01    0.1878321    0.1226501  46.91 0.0004896508    1.561    0.359
       186 -15.0002      9.7181    197.3663   9.1020141839e+01   3.1620169172e+01     1.159368    0.5599945 -63.70  0.005977416    1.972    0.493
       187 -12.4351      3.0000    154.5868   8.9243227512e+01   4.2298097708e+01    0.3621978     0.213377 -87.10  0.002031113    1.432    0.301
       188 -12.6441      3.9684    147.7612   8.8362193804e+01   4.3878867015e+01    0.6637732    0.2248922  89.33  0.002296777    3.961    0.748
       189 -12.0393    212.4462    153.6365   3.6492135639e+01   8.0110037057e+00    0.2403984    0.2355261  76.66 0.0009806218    1.137    0.121
       190 -12.1672     40.1394    154.5052   7.9337787973e+01   3.8901421430e+01    0.3317227    0.1363642  28.44  0.001366803    2.743    0.635
       191 -11.8106    249.1393    151.9629   2.9949843855e+01   1.8198128506e+00    0.1904913    0.1765769 -26.28  0.000288282    1.099    0.090
       192 -11.6229     71.7320    156.9898   7.0968230280e+01   3.4160082616e+01    0.2106088    0.1763431 -69.91 0.0004599513    1.115    0.103
       193 -11.3792     89.0113    153.2524   6.5516921474e+01   3.2378539552e+01    0.2890153    0.2008116  56.83   0.00134385    1.524    0.344
       194 -11.5924    147.0906    149.2103   4.9441970786e+01   2.2234030668e+01    0.2860216    0.2258205 -61.29 0.0005299226    1.319    0.242
       195 -12.2224    108.6387    149.1221   5.9315839028e+01   2.9926772400e+01    0.3555265    0.2825939 -64.23 0.0007904808    1.252    0.201
       196 -12.2235     84.2805    149.6009   6.6150144347e+01   3.4078467213e+01    0.2850571    0.2333502 -46.60 0.0007232989    1.282    0.220
       197 -10.9316     54.7736    150.5880   7.4679090603e+01   3.8133025420e+01    0.2018488    0.1230971  46.11  0.000812029    1.694    0.410
       198 -11.0909    138.7014    149.6623   5.1601736773e+01   2.3865027350e+01    0.1573605    0.1256455 -12.18 0.0007033685    1.659    0.397
       199 -11.4729     96.4865    148.4874   6.2520041276e+01   3.2290013852e+01    0.1519538    0.1450316 -79.21 8.731738e-05    1.029    0.028
       200 -12.9976    119.2188    144.0149   5.5382623071e+01   2.9139897763e+01    0.4822724    0.3670256  66.19  0.001172379    1.478    0.323
       201 -10.3372    138.2928    146.2655   5.0952930802e+01   2.4741756091e+01    0.1489094    0.1254024  -2.89 0.0001859449    1.506    0.336
       202 -11.5902      3.2272    142.4291   8.8041717839e+01   4.5223349443e+01    0.2606346    0.1958909  16.49  0.001386273    1.710    0.415
       203 -11.8533      1.4868    137.1035   8.7984326176e+01   4.6628943122e+01    0.2639035    0.1483475 -69.70  0.001463283    1.410    0.291
       204 -11.9277     15.4506    145.5131   8.5027618390e+01   4.3544959119e+01    0.2226947     0.177769 -66.05 1.050803e-05    1.143    0.125
       205 -14.9017     12.5328    138.3846   8.5027441415e+01   4.5531489523e+01    0.9501535    0.7324588  74.15  0.004972242    1.282    0.220
       206 -10.4592    229.2807    145.6497   3.1847439777e+01   6.3749366824e+00    0.1380307    0.1023505 -65.01 0.0004374627    1.648    0.393
       207 -11.6277    170.3732    144.8047   4.3059580263e+01   1.8311075713e+01    0.2209186    0.1414766 -36.36 0.0007394755    1.659    0.397
       208 -12.9415    102.3951    143.0310   5.9754891393e+01   3.2585447987e+01      0.77728    0.4121566  62.77  0.002661905    2.964    0.663
       209 -10.8772    178.1539    142.1813   4.0778112430e+01   1.7224963196e+01    0.2099682    0.1805796 -88.71 0.0005083827    1.336    0.252
       210 -11.8848     82.7474    144.8131   6.5670827662e+01   3.5534870714e+01    0.2149175    0.1707449  76.07 0.0009944318    1.366    0.268
       211 -10.8588    131.8170    140.3788   5.1269309041e+01   2.7461819736e+01    0.2197409    0.1500791  32.92 0.0005768736    1.635    0.388
       212 -11.3805     29.9498    139.9107   8.0224007194e+01   4.3635546896e+01    0.2113914    0.1413491  69.12 0.0005649986    1.630    0.386
       213 -10.8349     77.2916    139.3133   6.6179139064e+01   3.7790062728e+01    0.1478423    0.1129883 -30.84  0.000198903    1.591    0.372
       214 -11.2872     72.3915    138.8041   6.7521264197e+01   3.8669648859e+01    0.2203498    0.1236865 -50.42 0.0009470066    1.726    0.421
       215 -11.4822     35.3085    138.7194   7.8489428868e+01   4.3395756499e+01    0.2511828    0.1593863 -14.85  0.001164653    2.488    0.598
       216 -12.0125    212.4368    137.3123   3.2975932456e+01   1.1143315414e+01    0.2532981    0.2259599 -60.03 0.0003012298    1.133    0.117
       217 -12.3622     45.4099    137.4283   7.5300070739e+01   4.2612120673e+01     0.346037    0.1944209 -55.67 0.0007368954    1.603    0.376
       218 -12.1147     43.0884    133.4699   7.5350074627e+01   4.3874562659e+01    0.2513983     0.210294  19.29  0.001446359    1.416    0.294
       219 -11.0209    126.7925    137.1980   5.1846554537e+01   2.9248237094e+01    0.2096176    0.1881305  -9.66 0.0003503572    1.314    0.239
       220 -11.0664    120.5034    137.4245   5.3566545778e+01   3.0470829666e+01    0.2554989    0.2021605 -63.37 0.0004468795    1.290    0.225
       221 -11.7030    118.6573    134.6821   5.3435036265e+01   3.1498392045e+01    0.2747021    0.2510434 -18.41 0.0008457066    1.246    0.198
       222 -11.6327    174.4828    135.5057   4.0032925954e+01   1.9425952558e+01    0.1523989     0.148006 -43.93 0.0008101348    1.037    0.036
       223 -12.0930    102.1279    134.1924   5.7910202728e+01   3.4812866743e+01     0.327734     0.226254  25.69  0.001441497    1.749    0.428
       224 -11.3971    128.3816    132.9924   5.0450506025e+01   2.9912748309e+01    0.2546124    0.2123047  61.45   0.00053735    1.249    0.199
       225 -12.3527     37.3267    135.1614   7.7354493336e+01   4.4078020318e+01    0.2943177    0.1922569  56.40  0.001310111    1.702    0.412
       226 -13.3160     20.5796    130.9004   8.1744893281e+01   4.6726870534e+01    0.4846492    0.2224393 -52.41  0.001359325    1.967    0.491
       227 -12.4265      2.5682    131.4198   8.7082199431e+01   4.7932616456e+01    0.2281678    0.1751975 -63.88 0.0005785471    1.144    0.126
       228 -13.3807     36.1447    129.6553   7.6845187868e+01   4.5579982998e+01     0.466974    0.3322779  79.81    0.0024292    1.549    0.354
       229 -11.5366      5.2872    138.4264   8.7065971659e+01   4.6052400657e+01    0.1679932     0.150932 -70.58  0.000509178    1.152    0.132
       230 -10.6748    230.2208    130.5838   2.8505550622e+01   8.9504496301e+00    0.1642562    0.1338709  35.89 0.0003271649    1.439    0.305
       231 -10.8983     50.4248    130.2077   7.2548792298e+01   4.3833963292e+01    0.2014855    0.1266531 -77.27 0.0009439078    1.653    0.395
       232 -10.6354    206.2925    129.3012   3.2304201407e+01   1.3934473687e+01     0.140692    0.1147873  -4.20 0.0002355774    1.569    0.363
       233 -12.3460     83.3213    127.3290   6.1894285953e+01   3.9816237858e+01    0.4077277    0.1384899 -54.30  0.001358145    2.731    0.634
       234 -12.9235     80.4506    127.4705   6.2792494018e+01   4.0251657791e+01    0.3910482    0.2643654 -89.49  0.001181818    2.010    0.502
       235 -11.8227    187.9700    127.9225   3.5471488570e+01   1.8085782211e+01    0.2205932    0.2097455 -49.68 0.0003160587    1.025    0.025
       236 -10.2431    130.4930    128.4741   4.8821474495e+01   3.0526092481e+01    0.1575227    0.1520883 -85.36 8.313028e-05    1.012    0.011
       237 -11.2147    121.6789    128.0098   5.1048579342e+01   3.2471871869e+01    0.2263852    0.1989631 -59.44 0.0007362228    1.123    0.109
       238 -11.6128     45.6437    128.1293   7.3657223715e+01   4.4922999439e+01    0.1949678    0.1590422 -64.59 0.0003491153    1.087    0.080
       239 -12.5809     28.2750    124.5668   7.8471591581e+01   4.7613990939e+01    0.3025765    0.2338288 -24.65 0.0003993631    1.555    0.357
       240 -11.9280     74.9741    125.0388   6.3938964354e+01   4.1723553950e+01    0.2204366    0.2045002 -62.09 0.0003116085    1.017    0.017
       241 -12.8012     59.7610    125.1164   6.8685270328e+01   4.3910948633e+01    0.3048936    0.2214613  34.07  0.001565279    1.492    0.330
       242 -11.2391    109.3526    122.8880   5.3222815814e+01   3.6165477549e+01    0.2683892    0.2081365  56.78 0.0005822677    1.367    0.268
       243 -13.0852     20.4620    122.3804   8.0574964328e+01   4.8833326034e+01    0.4254094    0.2353478 -72.86  0.001129215    1.585    0.369
       244 -13.4800     20.6028    116.9120   7.9704055760e+01   5.0157463482e+01    0.5314603    0.2914943  61.65  0.002328142    2.419    0.587
       245 -11.6836     23.8736    114.8677   7.8321841106e+01   5.0383086427e+01    0.3203711    0.2162677  56.54  0.001020592    1.745    0.427
       246 -11.4467    189.0326    121.5074   3.3757683266e+01   1.9152688229e+01     0.225538     0.195699 -48.61 0.0003299155    1.093    0.085
       247 -11.9668    104.1532    121.2373   5.4311561709e+01   3.7568426914e+01    0.3534086    0.2939804  56.87  0.001340254    1.255    0.204
       248 -12.1576     98.9233    117.5227   5.4935141527e+01   3.9444514265e+01    0.3949834    0.2692722  78.64  0.001160275    2.208    0.547
       249 -12.1848     63.7081    122.0706   6.6823265817e+01   4.4125307329e+01    0.2213632    0.1927531  80.26 0.0006911498    1.227    0.185
       250 -12.0836     64.0751    118.5000   6.5950625192e+01   4.4954876160e+01    0.1955536    0.1907998 -35.68 0.0006742196    1.087    0.080
       251 -12.1843      5.5006    121.9403   8.5118422946e+01   5.0033166111e+01    0.1960574    0.1025904 -71.75 0.0004572817    1.544    0.353
       252 -11.3174    200.5178    120.4662   3.1341821738e+01   1.6869738814e+01    0.1477371    0.1372576 -55.37 2.870618e-05    1.004    0.004
       253 -10.1206    179.3308    120.2620   3.5404902111e+01   2.1550756982e+01    0.1473349     0.121946  12.41  0.000357432    1.571    0.364
       254 -10.9522     42.3911    120.4527   7.3304007020e+01   4.7201522572e+01    0.2419266     0.108784  41.96 0.0007556176    2.450    0.592
       255 -12.4226     72.0128    118.4785   6.3422221276e+01   4.3795113181e+01    0.3340548    0.2209454  79.32  0.001413279    2.253    0.556
       256 -13.6573     12.1926    114.8410   8.2085979491e+01   5.1295239858e+01    0.4329875    0.2578885  89.25  0.002176628    1.815    0.449
       257 -11.8116    210.6156    116.9814   2.8754807347e+01   1.5397391270e+01      0.24973    0.2077305  70.79 0.0003594852    1.317    0.241
       258 -13.0424     58.6935    116.1168   6.7174252194e+01   4.6279783525e+01    0.3985775    0.2673537 -43.29   0.00190633    1.484    0.326
       259 -13.1128     62.7988    111.3304   6.4783071053e+01   4.6882449479e+01    0.6117656    0.3755496 -68.67  0.002788458    1.765    0.434
       260 -10.9220    196.9570    115.5053   3.0839728088e+01   1.8607220834e+01    0.2116517    0.1475511  53.40  0.000471933    1.516    0.340
       261 -11.9958    120.3410    114.2513   4.7994709935e+01   3.5944649536e+01     0.278128    0.2688733  55.29 0.0003930023    1.046    0.044
       262 -12.8191     82.9630    111.5640   5.8343939119e+01   4.3707719436e+01    0.5668874    0.2111472 -52.80  0.001780391    2.540    0.606
       263 -12.3237    105.3918    113.9407   5.2140340846e+01   3.9050239986e+01    0.3579983    0.2322308  37.49 0.0007701724    1.616    0.381
       264 -11.3522    109.6769    112.2708   5.0474958227e+01   3.8588516567e+01    0.2261368    0.2031531 -44.16 0.0001862601    1.113    0.101
       265 -12.6632    113.0222    110.5129   4.9065673235e+01   3.8313578879e+01    0.4275363    0.3164068  66.36 5.157529e-05    1.608    0.378
       266 -11.8544     90.2100    111.2610   5.6012763381e+01   4.2521419484e+01    0.3044702    0.2380637  80.40 0.0008614919    1.610    0.379
       267 -10.7058     92.2307    107.6227   5.4465309998e+01   4.3008860657e+01    0.2059058    0.1743665 -23.04 0.0002313959    1.318    0.241
       268 -11.7471     52.7197    110.6665   6.7973466086e+01   4.8382231647e+01    0.2607627    0.2179287  33.18 0.0006271076    1.311    0.237
       269 -12.2623    220.6326    109.1908   2.5352797170e+01   1.4755746566e+01    0.4424264    0.2889839 -56.15  0.001560842    1.509    0.337
       270 -11.3150    161.8159    110.3561   3.6695244917e+01   2.7571386322e+01    0.2176013    0.1430526  41.45 0.0003794051    1.650    0.394
       271 -12.6928     73.5662    108.6795   6.0642989856e+01   4.5921854581e+01    0.5230592    0.2485957 -65.06  0.001848139    2.627    0.619
       272 -10.4299    216.3268    109.3068   2.6064956700e+01   1.5630331891e+01    0.1369233    0.1137777   3.21 0.0004895647    1.652    0.395
       273 -11.2821    209.7449    108.3749   2.6933786947e+01   1.7197487615e+01    0.2849852    0.1573096 -49.76   0.00124937    1.716    0.417
       274 -11.8779    170.2095    109.1876   3.4582437172e+01   2.5883662298e+01    0.2135843    0.1779047 -79.52 0.0004457022    1.304    0.233
       275 -10.4751    155.5030    108.4518   3.7631425896e+01   2.9418669947e+01     0.229987    0.1511563 -34.01  0.000121123    1.695    0.410
       276 -10.5456    139.6673    107.3186   4.1121647568e+01   3.3267166623e+01    0.1628027    0.1234309 -87.98  0.000704836    1.693    0.409
       277 -13.4935      9.8402    104.8036   8.1356881433e+01   5.3850845981e+01    0.4332488    0.2660198  76.62  0.001636202    2.035    0.509
       278 -10.3958     19.3131    105.2013   7.8218142667e+01   5.3080835516e+01    0.1182717    0.0854094 -32.97  0.000287818    1.466    0.318
       279 -11.9266    229.5045    103.1468   2.2671438890e+01   1.4022286660e+01    0.2293315    0.2043888 -81.55 0.0003260913    1.141    0.124
       280 -11.6111      3.4683    103.4943   8.3295098699e+01   5.4548373651e+01    0.1245141    0.1009895 -66.59  0.000261063    1.019    0.019
       281 -12.3567    153.4144    100.6771   3.6078837404e+01   3.1508678256e+01    0.5129318    0.2937464 -69.02  0.001221738    2.931    0.659
       282 -12.1761     78.8480    101.4971   5.7120556586e+01   4.6754857417e+01    0.2869667     0.264499  69.34 0.0005885315    1.191    0.161
       283 -11.8113    193.1726    100.7427   2.8005777838e+01   2.2286537145e+01    0.3852072    0.1703081  47.79  0.001461292    2.461    0.594
       284 -12.4545    162.8825     99.5804   3.3688062680e+01   2.9521042513e+01    0.2915301     0.216977 -53.65 0.0005363857    1.341    0.254
       285 -12.5874     32.8831     98.2324   7.2166286989e+01   5.3552636820e+01     0.493907    0.2659227 -29.83  0.002247535    2.312    0.568
       286 -11.8776     93.3936     99.0838   5.1841740456e+01   4.4743270793e+01     0.347731    0.2024849  48.28  0.001483105    1.840    0.457
       287 -11.6027     25.3037     97.3944   7.4693950651e+01   5.4438037788e+01    0.3587455    0.1943242 -39.20  0.001381237    1.850    0.459
       288 -10.6932      9.3362     98.3022   8.0490436239e+01   5.5410144442e+01    0.1324567   0.07594936 -41.25 0.0007036913    1.663    0.399
       289 -11.9805    155.3772     96.6623   3.4568491390e+01   3.1861013610e+01    0.2913943    0.2182922   8.25  0.001108385    2.071    0.517
       290 -11.9403     76.4977     97.0200   5.6715199507e+01   4.8165114560e+01    0.2605368    0.2036704  12.82 0.0005455905    1.494    0.331
       291 -10.9194     57.8829     97.4621   6.3164666620e+01   5.0842653836e+01    0.2039353    0.1388849  30.39  0.001027964    1.584    0.369
       292 -10.9523     45.7257     97.4287   6.7427435446e+01   5.2376529679e+01    0.1728264    0.1314231   3.60 0.0009350218    1.547    0.354
       293 -11.8778     66.1295     94.8284   5.9639781860e+01   5.0278995105e+01    0.2153184    0.1959395  85.73  0.001211736    1.262    0.208
       294 -11.1694    106.2139     93.0006   4.6260257522e+01   4.3572496795e+01    0.2038839    0.1208934 -46.02 0.0004694179    1.677    0.404
       295 -12.3794     78.5682     92.8581   5.4899103549e+01   4.8756353727e+01     0.222761    0.1997279  69.99 0.0005404745    1.283    0.220
       296 -11.7203    249.5374     91.3685   1.7485424052e+01   1.2083540710e+01    0.2857676    0.1726969 -44.25 0.0009093364    1.390    0.281
       297 -11.1322     41.1022     91.7338   6.7758888921e+01   5.4214824293e+01    0.1861786    0.1744583  76.38 0.0004843694    1.233    0.189
       298 -10.8102    224.0288     90.7295   2.0712700895e+01   1.7318728132e+01    0.1822681    0.1660961 -78.67 0.0002282252    1.088    0.081
       299 -10.2883    126.3449     89.3033   3.9587865995e+01   4.0027568287e+01      0.15524    0.1222303  10.72 0.0007040148    1.686    0.407
       300 -12.3496    178.0450     86.9693   2.7353468521e+01   2.8364328123e+01    0.2907274    0.2434313 -85.82 0.0003986986    1.223    0.182
       301 -11.9243    148.9739     87.5123   3.3532763668e+01   3.5163426473e+01     0.237846    0.2074285 -46.50 0.0006483575    1.157    0.136
       302 -12.2533     54.4204     85.7644   6.1383716459e+01   5.3951899981e+01    0.4125861    0.3419767  -9.46  0.002369106    1.286    0.223
       303 -11.8351     10.0001     86.9519   7.8255905453e+01   5.7978672275e+01    0.3074958     0.197021   9.81  0.001191527    1.855    0.461
       304 -11.4067    202.3311     86.0768   2.2911746004e+01   2.2885477401e+01    0.2007061     0.169984 -56.77 0.0004032143    1.082    0.076
       305 -11.2245    159.4943     85.0510   3.0549173819e+01   3.3133929216e+01    0.2234831    0.1473575 -43.08  0.000376191    1.516    0.340
       306 -10.9754    125.9224     84.8072   3.8402686232e+01   4.1018919268e+01    0.2152818     0.179788  81.92  0.001067483    1.369    0.270
       307 -12.8761     62.2253     82.9365   5.7774306181e+01   5.3486754731e+01    0.5956695    0.3813848  -9.34  0.002655364    2.297    0.565
       308 -11.9322    112.9999     79.0901   4.0214683935e+01   4.4982171775e+01    0.3524276    0.2171708 -51.65   0.00124684    1.766    0.434
       309 -10.6108    133.4487     84.4227   3.6366423617e+01   3.9382461919e+01    0.1515481    0.1434502  84.20 1.567508e-05    1.056    0.053
       310 -11.9068     78.5856     82.0514   5.1799321973e+01   5.1084317327e+01    0.2577489    0.2098527  36.69 0.0003206113    1.260    0.206
       311 -11.4930    206.4798     80.9612   2.1046811556e+01   2.2834554581e+01    0.2096769    0.1313064 -42.05 0.0003307789    1.508    0.337
       312 -12.3548    182.3530     80.7921   2.4980437279e+01   2.8458243015e+01    0.2689787    0.2469895 -74.84 0.0001560603    1.010    0.010
       313 -11.8481      7.6946     78.6170   7.7517927221e+01   5.9983524247e+01    0.3354149     0.117819 -63.43  0.001501733    2.293    0.564
       314 -11.1067    153.6006     79.2093   3.0203236799e+01   3.5621533478e+01    0.1961467    0.1464148 -29.05 0.0002960027    1.535    0.348
       315 -11.4360     88.5317     78.7890   4.7521592357e+01   4.9976078646e+01    0.2734481    0.2037268  37.79  0.001389313    1.351    0.260
       316 -11.2369     53.0204     78.5684   5.9915346017e+01   5.5698327251e+01    0.4184088    0.2156305  16.57  0.001751283    2.680    0.627
       317 -10.8504     23.4793     79.5767   7.1558449600e+01   5.8647048855e+01     0.126408     0.107445 -44.03 0.0001134996    1.011    0.011
       318 -11.4859    161.6865     76.9515   2.7892189403e+01   3.4087033674e+01    0.2141137    0.1915009 -58.99 0.0006524189    1.102    0.092
       319 -10.2859    227.5358     76.5510   1.7083866070e+01   1.8953098968e+01    0.1368732    0.1163351 -64.60 8.647552e-05    1.003    0.003
       320 -12.0550     75.2323     75.3415   5.0915833518e+01   5.3031941237e+01    0.3008447    0.1883595 -41.00  0.001076023    1.552    0.356
       321 -12.1167    112.1827     83.5063   4.1768891003e+01   4.4288700584e+01    0.3885029    0.2500429  54.96  0.001735319    1.654    0.395
       322 -10.5558     48.5180     76.4586   6.1021006376e+01   5.6724282213e+01    0.1321454    0.1205618 -33.66 0.0001885089    1.041    0.039
       323 -11.2812     86.2308     75.0406   4.7112246040e+01   5.1150270197e+01    0.2562252     0.195858   9.88 0.0008845947    1.556    0.357
       324 -11.2955    150.6005     73.7415   2.9315211246e+01   3.7322154509e+01    0.2329887    0.2212458   9.36 0.0003996829    1.213    0.176
       325 -11.7805    150.2732     83.0186   3.1993326284e+01   3.5710348518e+01     0.275507    0.2096797  30.18 0.0009634534    1.616    0.381
       326 -11.6856      2.2215     70.3242   7.8009601611e+01   6.2091476632e+01    0.5127661    0.1673053 -68.07  0.002161941    2.891    0.654
       327 -11.3114    105.6011     72.4604   4.0294258370e+01   4.7817447562e+01    0.2531461    0.2473018  12.10 0.0007231561    1.013    0.013
       328 -10.8249     51.3550     73.2257   5.9000907163e+01   5.7040102227e+01    0.1836064    0.1205293 -58.17 0.0005862599    1.626    0.385
       329 -10.7246     10.7518     71.5853   7.4807473410e+01   6.1325689410e+01    0.2027696    0.1162749   5.83  0.001122196    2.045    0.511
       330 -12.1423     52.9921     68.3953   5.6912429964e+01   5.7808185405e+01    0.2523504    0.1873141 -47.14 0.0004849706    1.291    0.226
       331 -12.7026    241.7195     66.9366   1.3311728192e+01   1.7525682755e+01    0.2444094    0.2148898 -67.49 0.0004584292    1.110    0.099
       332 -13.1690     97.7368     66.8257   4.0844910230e+01   5.0477150702e+01    0.3429388    0.2930239  28.53 0.0005906185    1.167    0.143
       333 -11.2886     64.4962     68.3806   5.2566457596e+01   5.6147797430e+01     0.210061    0.1278197  33.87 0.0006540883    1.683    0.406
       334 -10.7419    225.4883     67.0689   1.5244961415e+01   2.0909655520e+01    0.1944605    0.1197677 -42.85 0.0003908856    1.485    0.326
       335 -11.4658     60.1558     67.0852   5.3768920538e+01   5.7056245930e+01    0.2051423    0.1661838 -16.70 0.0003511922    1.224    0.183
       336 -11.5840    198.9676     65.6023   1.8485257969e+01   2.7105389641e+01    0.2168805    0.1883309 -41.40 0.0003974042    1.239    0.193
       337 -11.4601    178.7848     64.3748   2.1357436928e+01   3.2092415076e+01     0.239306    0.1915325 -46.54 0.0002814964    1.247    0.198
       338 -11.7885      9.8408     63.3702   7.3261457343e+01   6.3119562907e+01    0.2271409    0.1499209 -16.41 0.0008600229    1.573    0.364
       339 -11.4470     13.3091     61.3493   7.1260502521e+01   6.3303946113e+01    0.2240076    0.1739815 -40.29  0.001083856    1.045    0.043
       340 -13.1638     40.1825     59.5132   5.9254875566e+01   6.1171538116e+01    0.6512904    0.2880309  45.99  0.002654998    3.471    0.712
       341 -11.9491    109.3158     59.9374   3.5223403280e+01   4.9244446277e+01    0.2463742    0.1964811  61.23 0.0009088102    1.318    0.242
       342 -12.9670    193.0770     57.4277   1.7341482235e+01   2.9768493206e+01    0.3169232     0.286815   0.17 0.0008307595    1.495    0.331
       343 -11.4867    159.9676     57.3249   2.2791672129e+01   3.7778460646e+01    0.2052821    0.1771596  73.46 0.0005066589    1.082    0.075
       344 -11.4689    100.6346     56.1453   3.6442683613e+01   5.1726805395e+01    0.1964544    0.1314875 -24.41 0.0006634588    1.707    0.414
       345 -11.7303    116.0043     54.0261   3.1496940830e+01   4.8722804141e+01    0.1727776    0.1586677  48.53 0.0004609935    1.026    0.026
       346 -11.7549    131.6675     50.6755   2.6634850637e+01   4.5615762709e+01    0.3953348    0.2446497   2.23  0.001512815    3.219    0.689
       347 -12.2483    101.4838     50.2186   3.4179733674e+01   5.2492916118e+01    0.3391162    0.2283998  46.79  0.001111142    1.395    0.283
       348 -13.4919     31.0495     49.9599   6.0054427909e+01   6.3992057515e+01    0.3385982    0.2789741  44.59  0.001012071    1.600    0.375
       349 -12.3008     19.3385     47.0555   6.4411507978e+01   6.5643332189e+01    0.4922473    0.1319605 -47.18  0.002056995    2.854    0.650
       350 -11.7872     40.9971     47.2772   5.4782861763e+01   6.3341595447e+01    0.1766039     0.150829   1.95 0.0009087729    1.095    0.087
       351 -10.7089     95.3275     45.3238   3.4266336741e+01   5.4524391121e+01    0.1426184    0.1007975  17.36 0.0007049183    1.693    0.409
       352 -11.3166    143.3884     42.1952   2.1567034393e+01   4.4021475258e+01    0.1936987    0.1239098 -47.40 0.0005138617    1.675    0.403
       353 -13.4228     36.8228     40.2106   5.4019923139e+01   6.5067511739e+01    0.3427736     0.249002  14.21  0.001062371    1.330    0.248
       354 -13.6123     31.2323     32.6414   5.3648131523e+01   6.6964493816e+01    0.5804889    0.3084682 -31.28  0.003193475    1.762    0.432
       355 -12.9847     23.2266     39.0084   5.9842505368e+01   6.6744396466e+01    0.4114225    0.2224965 -59.28    0.0021058    2.481    0.597
       356 -13.4913     26.8383     37.3281   5.7517217012e+01   6.6672194668e+01    0.5551171    0.2374793  39.34  0.002629892    2.965    0.663
       357 -11.1867    241.8342     40.1444   7.7626719140e+00   2.1400051658e+01    0.1896892    0.1335334 -65.94 0.0003381208    1.166    0.142
       358 -10.9017    103.5429     40.4771   3.0221547188e+01   5.3479718777e+01    0.1352474    0.1245995  39.62 0.0002224625    1.013    0.013
       359 -11.2567    139.0127     38.5260   2.1313001275e+01   4.5568385645e+01    0.2105736    0.1253019  60.25 0.0003999588    1.519    0.342
       360 -11.6468     10.2329     36.4475   6.5281954155e+01   6.8299435337e+01    0.2075678     0.104269  10.29  0.001148912    2.159    0.537
       361 -11.0422     67.7365     33.6488   3.8904924533e+01   6.1486678262e+01    0.1979384     0.148339  45.63 0.0002189572    1.384    0.278
       362 -11.5566    106.5138     32.4189   2.6604444238e+01   5.3891602167e+01    0.2550217    0.1329134 -30.65  0.001191714    2.100    0.524
       363 -10.9191     52.3383     33.2922   4.4668188814e+01   6.4052769587e+01    0.1289092   0.08631503   4.17 0.0005627081    1.646    0.392
       364 -12.1941     44.4495     32.2007   4.7528465110e+01   6.5358271574e+01    0.3502295    0.2023446  -8.02   0.00173481    2.299    0.565
       365 -10.3120    174.2779     32.2842   1.3614530834e+01   3.7802553172e+01    0.1255743   0.09968615  42.34 0.0001775205    1.511    0.338
       366 -12.6265     78.0342     31.2078   3.4400302713e+01   5.9934192637e+01    0.2890846    0.2384354  74.67  0.001704596    1.676    0.403
       367 -11.9949     81.8751     28.8570   3.2251621860e+01   5.9493598360e+01    0.1986745    0.1770602  21.76  0.000518099    1.026    0.026
       368 -11.1273    209.1088     30.7031   8.9569306354e+00   2.9781140380e+01    0.1811934    0.1459267  88.51 0.0003910862    1.096    0.088
       369 -11.4548     97.2170     31.3891   2.8696505480e+01   5.6037123819e+01    0.1866194    0.1202966  62.42 0.0006836362    1.667    0.400
       370 -12.2276     58.9655     26.1466   3.9102390546e+01   6.3999275938e+01    0.2197401    0.1671034 -23.14 0.0003011818    1.307    0.235
       371 -12.3844     88.3198     24.6633   2.8684825110e+01   5.8708280666e+01    0.2624681    0.2129339   8.76  0.000810313    1.277    0.217
       372 -12.3205     84.3160     23.6759   2.9479684468e+01   5.9635449426e+01    0.2838446    0.2204489 -78.88  0.001580549    2.027    0.507
       373 -12.0129     45.6299     26.0323   4.4450349882e+01   6.6085722510e+01    0.2386814    0.1654995  46.90 0.0007914622    1.795    0.443
       374 -11.7884      4.5421     24.6718   6.4015057420e+01   7.0730043127e+01    0.2365127    0.1425804 -38.54  0.001558643    1.331    0.248
       375 -11.4415    166.7559     23.2304   1.2254075870e+01   4.0712268540e+01    0.2473444    0.1692851 -64.17  0.001226713    1.508    0.337
       376 -11.7898     81.1433     19.3113   2.8703787873e+01   6.0761877297e+01    0.2150228     0.179036 -29.75 0.0005619683    1.351    0.260
       377 -10.9431    131.3467     18.0076   1.6365972514e+01   4.9805997655e+01    0.1686715    0.1648491  20.88  0.000794646    1.171    0.146
       378 -12.1961    139.4526    247.5187   6.8280124235e+01   3.0327900808e+00    0.3026938     0.268368 -73.98  0.001401189    1.351    0.260
       379 -11.8822    114.3276    249.0221   7.3632964146e+01   6.7002930471e+00    0.2411421    0.1503243  56.87  0.001307272    1.570    0.363
       380 -11.3824    153.0452    246.1561   6.5312450862e+01   1.1198925030e+00    0.1860285    0.1603547  32.32 0.0004394374    1.019    0.019
       381 -15.5154     71.8999    233.8761   8.0828049730e+01   1.6040713549e+01      1.76553     0.894227  41.81  0.008974134    1.700    0.412
       382 -11.8329    199.2230    241.2850   5.5392040268e+01  -5.2001369269e+00     0.208647    0.1765123  27.50 0.0002955028    1.152    0.132
       383 -10.7921    159.0000    241.9497   6.3498713990e+01   8.9485506150e-01     0.190857    0.0747309 -49.41 0.0008044387    2.956    0.662
       384 -11.2194    143.0066    242.1016   6.6818812994e+01   3.4264657473e+00    0.1949585    0.1637296  37.86  0.000311591    1.022    0.022
       385 -15.7659     36.9953    246.2382   8.8842868168e+01   1.8089777306e+01     1.759434    0.9714366  37.50   0.01026479    1.749    0.428
