#   1 NUMBER                 Running object number                                     
#   2 MAG_AUTO               Kron-like elliptical aperture magnitude                    [mag]
#   3 X_IMAGE                Object position along x                                    [pixel]
#   4 Y_IMAGE                Object position along y                                    [pixel]
#   5 X_WORLD                Barycenter position along world x axis                     [deg]
#   6 Y_WORLD                Barycenter position along world y axis                     [deg]
#   7 A_WORLD                Profile RMS along major axis (world units)                 [deg]
#   8 B_WORLD                Profile RMS along minor axis (world units)                 [deg]
#   9 THETA_WORLD            Position angle (CCW/world-x)                               [deg]
#  10 FWHM_WORLD             FWHM assuming a gaussian core                              [deg]
#  11 ELONGATION             A_IMAGE/B_IMAGE                                           
#  12 ELLIPTICITY            1 - B_IMAGE/A_IMAGE                                       
         1 -14.0337     68.7217    144.5834   9.5680109560e+01   3.7424968002e+01     4.237577      2.20139  68.92  0.003073526    4.114    0.757
         2 -13.4558    219.0534     31.0990   3.4226132651e+01   2.7827106885e+01     1.033799     0.838827  33.11  0.006553359    1.903    0.475
         3 -13.5809    205.9836     42.6386   3.8093265246e+01   2.9132756189e+01     1.647788     1.331258  29.59  0.007550554    1.838    0.456
         4 -11.6381    248.0652      8.8627   2.7672278688e+01   2.4664334553e+01    0.4950792    0.3743011 -11.88  0.003291297    2.365    0.577
         5 -12.3268    242.5640      5.1351   2.7332575779e+01   2.6109909973e+01    0.6143969    0.5269226  80.45  0.004825468    1.386    0.279
         6  -9.2927     50.0640      3.2550   5.7463037676e+01   6.7741695202e+01    0.2013696    0.1524175  56.77  0.001303366    1.623    0.384
         7  -8.8370     45.4993      1.5229   5.8405777695e+01   6.8683355157e+01    0.1917164    0.1052629  55.82  0.001026359    2.237    0.553
         8 -10.6739    119.7786    213.3534   9.3634229004e+01   1.2742559968e+01    0.4006635    0.1997285 -54.06  0.001741976    2.132    0.531
         9 -10.6034    102.1909    249.6915   1.0238414745e+02   8.0144727607e+00    0.4828976    0.2141352 -65.68  0.002171008    2.870    0.652
        10 -10.0814    101.3335    242.6741   1.0176248617e+02   9.4950517895e+00    0.2982546    0.1592039 -73.45  0.001328782    2.563    0.610
        11 -13.6186     36.0425    196.5772   1.1181988679e+02   2.8340418718e+01     1.433964    0.8524098  68.71   0.00728091    1.719    0.418
        12 -14.0503     45.4931    187.3173   1.0850195015e+02   2.9525748297e+01     2.610825      1.22831  48.12   0.01156417    2.107    0.525
        13  -9.2608    149.4928    191.7036   8.2953716173e+01   1.2424579428e+01    0.3254415    0.2435817  80.80  0.001496634    2.057    0.514
        14  -8.2375    196.0049    190.2490   7.2503000998e+01   4.7637326309e+00    0.1642187    0.1146892  32.59 0.0002550787    1.456    0.313
        15  -8.7631     81.1859    183.4377   9.8700983863e+01   2.5738893292e+01    0.2608196    0.1450211  26.82 0.0009739911    2.006    0.501
        16  -9.2796     99.3999    180.8998   9.3498284229e+01   2.3521030680e+01    0.2678286    0.2178941  24.99 0.0005897485    1.308    0.236
        17 -10.8281    240.0587    176.9208   6.1793946597e+01   3.0246051958e-01    0.2918529    0.1906022  51.27  0.001576402    2.151    0.535
        18  -9.4417    186.1883    174.3067   7.1364531762e+01   9.5395944981e+00    0.3362643      0.26965  62.31  0.001736894    1.637    0.389
        19 -11.3655     62.7836    172.5403   1.0201901472e+02   3.1070818395e+01    0.5023533    0.3213322 -32.00  0.001948845    2.127    0.530
        20 -11.3105     67.8030    167.5840   9.9883280475e+01   3.1649692669e+01    0.3980097    0.3154505 -12.14  0.001321645    1.637    0.389
        21 -11.0137    114.1369    173.6922   8.8347007042e+01   2.2778298524e+01    0.6561286    0.1808741  37.90  0.001960816    3.458    0.711
        22  -9.3105     85.0050    174.2444   9.6223713100e+01   2.7446744430e+01     0.279378    0.2666231  46.94 0.0009075393    1.068    0.064
        23  -9.5826     88.3105    172.6852   9.5065698280e+01   2.7323139180e+01    0.3328291    0.2021893  49.16  0.000923565    1.719    0.418
        24 -10.8507    235.1332    172.5438   6.1771875959e+01   1.7798683442e+00    0.2768567    0.2216954 -81.72  0.001531805    2.127    0.530
        25 -12.3144     77.1992    158.7038   9.5746030727e+01   3.2565265610e+01     1.108876    0.6342757  55.76 0.0004495719    2.110    0.526
        26 -12.7535     64.6593    154.4936   9.8652604509e+01   3.5439777715e+01    0.5267064    0.3938254 -28.23 0.0009961146    1.624    0.384
        27 -10.1975    119.7530    244.9543   9.8030597296e+01   6.3657637091e+00    0.2869616    0.1453995 -49.26 0.0008931755    2.245    0.555
        28 -16.5325     15.4821    242.1427   1.1968704006e+02   2.0334339790e+01     6.988072     4.456719  25.77   0.04327004    1.873    0.466
        29 -10.0307     32.4853    155.9960   1.0822243747e+02   3.8847101820e+01    0.3421795    0.2060906 -37.64  0.001257265    2.008    0.502
        30 -10.3703     28.9539    155.3471   1.0914722574e+02   3.9357747554e+01    0.3056253    0.2567437 -50.62   0.00180988    1.225    0.184
        31 -11.6437     84.8372    152.5030   9.2401332673e+01   3.2969793010e+01    0.6705618     0.477961 -18.69  0.002978842    1.919    0.479
        32 -11.0640     22.8948    147.2555   1.0988525474e+02   4.1976453762e+01    0.5091516    0.2816587 -89.84  0.001346428    1.962    0.490
        33 -10.3464    133.6588    144.4600   7.7160590827e+01   2.6113908671e+01     1.134148    0.2711983 -53.82  0.002513478    6.055    0.835
        34  -9.1892    174.8503    149.1265   6.8425583512e+01   1.6855453273e+01     0.230068     0.207895 -75.54 0.0007619897    1.269    0.212
        35 -10.0510     32.9760    143.5902   1.0639287545e+02   4.1981047553e+01    0.4535469    0.2958701  15.55  0.002294575    1.858    0.462
        36 -10.2612     99.6957    138.7700   8.5232147713e+01   3.3923134560e+01    0.5513916    0.3722865 -15.57  0.002219527    2.236    0.553
        37  -9.6764    105.8430    130.8454   8.1633875192e+01   3.4744012944e+01    0.3906699    0.3280135 -55.82  0.001505925    1.184    0.155
        38  -9.5685    109.6517    129.6712   8.0256909971e+01   3.4309062083e+01    0.3478043     0.257057   2.63 0.0009927658    1.852    0.460
        39  -9.8890    135.6226    129.5509   7.3148636998e+01   2.9158269475e+01    0.4472051    0.1479447 -47.08  0.001378719    2.968    0.663
        40 -11.6964     86.8390    138.0937   8.8896171906e+01   3.6295522753e+01    0.3436315    0.2852256 -58.92 0.0004364495    1.171    0.146
        41 -10.6292    192.6696    194.0167   7.3903602610e+01   4.5985630937e+00    0.6459887        0.374 -68.33  0.002071685    5.151    0.806
        42  -9.9499     67.2807    126.2310   9.2467950742e+01   4.2307139873e+01    0.4963503    0.2249147 -55.73  0.001941331    2.025    0.506
        43 -10.9685    240.5905    169.5448   6.0282290012e+01   1.4767444306e+00    0.2464433    0.2048611 -40.48 0.0008126569    1.193    0.162
        44  -9.5785     97.2499    124.9171   8.2768677643e+01   3.7757848157e+01    0.3025984    0.2406592   4.04  0.001038484    1.529    0.346
        45  -9.9381     74.7268    207.9757   1.0370016258e+02   2.0778251769e+01    0.2942599    0.2188153 -82.99 0.0008045644    1.394    0.283
        46  -9.0544    106.7646    118.2790   7.8298410638e+01   3.7563623919e+01    0.2075346    0.2050249 -81.09 0.0004296058    1.048    0.046
        47  -8.1078     80.4650    115.4777   8.5734410565e+01   4.2940067184e+01    0.1493821    0.1443081 -56.91 0.0001224861    1.053    0.051
        48  -9.9816    231.2742    113.7122   5.0377683461e+01   1.2786531032e+01    0.2538036    0.2329409 -61.22  0.000740647    1.105    0.095
        49 -10.7943     52.7563    110.2110   9.3847087505e+01   4.8245504825e+01    0.4669767    0.2364053 -67.74  0.001872923    2.280    0.561
        50  -9.2929     30.2918    107.9610   1.0133255586e+02   5.1239285193e+01    0.2105644    0.1845492  40.36 0.0005597827    1.305    0.234
        51 -11.8106    249.6858    100.3466   4.5165395990e+01   1.1732017765e+01    0.6985788     0.205405 -41.40  0.002755359    2.731    0.634
        52  -9.2110    205.3723    110.3057   5.3683009554e+01   1.8402476867e+01    0.2822315    0.1929496  47.85   0.00102881    1.623    0.384
        53  -8.7189    110.6373    167.1626   8.8033472884e+01   2.4973236047e+01    0.2347492    0.1872736 -77.62  0.001130352    1.423    0.297
        54  -8.1308     27.6083     94.2541   9.9520409135e+01   5.4785078507e+01     0.129233   0.09832067  57.03 0.0006533759    1.685    0.407
        55 -11.6732    247.3946     90.6629   4.3498374274e+01   1.3689386086e+01    0.4646879    0.2327439 -49.76  0.002358072    1.706    0.414
        56  -9.3942     52.9670     91.0161   8.9099476872e+01   5.2765784596e+01    0.1755196    0.1560509 -35.52 0.0005337886    1.023    0.022
        57  -9.3263     44.9837    166.0453   1.0602012216e+02   3.4935045066e+01    0.2366344    0.1836229 -84.25 0.0005670281    1.217    0.178
        58  -8.5839    160.4715     83.5308   5.5404807276e+01   3.3132539362e+01    0.1464092     0.139458 -81.03 0.0001288334    1.014    0.013
        59  -8.5067     71.7242     83.1264   7.9988746608e+01   5.1748857235e+01    0.2268593    0.1589172  78.37 0.0009371231    2.741    0.635
        60  -8.0674    224.2469    206.6788   7.0146437202e+01  -2.4229997434e+00    0.1116821   0.09805392 -50.81 0.0001894556    1.529    0.346
        61  -9.3737     47.3226     62.0273   8.2763213636e+01   5.9645441588e+01    0.2152106    0.1814753  26.53 0.0003387672    1.256    0.204
        62  -9.2106    122.5338    199.6655   9.0803087655e+01   1.5295934147e+01      0.30856    0.2230361  81.66  0.001096944    1.950    0.487
        63 -12.2911    196.7543     48.9186   4.0655158455e+01   3.0310544850e+01    0.6391944    0.5224556  53.80  0.001059663    1.388    0.279
        64 -15.5808      9.7228    208.4854   1.1882722600e+02   2.8185214379e+01     8.885325     1.387351 -76.51  0.003976969    5.901    0.831
        65 -10.4373     13.3418     59.9811   9.7155588123e+01   6.3533838258e+01    0.2351491     0.217674 -40.34 0.0004480444    1.209    0.173
        66  -9.7556    111.2121    203.8387   9.4227737124e+01   1.6214440648e+01    0.2117222    0.1837366  63.24  0.000406808    1.192    0.161
        67  -8.8202    198.0872     23.5261   3.4625948236e+01   3.3243032569e+01    0.1817806    0.1495313 -54.02 0.0005497914    1.200    0.166
        68  -8.7286    189.5078     14.9598   3.3534004626e+01   3.6099302003e+01    0.1702595    0.1145596 -39.38 0.0005946851    1.551    0.355
        69  -8.3432    169.0000    235.8782   8.6150076691e+01   6.5483484609e-01    0.1910787   0.07356085 -46.80 0.0007862929    2.832    0.647
        70 -10.8619    144.8991    228.4078   9.0190657522e+01   5.6963813308e+00    0.2969405    0.2016188 -40.56  0.001539323    1.601    0.375
        71 -10.5981    139.3938    216.7900   8.9615516375e+01   8.8638131734e+00    0.3282481    0.2412909  46.42  0.001735342    1.375    0.273
