#   1 NUMBER                 Running object number                                     
#   2 MAG_AUTO               Kron-like elliptical aperture magnitude                    [mag]
#   3 X_IMAGE                Object position along x                                    [pixel]
#   4 Y_IMAGE                Object position along y                                    [pixel]
#   5 X_WORLD                Barycenter position along world x axis                     [deg]
#   6 Y_WORLD                Barycenter position along world y axis                     [deg]
#   7 A_WORLD                Profile RMS along major axis (world units)                 [deg]
#   8 B_WORLD                Profile RMS along minor axis (world units)                 [deg]
#   9 THETA_WORLD            Position angle (CCW/world-x)                               [deg]
#  10 FWHM_WORLD             FWHM assuming a gaussian core                              [deg]
#  11 ELONGATION             A_IMAGE/B_IMAGE                                           
#  12 ELLIPTICITY            1 - B_IMAGE/A_IMAGE                                       
         1 -12.0717    192.2150     32.7856   6.1729920527e+01   3.3551890198e+01    0.8475699    0.7105668  80.89  0.003551428    1.071    0.066
         2 -12.4172    202.0044     20.2168   5.7841166610e+01   3.2867662206e+01    0.6929602    0.6471012  19.89  0.002731217    1.565    0.361
         3  -9.7518     40.5265      2.9731   8.5765127498e+01   6.7574929000e+01    0.2070534    0.0966131 -17.94  0.001173403    2.269    0.559
         4  -9.8912     93.8760    237.5600   1.2722714980e+02   1.1451114945e+01    0.2737798    0.2160283  60.20 0.0001160836    1.136    0.120
         5 -18.3937      7.3223    139.4243   1.3547975417e+02   4.5505682532e+01     19.49084     3.116736 -71.07   0.05055891    6.378    0.843
         6  -9.6104     75.8718    205.7931   1.2711967220e+02   2.1413783096e+01    0.3735737    0.2066128  86.33  0.001515231    2.527    0.604
         7 -10.0571    195.2446    194.1694   9.7703924677e+01   2.9709894260e+00    0.4850345    0.3382075  41.91  0.002426185    1.495    0.331
         8  -8.6405     72.3872    189.7118   1.2568260187e+02   2.5844046987e+01    0.3201529    0.1784971  23.65  0.001350173    2.440    0.590
         9 -10.3589    143.7001    230.5838   1.1542248384e+02   4.6839218836e+00    0.3809226    0.1664423 -48.01    0.0015682    2.456    0.593
        10 -11.3220    126.2142    229.5628   1.1910230803e+02   7.8760699991e+00    0.4371435    0.4076808  43.91  0.002634539    1.052    0.050
        11  -8.7209    207.4292    183.2186   9.3034281958e+01   2.9823448813e+00    0.2057912    0.1305269 -52.41 0.0009514911    1.681    0.405
        12 -10.4088     74.6961    181.4469   1.2385304631e+02   2.7560966109e+01    0.4099339     0.287115 -35.63  0.001959173    1.827    0.453
        13 -10.5608     79.0267    175.5018   1.2178610036e+02   2.8400589446e+01    0.4614582    0.2861317 -39.67  0.001070881    1.962    0.490
        14  -7.9875     99.4624    180.5249   1.1742817672e+02   2.3834395965e+01    0.1501451    0.1408677 -85.95  0.000147362    1.003    0.003
        15 -10.4134     43.6916    173.1208   1.3046123874e+02   3.3780107222e+01    0.3944503    0.1926764  44.70  0.001396212    2.148    0.535
        16  -9.4950    104.0286    171.5668   1.1461592725e+02   2.5271463148e+01    0.3028046    0.2172809 -77.61  0.001381233    1.578    0.366
        17  -8.4419    196.3050    171.4463   9.2842120379e+01   7.4455566608e+00    0.2796067    0.1449928  37.18  0.001137634    2.129    0.530
        18  -7.6260    145.6618    168.3205   1.0350182042e+02   1.8176183513e+01    0.1619186    0.1236703  82.23 0.0003433579    1.712    0.416
        19 -11.0179     86.5995    165.3562   1.1802207446e+02   2.9770678877e+01    0.7550744    0.4397767  59.20 0.0005146386    2.147    0.534
        20 -12.3204     58.7447    131.4000   1.1930971506e+02   4.2359031076e+01     1.008048    0.4376663 -67.16  0.003713333    2.687    0.628
        21 -12.2835     68.4482    144.3766   1.1905032394e+02   3.7821058959e+01     1.010414    0.6835631  81.42  0.003538044    2.010    0.503
        22 -10.2478     93.3792    142.4625   1.1157998094e+02   3.4383714689e+01       0.3015    0.2627208 -34.18   0.00053817    1.207    0.171
        23 -10.2989     92.8801    158.3599   1.1500504121e+02   3.0499352103e+01    0.6190626    0.4152141 -24.40  0.002002505    2.183    0.542
        24 -10.2789     93.5179    225.9348   1.2581785230e+02   1.4039325697e+01    0.3451629    0.2163005  51.81  0.001733928    1.495    0.331
        25 -11.3027     99.7208    228.9765   1.2485696492e+02   1.2381497804e+01    0.4877054    0.4371732 -83.81  0.002870635    1.119    0.106
        26  -8.9912    113.5103    132.0302   1.0360322328e+02   3.3237096457e+01    0.2877367    0.2221185  16.70 0.0007685339    1.601    0.376
        27  -8.6061    106.1315    130.6895   1.0532214665e+02   3.4960743368e+01    0.2838872    0.2111847 -60.72  0.001326263    1.381    0.276
        28  -9.0848    101.1054    128.2177   1.0614847860e+02   3.6477550381e+01    0.3074467    0.1989928 -35.85 0.0009414053    1.697    0.411
        29  -9.1061    105.6010    141.9374   1.0806855356e+02   3.2341716294e+01    0.5026464    0.2373561 -33.88   0.00157409    3.388    0.705
        30  -8.4995    118.2953    126.3425   1.0092184716e+02   3.3631521710e+01    0.1589412    0.1229284 -14.81 0.0004977454    1.662    0.398
        31  -8.4286    109.2874    120.0576   1.0183687343e+02   3.6849907373e+01    0.2112393    0.1935664 -50.50 0.0003652699    1.062    0.058
        32 -12.0301     75.1342    161.0728   1.2031412360e+02   3.2635859163e+01    0.7956392    0.4701971 -54.42   0.00135225    1.563    0.360
        33 -12.0203    115.2429    230.1048   1.2159900342e+02   9.6020256317e+00    0.8081176    0.4292402  39.13  0.003716958    1.749    0.428
        34  -9.4072    114.8615    110.5371   9.7837929216e+01   3.7890123824e+01     0.364551    0.1721248 -33.84  0.001247389    2.773    0.639
        35  -8.4134    205.8837    110.1395   7.7434273134e+01   1.8027528203e+01    0.1897756    0.1770818  -6.46 0.0005987917    1.310    0.236
        36 -11.2973    108.9603    229.0681   1.2283631489e+02   1.0862525720e+01    0.5202709    0.2953058  40.58  0.002479982    1.631    0.387
        37  -9.7015    163.8109    227.4242   1.1054174550e+02   1.8631602427e+00    0.2630103     0.109423 -51.68  0.001026874    2.687    0.628
        38  -8.0724    134.5035    102.5069   9.0526405636e+01   3.5474960572e+01    0.1506155    0.1482605 -82.69   0.00017186    1.014    0.013
        39  -9.3898    149.5034    228.4728   1.1381750712e+02   4.1141002451e+00    0.1386964    0.1288557  32.84 8.215526e-05    1.013    0.013
        40  -9.4479    163.5589     64.5669   7.3959588330e+01   3.5729895033e+01    0.2757448    0.2201611 -78.28 0.0005125709    1.342    0.255
        41  -8.4279     66.5107    225.9797   1.3170671945e+02   1.8075919033e+01    0.1901533    0.1211993 -71.73 0.0004855892    1.511    0.338
        42  -9.3272     71.2336    229.3643   1.3108047804e+02   1.6642892029e+01    0.2502916    0.1955968  89.53 0.0007955147    1.188    0.158
        43  -8.7065    163.6042     55.1993   7.1508765061e+01   3.7135653181e+01    0.1886652    0.1356175 -20.91 0.0009585901    1.801    0.445
        44 -10.9818    182.5722     40.1648   6.4731254046e+01   3.4809463515e+01    0.3497463     0.307987  68.81 0.0009723039    1.143    0.125
        45  -9.3516    163.9924    242.0620   1.1289958285e+02  -9.4440976156e-01    0.3111373    0.1245779 -42.54  0.001261873    2.798    0.643
        46 -10.8239    126.3234    240.2056   1.2063097843e+02   5.6679309009e+00     0.388572    0.2168437  37.27  0.001864481    1.654    0.396
