#   1 NUMBER                 Running object number                                     
#   2 MAG_AUTO               Kron-like elliptical aperture magnitude                    [mag]
#   3 X_IMAGE                Object position along x                                    [pixel]
#   4 Y_IMAGE                Object position along y                                    [pixel]
#   5 X_WORLD                Barycenter position along world x axis                     [deg]
#   6 Y_WORLD                Barycenter position along world y axis                     [deg]
#   7 A_WORLD                Profile RMS along major axis (world units)                 [deg]
#   8 B_WORLD                Profile RMS along minor axis (world units)                 [deg]
#   9 THETA_WORLD            Position angle (CCW/world-x)                               [deg]
#  10 FWHM_WORLD             FWHM assuming a gaussian core                              [deg]
#  11 ELONGATION             A_IMAGE/B_IMAGE                                           
#  12 ELLIPTICITY            1 - B_IMAGE/A_IMAGE                                       
         1 -14.5041    162.8765     55.5958   7.2810982426e+01   3.7284983696e+01     1.834155     1.560337  13.19  0.005558436    1.296    0.229
         2 -14.4699    176.2983     39.8078   6.5322681356e+01   3.6121751530e+01     1.102206    0.9953752  -6.95  0.003648736    1.188    0.158
         3 -14.6925    194.9266      8.4423   5.3228112209e+01   3.4915739852e+01     1.272208     1.031397  56.17  0.003980232    1.217    0.178
         4 -13.6618    219.8293      3.1486   4.9260724435e+01   2.9162535336e+01     1.983711    0.4295315  74.26   0.00588866    4.787    0.791
         5  -9.8143    122.7909      6.8241   6.4010040793e+01   5.3510356973e+01    0.1740637    0.1598252 -74.49 0.0003321723    1.289    0.224
         6 -10.3979     26.9203    219.4385   1.3487066508e+02   2.7182324839e+01    0.1711871    0.1276697  -7.66  0.001069373    3.333    0.700
         7 -13.9449    246.5491    242.6201   9.8564543449e+01  -7.9312007422e+00     1.093866    0.6170655 -21.60  0.007175031    1.918    0.479
         8 -16.8160     87.8245    177.2995   1.1925128232e+02   2.7761742442e+01     5.511598     2.441496 -55.85   0.02589305    2.355    0.575
         9 -11.0970     32.8130    184.4052   1.3151703881e+02   3.3183597244e+01    0.1435516    0.1142608  77.67 0.0003059651    1.049    0.047
        10 -10.2019     73.0693    183.9358   1.2321092290e+02   2.8493365264e+01    0.1714928    0.1505892  76.89 0.0004053222    1.092    0.084
        11  -9.5829     35.0382    180.6311   1.3077595849e+02   3.3711496414e+01    0.1459755   0.09237526  47.83 0.0004323709    1.461    0.315
        12 -10.3452    169.1268    178.3001   1.0196289447e+02   1.3509406182e+01    0.2362412    0.1996018 -55.31 0.0005298067    1.390    0.281
        13 -11.5432    204.5190    176.3299   9.4602866516e+01   7.1217529009e+00    0.3741633    0.3168221 -43.16  0.001287418    1.404    0.288
        14  -9.8754    197.9382    177.1521   9.6018094692e+01   8.2331198408e+00    0.1993891    0.1795934  47.77 0.0008511115    1.222    0.182
        15 -10.6517    165.0606    171.9642   1.0164634783e+02   1.5394057201e+01    0.2278582    0.2023798 -62.02 0.0004405867    1.309    0.236
        16 -11.5080    230.1900    166.5343   8.7956889249e+01   3.7935096575e+00    0.3096268    0.1743958 -49.10   0.00140046    2.580    0.612
        17  -9.6408    200.5222    168.1004   9.3756694226e+01   9.1670934922e+00    0.1900312    0.1343808 -35.37 0.0005377699    1.507    0.337
        18 -12.0018    192.5403    164.4405   9.4585245262e+01   1.1320978910e+01    0.5020387     0.342388 -56.03  0.001390428    1.979    0.495
        19 -19.0984     42.9738     97.5476   1.1856007679e+02   5.1185636368e+01     15.15072     0.860412 -63.13   0.02566508   14.927    0.933
        20 -12.4161    113.9674    160.9720   1.1094891005e+02   2.6964243639e+01    0.4428429    0.3184285  85.69  0.001392761    1.695    0.410
        21 -11.5400    125.3057    161.9967   1.0852806603e+02   2.4758860638e+01    0.2545881    0.1972933  35.57 0.0006571366    1.315    0.239
        22 -11.1878    236.8022    158.2259   8.5097466223e+01   3.7616508249e+00    0.1895248    0.1411603   8.01 0.0004411396    1.327    0.246
        23 -11.8001    189.1987    154.8209   9.3276778778e+01   1.3614377343e+01    0.4977336    0.4309283  39.32  0.002244351    1.099    0.090
        24 -11.2967    129.5671    157.0434   1.0666757197e+02   2.4988924494e+01     0.263976    0.1827826  58.66 0.0005545174    1.508    0.337
        25 -10.7073    154.0364    153.9899   1.0055514180e+02   2.0888823671e+01    0.2758069     0.193947 -79.08 0.0007940754    2.175    0.540
        26 -10.8277    150.9998    150.4928   1.0052594144e+02   2.2173725815e+01    0.2891365    0.2184576  68.56  0.001372186    1.581    0.367
        27 -12.8756    144.9298    146.6221   1.0111164930e+02   2.4149942085e+01    0.6842147    0.4400758  65.39  0.003007006    2.032    0.508
        28 -12.8755    133.9837    146.0411   1.0353250744e+02   2.6410190314e+01     1.272521    0.3305731 -54.73  0.003285748    5.740    0.826
        29 -11.3836    163.8866    151.7597   9.7940722220e+01   1.9331703204e+01    0.3484554    0.2366598  60.84  0.001067647    1.727    0.421
        30 -11.9232    204.5511    198.5759   9.8664165911e+01   3.8531328004e+00    0.3908157    0.2492074 -31.26  0.002187128    1.748    0.428
        31 -11.1037    174.4013    148.7426   9.5050114890e+01   1.7733471733e+01    0.3164204    0.2779581 -88.40 0.0009583428    1.413    0.293
        32 -12.9573    135.6679    127.0543   9.9075391407e+01   3.0024958033e+01     1.322581    0.3147314 -51.75  0.003257643    5.676    0.824
        33 -12.2122    193.6626    196.2860   1.0030375908e+02   6.1089010667e+00     1.027509    0.5587418 -61.65  0.003780092    4.838    0.793
        34 -11.8258    118.0213    128.7405   1.0383572580e+02   3.3107397420e+01    0.3221046    0.2908509  -7.42 0.0006568994    1.308    0.236
        35 -11.5468    160.8022    128.1769   9.3428439182e+01   2.4516832753e+01    0.4077749    0.3516821 -89.02  0.002099372    1.398    0.285
        36 -11.6038    121.9735    122.9058   1.0154737435e+02   3.3616885735e+01     0.453796    0.2803383 -16.11  0.001598354    3.478    0.712
        37 -10.9527    112.8844    118.5288   1.0290651686e+02   3.6288114544e+01    0.3774127     0.266968 -69.37  0.000782171    1.645    0.392
        38 -11.4715    167.7800    112.7861   8.8106354354e+01   2.5946736333e+01    0.4191036    0.3218352 -82.46  0.001719997    1.830    0.454
        39 -11.3380    134.6284    106.0017   9.4224576080e+01   3.4630340768e+01    0.6333537    0.1537016 -42.57  0.001719688    4.254    0.765
        40 -15.9281     65.2278    235.1668   1.2930412382e+02   2.0075747311e+01     8.529305      5.91021  78.75   0.05605454    1.286    0.223
        41 -10.8682    205.3720    110.2003   7.9783516924e+01   1.7805140139e+01    0.3426913    0.2363651  46.15  0.000969133    1.447    0.309
        42 -11.1376     75.7199     99.4957   1.0899820634e+02   4.6720653347e+01    0.2645736    0.2206915  62.24  0.001510825    1.330    0.248
        43 -10.3137    149.7774     81.3108   8.3620080755e+01   3.6099249694e+01    0.2618086    0.2058368 -48.08 0.0006503891    1.327    0.247
        44  -9.3132    172.6637    189.2925   1.0317892232e+02   1.1005070875e+01    0.1303344    0.1003352  67.46 0.0007025357    1.642    0.391
        45 -10.6535    175.5414     74.0313   7.5820483366e+01   3.1115191448e+01    0.2852366    0.2196484  78.72 0.0006398578    1.556    0.357
        46 -10.6261    101.9980     72.1012   9.3614539766e+01   4.8199402077e+01    0.3464128    0.2386833  57.15  0.001638757    1.750    0.429
        47  -9.7887    166.2689    233.9312   1.1109232066e+02   5.3872867971e+00    0.1510637    0.1337748  34.41 0.0003568837    1.138    0.121
        48 -10.0954    167.8528    230.1345   1.1030259709e+02   5.6546215120e+00    0.1670901    0.1360125  46.34 0.0003182371    1.132    0.116
        49 -13.4231    180.7904     33.1071   6.2509280335e+01   3.5824559668e+01    0.6750839    0.4267278  47.40   0.00110995    1.582    0.368
        50 -10.4363     13.4054     59.8539   1.2115859756e+02   6.1919056342e+01    0.1619031    0.1504038 -73.73 0.0004359379    1.208    0.172
        51 -12.1406    198.0555     23.3228   5.7118358056e+01   3.2521119273e+01    0.4309936    0.2863952 -30.60   0.00146716    1.532    0.347
        52 -11.4032     11.5786    206.2003   1.3681966877e+02   3.1072487723e+01    0.1741596    0.1224633  51.52  0.001358958    1.319    0.242
        53  -9.4130    219.2226    224.0197   1.0024792736e+02  -1.8724156970e+00     0.130675   0.09341983 -23.79 0.0003634169    1.563    0.360
