#   1 NUMBER                 Running object number                                     
#   2 MAG_AUTO               Kron-like elliptical aperture magnitude                    [mag]
#   3 X_IMAGE                Object position along x                                    [pixel]
#   4 Y_IMAGE                Object position along y                                    [pixel]
#   5 X_WORLD                Barycenter position along world x axis                     [deg]
#   6 Y_WORLD                Barycenter position along world y axis                     [deg]
#   7 A_WORLD                Profile RMS along major axis (world units)                 [deg]
#   8 B_WORLD                Profile RMS along minor axis (world units)                 [deg]
#   9 THETA_WORLD            Position angle (CCW/world-x)                               [deg]
#  10 FWHM_WORLD             FWHM assuming a gaussian core                              [deg]
#  11 ELONGATION             A_IMAGE/B_IMAGE                                           
#  12 ELLIPTICITY            1 - B_IMAGE/A_IMAGE                                       
         1 -13.6890    155.6984     43.6824   9.5095175042e+00   3.9728705368e+01     2.667977    0.7432554 -48.47  0.007461394    4.511    0.778
         2 -16.2265    141.3837     63.8616   1.8579125827e+01   4.0270226054e+01     3.669834     2.493182 -55.78    0.0166689    1.588    0.370
         3 -14.3410    145.6188     27.9668   5.9582068081e+00   4.4398871666e+01     1.664431     1.105177 -43.00   0.00821845    1.482    0.325
         4 -14.4470    149.3258     13.6993   6.7987752520e-01   4.5006725319e+01     3.956444    0.3814566 -42.32  0.009915516    6.205    0.839
         5 -15.1832    135.8489      8.8674   6.7684730049e-01   4.9049799229e+01     2.158617     1.385635 -81.22   0.01060795    1.564    0.361
         6  99.0000    197.2555     58.9470   8.0079760852e+00   2.7571189187e+01     1.966535     0.286799 -30.50   0.00436001    7.906    0.874
         7  99.0000    191.1489     54.6138   7.6381438343e+00   2.9557265567e+01     2.627581    0.4503639 -44.05  0.007091116    5.142    0.806
         8 -14.1083    205.9293      7.2039   3.5397843975e+02   3.1792072459e+01     1.199412    0.8576477 -47.14  0.007446596    1.183    0.155
         9 -13.2333    203.4783     31.4642   2.6809195455e-01   2.9720746321e+01     1.331063    0.7999538  71.07  0.007128394    1.718    0.418
        10 -12.4047    156.0805     16.5541   8.1974028041e-01   4.2947667372e+01    0.5491395    0.2535494 -40.33  0.001787645    2.015    0.504
        11 -11.9521    185.4170     37.0604   3.5639873121e+00   3.3224432417e+01    0.9978469    0.4276862 -26.75  0.004099277    2.453    0.592
        12 -15.3916    170.9928      8.7640   3.5693238134e+02   3.9927495215e+01     2.202642     1.641049 -65.93   0.01265386    1.193    0.162
        13 -13.0256    154.3175      5.8591   3.5757710759e+02   4.4457694538e+01    0.9432296    0.3464684 -45.40  0.003785162    2.523    0.604
        14 -12.3279    159.1549      2.4691   3.5605587281e+02   4.3512970124e+01    0.3385478    0.2317216 -73.01  0.001132166    1.333    0.250
        15 -11.1903    224.6260     19.2830   3.5570908629e+02   2.6529307215e+01     0.325416     0.198071 -15.79   0.00176812    2.070    0.517
        16 -13.4283    212.2151     20.8119   3.5690894061e+02   2.8995832063e+01    0.9583839    0.5996557 -13.32  0.005076393    2.091    0.522
        17 -15.3204    131.0493     40.0920   1.2716741434e+01   4.6653118066e+01     3.473007     1.223261 -54.07  0.008962907    5.377    0.814
        18 -12.9045    110.5394      7.3601   3.8764913151e+00   5.5976383628e+01    0.3437989    0.2269124 -45.85  0.001108789    1.610    0.379
        19 -14.6571    127.7281     22.6518   6.9634958076e+00   4.9784663358e+01     3.584035     1.104322 -53.58  0.008592228    6.627    0.849
        20 -12.6206    112.4921     11.9780   5.4665114078e+00   5.5014781565e+01     0.294307    0.1612383 -41.01  0.001324264    1.908    0.476
        21 -13.7802    104.3833      7.5740   5.0923973224e+00   5.7600285633e+01    0.7829046    0.3865129 -40.15  0.003418633    2.144    0.534
        22 -11.2255      1.5944      6.2266   5.7874539330e+01   7.8592653723e+01    0.1823609   0.09062532 -44.95 0.0009526007    1.713    0.416
        23 -11.4595     89.8412      3.1354   6.0075551134e+00   6.1825091968e+01    0.2170763     0.182906 -73.22   0.00123076    1.284    0.221
        24 -11.4810    190.7074     38.7106   3.4292333622e+00   3.1766815489e+01    0.8534299    0.3180009 -52.21  0.003222538    2.832    0.647
        25 -10.8930     89.5201     11.0196   9.9612183703e+00   6.1169790252e+01    0.2073137   0.09916545 -48.88 0.0008103534    2.616    0.618
        26 -12.0777      9.4894      2.3187   4.6946625284e+01   7.8597000088e+01    0.2192061    0.1042009  26.51     0.001093    2.042    0.510
        27 -11.3552    217.1014    204.8486   3.6013747435e+01   2.2790158990e+00    0.1973196    0.1423223 -20.45  0.000835958    1.255    0.203
        28 -15.4630    226.3380    215.1799   3.6135669062e+01  -1.2161360237e-01     4.267899     1.259153 -42.44   0.01696665    5.020    0.801
        29 -13.7540    213.6091    164.5881   2.9475116254e+01   8.3222842295e+00     3.967979     1.648067 -50.94   0.01298433    5.667    0.824
        30 -13.0490    236.3268    137.1058   2.0560334561e+01   8.8305152342e+00    0.8322719    0.4414404 -55.84  0.003478026    3.871    0.742
        31 -14.3804    238.2181     96.1596   1.1800663520e+01   1.4240655040e+01     6.724936     1.977611 -27.90   0.02285166    4.083    0.755
        32 -15.0713    247.2550    230.2562   3.5159423141e+01  -4.0807210087e+00     1.987051    0.4791715 -32.50  0.009266945    3.799    0.737
        33 -15.1256    246.8094    210.6295   3.2204050580e+01  -1.9051879056e+00     3.181197     1.198161 -45.28   0.01076178    8.224    0.878
        34 -15.0416    243.3585    156.7512   2.3367718733e+01   5.1468628655e+00     2.041585     0.922688 -47.16  0.009259355    3.262    0.693
        35 -14.8711    245.5223    190.2995   2.9051818607e+01   6.1496195974e-01     2.836476     1.064027 -46.71  0.008285266    9.699    0.897
        36 -14.1591    247.6563    180.0249   2.6966464864e+01   1.6135629149e+00     1.095944    0.4794872 -44.10  0.005311539    3.183    0.686
        37 -12.8596    209.6627    246.9519   4.3610957812e+01  -1.9048809204e+00    0.4817595    0.2825502 -34.50  0.003301176    1.947    0.487
        38 -10.9899    183.8165    250.4091   4.8630933589e+01   6.2762234011e-01    0.1632229   0.08065151  20.49 0.0009469789    1.689    0.408
        39 -11.6880      4.7109    249.9433   8.5042499563e+01   2.1356489528e+01    0.2291531    0.1079193  40.18  0.001450073    1.440    0.306
        40 -11.7049    211.3720    201.8827   3.6507628146e+01   3.4001315026e+00    0.3587125    0.2836847 -74.15  0.001929653    3.490    0.713
        41 -11.1316    215.4644    197.6151   3.5090313771e+01   3.4341455024e+00     0.216986    0.1481413 -37.42  0.001079797    1.646    0.392
        42 -10.3586    202.3126    197.6606   3.7403991535e+01   5.1837257902e+00    0.1024515    0.0993958  65.06 0.0005046101    1.695    0.410
        43 -10.8008    209.1660    194.2185   3.5602393539e+01   4.7300660822e+00    0.1498124    0.1370611  -9.01 0.0006709629    1.357    0.263
        44 -10.5720    205.3963    191.2131   3.5750984938e+01   5.6657133457e+00    0.1575468    0.1074692 -40.37 0.0008474401    1.680    0.405
        45 -10.5360    198.9481    191.4796   3.6960377857e+01   6.5316175343e+00    0.1540461     0.104075  53.72 0.0008084038    2.459    0.593
        46 -11.0900    210.3229    188.9440   3.4489412067e+01   5.3031694190e+00    0.1746926    0.1370378 -37.08 0.0007441362    1.500    0.334
        47 -10.7218    193.3343    188.6483   3.7507668842e+01   7.7550996978e+00    0.1116062    0.1028724  76.78 0.0007046113    1.785    0.440
        48 -11.3817    203.8828    184.1763   3.4785669918e+01   6.8873989970e+00    0.2655322    0.2210827 -73.35  0.001561333    2.336    0.572
        49 -11.4202    210.8566    182.4908   3.3256363942e+01   6.1365349335e+00    0.2601435    0.1588989 -35.75  0.001245221    1.611    0.379
        50 -11.1665    191.1679    179.9859   3.6373282756e+01   9.3971109108e+00    0.1874461    0.1535406 -65.29  0.001082295    2.008    0.502
        51 -11.0929    205.3090    177.3184   3.3293175363e+01   7.6833689009e+00    0.2456896    0.2092271 -56.92  0.001034906    1.785    0.440
        52 -11.2384    210.7938    176.0391   3.2098527470e+01   7.0693159851e+00    0.2707171    0.1563845 -43.37  0.001047838    1.971    0.493
        53 -11.0518    197.7872    176.9364   3.4581264230e+01   8.8616323836e+00    0.2205084    0.1755884 -48.47   0.00133671    1.645    0.392
        54 -11.0963    187.8179    173.2148   3.5765473873e+01   1.0983737427e+01    0.1925839    0.1495091  87.01 0.0009454075    2.800    0.643
        55 -11.6718    205.8192    170.5362   3.1945378515e+01   8.6140975888e+00    0.3384833    0.2459453 -50.46  0.001731612    1.863    0.463
        56 -11.1008    200.9549    171.9489   3.3078587955e+01   9.1393355962e+00    0.1735047    0.1615205 -83.04 0.0008872827    1.687    0.407
        57 -11.5940    191.8540    166.4850   3.3720433180e+01   1.1418015662e+01    0.2895888    0.1858266 -45.65  0.001531492    1.773    0.436
        58 -11.3298    199.6190    165.2998   3.2057682136e+01   1.0368804032e+01    0.2802716    0.2051538 -48.82  0.001381543    1.710    0.415
        59 -11.0293    184.8188    166.0132   3.4977755188e+01   1.2638424351e+01     0.199543    0.1565616 -65.29  0.001073449    1.992    0.498
        60 -11.5710    205.4671    162.4031   3.0455470385e+01   9.8970056448e+00     0.372034    0.2601165 -57.79  0.001954245    2.290    0.563
        61 -11.6135    197.3419    158.2621   3.1096768813e+01   1.1841247202e+01    0.2950197    0.2428067 -45.01  0.001212249    1.418    0.295
        62 -13.5614    220.2202    157.2892   2.6979385660e+01   8.3923610194e+00     1.486655     1.049305 -39.35  0.009022467    1.460    0.315
        63 -10.7161    202.5774    151.8039   2.8865774769e+01   1.2004194068e+01    0.1946366    0.1180857 -36.33 0.0008367833    1.543    0.352
        64 -11.4317    187.6845    156.9235   3.2634059162e+01   1.3666415121e+01    0.3816572    0.1743277 -48.67  0.001566421    2.749    0.636
        65 -11.4192    157.8388    153.7204   3.8154798106e+01   1.9507727191e+01     0.261366     0.195426 -74.86  0.001236085    2.130    0.530
        66 -11.0029    152.0000    152.9952   3.9325538359e+01   2.0717884069e+01    0.2291205   0.08125643 -44.92 0.0007016901    2.916    0.657
        67 -11.8269    215.7990    149.6696   2.6195398833e+01   1.0196297032e+01    0.3029197    0.2528635  88.31  0.001782759    2.086    0.521
        68 -10.6286    197.0712    150.8286   2.9650917466e+01   1.3077726172e+01    0.1864125    0.1766719 -44.79 0.0006674291    1.299    0.230
        69 -10.8949    162.4084    150.1833   3.6417994461e+01   1.9334898877e+01    0.1970953    0.1334127 -53.07 0.0009438766    1.743    0.426
        70 -10.5584    191.4973    148.9776   3.0294960111e+01   1.4332538176e+01    0.1966417     0.123554 -37.46 0.0006080076    1.523    0.344
        71 -10.9820    200.9776    145.9606   2.7952952338e+01   1.3198590947e+01    0.1907414    0.1644672 -72.64 0.0008867537    1.694    0.410
        72 -12.0651    155.8881    144.2757   3.6612849589e+01   2.1680184643e+01    0.3225583    0.2118516 -58.33  0.001464503    1.959    0.490
        73 -10.6239    218.7905    144.5556   2.4684909219e+01   1.0483855051e+01    0.1708746    0.1524547   1.34 0.0008316798    1.113    0.101
        74 -11.1529    214.3291    142.7043   2.5024035747e+01   1.1481397359e+01    0.3385593    0.2903796 -89.24  0.001533013    1.844    0.458
        75 -11.9150    208.9088    138.6951   2.5083065133e+01   1.2999611080e+01    0.3348205    0.2943125 -77.82  0.001247725    1.637    0.389
        76 -10.6747    194.5929    143.8160   2.8649019962e+01   1.4646341505e+01    0.1831079     0.118333 -45.63 0.0009295555    1.655    0.396
        77 -11.5716    139.0092    143.9969   4.0529447262e+01   2.4968095670e+01    0.2334063    0.1880089  79.50  0.001137928    1.683    0.406
        78 -10.9806    182.1022    142.2399   3.0668107308e+01   1.7147019334e+01    0.2504387    0.1790158 -63.70  0.001209838    2.087    0.521
        79 -11.4536    224.4731    140.3644   2.2952339702e+01   1.0199709949e+01    0.2536287    0.1918513 -42.17 0.0008763978    1.389    0.280
        80 -10.6515    204.0144    141.2929   2.6453604223e+01   1.3424452776e+01    0.1828268    0.1512891  89.27 0.0007595769    1.947    0.486
        81 -10.1219    187.2750    140.6478   2.9333574473e+01   1.6479660286e+01    0.1306327    0.1076348 -65.43  0.000341454    1.640    0.390
        82 -11.1750    172.8485    138.4062   3.1685828241e+01   1.9551193056e+01    0.2841319    0.2179994 -65.93  0.001052441    1.796    0.443
        83 -10.8846    192.9437    137.4198   2.7587828387e+01   1.5998694541e+01    0.2413367    0.1795898 -49.13 0.0007934757    1.504    0.335
        84 -11.0295    199.4297    137.0494   2.6350748633e+01   1.4901851492e+01    0.2180784     0.193374  71.35 0.0007841239    1.512    0.339
        85 -12.7113    162.8492    136.1118   3.3283779827e+01   2.1901282192e+01    0.3371932    0.2938163 -60.92  0.001517384    1.343    0.255
        86 -10.5114    187.8318    135.8256   2.8185033619e+01   1.7199568116e+01    0.1790087    0.1590641 -53.61 0.0006246202    1.307    0.235
        87 -11.4206    156.0148    136.0350   3.4776000755e+01   2.3255965964e+01    0.2265023    0.1861373 -89.58  0.001008129    1.694    0.410
        88 -11.6520    179.4899    132.9264   2.9141236607e+01   1.9268345095e+01    0.3284275    0.2484142 -57.35  0.001188679    1.617    0.382
        89 -11.0647    206.2061    131.1602   2.3930982670e+01   1.4649775002e+01    0.2300094    0.1657449 -50.83 0.0007362392    1.598    0.374
        90 -13.2877    219.9975    129.1869   2.1321619257e+01   1.2581023254e+01     1.575466     1.022235 -53.77  0.008315765    1.989    0.497
        91 -11.8098    143.1446    131.6970   3.6796534356e+01   2.6692781703e+01    0.2639249    0.2090884 -55.78  0.001109672    1.391    0.281
        92 -11.1698    192.6580    129.6837   2.5947667365e+01   1.7343903812e+01    0.2542913    0.2159079 -45.43 0.0009050228    1.244    0.196
        93 -10.8711    186.6880    129.4231   2.6982014361e+01   1.8509154682e+01    0.2459646    0.1560326 -47.19 0.0006488686    1.665    0.399
        94 -11.0475    171.9592    129.5071   2.9873788340e+01   2.1343361107e+01    0.2672126    0.1969285 -55.50 0.0008685261    1.589    0.371
        95 -11.3119    165.4163    128.2544   3.0946321529e+01   2.2875509981e+01    0.1999728    0.1348101 -49.60 0.0006109595    1.592    0.372
        96 -12.0092    134.8349    126.7473   3.7705479182e+01   2.9419434117e+01    0.2904406    0.2072538 -76.03  0.001240459    2.065    0.516
        97 -11.6889    179.8859    124.9334   2.7251159734e+01   2.0604964528e+01     0.354061    0.2832258 -70.32   0.00129791    1.671    0.401
        98 -11.3756    152.3951    126.2098   3.3338304424e+01   2.5914945910e+01    0.2133852    0.1387207 -52.69 0.0009485653    1.709    0.415
        99 -11.1247    188.4555    123.5275   2.5322777540e+01   1.9180005855e+01     0.291084    0.2020065 -55.46   0.00112874    1.739    0.425
       100 -10.4804    169.8132    124.3313   2.9115410378e+01   2.2720836395e+01    0.1988066    0.1756194 -44.91 0.0006880167    1.159    0.137
       101 -10.9865    200.0735    126.5806   2.3962421955e+01   1.6486457877e+01    0.2501467    0.1704788 -49.52 0.0007904831    1.618    0.382
       102 -10.5951    128.2936    123.6274   3.8658308783e+01   3.1437206233e+01    0.1575523    0.1231469  89.93 0.0007025436    1.731    0.422
       103 -11.2596    203.3362    121.6613   2.2323101976e+01   1.6680383370e+01    0.3047527    0.2213212 -65.70  0.001565274    1.979    0.495
       104  -9.9540    199.5284    117.0305   2.1909750167e+01   1.8140445993e+01    0.2615338     0.148682 -45.82 0.0006748282    1.774    0.436
       105 -11.0821    194.4496    121.4379   2.3778759364e+01   1.8382751729e+01    0.2838722    0.1920086 -51.94 0.0009859398    1.676    0.403
       106 -12.1168    157.5427    120.2423   3.0753432201e+01   2.6015848420e+01    0.2836861     0.140792 -45.73  0.001127708    2.049    0.512
       107 -11.0152    173.7186    119.7121   2.7237083871e+01   2.2772622966e+01    0.2890888    0.1839287 -47.46 0.0009588511    1.625    0.385
       108 -10.3534    184.1293    119.1714   2.5111561192e+01   2.0774886824e+01    0.2152488    0.1703313 -70.77 0.0005769205    1.682    0.406
       109 -10.6276    180.9992    115.9674   2.4940506047e+01   2.1960427503e+01    0.2169138    0.1691861 -65.64 0.0006179006    1.614    0.380
       110 -10.3643    166.3062    119.6785   2.8737482632e+01   2.4299857764e+01    0.1442091    0.1166172 -77.34  0.000378743    1.639    0.390
       111 -12.7203    140.5862    118.3288   3.4233124340e+01   2.9981642971e+01    0.3575717    0.2659445 -63.92  0.001399177    1.626    0.385
       112 -12.2184    147.7797    117.8878   3.2398414850e+01   2.8540735274e+01     0.286074    0.2126967 -62.01  0.001335739    1.608    0.378
       113 -12.1994    162.9284    116.3329   2.8636504380e+01   2.5632238221e+01    0.2563803    0.1975994 -50.30 0.0006474471    1.354    0.261
       114 -12.1128    134.4082    115.7202   3.5127361161e+01   3.1845850996e+01    0.4247045    0.1451745 -49.86  0.001296812    3.307    0.698
       115 -11.8476    129.2773    116.4216   3.6632843233e+01   3.2791405353e+01    0.2751391    0.1954537 -67.63  0.001194278    1.804    0.446
       116 -10.7233    203.5166    115.9188   2.1002538355e+01   1.7565745923e+01    0.2066482    0.1197375 -37.81  0.001011538    1.556    0.357
       117 -10.8114    185.9998    115.4081   2.3885137842e+01   2.1050806178e+01    0.2637284    0.1794332 -49.87  0.001005995    1.561    0.360
       118 -11.4784    168.4648    116.2269   2.7458620968e+01   2.4491728708e+01    0.2331143    0.1885603 -54.93 0.0007999588    1.344    0.256
       119 -11.5246    167.8802    111.8795   2.6512302396e+01   2.5415281519e+01    0.3536316    0.2048892 -46.28  0.001027264    1.745    0.427
       120 -11.0535    195.1009    113.7071   2.1889216126e+01   1.9537602418e+01    0.3066967    0.1661468 -47.30  0.001184262    1.924    0.480
       121 -10.7219    173.0192    114.5147   2.6128295112e+01   2.3856175286e+01    0.2364962    0.1827564 -37.70 0.0006072882    1.241    0.195
       122  -9.7635    191.5491    114.5184   2.2689448701e+01   2.0099630692e+01    0.1382283    0.1266034 -36.79 0.0008074231    1.068    0.063
       123 -10.5750    208.3978    113.2993   1.9636994435e+01   1.7067030610e+01    0.1852175     0.111562 -42.63 0.0005836087    1.555    0.357
       124 -11.4168    201.0983    109.8525   2.0002425399e+01   1.8998678218e+01    0.3279516    0.1753266 -33.69  0.001529521    1.717    0.418
       125 -12.4496    123.8800    110.9174   3.6675419156e+01   3.5140829958e+01    0.3698927    0.2304704 -60.74  0.001497899    1.970    0.492
       126 -10.8709    213.1955    111.2909   1.8455479022e+01   1.6491296846e+01    0.1788564    0.1389219 -51.36 0.0005720493    1.372    0.271
       127 -10.9641    176.7940    110.7138   2.4470302332e+01   2.3750191931e+01    0.2937611    0.1797147 -47.63  0.001156249    1.676    0.403
       128 -11.5573    155.4552    110.4093   2.8776049382e+01   2.8362193083e+01    0.2774406    0.1340947 -50.75  0.001030849    2.358    0.576
       129 -12.6474    133.8909    109.1149   3.3564822340e+01   3.3348394187e+01    0.3843724    0.2171277 -54.04  0.001521292    2.009    0.502
       130 -10.6327    190.0600    109.0410   2.1654642864e+01   2.1314378535e+01    0.2195072    0.1622565 -63.30  0.001026942    1.692    0.409
       131 -10.8371    182.9746    108.8162   2.2857513532e+01   2.2798943942e+01    0.2567657    0.1637915 -48.86 0.0009606918    1.626    0.385
       132 -11.9262    160.7524    108.5750   2.7163960068e+01   2.7560673019e+01    0.3193994    0.1951574 -49.04  0.001402406    1.710    0.415
       133 -10.6815    196.6668    108.0476   2.0302732115e+01   2.0158060453e+01    0.2213724    0.1519669 -49.07 0.0007662844    1.496    0.332
       134 -10.3191    171.3846    107.1820   2.4643377539e+01   2.5523889814e+01    0.2086543     0.128579 -48.16 0.0007711326    1.669    0.401
       135 -11.0728    222.8176    105.1327   1.5710723389e+01   1.5668048682e+01     0.298144     0.140837 -42.58  0.001039889    1.918    0.479
       136 -11.3302    205.8539    105.4627   1.8238207688e+01   1.8776401664e+01    0.2844666     0.205099 -46.77  0.001015819    1.357    0.263
       137 -10.6917    200.9870    103.7130   1.8585489356e+01   2.0002534410e+01    0.2836483    0.1993296 -51.56 0.0009557779    1.495    0.331
       138 -13.3781    141.2435    103.9659   3.0377470232e+01   3.2775833193e+01    0.5196275    0.2855383 -52.18  0.002055336    2.027    0.507
       139 -10.8001    213.2861    104.6467   1.6942442522e+01   1.7489601526e+01    0.2675677     0.196376 -50.23 0.0008917133    1.397    0.284
       140 -10.5064    209.3290    100.3655   1.6535886282e+01   1.8897082582e+01    0.4312209    0.1620144 -48.52   0.00156635    3.195    0.687
       141 -10.2623    165.3196    105.6616   2.5472750601e+01   2.7109765280e+01     0.151415    0.1159681 -74.11 0.0004303172    1.710    0.415
       142 -13.1774    150.7383    103.5474   2.8051355613e+01   3.0731263778e+01    0.5203434    0.2999013 -59.27  0.002014889    2.343    0.573
       143 -12.0950    119.2908    103.7569   3.6046530879e+01   3.7704475914e+01    0.3511432    0.2227203 -51.64  0.001390514    1.651    0.394
       144 -10.0541    218.2766    104.5574   1.6210350903e+01   1.6577505711e+01    0.1388037   0.08803656 -55.48 0.0006912069    1.877    0.467
       145 -10.4594    195.3731    103.1818   1.9359791000e+01   2.1209243437e+01    0.1962872    0.1151481 -45.01  0.000914267    1.643    0.391
       146 -13.0027    130.6435    102.6635   3.2680821382e+01   3.5420974373e+01    0.3820476    0.2460271 -53.60  0.001631166    1.683    0.406
       147 -10.2428    185.2633    102.5896   2.0926990632e+01   2.3386343927e+01    0.1483365    0.1029332 -60.35 0.0006959453    1.750    0.429
       148 -12.7527    159.1657    100.6666   2.5454875036e+01   2.9393911832e+01    0.4241632    0.3631251  12.08  0.002197561    1.346    0.257
       149 -10.6110    225.5477     99.6761   1.4137659050e+01   1.5972367481e+01    0.1728379    0.1028736 -42.69 0.0007008921    1.499    0.333
       150 -10.1779    218.1284     84.6693   1.1684727243e+01   1.9531933754e+01    0.4069264   0.08329631 -34.28  0.001039305    4.038    0.752
       151 -10.9387    201.2635     53.3925   6.0998388767e+00   2.7443388379e+01    0.5138351    0.1020503 -40.86  0.001643785    3.718    0.731
       152 -10.2905    216.7765     99.7488   1.5333302264e+01   1.7573824778e+01    0.4200612    0.2537166 -87.80  0.001693601    3.756    0.734
       153 -10.6858    215.5348     94.0294   1.4193431590e+01   1.8660911407e+01    0.3365211    0.2140803 -17.33  0.001692524    1.826    0.452
       154 -11.4769    214.7929     80.4170   1.1110371976e+01   2.0801120529e+01    0.3393667    0.1821633 -41.49  0.001390527    1.611    0.379
       155 -10.3756    217.5667     90.1350   1.3023151935e+01   1.8845780464e+01    0.2830291    0.2115691  48.62  0.001101234    1.533    0.348
       156 -10.9880    202.7262     65.0849   8.8904387454e+00   2.5504945777e+01    0.9778526     0.211174 -40.17  0.003181939    3.569    0.720
       157 -10.6865    206.1415     74.3846   1.0766291868e+01   2.3441238697e+01    0.4464548    0.1945193 -49.18  0.001851723    2.355    0.575
       158 -11.0253    206.0427     85.1593   1.3404058007e+01   2.1865468170e+01    0.4997675    0.2931477 -48.04  0.001916588    1.642    0.391
       159  99.0000    208.3305     80.0139   1.1850466809e+01   2.2164007531e+01    0.5313236    0.3021934 -72.48  0.002199664    3.003    0.667
       160 -10.4482    211.3140     76.3914   1.0590743811e+01   2.2082484716e+01     0.372814    0.1941019 -40.22  0.001175609    1.651    0.394
       161 -11.3824    210.5255     71.5232   9.5131642419e+00   2.2941579798e+01    0.3313598    0.1584856 -51.96  0.001357935    2.215    0.549
       162 -11.7900    209.9902     91.0034   1.4250102418e+01   2.0192473613e+01    0.5881404     0.231679 -44.99  0.002387134    2.436    0.589
       163 -10.0205    212.8015     86.6561   1.2841795337e+01   2.0285081448e+01    0.3910132    0.2372987 -58.45  0.001734288    1.957    0.489
       164 -10.9127    203.0514     98.2987   1.6986195142e+01   2.0448812020e+01    0.2437097    0.1644867 -52.56 0.0008453975    1.568    0.362
       165 -12.1738    111.6572     98.3709   3.6760752675e+01   4.0565231524e+01    0.3523541    0.2677801  86.43   0.00154222    1.761    0.432
       166 -10.9057    195.7116     97.8758   1.8026534794e+01   2.1999229971e+01    0.2605093    0.1603027 -49.13 0.0008754316    1.654    0.395
       167 -11.5995    121.9033     98.1481   3.3770643876e+01   3.8339156577e+01    0.2476999    0.2182152 -87.75 0.0009326353    1.269    0.212
       168 -14.5569    237.1480    217.0506   3.4699698170e+01  -1.5697058114e+00     1.533287    0.7919769 -46.16  0.007952572    3.675    0.728
       169 -10.7906    183.5673     96.2473   1.9643366750e+01   2.4814694950e+01    0.2610601    0.1254951 -41.25 0.0008212103    1.934    0.483
       170 -14.2756    248.8145    127.8481   1.7046530860e+01   8.2293955455e+00     1.906322    0.2306484 -35.90  0.005530919    5.876    0.830
       171 -10.4681    207.2099     94.2441   1.5410044196e+01   2.0250674108e+01    0.1898129    0.1349145 -51.14 0.0006237362    1.415    0.293
       172 -10.4431    164.3963     94.1973   2.2669939641e+01   2.9401974161e+01    0.2185334    0.1306421 -48.35 0.0009438231    1.709    0.415
       173 -12.8802    124.9152     88.5849   3.0192236850e+01   3.9652232226e+01    0.4682418    0.2445044 -61.09  0.001556322    2.984    0.665
       174 -10.3446    225.3705     93.0931   1.2692035615e+01   1.6952158458e+01    0.1827437   0.09766217 -42.62 0.0008908924    1.643    0.391
       175 -10.7386    188.7667     92.9692   1.7942219798e+01   2.4246517634e+01    0.2268418     0.138036 -53.68 0.0008379638    1.820    0.450
       176 -10.7412    176.9890     93.0760   1.9994500672e+01   2.6782810219e+01    0.2327052    0.1640021 -62.18 0.0006813416    1.684    0.406
       177 -12.8423    141.5127     91.9091   2.6995080786e+01   3.5106859119e+01    0.4456019    0.2600295 -52.51   0.00181599    1.892    0.471
       178 -12.3257    121.4736     92.1255   3.2165364904e+01   3.9713886428e+01    0.3402039    0.2272969 -57.96  0.001432577    1.703    0.413
       179 -11.8015    157.9160     90.8054   2.3065474406e+01   3.1498302342e+01    0.3350664    0.2066235 -44.84  0.001324124    1.596    0.373
       180 -10.7776    203.4384     90.4237   1.5044888557e+01   2.1594495214e+01    0.2361415    0.1065852 -43.83  0.000707096    2.054    0.513
       181 -10.4835    196.8755     91.6277   1.6320063200e+01   2.2755887588e+01    0.1735865    0.1318306  76.12 0.0009168522    1.606    0.377
       182 -10.2147    183.3299     89.7126   1.8022432291e+01   2.5955066894e+01    0.1436227     0.107562 -70.03 0.0004141848    1.617    0.382
       183 -13.8291    130.6481     88.5360   2.8683565256e+01   3.8319565335e+01    0.5529023    0.3175414 -40.82  0.002268847    1.763    0.433
       184 -12.7002    126.7720     82.9071   2.7996489953e+01   4.0359222401e+01    0.4449752    0.2743566 -57.94  0.001607487    1.945    0.486
       185 -13.9948    128.5324     77.8263   2.5979073153e+01   4.0928937529e+01    0.6973015    0.4793743  84.71  0.002865294    2.074    0.518
       186 -10.7120    226.4611     87.9243   1.1395138884e+01   1.7486507833e+01    0.1940026    0.1066574 -36.40  0.000720106    1.520    0.342
       187 -10.3480    198.1143     87.1093   1.5020775705e+01   2.3206059758e+01     0.193401    0.1370389 -48.33 0.0008526969    1.348    0.258
       188 -10.2295    188.3678     87.1425   1.6536297407e+01   2.5277578940e+01    0.2004197    0.1156432 -45.98 0.0007227764    1.663    0.399
       189 -10.9308    163.9930     86.8100   2.0753158945e+01   3.0807824497e+01    0.2782389    0.1746342 -49.86  0.001088465    1.636    0.389
       190 -11.5256    214.0945    240.2989   4.1932521313e+01  -1.6486413940e+00    0.2364724    0.1374651 -25.23   0.00108232    1.662    0.398
       191 -12.1445    215.3443    233.3816   4.0727223300e+01  -9.9862641138e-01    0.3445075    0.2138855 -37.88  0.002008609    1.989    0.497
       192 -11.7188    159.0693     82.2387   2.0448710207e+01   3.2763108061e+01    0.3725919    0.2591576 -52.62  0.001051339    1.489    0.328
       193 -10.8266    170.5306     83.5501   1.8637153175e+01   2.9861340645e+01    0.2559696    0.1823318 -64.75 0.0008632047    1.650    0.394
       194 -10.4824    200.7080     83.1827   1.3673506902e+01   2.3267626049e+01    0.2166869    0.1432361 -51.99 0.0007900453    1.516    0.340
       195 -10.7457    193.2164     82.9385   1.4714324360e+01   2.4896803317e+01    0.2158425    0.1652982 -53.12 0.0007231591    1.284    0.221
       196 -10.5928    185.6656     82.9412   1.5891401215e+01   2.6544263901e+01    0.2056867    0.1145248 -44.64 0.0008812484    1.695    0.410
       197 -10.3687    225.5179     81.5348   1.0060900456e+01   1.8561572631e+01    0.1307053    0.1067713 -46.11 0.0003858658    1.094    0.086
       198 -13.9800    240.7562    208.4326   3.2773325561e+01  -9.8265294666e-01     1.214741    0.7007853 -51.81  0.005351318    5.526    0.819
       199 -12.8678    119.4425     79.5903   2.8926390176e+01   4.2766095707e+01    0.3909562    0.2980214 -54.93  0.001482995    1.388    0.280
       200 -12.1212    218.0762    246.8143   4.2177449800e+01  -2.8008668892e+00    0.3330492     0.165162 -34.10  0.001696692    2.170    0.539
       201 -11.3746    163.6518     65.4421   1.4770328354e+01   3.4478484472e+01    0.2819061    0.2422831 -62.25 0.0007859337    1.141    0.124
       202 -11.7658    166.5976     78.2241   1.7888702408e+01   3.1676931920e+01    0.3835837    0.2525706 -44.30  0.001058199    1.459    0.315
       203 -11.9542    163.4396     71.9446   1.6688341571e+01   3.3475378688e+01    0.4915515    0.2394484 -42.09  0.001246175    1.955    0.489
       204 -11.2545    201.1572     77.8946   1.2301248795e+01   2.3971962501e+01     0.324017    0.1511304 -43.56 0.0009301191    1.941    0.485
       205 -11.1783    174.7075     77.8835   1.6362322443e+01   2.9841235369e+01    0.3225421    0.1685056 -43.07 0.0009652252    1.806    0.446
       206 -10.8202    189.1897     78.1332   1.4095889849e+01   2.6525498347e+01     0.206263    0.1374813 -48.22  0.001022751    1.431    0.301
       207 -10.3898    194.3299     77.1563   1.3081855898e+01   2.5548936027e+01    0.2013005    0.1089319 -43.61 0.0008824879    1.689    0.408
       208 -10.3911    183.4623     76.9677   1.4678646569e+01   2.7987986727e+01    0.2152846    0.1274214 -40.37 0.0007699042    1.553    0.356
       209 -11.6789    157.2700     75.9115   1.8995485043e+01   3.4292726413e+01    0.4418193    0.2721357 -53.47  0.001479944    1.754    0.430
       210 -11.3540    156.8816     69.7047   1.7255604815e+01   3.5437848003e+01    0.3213706    0.2265485 -48.78 0.0007774625    1.403    0.287
       211 -11.1691    152.7171     66.6358   1.7138594955e+01   3.6973331701e+01    0.3714872    0.1999784 -40.56 0.0009399932    1.799    0.444
       212 -11.9696    157.7471     62.3481   1.4903908173e+01   3.6422926937e+01    0.4427999    0.2783495 -40.54  0.001333116    1.535    0.348
       213 -11.5394    153.0646     59.9676   1.5038345082e+01   3.7969444870e+01    0.3777262     0.291603 -24.58  0.001492303    1.433    0.302
       214 -10.3067    223.6833     76.2516   9.0640942316e+00   1.9647955422e+01    0.1248514   0.08789941 -61.42  0.000691349    1.527    0.345
       215 -14.7435    243.0009    134.2813   1.9080582618e+01   8.2197433977e+00     2.663969    0.6006835 -43.68  0.007509727    6.819    0.853
       216 -10.9062    248.5676     65.2764   4.1064108288e+00   1.6513559056e+01    0.3386505    0.1275911 -37.15  0.001639188    1.992    0.498
       217 -11.7640    248.0578     73.0057   5.7989426925e+00   1.5623149919e+01    0.5874859    0.1488856 -35.18  0.002368712    2.866    0.651
       218 -10.5843    250.6442     69.7278   4.8648450448e+00   1.5594034575e+01     0.192005    0.1015803 -31.07 0.0009887535    1.575    0.365
       219 -11.7827    219.7403    239.5937   4.0887083128e+01  -2.1904701102e+00    0.2912075    0.1598803 -30.04  0.001293914    1.826    0.452
       220 -11.8888    116.1619     71.6179   2.7258228588e+01   4.5127427911e+01     0.363671    0.2265002 -50.12  0.001418873    1.705    0.414
       221 -11.1945    199.6850     70.0807   1.0542138393e+01   2.5443325792e+01    0.4384595     0.107925 -45.21  0.001334646    4.055    0.753
       222 -10.7444    175.9883     71.7821   1.4481515468e+01   3.0525426740e+01    0.2600071    0.1873767 -40.12 0.0009393696    1.304    0.233
       223 -11.2457    107.3642     71.0119   2.9592211995e+01   4.7353994834e+01    0.3435896    0.2384832 -62.48  0.001424052    1.746    0.427
       224 -11.6483    170.0798     69.9831   1.4964395086e+01   3.2204908702e+01    0.4859535    0.2474782 -59.13  0.001810379    2.682    0.627
       225 -10.8672    214.4555     69.9337   8.6557935053e+00   2.2359192926e+01    0.2740614   0.07503079 -43.53 0.0009616063    3.176    0.685
       226 -10.5913    212.4976     66.4786   8.0534110122e+00   2.3242724510e+01    0.2560183    0.1135293 -34.51  0.001143549    1.947    0.486
       227 -12.1346    193.0043    246.8398   4.6502983991e+01  -1.4137532796e-02    0.3058347    0.1506555 -34.19  0.001780678    2.218    0.549
       228 -10.8075    218.4127     68.1920   7.7834597045e+00   2.1799572255e+01    0.1926004   0.09744662 -43.80 0.0008566867    1.702    0.412
       229 -11.1635    193.9628     67.5976   1.0677611844e+01   2.7062847857e+01    0.3126116    0.1712886 -40.55  0.001129292    1.626    0.385
       230 -12.1836     12.1609    248.5116   8.3515403873e+01   2.0941211716e+01    0.3139465    0.1065072  44.62  0.001728872    1.870    0.465
       231 -11.8056     20.1967    248.6365   8.1887017141e+01   2.0170429665e+01      0.29457    0.1068926  46.44  0.001623085    1.845    0.458
       232 -11.6121    201.5912    241.5435   4.4259901822e+01  -3.7967824483e-01    0.2565225   0.09804808 -37.38   0.00137142    2.856    0.650
       233 -12.0529      3.0077    242.4590   8.5215512245e+01   2.2830459022e+01    0.2593739    0.1117371  47.37  0.001561773    1.567    0.362
       234 -10.2571    223.2972     66.6809   6.8893987239e+00   2.1032742939e+01    0.1337491   0.08344303 -56.53 0.0007018833    1.615    0.381
       235 -10.9590    208.5782     63.8574   7.8737009371e+00   2.4426547361e+01    0.2644546    0.1046972 -38.14  0.001119376    2.109    0.526
       236 -11.4542    206.8236     58.9788   6.8698414294e+00   2.5472578477e+01    0.3591375    0.1670042 -37.40  0.001095061    1.833    0.455
       237 -11.3146    170.9992     63.9527   1.3105446166e+01   3.2933017863e+01    0.3160858    0.2257595 -58.25  0.000828302    1.438    0.305
       238 -11.4396    111.2867     63.5693   2.5883645519e+01   4.7849180637e+01    0.3572218    0.2255763 -64.06  0.001413921    2.159    0.537
       239 -10.5905    216.8136     63.0154   6.7304473661e+00   2.2829859941e+01    0.1754318   0.08785382 -33.68 0.0007666336    1.737    0.424
       240 -10.2191    213.2929     61.9417   6.8628610679e+00   2.3701397674e+01    0.1642527    0.1028026 -37.41 0.0004738507    1.378    0.274
       241 -10.2666    187.4258     62.2753   1.0177094018e+01   2.9320640406e+01     0.197583    0.1165081 -44.66 0.0005510538    1.553    0.356
       242 -10.3479    182.4135     62.1647   1.0858071136e+01   3.0497656940e+01    0.2054124    0.1152463 -45.80 0.0008304621    1.667    0.400
       243 -10.6229    222.1933     70.8905   7.9911983799e+00   2.0677683458e+01    0.1724101   0.08552703 -35.54 0.0008300414    1.693    0.409
       244 -11.0883    236.9142     57.3967   3.4309137024e+00   1.9619475628e+01    0.4684319   0.07870318 -41.50  0.001600671    3.857    0.741
       245 -10.7494    234.1443     59.2512   4.0996788673e+00   1.9907589770e+01    0.3633654    0.1177774 -38.65  0.001574283    2.326    0.570
       246 -11.6622    231.6157     52.0074   2.6931378571e+00   2.1309196717e+01    0.4749508    0.1981394 -24.30  0.002041359    2.706    0.630
       247 -10.0884    221.4703     59.5289   5.4071045602e+00   2.2351101364e+01    0.1326895    0.1049437 -51.76 0.0002745866    1.107    0.096
       248 -10.3541    173.9198     59.4388   1.1363961074e+01   3.2916065002e+01    0.1836438    0.1155088 -76.96 0.0004493371    2.056    0.514
       249 -10.4975    213.0000     57.9340   5.9215499551e+00   2.4303559012e+01     0.214635   0.07016181 -39.69 0.0006432412    2.444    0.591
       250 -10.4775    211.2586     54.6246   5.3002718792e+00   2.5111560958e+01    0.2197752   0.07679294 -48.61  0.000781943    2.786    0.641
       251 -10.4243    182.4871     57.9275   9.6878423824e+00   3.1100388913e+01    0.2085722    0.1299641 -35.81 0.0007316377    1.505    0.335
       252 -11.1382    250.2101     54.7915   1.7378437695e+00   1.7516444623e+01    0.4638832   0.06645912 -40.35  0.001644681    3.835    0.739
       253 -11.3066    185.4803     52.8414   7.8900945260e+00   3.1119331318e+01    0.3587543    0.1556583 -46.15  0.001470764    2.158    0.537
       254 -10.9355    175.6896     55.4527   9.9700761833e+00   3.3076397915e+01    0.2637985    0.1438288 -43.07  0.001063931    1.699    0.411
       255 -11.0922    169.2586     54.9476   1.0789688426e+01   3.4712921930e+01    0.3340436    0.1631995 -46.03  0.001384419    1.976    0.494
       256 -12.2487    205.9708    235.6069   4.2656968755e+01  -1.8459705246e-01     0.309351    0.1466896 -35.04  0.001831915    2.229    0.551
       257 -10.5120    207.2306     53.5886   5.4799229044e+00   2.6111710129e+01    0.1434837    0.0804929 -52.20 0.0004455374    1.682    0.406
       258 -10.7223    244.3784     51.2814   1.4519480258e+00   1.8990671083e+01    0.3206885   0.06755163 -36.63  0.001241961    3.077    0.675
       259 -11.4296    245.6747     45.6135   1.2574690462e-01   1.9432318033e+01    0.5231484    0.2221209 -42.01  0.002723041    1.781    0.439
       260 -10.9618    172.8407     50.5911   8.9932720550e+00   3.4463722786e+01    0.2867155    0.1540498 -48.95 0.0007447723    1.815    0.449
       261 -10.9867    167.4009     49.1668   9.3749509101e+00   3.6005400450e+01    0.2759377    0.1811004 -58.07 0.0006938724    1.564    0.361
       262 -10.3606    240.2540     49.6743   1.4349311013e+00   1.9949019880e+01    0.1260144   0.07113949 -51.81 0.0004300587    1.548    0.354
       263 -11.9507     16.5422    240.4823   8.2369273728e+01   2.1972808469e+01    0.3223675    0.0627664  31.06  0.001361348    3.103    0.678
       264 -10.2016    187.5534     68.5041   1.1817489764e+01   2.8367669241e+01    0.1434343     0.124244 -57.09 0.0008068323    1.085    0.078
       265 -10.4955    178.8433     43.7545   6.2235966595e+00   3.3940653104e+01    0.2314342    0.1413637 -39.91 0.0006836515    1.506    0.336
       266 -11.3204    201.3920    231.4358   4.2859357394e+01   8.5825942777e-01    0.1960203    0.1273819 -31.05  0.001141215    1.638    0.389
       267 -10.7891    233.3510     45.6052   1.0937565203e+00   2.1760439571e+01    0.2483254   0.08384449 -36.60  0.001102659    2.235    0.553
       268 -10.8824    174.4470     44.2236   6.9325182216e+00   3.4949154844e+01    0.4241894    0.1241487 -32.14  0.001442997    3.132    0.681
       269 -11.0364    173.3712     39.9625   5.8392083595e+00   3.5778864854e+01    0.2629744    0.1899903 -63.13  0.001003001    1.351    0.260
       270 -11.2367    173.1668     34.7167   4.3348801015e+00   3.6500064021e+01    0.3749696    0.1569261 -44.46  0.001150251    2.190    0.543
       271 -10.9364    164.9354     39.9794   6.9822905328e+00   3.7882518948e+01    0.3144042    0.1922043 -51.65  0.001224124    1.600    0.375
       272 -11.2411    169.0352     44.4631   7.7459705110e+00   3.6253030109e+01    0.3553652    0.1741607 -41.45 0.0009690553    1.886    0.470
       273 -11.4203    168.8735     37.6408   5.7438282723e+00   3.7198527651e+01     0.404732    0.1622755 -34.88   0.00161112    2.284    0.562
       274 -10.5142    169.2486     33.0004   4.3132368538e+00   3.7691273220e+01    0.2045317    0.1423056 -33.39 0.0005361503    1.432    0.302
       275 -10.3479    170.4797     29.5713   3.1437327866e+00   3.7800578582e+01    0.2250921    0.1308793 -31.73 0.0006699628    1.697    0.411
       276 -10.9899    237.9993     43.2268   1.8979300205e-01   2.1150932822e+01    0.2149645    0.1406722 -40.20  0.000719351    1.225    0.184
       277 -10.8067    200.5470     43.3547   3.6010575978e+00   2.8920393485e+01    0.2436368    0.1092114 -36.74 0.0007310936    1.912    0.477
       278 -10.7190    228.4496     37.2710   3.5958807601e+02   2.3725957961e+01    0.2219959   0.08045692 -41.13  0.000865467    2.095    0.523
       279 -10.6561    233.9903     38.0037   3.5932970073e+02   2.2542159918e+01    0.4068625   0.08587426 -37.82  0.001581381    3.020    0.669
       280 -11.2365    188.4380     44.0192   5.1213712864e+00   3.1617201781e+01    0.4620936    0.1452673 -36.63  0.001461204    2.643    0.622
       281 -10.7515     11.6682    232.3177   8.3138505586e+01   2.3935164138e+01    0.1276872   0.05572153  52.07 0.0006643001    1.689    0.408
       282 -10.8712    178.8290     50.5407   8.1407484938e+00   3.3019443618e+01    0.2853245    0.1482781 -48.26 0.0007376617    1.843    0.457
       283 -11.3396    179.6172     37.6176   4.3900524049e+00   3.4550712781e+01    0.2853983    0.1707996 -47.71 0.0008381981    1.536    0.349
       284 -11.2632    198.7610    226.9017   4.2664361124e+01   1.7424555075e+00    0.1971695    0.1329013 -33.31  0.001299719    1.641    0.391
       285 -13.8038    237.6629    158.8470   2.4586916190e+01   5.6504853161e+00     1.250949    0.6977159 -56.69  0.004894688    5.157    0.806
       286 -12.9171    117.2238     32.9320   1.2960016924e+01   5.1293371667e+01    0.4195462    0.2435974 -42.77  0.001656288    1.786    0.440
       287  -9.9231    225.5568     33.4956   3.5893899018e+02   2.4752794773e+01    0.1290555   0.09724156 -53.70 0.0004029058    1.093    0.085
       288 -12.0013    109.8988     32.0819   1.4306590641e+01   5.3334239013e+01    0.3643581    0.1911626 -42.52  0.001462857    2.003    0.501
       289 -10.0879    176.6466     32.2813   3.2147428796e+00   3.5941453154e+01    0.1487301   0.09209829 -65.71 0.0007014992    1.656    0.396
       290 -10.2821    236.6914     30.3000   3.5741596191e+02   2.2899580328e+01    0.1276541   0.06953457 -56.00 0.0003202325    1.598    0.374
       291 -10.8253    221.2995     29.4040   3.5830329052e+02   2.6101705887e+01    0.2167251    0.1066293 -47.68 0.0006264154    1.669    0.401
       292 -10.5995    178.9677     84.9936   1.7536818148e+01   2.7701643660e+01     0.235767    0.1605262 -62.06  0.001048295    1.727    0.421
       293 -10.1320    231.2443     28.6156   3.5740802096e+02   2.4161646732e+01    0.1326157     0.066684 -51.15 0.0006938712    1.650    0.394
       294 -10.3537    183.5871     28.3277   1.3390081125e+00   3.4723426673e+01    0.1658157    0.1286664 -24.04 0.0007334691    1.418    0.295
       295 -10.8383    166.2219     27.3266   2.9788217986e+00   3.9140599385e+01    0.2732971     0.133661 -51.04 0.0008559956    2.008    0.502
       296 -11.2995    113.5657     26.7610   1.1317415427e+01   5.3066187575e+01    0.2050505    0.1321015 -43.31 0.0009146512    1.626    0.385
       297 -11.7426    109.1034     25.9092   1.1962037113e+01   5.4352398140e+01    0.3525479    0.1838522 -41.17  0.001035706    2.007    0.502
       298 -11.4402    211.5904    227.5139   4.0501666343e+01   1.2642751997e-01    0.2884195    0.1399503 -34.26  0.001493063    2.109    0.526
       299 -11.6836    205.7125    225.1970   4.1176254033e+01   1.1096889964e+00    0.2489688    0.1385157 -39.31  0.001255088    2.101    0.524
       300 -10.2576    191.4379     21.9174   3.5884018496e+02   3.3582421344e+01    0.2031115   0.07245875 -48.60 0.0008064697    2.495    0.599
       301 -12.1096    111.9926     21.3568   9.4502065982e+00   5.4137798999e+01      0.26852    0.1915299 -59.35 0.0008803975    1.546    0.353
       302 -12.3098    103.0496     21.0075   1.1278975961e+01   5.6543105085e+01    0.2920395    0.2134618 -28.18  0.001476472    1.487    0.327
       303 -10.5249    182.3845     68.2375   1.2511374608e+01   2.9591190840e+01    0.2099165    0.1153574 -45.28 0.0009324585    1.709    0.415
       304 -11.7792    216.9145    223.5121   3.8991866416e+01  -1.7314521110e-02    0.2766582    0.2087849 -48.33  0.001382949    2.323    0.569
       305 -10.6708    201.4850    221.0500   4.1298929425e+01   2.1518303214e+00    0.1612668    0.1026123 -29.80 0.0008868051    1.590    0.371
       306 -10.9879    210.5376    218.2737   3.9279234078e+01   1.3873824439e+00     0.246674   0.09902224 -33.96  0.001279238    2.471    0.595
       307 -11.5925    219.5358    217.3900   3.7607885438e+01   4.1262615663e-01    0.2160312    0.1830318 -24.66  0.001175663    1.521    0.342
       308 -10.8960    204.8434    217.3375   4.0131528342e+01   2.2100115317e+00    0.1548292    0.1259619  -5.83  0.000844333    1.173    0.148
       309 -10.5440    200.7132    215.3657   4.0562100636e+01   2.9885423908e+00    0.0975517   0.09396061  38.38 0.0007021855    1.697    0.411
       310 -11.8396    216.6935    211.5961   3.7173548063e+01   1.4718105114e+00    0.2652828    0.1367673 -39.92  0.001513117    2.220    0.550
       311 -10.6390    212.3111    211.4818   3.7905268038e+01   2.0285392986e+00    0.1816279   0.09385113 -33.53 0.0008377247    1.906    0.475
       312 -10.7390    208.3874    212.2278   3.8706084327e+01   2.4246241418e+00     0.144758    0.1018662 -36.47 0.0007954689    1.657    0.396
