#   1 NUMBER                 Running object number                                     
#   2 MAG_AUTO               Kron-like elliptical aperture magnitude                    [mag]
#   3 X_IMAGE                Object position along x                                    [pixel]
#   4 Y_IMAGE                Object position along y                                    [pixel]
#   5 X_WORLD                Barycenter position along world x axis                     [deg]
#   6 Y_WORLD                Barycenter position along world y axis                     [deg]
#   7 A_WORLD                Profile RMS along major axis (world units)                 [deg]
#   8 B_WORLD                Profile RMS along minor axis (world units)                 [deg]
#   9 THETA_WORLD            Position angle (CCW/world-x)                               [deg]
#  10 FWHM_WORLD             FWHM assuming a gaussian core                              [deg]
#  11 ELONGATION             A_IMAGE/B_IMAGE                                           
#  12 ELLIPTICITY            1 - B_IMAGE/A_IMAGE                                       
         1 -14.7464    157.7380     50.8978   8.0062316646e+01   3.9522353123e+01     1.085896     1.046643 -55.37  0.003407771    1.093    0.085
         2 -15.0911    169.4967     21.6193   6.9603112720e+01   4.0390278471e+01     1.010283    0.8468021  82.07  0.003480769    1.105    0.095
         3 -13.6975    189.7500     14.0919   6.4831799467e+01   3.6262837846e+01    0.4114205    0.2794736 -62.14  0.001977127    1.516    0.340
         4 -11.9157    196.7883      6.5934   6.2166610941e+01   3.5346725853e+01    0.1893835      0.10646  84.99 0.0007099051    1.683    0.406
         5 -11.1104    125.2871    245.8309   1.2987298436e+02   6.6650895146e+00    0.1920653    0.1466208 -83.82  0.001011954    1.466    0.318
         6 -14.4675    199.0193    245.4073   1.1575411076e+02  -5.8631024641e+00    0.7102861    0.6440084 -18.34  0.004890966    1.241    0.194
         7 -11.0299    140.1425    249.8960   1.2756736909e+02   3.4554322325e+00    0.2877355    0.1894155  57.90  0.001649051    1.419    0.295
         8 -20.4840     82.7039    178.9815   1.2972255601e+02   2.7633566110e+01     15.87477     6.814937 -63.67   0.06613032    2.239    0.553
         9 -11.7973    237.7544    185.5577   9.7614945402e+01  -3.1194644519e+00    0.2549698     0.125341  38.14   0.00113992    2.089    0.521
        10 -11.9496    203.4847    174.3701   1.0185326635e+02   5.4043255595e+00    0.6526604    0.2541494 -55.38  0.001801335    5.078    0.803
        11 -13.9360    237.0370    174.1958   9.5422151406e+01  -1.0614951650e+00    0.5401131    0.4116405  58.66  0.002900787    1.648    0.393
        12 -12.5000    194.5159    172.0825   1.0319708977e+02   7.6789041773e+00    0.5613121    0.3532324 -55.57  0.001907718    1.866    0.464
        13 -11.9814    192.6081    165.4226   1.0217321097e+02   9.3989824435e+00    0.4593967    0.3236657 -69.19   0.00203587    1.956    0.489
        14 -12.1521    224.1294    173.6054   9.7676819420e+01   1.4700508937e+00    0.2501568    0.1889176 -45.76 0.0008099599    1.371    0.270
        15  -9.9441    207.2876    170.6281   1.0030581081e+02   5.3483841331e+00    0.1460669    0.1161804 -76.95  0.000702042    1.714    0.417
        16 -12.7817    239.9350    169.6257   9.3952299434e+01  -8.0483042817e-01    0.3231702    0.2283168  21.25  0.001039135    1.630    0.386
        17 -13.3708    161.5604    165.6232   1.0893927872e+02   1.5933417326e+01    0.7274563    0.4059016 -67.07  0.002600844    2.828    0.646
        18 -10.5117     30.6062    246.4543   1.4685969493e+02   2.0309409180e+01    0.1140427   0.07668729  74.42 0.0002422133    1.073    0.068
        19 -12.9796    189.1490    154.5351   1.0050601751e+02   1.2346492022e+01    0.6329534    0.5477374  25.56  0.002340223    1.244    0.196
        20 -11.5007     22.8369    156.2475   1.4056071929e+02   4.0365422583e+01    0.2058273    0.1938367  62.22 0.0006120623    1.304    0.233
        21 -12.8023    166.5378    154.9054   1.0550487041e+02   1.7189163067e+01    0.4640513    0.3264689  70.87  0.002007556    1.823    0.451
        22 -10.9072    151.9350    239.5774   1.2390936485e+02   3.1822951548e+00    0.2294077    0.1859454  21.46  0.001377173    1.435    0.303
        23 -12.4010    211.3379    238.6593   1.1235644518e+02  -6.9229287770e+00    0.2417195     0.204084  70.39 0.0009986962    1.725    0.420
        24 -12.4154    174.0633    148.6163   1.0241567437e+02   1.6893195095e+01    0.4971754    0.3504437 -60.70  0.001151045    1.604    0.376
        25 -13.1753    196.5201    227.8445   1.1336609775e+02  -2.7472256655e+00    0.3971085    0.1773083 -41.05  0.001786632    2.505    0.601
        26 -11.6580      9.8268    136.3205   1.4132783937e+02   4.5996580762e+01    0.4544571    0.2364657 -18.22  0.002057161    4.110    0.757
        27 -12.0348    207.8700    226.6262   1.1097464970e+02  -4.5298079885e+00    0.2168191    0.1719771 -15.75 0.0007356746    1.344    0.256
        28 -10.9877    158.0330    243.8646   1.2333569051e+02   1.3931523867e+00     0.289269    0.1761468 -41.45 0.0005828954    2.043    0.510
        29 -12.4940    207.6238    221.1049   1.1005639471e+02  -3.6165878079e+00    0.2857712    0.1966304 -44.30  0.001296607    1.650    0.394
        30 -13.1535    160.4919    127.9089   1.0057829201e+02   2.4409677421e+01    0.5548435    0.3897476 -57.64  0.001619131    1.522    0.343
        31 -10.9662     15.0217    218.2147   1.4760898433e+02   2.7591267734e+01     0.250647    0.1092781 -74.70  0.001283374    1.891    0.471
        32 -13.0101     37.8437    116.4707   1.3094979246e+02   4.8140316117e+01     0.498917    0.3279847  -3.97  0.001773724    2.290    0.563
        33  99.0000     16.4557    212.4283   1.4695302386e+02   2.8630520661e+01    0.3461302    0.1437145 -82.92  0.001329754    2.069    0.517
        34 -11.3097    231.3728    113.7440   8.3085644828e+01   1.1030799703e+01    0.2637857    0.2543106 -73.96  0.000768384    1.064    0.060
        35 -11.5501    167.5770    112.7364   9.5144267863e+01   2.5987876528e+01    0.4035375      0.30562 -84.51  0.001160751    1.694    0.410
        36 -11.1637    205.0528    110.6713   8.6964190801e+01   1.7550819509e+01    0.3583615    0.2808117  24.51  0.001123026    1.633    0.388
        37 -10.1981     16.7532    209.3414   1.4667632925e+02   2.9241421504e+01    0.1438979    0.0973815  54.00 0.0004091661    1.408    0.290
        38 -11.1868      9.6638    211.7118   1.4810987832e+02   2.9463252209e+01    0.1521641   0.09474932 -85.94 0.0003668805    1.232    0.188
        39 -13.1421     11.3433    206.1454   1.4742610239e+02   3.0452226455e+01    0.4085873    0.3460983  24.49  0.003043646    1.834    0.455
        40 -11.1209    217.7285    217.6634   1.0751164372e+02  -4.8270358434e+00    0.2921118    0.1802313 -51.13  0.001435254    2.121    0.529
        41 -10.5923     25.0031    213.5124   1.4549007213e+02   2.7495295921e+01    0.1483523    0.1101377  80.76 5.993413e-05    1.016    0.016
        42 -11.8355    160.7976    236.8873   1.2178778474e+02   2.0834780256e+00    0.3826548    0.3192164  15.21  0.002331486    1.398    0.285
        43 -10.8933    223.0184    198.7134   1.0295254094e+02  -2.6850274210e+00    0.1876687    0.1626012  20.98   0.00036664    1.077    0.071
        44 -12.3137     15.2825    195.8936   1.4592666383e+02   3.2238304928e+01    0.2202712    0.1515888 -69.64  0.001478775    1.373    0.272
        45 -10.5162     22.9814    191.8519   1.4409595488e+02   3.2340352035e+01    0.1584172     0.127531 -76.23            0    1.237    0.192
        46 -14.6361    147.4474     65.4706   8.6554632207e+01   3.9729814797e+01     1.224526     1.044523  34.51  0.004003218    1.218    0.179
        47 -14.7301    187.4738    244.3008   1.1776113954e+02  -3.7550539551e+00     1.164273    0.9752674  64.18  0.005262731    1.443    0.307
        48 -13.5764    161.9536     42.0181   7.6666136510e+01   3.9738948525e+01    0.5354702    0.4733011  74.89 0.0008086858    1.075    0.070
        49 -11.4031     13.5452     59.9064   1.2673673037e+02   6.2121104059e+01    0.1756685    0.1595718  -1.11 0.0004166668    1.300    0.231
        50 -11.7203     26.7801     58.6673   1.2149163372e+02   6.1354172618e+01    0.3194115    0.1873322   6.09  0.001505511    2.048    0.512
        51  -9.7458     40.3963    245.3597   1.4516328032e+02   1.9330279211e+01    0.1110066   0.08138329  72.62 0.0003034901    1.036    0.035
        52 -11.1575     17.6940    187.6767   1.4478035428e+02   3.3785109236e+01    0.2266572    0.1410301 -75.51 0.0008599441    1.300    0.231
