#   1 NUMBER                 Running object number                                     
#   2 MAG_AUTO               Kron-like elliptical aperture magnitude                    [mag]
#   3 X_IMAGE                Object position along x                                    [pixel]
#   4 Y_IMAGE                Object position along y                                    [pixel]
#   5 X_WORLD                Barycenter position along world x axis                     [deg]
#   6 Y_WORLD                Barycenter position along world y axis                     [deg]
#   7 A_WORLD                Profile RMS along major axis (world units)                 [deg]
#   8 B_WORLD                Profile RMS along minor axis (world units)                 [deg]
#   9 THETA_WORLD            Position angle (CCW/world-x)                               [deg]
#  10 FWHM_WORLD             FWHM assuming a gaussian core                              [deg]
#  11 ELONGATION             A_IMAGE/B_IMAGE                                           
#  12 ELLIPTICITY            1 - B_IMAGE/A_IMAGE                                       
         1 -10.8577    184.1737     80.0030   8.9172740409e+01   2.8387884249e+01     1.121731    0.4536227 -23.55  0.003706171    2.972    0.663
         2  -8.2481     80.3335     12.5741   9.0200464091e+01   6.2440997008e+01    0.2546662    0.1853977 -50.00   0.00105287    1.761    0.432
         3  -9.6919     11.8575     10.0842   1.1959886206e+02   7.1866167976e+01    0.2229797    0.1885416 -19.55 0.0005660051    1.258    0.205
         4  -7.9782     22.9256      8.2697   1.1289215132e+02   7.1316117873e+01    0.1653306    0.1273471 -30.75 0.0003746779    1.073    0.068
         5  -7.7116     59.6906      6.9736   9.4971876753e+01   6.6867607526e+01    0.1943073    0.1440946 -19.97  0.001145202    1.131    0.116
         6  -8.3941     12.0121      4.0544   1.1687557438e+02   7.3008168492e+01    0.2011793    0.1030192 -33.02 0.0007051195    1.736    0.424
         7  -8.2663     33.7551      2.0025   1.0404421903e+02   7.1272545929e+01    0.1945971    0.1639919  -2.87 0.0005256841    1.205    0.170
         8  -7.9396    220.3470    238.5033   1.1437087537e+02   1.0219102348e+00    0.1406695   0.09343027 -21.30 0.0009633346    1.839    0.456
         9  -8.5064    250.0663    250.1838   1.1156277971e+02  -3.9631381173e+00    0.1587332   0.08909445  23.56 0.0007537177    1.307    0.235
        10 -10.1602    232.8221    249.7639   1.1398123828e+02  -1.6283888069e+00    0.3311107    0.1988812  43.48  0.002177286    1.539    0.350
        11  -9.5581    233.3758    244.0617   1.1316385282e+02  -1.2604006285e+00    0.3155202    0.1506073  20.71  0.001928217    2.151    0.535
        12  -9.5789    243.8340    234.6814   1.1035730400e+02  -1.9693612355e+00    0.3351196    0.1574916  27.54  0.002121856    1.687    0.407
        13  -8.4102    245.4857    229.5085   1.0937942874e+02  -1.7908287695e+00    0.1412445   0.08472909  -2.17 6.335815e-05    1.729    0.422
        14 -10.2082    239.9563    239.5231   1.1159391579e+02  -1.8112734047e+00    0.3589353    0.1774601  13.22  0.002154265    2.374    0.579
        15 -10.2822    243.0652    244.7475   1.1184467676e+02  -2.6352356359e+00     0.292059    0.1778973  30.80  0.001611844    1.119    0.106
        16  -9.5285    247.8379    238.2147   1.1026548858e+02  -2.7928478006e+00    0.4538648    0.1895507  18.96  0.002367118    2.975    0.664
        17  -9.3423    250.1516    232.1060   1.0906768847e+02  -2.6450703676e+00    0.3064776    0.1644714   5.44  0.001796832    2.000    0.500
        18  -9.7383    225.3355    248.9541   1.1497022995e+02  -5.4416972804e-01    0.2156922    0.1690542   5.42  0.001864054    1.347    0.258
        19 -11.1269    204.1488    248.4233   1.1804567242e+02   2.4387055842e+00    0.5286658     0.484377 -88.20  0.004597891    1.909    0.476
        20 -11.6471    189.4729    247.6741   1.2017152911e+02   4.5683424441e+00    0.8299811    0.4311176  33.17   0.00562306    1.515    0.340
        21 -11.5482    156.0633    247.5963   1.2527690388e+02   9.2546756465e+00    0.7473335    0.5387264  35.98  0.006065829    1.158    0.136
        22 -11.3984    164.7863    243.9828   1.2355505684e+02   8.4252438730e+00    0.7356208    0.4460628  16.96  0.004673082    2.438    0.590
        23 -11.3445    175.2939    248.1795   1.2238711736e+02   6.5120041486e+00    0.6332825    0.4742207  41.27   0.00524488    1.101    0.091
        24  -9.2939    167.0301    249.0975   1.2374757113e+02   7.5729602599e+00     0.309698    0.1962599  34.86  0.001658701    1.246    0.198
        25  -9.4280    248.7014    224.7057   1.0820289388e+02  -1.8596653753e+00    0.2544875    0.1114959 -28.95  0.001539639    2.695    0.629
        26  -8.0731    242.6108    224.8010   1.0912258039e+02  -9.9966631554e-01      0.12795   0.09400434 -26.87 0.0009631778    1.793    0.442
        27  -7.5772     22.5551    225.4541   1.4442672034e+02   2.8252797407e+01   0.09202654   0.06201628  64.95 0.0001200557    1.002    0.002
        28  -8.4109    239.2528    219.3308   1.0881766669e+02  -4.9388877566e-02    0.1866612    0.1130274  -2.31  0.001244729    1.751    0.429
        29  -8.0098    227.6188    218.1932   1.1043222604e+02   1.7761251451e+00    0.1408674   0.09046646  -4.40 0.0004659354    1.699    0.411
        30  -9.4485    248.7747    215.5080   1.0680034723e+02  -1.1132419546e+00    0.3058323    0.1647717 -11.88  0.001945208    2.007    0.502
        31  -7.5269    233.6830    210.6660   1.0835273488e+02   1.5587746303e+00    0.1183435   0.06668181  18.44 0.0007047873    1.693    0.409
        32  -7.7402    250.7515    200.0129   1.0401494213e+02  -6.0404130519e-02     0.131176   0.08535556 -14.49 0.0004179057    1.549    0.355
        33  -9.3365    184.2137    195.1950   1.1410500098e+02   1.1137716006e+01    0.1882259    0.1537392  37.89 0.0002439517    1.081    0.075
        34  -8.8392     68.6606    145.3368   1.2992471461e+02   3.7373487613e+01    0.2410617    0.1743115 -86.86   0.00154089    1.303    0.233
        35  -8.7384     65.5208    143.5051   1.3039952294e+02   3.8127684961e+01    0.2374148    0.1456075  60.26  0.001036391    1.603    0.376
        36  -8.6453    243.0000    139.9971   9.3802858104e+01   7.4520682004e+00    0.2090293   0.06848025 -27.15 0.0008066875    2.972    0.664
        37  -7.1839    194.2713    131.7230   1.0044414312e+02   1.8111632652e+01    0.1224374    0.1114919 -82.52  0.000688875    1.488    0.328
        38 -10.5457    239.8988    123.3154   9.0576506730e+01   1.0038928065e+01    0.4053811      0.29024  33.71 0.0004432837    1.301    0.231
        39  -7.7409     63.1121    247.8159   1.3943393145e+02   2.0953807417e+01    0.1098585   0.08916401  54.58 0.0004172339    1.292    0.226
        40  -9.4383    238.4204     83.2970   8.0932358540e+01   1.5342482344e+01    0.2775728    0.1309573 -19.13  0.001128023    2.098    0.523
        41 -10.1441    247.6378     72.7144   7.6871117903e+01   1.4611051902e+01    0.4181881    0.2055501  37.37  0.001772081    2.252    0.556
        42  -7.9194    102.4949     70.0674   1.0569157167e+02   4.8095553700e+01    0.2141212     0.133006 -45.80  0.000445848    1.506    0.336
        43  -8.9753    249.5924     77.2652   7.7796034138e+01   1.3648003089e+01    0.2894158    0.1141161 -28.55  0.001154751    2.198    0.545
        44  -8.9473     62.8809     59.5768   1.1500667375e+02   5.6551877405e+01    0.3952578    0.1442895 -39.06  0.001395352    3.400    0.706
        45  -8.8442      3.4523     58.7577   1.3589076280e+02   6.2016220594e+01    0.2331602   0.09079938 -76.62  0.001151466    2.138    0.532
        46  -9.1857    245.4714     56.9856   7.2960503974e+01   1.6932805387e+01    0.2266346    0.1264221 -23.15  0.001033637    1.604    0.377
        47  -7.8728     15.6372     54.6753   1.3076669052e+02   6.2223077685e+01     0.126375   0.06798409 -43.34 0.0007040756    1.789    0.441
        48  -7.8313     95.0107     52.6872   1.0224077029e+02   5.2895524891e+01    0.1921279    0.1780066 -28.16 0.0004588362    1.033    0.032
        49  -8.5491    248.2252     47.7989   7.0149184518e+01   1.7343737414e+01    0.1935707    0.1502023  17.76 0.0004714829    1.346    0.257
        50  -7.7968     47.5694     47.4707   1.1686484302e+02   6.0996455783e+01    0.1309944    0.1048458 -44.37 -4.911249e-06    1.057    0.054
        51  -9.0012    153.6091     43.7708   8.3750629344e+01   4.1457154409e+01    0.2232186    0.1351059 -37.18 0.0007432362    1.640    0.390
        52  -8.6807     10.8904     42.5525   1.3002173276e+02   6.5169988658e+01    0.2112219    0.1167844 -57.28  0.001268961    1.336    0.252
        53  -8.7188     15.6099     40.5967   1.2762392544e+02   6.5302618890e+01    0.3059731    0.1017582 -69.28    0.0012594    2.948    0.661
        54  -8.8535    146.5727     42.8052   8.4926640709e+01   4.3345431476e+01    0.2251759     0.135165 -38.61 0.0008398372    1.671    0.402
        55  -7.8021     92.0565     36.6814   9.7138720547e+01   5.6386171321e+01    0.1887839    0.1735634   5.57 0.0003621057    1.097    0.089
        56  -8.7911      1.4335     31.2636   1.3142861027e+02   6.8094832444e+01    0.2069449   0.08499391 -66.68 0.0003022802    1.808    0.447
        57  -8.0344    143.1439     27.0202   7.9731986126e+01   4.6397751477e+01    0.2312114    0.1862073  17.60 0.0003133198    1.250    0.200
        58  -8.6753     84.6440     21.6075   9.3066522338e+01   6.0280962976e+01    0.2481571    0.2118129 -32.38 0.0006370782    1.177    0.150
        59  -8.6375     15.7092    248.7361   1.4623331373e+02   2.5566509359e+01    0.1413377   0.03295364  47.27 0.0009040712    2.381    0.580
        60  -8.0200     56.2959     13.0637   9.9530884597e+01   6.6443623698e+01    0.2207989   0.08767075 -24.04 0.0007032683    4.255    0.765
        61  -8.5639      5.6661    248.6744   1.4760072301e+02   2.6458413059e+01   0.06638033   0.06073945  85.16 0.0005444035    1.714    0.416
        62  -8.2696    249.0485    245.4771   1.1108212763e+02  -3.4929390001e+00    0.1518721   0.06948046  36.40 0.0005779651    1.526    0.345
        63 -10.4382    187.8728    233.1644   1.1869862527e+02   6.2353600728e+00    0.2549904    0.2034155  42.41  0.001228251    1.209    0.173
        64 -10.8928    212.2577    247.6739   1.1674386311e+02   1.3713297063e+00     0.416061     0.360163  16.65  0.003647436    1.332    0.249
