#   1 NUMBER                 Running object number                                     
#   2 MAG_AUTO               Kron-like elliptical aperture magnitude                    [mag]
#   3 X_IMAGE                Object position along x                                    [pixel]
#   4 Y_IMAGE                Object position along y                                    [pixel]
#   5 X_WORLD                Barycenter position along world x axis                     [deg]
#   6 Y_WORLD                Barycenter position along world y axis                     [deg]
#   7 A_WORLD                Profile RMS along major axis (world units)                 [deg]
#   8 B_WORLD                Profile RMS along minor axis (world units)                 [deg]
#   9 THETA_WORLD            Position angle (CCW/world-x)                               [deg]
#  10 FWHM_WORLD             FWHM assuming a gaussian core                              [deg]
#  11 ELONGATION             A_IMAGE/B_IMAGE                                           
#  12 ELLIPTICITY            1 - B_IMAGE/A_IMAGE                                       
         1 -14.6741     68.5734    144.4092   1.0292742593e+02   3.7529808411e+01      5.22614      2.66816  68.53  0.007604515    3.568    0.720
         2 -14.3434    214.2617     27.5506   3.9157174883e+01   2.8604148767e+01     1.144519    0.9168469  30.75  0.006703773    1.762    0.432
         3 -14.4580    202.2579     39.4189   4.3424321388e+01   2.9911766586e+01     1.914213     1.438994  30.74  0.006687703    1.844    0.458
         4 -13.0709    239.4693      3.8362   3.1815460079e+01   2.5728863192e+01    0.7782681    0.4021723  78.50  0.004394393    1.772    0.436
         5 -11.1407     56.5424      6.0610   6.4201815577e+01   6.7098814646e+01    0.4018596     0.235181  62.90  0.001903947    3.088    0.676
         6  -9.8862      2.2497      2.6974   9.0584546834e+01   7.4343423104e+01    0.1768317   0.05953689 -37.29 0.0009005676    2.348    0.574
         7 -11.9163    193.6579    195.8347   8.1630721340e+01   4.0033687120e+00    0.9566486    0.6049155 -70.05  0.003621015    3.909    0.744
         8 -11.1089    139.8994    249.9295   1.0132442241e+02   3.6117766658e+00    0.3058931    0.1866742 -62.98  0.001682086    2.247    0.555
         9 -13.7076      8.2155    188.9784   1.2322007128e+02   3.3423992483e+01    0.7517072     0.415078 -58.02  0.002447329    1.949    0.487
        10 -15.9353      7.0864    167.8533   1.2199608252e+02   3.8324921380e+01     6.605829     1.529651 -74.93    0.0248552    3.427    0.708
        11 -15.6890     41.1994    199.9986   1.1687682691e+02   2.7649052051e+01     4.940063     1.959978  56.94   0.02156703    2.579    0.612
        12 -14.4519     51.1996    190.3305   1.1367318339e+02   2.8658728888e+01     2.675059     1.302324  62.41   0.01209469    2.261    0.558
        13 -15.6701      9.4826    207.4260   1.2408426129e+02   2.9296387201e+01     1.640852     1.315356  80.14   0.00776921    1.089    0.082
        14 -14.8223     57.4251    240.0713   1.1684003828e+02   1.7305781125e+01     1.154919    0.7858731  87.30  0.004315769    1.421    0.296
        15 -16.3430     33.7019    249.3812   1.2192903142e+02   1.8389214435e+01     11.00738     3.463026  25.64   0.02654863   13.186    0.924
        16 -11.3815    207.8260    194.5594   7.8535395984e+01   1.7886241401e+00    0.3872057    0.1723602 -38.10  0.001671742    2.252    0.556
        17  -9.0343    133.9866    196.2505   9.4857027231e+01   1.4605556103e+01    0.1845002    0.1137871  39.08 0.0003802873    1.489    0.328
        18  -9.4564    120.0209    194.0343   9.7771754936e+01   1.7518654802e+01    0.2082595    0.1914036  57.21 0.0003296089    1.031    0.030
        19 -10.1438     66.0539    193.1907   1.1050257156e+02   2.6090532079e+01    0.3693684    0.2283721  84.25   0.00184492    1.780    0.438
        20  -9.2693     72.3983    188.3116   1.0839831751e+02   2.6340761785e+01    0.1755272    0.1216227 -84.57 0.0003289847    1.471    0.320
        21  -8.7981     77.2770    185.6761   1.0687056426e+02   2.6256881577e+01    0.1423944   0.09627575  71.25  0.000366943    1.585    0.369
        22  -9.5872     80.3490    183.9399   1.0588069025e+02   2.6212474819e+01    0.2521052    0.1713275  61.96 0.0008607018    1.495    0.331
        23  -9.3712     69.2510    183.2476   1.0852066424e+02   2.7961962395e+01    0.1939289    0.1419177  71.35 0.0007616387    1.351    0.260
        24  -9.9965     99.3985    180.9016   1.0070119205e+02   2.3949003263e+01    0.2544096    0.2039171  32.99 0.0005653144    1.292    0.226
        25  -9.0723     90.4833    181.5078   1.0301772931e+02   2.5237668730e+01    0.1423846    0.1294231  70.78 3.442658e-05    1.013    0.012
        26  -9.8830    143.4981    179.0265   8.9569229121e+01   1.6527087916e+01    0.2156813    0.1474359 -48.81 0.0004466983    1.539    0.350
        27 -10.1876    187.8893    173.5181   7.8450543889e+01   9.1688818137e+00    0.3916214    0.2139665 -59.69  0.001457221    3.036    0.671
        28  -9.2895    149.4489    176.9595   8.7766627740e+01   1.5842467473e+01    0.2112864    0.1475174 -49.70 0.0004643647    1.512    0.338
        29 -13.3999     79.7123    160.5430   1.0253645243e+02   3.1922987536e+01     1.882336    0.6725912  53.49 0.0005910001    4.392    0.772
        30 -13.6821     67.9629    156.4653   1.0507161271e+02   3.4618144015e+01     0.626403    0.4826217 -47.74  0.001645648    1.382    0.277
        31 -16.6939      7.3318    245.8772   1.2639557536e+02   2.1830801028e+01     2.410487     2.167978   7.85   0.01935439    1.862    0.463
        32 -10.1063     34.9157    171.9856   1.1567213837e+02   3.4816424955e+01    0.1981882    0.1631316  85.33 0.0003988123    1.031    0.030
        33 -10.7424    230.5487    167.2183   6.8798052401e+01   2.5449213101e+00    0.2728458    0.1200513 -42.43  0.001151732    2.216    0.549
        34 -10.4886    137.2368    167.3054   8.8822288316e+01   2.0291300993e+01    0.4247308    0.2358796  57.61  0.001625011    2.346    0.574
        35  -8.8989    111.2657    167.6860   9.5449271159e+01   2.5015677899e+01     0.147943    0.1131167  77.66 0.0002428642    1.545    0.353
        36  -9.9123    155.3300    156.8336   8.2257060312e+01   1.9022106824e+01    0.4698078    0.2794663 -74.73   0.00152229    3.697    0.730
        37 -12.2204     87.2907    154.2350   9.9398968040e+01   3.2301338319e+01    0.6298333    0.4691136 -23.74  0.002380687    1.818    0.450
        38 -10.8248     33.4210    156.3148   1.1434816799e+02   3.8748492251e+01    0.2795111    0.2196139  57.67   0.00100211    1.269    0.212
        39 -10.3767    235.3719    155.1790   6.5447045075e+01   3.7486007217e+00    0.1958423    0.1150394 -44.35 0.0001582513    1.689    0.408
        40 -10.3762     59.0715    151.1817   1.0670769128e+02   3.7107413953e+01    0.2935216    0.2129844 -20.50  0.001455965    1.962    0.490
        41 -11.6147     54.5151    147.2433   1.0738501904e+02   3.8655610600e+01    0.6872623     0.307181 -59.25  0.002950347    1.982    0.496
        42  -9.0603    187.3087    151.6656   7.3901389728e+01   1.3559854334e+01    0.1479339    0.1212673 -82.51 0.0006642602    1.674    0.403
        43 -11.1689    133.6652    144.2128   8.4865831706e+01   2.6255495277e+01     1.203828    0.3052125 -54.44  0.002760471    5.843    0.829
        44 -10.2903    174.5838    148.9997   7.6074408090e+01   1.6719739176e+01    0.2821611    0.2645056  67.97 0.0008910747    1.182    0.154
        45 -12.1907     66.6174    174.8165   1.0807444728e+02   3.0325994178e+01    0.4753827    0.2906931 -39.51  0.002201664    2.207    0.547
        46 -10.7227     29.9255    144.1315   1.1384074553e+02   4.2068860572e+01    0.4357656    0.2733343  21.87  0.002335381    1.933    0.483
        47 -10.8918    101.6127    139.6452   9.2557989915e+01   3.3468399156e+01    0.5997093    0.3746537 -24.29   0.00230626    2.557    0.609
        48 -11.3803     80.8273    140.8497   9.8751401102e+01   3.6622993785e+01     0.373614    0.2527075  64.67  0.001023351    1.783    0.439
        49 -12.3201     88.7406    139.5159   9.6205863977e+01   3.5697356073e+01    0.2989799    0.2564592 -45.80 0.0003501206    1.186    0.157
        50  -9.2133     32.2415    138.0171   1.1240400099e+02   4.3357788666e+01    0.1812258     0.150952 -79.85  0.000394477    1.043    0.041
        51 -11.0861     25.8762    137.6654   1.1417369261e+02   4.4021720668e+01    0.3690807    0.1936289  36.49  0.001320505    2.040    0.510
        52 -10.4550    106.0175    130.8501   8.9376191870e+01   3.4799216543e+01    0.3664303    0.3244698 -76.09  0.001471647    1.188    0.158
        53 -10.1835    110.9580    130.0804   8.7793569764e+01   3.4055307338e+01    0.3350478    0.2659769  14.82  0.001100722    1.515    0.340
        54 -10.4596    135.7643    128.8715   8.0740526884e+01   2.9337358494e+01    0.3789015    0.1324078 -49.00  0.001175927    2.931    0.659
        55 -11.1506     44.5229    129.6360   1.0754507213e+02   4.4195158008e+01    0.2311737    0.2257888 -23.22 0.0008489122    1.169    0.144
        56  -9.9177    160.7114    127.9812   7.4315127584e+01   2.4130152768e+01    0.2340929    0.2069067 -42.73  0.001173637    1.125    0.112
        57 -10.8818     98.1742    126.2151   9.0596273248e+01   3.7343237801e+01    0.3176073    0.2592129 -18.75  0.001247299    1.462    0.316
        58 -12.1959     71.1845    170.0005   1.0623714767e+02   3.0855763064e+01    0.4657767     0.267025 -55.30 0.0006082422    1.732    0.423
        59  -9.6311    116.9904    124.0810   8.4665885073e+01   3.4299727599e+01    0.2523665    0.1938728  -9.34  0.001120535    1.733    0.423
        60  -9.6160     87.4715    120.8465   9.2582452950e+01   4.0490075876e+01    0.4079659     0.244261  83.56  0.001344133    3.681    0.728
        61  -9.6955    135.0000    119.9930   7.8734403458e+01   3.1504760481e+01    0.2638579   0.08975033 -46.06 0.0008012453    2.934    0.659
        62  -9.9306    107.5060    119.0679   8.6154856773e+01   3.7328633240e+01    0.2136955    0.2037819  35.48 0.0002975231    1.070    0.065
        63 -10.1157    146.5937    171.8740   8.7452751223e+01   1.7482723697e+01    0.2871333    0.1902351 -64.10  0.001260449    1.883    0.469
        64  -8.9788    168.4797    113.4729   6.8879801047e+01   2.5417289554e+01    0.1558171    0.1504999 -73.29 0.0008089024    1.064    0.060
        65  -9.6213    135.0000    112.4939   7.6794021233e+01   3.3171045082e+01    0.3550181   0.08971909 -45.04 0.0009366054    3.950    0.747
        66 -10.1347    205.5430    110.2575   6.0595137183e+01   1.7686765146e+01    0.2963311    0.2368501  42.55 0.0009117453    1.345    0.256
        67 -10.7872     33.6672    108.7136   1.0743100012e+02   5.0433572737e+01    0.3401222    0.2168821 -70.44  0.001786496    1.443    0.307
        68  -8.9434    138.8794    105.8263   7.3995215935e+01   3.3758984291e+01    0.2132798    0.1871735  86.79 0.0004755782    1.311    0.237
        69  -9.3990    134.6334    105.7892   7.5097009399e+01   3.4712629293e+01    0.2294115    0.1464784 -53.08 0.0007070935    1.681    0.405
        70 -11.5320    247.7963    102.2808   5.2090069764e+01   1.0363393754e+01    0.2516201    0.2172105 -27.54  0.001535611    1.163    0.140
        71 -10.9333    242.0195    101.5248   5.2725689863e+01   1.1606715230e+01    0.1921503    0.1357314  56.37 0.0007619979    1.606    0.377
        72 -10.8750     36.1105    101.0880   1.0516817000e+02   5.2047401175e+01    0.3120719    0.2095995 -78.96  0.001628745    1.611    0.379
        73  -9.2991    125.2596     92.4333   7.3884391738e+01   3.9615716681e+01     0.210777    0.1485196  58.53 0.0004982213    1.590    0.371
        74 -10.0750     52.8212     90.8500   9.6954984903e+01   5.2667097971e+01    0.1862142    0.1634512 -86.15 0.0004906556    1.331    0.249
        75  -9.3054    156.5002     88.6563   6.4918815813e+01   3.3150017411e+01    0.3105561    0.2037518 -68.26  0.001235987    2.177    0.541
        76  -9.4507    234.3155     86.3077   5.0380590000e+01   1.5654229954e+01     0.129912    0.1074948   7.69  0.000278733    1.629    0.386
        77  -9.1797     75.1579     85.1784   8.7458541948e+01   5.0819747905e+01     0.188669    0.1710167  70.39 0.0005756819    1.337    0.252
        78 -10.1033    112.6740     82.3168   7.4462661126e+01   4.4410995257e+01    0.3570361    0.2613486  82.12  0.001531712    2.125    0.529
        79  -9.5194    159.4398     82.4696   6.2509593001e+01   3.3604770514e+01    0.1513676    0.1486017  89.84 9.296905e-05    1.007    0.007
        80  -8.6173     69.4158     81.4372   8.8410585291e+01   5.2529856337e+01    0.1385694    0.1314125 -41.19 0.0001831063    1.096    0.088
        81  -8.9065    184.5190     77.4423   5.6081376972e+01   2.8422012377e+01    0.1452101    0.1433794  65.29  0.000129596    1.075    0.070
        82  -8.8338     52.1996     64.3898   8.9772717192e+01   5.8540950269e+01     0.167217    0.1229614  38.29 0.0002721157    1.549    0.354
        83 -10.7089     13.5115     59.9823   1.0482867848e+02   6.3145774473e+01    0.2373155    0.1812179 -50.72 0.0004207305    1.098    0.089
        84 -11.1263     61.0926    198.5747   1.1225674225e+02   2.5526864694e+01    0.2685591    0.2362755 -78.83 0.0004312273    1.171    0.146
        85 -13.2025    192.6258     46.1935   4.6459018580e+01   3.1310678011e+01     0.772594    0.6198779  54.08 0.0009617211    1.304    0.233
        86  -8.8951     93.6601    205.6800   1.0561383215e+02   1.9297753097e+01    0.1299717    0.1074031 -13.98 1.680721e-05    1.715    0.417
        87 -10.1746    142.9709     40.0530   5.3218475816e+01   4.4469056883e+01    0.2136135    0.1966399  66.99 0.0003376565    1.036    0.035
        88 -10.9132    188.0042     31.0386   4.3116071516e+01   3.4432183765e+01    0.2168919    0.1897792 -85.81 0.0006473092    1.026    0.025
        89 -11.1923      3.6608     24.9290   9.9162205440e+01   7.0606390912e+01    0.3870583    0.2243506  26.56  0.002423286    2.039    0.509
        90  -9.7316    189.6718     15.0187   3.8750003671e+01   3.5872188728e+01    0.1805041    0.1595753 -59.76 0.0007183572    1.150    0.130
        91 -11.1467    139.3081     44.9776   5.5575964534e+01   4.4688971599e+01     0.343408    0.2710639 -85.15 0.0004902098    1.518    0.341
        92 -10.3482    107.7068    204.2999   1.0219391859e+02   1.7371279395e+01    0.2114281    0.1788388  71.18 0.0005116242    1.179    0.152
        93 -11.1009    109.8622    201.1101   1.0123741459e+02   1.7702317505e+01    0.3053691     0.231638 -78.42 0.0008750245    1.483    0.325
