#   1 NUMBER                 Running object number                                     
#   2 MAG_AUTO               Kron-like elliptical aperture magnitude                    [mag]
#   3 X_IMAGE                Object position along x                                    [pixel]
#   4 Y_IMAGE                Object position along y                                    [pixel]
#   5 X_WORLD                Barycenter position along world x axis                     [deg]
#   6 Y_WORLD                Barycenter position along world y axis                     [deg]
#   7 A_WORLD                Profile RMS along major axis (world units)                 [deg]
#   8 B_WORLD                Profile RMS along minor axis (world units)                 [deg]
#   9 THETA_WORLD            Position angle (CCW/world-x)                               [deg]
#  10 FWHM_WORLD             FWHM assuming a gaussian core                              [deg]
#  11 ELONGATION             A_IMAGE/B_IMAGE                                           
#  12 ELLIPTICITY            1 - B_IMAGE/A_IMAGE                                       
         1 -10.4000     69.9446     27.2329   9.6231449051e+01   6.0891326935e+01    0.3096401    0.2789385 -62.65  0.001291999    1.726    0.421
         2 -11.1970    199.9830      6.7913   6.2845352898e+01   3.4336236531e+01    0.9459975    0.6610906 -86.43  0.004858797    1.323    0.244
         3 -11.0465    160.0371     16.7750   7.0859925158e+01   4.3069563395e+01     1.246052    0.7613152  78.97  0.006154865    1.727    0.421
         4 -11.0428    185.4045      2.3821   6.3414431731e+01   3.8299089995e+01     1.511637   0.05859004  60.31  0.004229422    5.323    0.812
         5 -12.1138    173.0867     10.7694   6.7206962327e+01   4.0491515250e+01    0.9252286    0.8013049 -86.38  0.004282166    1.123    0.109
         6  -8.5090    181.1187     21.7193   6.9037792857e+01   3.7348528195e+01    0.6984348    0.2919913 -42.37  0.002937173    2.491    0.599
         7 -12.0358    165.3866      5.1306   6.6729348976e+01   4.2903911086e+01    0.9646325    0.5004587  55.48  0.003627685    1.656    0.396
         8  -9.0118    144.9092     13.6784   7.2492270416e+01   4.7018660695e+01    0.2859921    0.1622598  35.07   0.00137183    1.975    0.494
         9  -8.6824    111.8534     10.3110   7.8023301338e+01   5.4820862383e+01    0.1774911    0.1347129  44.23 0.0005431576    1.123    0.109
        10  -8.6466    125.3657      6.9828   7.4003795682e+01   5.2153317395e+01    0.6686593    0.3969629 -11.35  0.003174972    2.012    0.503
        11  -9.1100    121.1002      4.8631   7.4142018671e+01   5.3286099441e+01    0.4347163    0.2884003 -47.11  0.002416709    1.926    0.481
        12  -8.2174     66.1977      5.4052   8.8578613486e+01   6.3966364363e+01    0.1554716    0.1057824  53.97 0.0009454547    1.827    0.453
        13  -9.7141     11.8590      1.3322   1.0843156381e+02   7.1309959350e+01    0.1412551   0.08255351  20.99 0.0002864772    1.677    0.404
        14  -9.1237    101.0376    175.9984   1.2627646634e+02   2.5216302831e+01    0.2018829    0.1798893  88.51  0.001159146    1.017    0.017
        15 -10.9484    246.3491    249.7932   1.0933772376e+02  -1.3807736270e+01    0.7992337    0.3268431  42.58   0.00397748    2.381    0.580
        16 -11.3208    245.8379    240.0145   1.0777915184e+02  -1.2535380427e+01    0.7728541    0.4733449  -6.97  0.004425665    1.828    0.453
        17 -11.8856      4.9552    238.8710   1.5130690448e+02   2.4608386474e+01    0.5596926     0.438144 -86.08  0.004608853    1.368    0.269
        18  -9.6798     39.9526    110.0966   1.3030781211e+02   4.9056138390e+01    0.4090873    0.2181526 -55.29  0.001582762    1.523    0.344
        19  -8.2511    218.4505     97.7745   8.2748159240e+01   1.6565337090e+01    0.1809934     0.142788 -27.60 0.0005223569    1.377    0.274
        20  -8.5858    233.9881     97.3241   8.0112656799e+01   1.3088714788e+01    0.1948707    0.1835508 -73.43 0.0003293643    1.051    0.048
        21  -8.5858    206.8173     96.4164   8.4442910518e+01   1.9563756857e+01    0.2078553    0.1404708  44.56 0.0004819602    1.609    0.378
        22  -9.9216    211.2918     91.4267   8.2406985038e+01   1.9399406441e+01    0.4471356    0.2805919 -62.43 0.0008356232    1.904    0.475
        23 -10.6775    224.0674     90.9512   8.0165059688e+01   1.6471867599e+01    0.7168714    0.3183209  61.81  0.002719408    2.521    0.603
        24  -7.6645    144.2655     92.3250   9.6520667624e+01   3.5386076193e+01    0.1518462    0.1225548   0.45 0.0001559779    1.566    0.361
        25  -9.3174    181.2489     90.9636   8.7906159824e+01   2.6790751787e+01    0.2120427    0.1971441 -48.07            0    1.076    0.071
        26  -8.2603    127.8849     90.8730   1.0024287153e+02   3.9325794909e+01     0.189829    0.1737054 -84.40 0.0009936637    1.219    0.180
        27  -8.7069    148.8202     89.8473   9.4726622638e+01   3.4817591275e+01    0.2244975    0.2071406  16.72 0.0003014353    1.169    0.145
        28  -8.2974    192.6288     87.7251   8.4826088822e+01   2.4594774084e+01    0.1554426    0.1190267  26.01 0.0007004436    1.683    0.406
        29  -8.8049    238.4996     84.4653   7.6433627339e+01   1.4287164595e+01    0.1439792    0.1278074 -63.04 1.103266e-05    1.023    0.022
        30  -9.0606    160.8448     81.0154   8.9473186507e+01   3.3618569930e+01    0.2528335    0.2153483  54.90 0.0003408782    1.153    0.132
        31  -7.7548      7.6422     80.6859   1.3446927292e+02   5.7975452866e+01    0.1237438   0.06418975 -39.65 0.0007043849    1.746    0.427
        32  -8.4893    170.1403     78.8736   8.6884324954e+01   3.1734265758e+01    0.2044161     0.181529  19.15 0.0003554871    1.291    0.225
        33  -9.6483    216.5471     77.7203   7.8133421111e+01   2.0528779086e+01    0.2146795    0.2060659  82.19 0.0005146851    1.090    0.083
        34  -9.2226    181.7874     78.0175   8.4311094271e+01   2.9006409076e+01    0.2871019    0.1998396  74.77  0.001088486    1.635    0.388
        35  -9.2270    122.3877     74.8583   9.6970771130e+01   4.3589149035e+01    0.2477083    0.1681662  41.18  0.001167112    1.476    0.322
        36  -8.8521    246.8803     74.1074   7.2915515959e+01   1.4125741592e+01    0.2113044    0.1671082 -66.74 0.0003346968    1.190    0.159
        37  -8.7787    156.6449     72.2789   8.7891683837e+01   3.6192441863e+01    0.1543078    0.1182932 -84.40 0.0007011534    1.655    0.396
        38  -8.4595     40.0453     71.0364   1.2142790197e+02   5.7404720512e+01    0.1837431     0.155413 -29.98 0.0007741752    1.069    0.065
        39  -9.6925      7.2587     67.0444   1.3178424002e+02   6.0761694443e+01    0.3360314    0.2405701 -78.42  0.001894054    1.647    0.393
        40  -9.5557     12.3692     69.8613   1.3065554101e+02   5.9891520541e+01    0.3457923      0.20138 -28.86  0.001965093    1.740    0.425
        41  -9.9626     16.6491     66.3482   1.2835800344e+02   6.0305372068e+01    0.5228287    0.2597249 -71.88  0.002518042    2.792    0.642
        42 -10.0937    243.4000     68.7903   7.2166174841e+01   1.5748096105e+01    0.2841375    0.1901501  54.85 0.0009507221    1.632    0.387
        43 -10.8744    231.5234     68.5854   7.3708325392e+01   1.8492464478e+01    0.4672277    0.2819493  66.78  0.001059752    1.705    0.414
        44 -11.3209    232.9348     65.0000   7.2674671189e+01   1.8733588027e+01     0.572287     0.261028  60.63  0.002309802    2.203    0.546
        45 -10.4708    151.3724     68.0353   8.7817339653e+01   3.8190357486e+01    0.2824015    0.2643589  -1.26  0.001541014    1.145    0.126
        46 -11.2696    138.6960     65.9389   9.0122826368e+01   4.1530894621e+01    0.4160179    0.3777268 -41.71  0.001884006    1.141    0.123
        47  -9.8055     79.9593     65.0616   1.0629679478e+02   5.3361642913e+01    0.3041269     0.171723 -42.16 0.0009631216    1.669    0.401
        48 -10.4183     60.2737     67.6245   1.1356054448e+02   5.5743886557e+01    0.3326311    0.1954414 -20.32   0.00159417    2.145    0.534
        49  -8.2226    101.2968     63.6446   9.9320084040e+01   4.9864949395e+01     0.136421    0.1124563 -74.20 0.0007034296    1.696    0.410
        50 -10.1937     60.3232     62.9955   1.1213104663e+02   5.6607898601e+01    0.2503338    0.1590144  30.53   0.00123252    1.698    0.411
        51 -10.6268     68.6586     66.7664   1.1050216961e+02   5.4760474474e+01    0.3109492    0.2026504 -39.47  0.001679883    1.381    0.276
        52  -8.6504    125.6578     62.3366   9.2232624729e+01   4.5075297769e+01    0.1472912    0.1159494 -78.95 0.0007050202    1.764    0.433
        53  -8.3049     84.7085     62.3336   1.0391726601e+02   5.3072219568e+01    0.1269102    0.1089479 -75.04 0.0002340614    1.634    0.388
        54  -8.3846    250.2824     61.3622   6.9652474026e+01   1.5375711118e+01     0.125015    0.1080059   8.03 0.0003163326    1.679    0.404
        55 -10.0880    220.2370     59.8409   7.3198120080e+01   2.2536853544e+01      0.34541    0.2533754 -38.89 0.0007464473    1.374    0.272
        56  -9.8852    217.0945     55.5206   7.2589092111e+01   2.3954236585e+01    0.3242087    0.1980036 -24.94  0.001468824    2.051    0.512
        57  -7.8327    116.2408     61.6274   9.4479284651e+01   4.7215771218e+01    0.1390274    0.1101096 -63.24 0.0004745507    1.619    0.382
        58 -11.2006    150.2862     57.6368   8.4949496987e+01   4.0145823919e+01    0.4672382    0.3859267  57.86   0.00247099    1.166    0.143
        59  -9.6452     90.7890     57.1185   1.0031569914e+02   5.2919538299e+01    0.4201928    0.1748555  36.41  0.001683239    2.592    0.614
        60  -9.2743     47.9775     56.4576   1.1439846087e+02   5.9326364845e+01    0.2270544    0.1589986 -84.76  0.001041712    3.520    0.716
        61  -9.9875    245.0202     55.8546   6.9058356736e+01   1.7378584530e+01    0.2404753    0.1764816 -47.21 0.0007232189    1.248    0.199
        62  -9.3560    212.4081     55.7686   7.3319398416e+01   2.5054865188e+01    0.2538584    0.2254328 -77.08 0.0004316483    1.031    0.030
        63 -10.9374     97.0306     52.9107   9.7023841008e+01   5.2466541415e+01    0.5953901    0.4109836  53.65  0.002627616    1.675    0.403
        64  -9.8729     84.1474     55.6367   1.0188250536e+02   5.4322419420e+01    0.2519806    0.1768837 -27.08 0.0006621323    1.370    0.270
        65  -9.8315    222.8787     53.7864   7.1375086056e+01   2.2824664860e+01    0.2883979    0.1516072 -58.30  0.001229644    2.095    0.523
        66  -8.0403    186.3159     54.7345   7.7155749449e+01   3.1680700043e+01    0.1469968    0.1079862 -78.21 0.0001711717    1.548    0.354
        67  -9.8041     66.0623     54.5387   1.0744974514e+02   5.7334011514e+01    0.2421783    0.1683914  54.25  0.001028999    2.117    0.528
        68  -9.8509     62.2072     52.1807   1.0798376862e+02   5.8279740226e+01     0.233421    0.1724098  27.87 0.0007662678    1.407    0.289
        69 -10.2507    236.9735     50.7519   6.8873313096e+01   1.9965361482e+01    0.3385071    0.1699784 -40.51 0.0009708675    1.854    0.461
        70  -7.9657    181.3924     52.2851   7.7334365808e+01   3.3279966303e+01    0.1531926    0.1064314  34.86 0.0006826015    1.760    0.432
        71 -10.1857     23.4465     50.8119   1.2172735366e+02   6.2745599616e+01    0.3529174    0.1873635   7.16  0.001966839    2.339    0.572
        72  -9.2677    207.9144     50.3594   7.2619275763e+01   2.6961307595e+01    0.3435567    0.2543077  74.49  0.001798003    1.294    0.227
        73  -9.5365     83.4426     50.6236   1.0039863170e+02   5.5266151977e+01    0.2264933     0.202908  -0.97  0.000540484    1.030    0.029
        74  -8.6630    171.9995     49.9491   7.8354731576e+01   3.5971127407e+01    0.2063095    0.1898682  82.79  0.001158572    1.049    0.047
        75 -10.5406    116.8439     48.3503   8.9974783186e+01   4.9186097901e+01    0.4989057    0.2842653 -18.98  0.001886686    2.183    0.542
        76 -10.8805    113.0799     44.5625   8.9689753633e+01   5.0534525984e+01    0.4932221    0.3850342   1.62  0.002706674    1.388    0.280
        77  -8.5325    213.0254     49.2827   7.1626942046e+01   2.5867679253e+01    0.1936791    0.1655273  88.20 0.0002675381    1.076    0.071
        78  -9.5773     54.3572     47.4011   1.0912955650e+02   6.0128947398e+01    0.2563953    0.1892661  44.07  0.001552815    1.755    0.430
        79 -10.1274    245.4059     46.0704   6.6851896732e+01   1.8724817459e+01      0.32993    0.2187949  35.58  0.001601563    2.441    0.590
        80 -10.7226    148.8214     49.7749   8.2878424928e+01   4.1687220094e+01    0.6285285    0.2144262  60.48  0.002055531    3.200    0.687
        81 -10.4662    125.4004     43.9158   8.6349745155e+01   4.7960185474e+01     0.539347     0.221842 -35.56  0.002057093    2.504    0.601
        82 -10.0144    129.8770     42.2135   8.4723685797e+01   4.7190056161e+01    0.2746258    0.2501512 -10.97 0.0006638347    1.143    0.125
        83 -11.1442    134.2762     38.8050   8.2610175328e+01   4.6641574455e+01    0.5960166    0.2614509  46.40  0.002454342    2.118    0.528
        84  -9.3048     76.3542     46.2068   1.0114033931e+02   5.7141236560e+01    0.1733627      0.11291 -42.49 0.0002284767    1.618    0.382
        85 -10.3156     96.9066     43.1504   9.3692059520e+01   5.3980193987e+01    0.3752716     0.183104 -26.34   0.00164796    2.255    0.557
        86  -9.5011     89.9584     44.3360   9.6178868581e+01   5.5097386514e+01    0.2702564     0.160698 -31.95  0.001012013    1.655    0.396
        87  -8.9266    222.7510     43.6277   6.8973707661e+01   2.4329810824e+01    0.1935115    0.1216513  80.05 0.0009461156    1.602    0.376
        88  -8.1111    190.7581     43.0356   7.3295658159e+01   3.2261808626e+01    0.2176037     0.144468  44.66  0.001045228    1.662    0.398
        89  -8.8390    155.6868     42.4913   7.9267079489e+01   4.1052213929e+01    0.2388157    0.1918552  83.11 0.0005498481    1.355    0.262
        90  -8.8429     66.5415     43.4424   1.0345130444e+02   5.9090366532e+01    0.1287913    0.1054019  -6.49 5.681914e-05    1.070    0.066
        91  -9.5805    248.1057     40.5216   6.5354280967e+01   1.8903445746e+01    0.1995522    0.1844663 -34.50  0.001097303    1.343    0.255
        92 -10.1822    198.8890     38.5731   7.0923565609e+01   3.0846962128e+01     0.587391    0.3580599 -69.87  0.002692507    1.948    0.487
        93  -9.4907    206.3999     36.7705   6.9431310404e+01   2.9235159063e+01    0.4065391    0.3386996  15.95  0.002257945    1.657    0.397
        94  -9.8843    193.9058     30.3481   6.9507094014e+01   3.3149478111e+01    0.4752015    0.4236967 -17.45  0.002829219    1.365    0.267
        95  -8.4978    199.7869     28.5678   6.8254897826e+01   3.1918146445e+01    0.3924124    0.2185394  79.54  0.001811841    1.839    0.456
        96  -9.9021    152.0600     39.0401   7.8939316414e+01   4.2396410039e+01    0.3825107    0.2465668  35.75   0.00181903    1.723    0.420
        97  -7.7185     48.7124     40.3276   1.0871717041e+02   6.1987928343e+01    0.1051198   0.09572699 -60.26 0.0002049743    1.613    0.380
        98  -8.5346     76.4995     39.5025   9.8685536158e+01   5.8134680531e+01    0.1282444    0.1110883  -0.54 0.0008105866    1.023    0.022
        99  -8.8248     27.6266     37.6201   1.1590417201e+02   6.4673905707e+01    0.1928619    0.1303052  18.89  0.001072092    1.582    0.368
       100  -8.3042     45.6560     36.7084   1.0855799767e+02   6.2926223629e+01    0.1240701   0.07865547  -8.87 0.0003658144    1.657    0.397
       101  -8.6583     18.8025     36.2655   1.1900329082e+02   6.5648038552e+01    0.1593263   0.09841941 -27.86 0.0004952012    1.332    0.249
       102  -8.8999      8.5439     35.0172   1.2281030242e+02   6.6592169271e+01    0.1593794   0.08494658 -48.48 0.0003819042    1.511    0.338
       103  -8.0524     53.3582     31.6889   1.0380210592e+02   6.2709337247e+01    0.1040473   0.09880538 -83.80 0.0007042746    1.739    0.425
       104 -11.4778      7.0906    247.6296   1.5144027442e+02   2.2781285084e+01    0.6464446    0.3788539  56.06  0.004792009    1.399    0.285
       105  -8.7321     61.7624     26.5334   9.8769957831e+01   6.2242118047e+01    0.2223382    0.1047635  33.60  0.001122413    2.084    0.520
       106  -7.8575    235.9756     24.0000   6.3016722493e+01   2.3839769349e+01    0.2018978   0.06687001  69.63 0.0005270917    2.829    0.646
       107 -11.4858     14.9051    242.3377   1.4995943347e+02   2.2925480384e+01    0.5497299    0.1801375  42.08  0.002662034    2.723    0.633
       108 -11.6645     17.8577    248.9117   1.4987784468e+02   2.1395730163e+01    0.7079647    0.2893374  43.47  0.004260397    2.230    0.552
       109  -8.0298     56.0243    220.0390   1.4128232733e+02   2.2363423170e+01    0.1420227    0.1094231  78.64 0.0009433193    1.011    0.011
       110  -8.4863     56.1585    215.2105   1.4079740863e+02   2.3340302463e+01    0.1969524    0.1242629 -74.26 0.0008222507    1.444    0.307
       111  -8.4213    250.3112    215.3316   1.0257830205e+02  -9.9396528143e+00      0.13105   0.08542991   3.68  0.000704322    1.673    0.402
       112  -9.4392    248.6050     33.1642   6.3730371347e+01   1.9795939028e+01    0.2362852    0.1712757  67.35 0.0007945902    1.407    0.289
       113  -8.2974     94.2448     21.3789   8.6527383328e+01   5.7292858055e+01    0.1644248    0.1149974  55.26 0.0003434773    1.541    0.351
       114  -8.1000    246.3303     20.3240   6.1245627770e+01   2.1957386594e+01    0.1173258   0.09532298  44.12 0.0007050118    1.701    0.412
       115  -8.2701    195.5172     21.8808   6.7120901766e+01   3.3774269630e+01    0.1681584    0.1329253 -37.19 0.0003268455    1.388    0.280
       116  -7.8257     74.6591     20.7006   9.2119411257e+01   6.0924739913e+01     0.129985   0.08147729  15.23 0.0007035568    1.668    0.400
       117  -8.2708     61.8773     20.1603   9.6183385781e+01   6.3037030971e+01    0.1651704    0.1160282  12.29            0    1.296    0.228
       118  -8.2731     15.2013     17.7518   1.1384740669e+02   6.8823088488e+01    0.1456049   0.08978324 -21.88  0.000316228    1.292    0.226
       119  -8.2933    135.9661     16.7272   7.5118921851e+01   4.8815686472e+01    0.1816556    0.1506636  56.01 0.0002355826    1.070    0.066
       120  -8.1814     36.6459     16.3601   1.0414526231e+02   6.6890519030e+01    0.2286464    0.1060063 -18.95 0.0008173166    2.491    0.599
       121  -8.3806    100.8075    215.0216   1.3201512994e+02   1.6741766414e+01    0.1762594    0.1490954  72.46            0    1.015    0.015
       122  -8.2037    228.2243     15.6103   6.1944235118e+01   2.6651019454e+01    0.1668786    0.1053136  64.99 0.0002604977    1.507    0.336
       123 -10.1825    123.9888    206.0085   1.2596519570e+02   1.4610121209e+01    0.1970877    0.1720868  66.20            0    1.011    0.011
       124  -8.8112    194.1934    204.6162   1.1115807331e+02   1.5777378414e+00    0.2057104    0.1198682  33.23 0.0009484565    1.718    0.418
       125  -8.3430    139.0540    198.9238   1.2163254343e+02   1.3291003605e+01    0.1998622    0.1690956  70.90  0.001108998    1.164    0.141
       126  -8.7360    133.0235    198.9764   1.2293560903e+02   1.4412686538e+01    0.2011011    0.1788031  66.05  0.001156497    1.024    0.023
       127  -8.5729    223.0387    188.0524   1.0229507833e+02  -1.0130925210e+00    0.1945973    0.1776896   9.70            0    1.014    0.014
