#   1 NUMBER                 Running object number                                     
#   2 MAG_AUTO               Kron-like elliptical aperture magnitude                    [mag]
#   3 X_IMAGE                Object position along x                                    [pixel]
#   4 Y_IMAGE                Object position along y                                    [pixel]
#   5 X_WORLD                Barycenter position along world x axis                     [deg]
#   6 Y_WORLD                Barycenter position along world y axis                     [deg]
#   7 A_WORLD                Profile RMS along major axis (world units)                 [deg]
#   8 B_WORLD                Profile RMS along minor axis (world units)                 [deg]
#   9 THETA_WORLD            Position angle (CCW/world-x)                               [deg]
#  10 FWHM_WORLD             FWHM assuming a gaussian core                              [deg]
#  11 ELONGATION             A_IMAGE/B_IMAGE                                           
#  12 ELLIPTICITY            1 - B_IMAGE/A_IMAGE                                       
         1 -14.3851    213.2925     23.3737   4.2998246979e+01   2.9005418401e+01     1.318988    0.9370489  20.81  0.006851484    1.884    0.469
         2 -14.3524    200.5875     36.3854   4.7988668738e+01   3.0482554297e+01     1.993876     1.419459  23.62  0.007615243    1.839    0.456
         3 -12.7251      2.6242     23.2845   1.0727746549e+02   7.3621866269e+01    0.8144049    0.3450977 -71.84  0.003720941    2.333    0.571
         4 -13.0053      3.4184      5.5173   9.8570671060e+01   7.7380473515e+01     1.051448    0.5123073 -49.28  0.005702598    1.604    0.376
         5 -11.7489    237.7560      1.9454   3.5656336755e+01   2.5719858995e+01    0.5765368    0.2151572  79.98  0.002375639    2.958    0.662
         6 -10.1212     66.3989      3.1846   5.9644830905e+01   6.7883271257e+01    0.1901657    0.1154157 -33.78 0.0005771408    1.636    0.389
         7 -10.5925     57.9778      2.2264   6.2140459408e+01   6.9777783772e+01    0.1746931    0.1073352  53.77 0.0008845705    1.686    0.407
         8 -10.1847    107.8542    203.8062   1.0449777456e+02   1.9469527417e+01    0.1659369    0.1228708  57.74 0.0004922771    1.310    0.237
         9 -11.3501    139.7546    249.5724   1.0341119832e+02   8.3530523046e+00    0.2855296     0.176336  43.20  0.002003826    1.352    0.261
        10 -10.9324    134.4714    248.2630   1.0420144802e+02   9.1886869531e+00    0.2532842    0.1757955 -80.90  0.001721906    2.440    0.590
        11 -14.9118     85.8924    228.5146   1.1129827754e+02   1.8214099193e+01     2.246376     1.110768  44.18   0.01080201    1.561    0.359
        12 -14.6735     45.4501    222.9088   1.1869247185e+02   2.3862987005e+01     1.800645    0.9304848  20.93  0.001356935    2.714    0.632
        13 -12.8921     12.7587    189.3986   1.2362883148e+02   3.3438961910e+01    0.2678166    0.1989275  61.55 0.0004828467    1.044    0.043
        14 -15.2235     44.2406    204.2781   1.1779956755e+02   2.7392996935e+01     2.380702     0.926945  49.47  0.008753692    2.019    0.505
        15 -14.7415     52.0128    194.4377   1.1545111094e+02   2.8432999640e+01     1.520923     0.969553  55.82  0.009538825    1.303    0.232
        16 -16.8873     12.9968    241.2242   1.2542509998e+02   2.3982998141e+01     6.165521      2.06736  26.12   0.03082534    3.626    0.724
        17  -9.1695     97.4612    190.5239   1.0513752112e+02   2.3344657172e+01    0.1215665    0.1088751  45.29 0.0001462768    1.083    0.077
        18  -9.5613     71.3392    185.9777   1.1042111104e+02   2.7772083124e+01    0.1638106    0.1397016  76.81 0.0003936745    1.100    0.091
        19 -10.8020    147.0541    184.0029   9.3717333883e+01   1.6986957744e+01    0.1975747    0.1777692  34.21  0.001298567    1.040    0.038
        20 -10.2937     99.1914    181.0255   1.0357260532e+02   2.4923470389e+01    0.2744191     0.197428  19.56  0.001107112    1.698    0.411
        21 -12.1842     67.6166    177.7191   1.1042255127e+02   2.9943045018e+01    0.3828239    0.2714138 -36.82  0.002155025    2.049    0.512
        22 -12.1387     72.3188    172.6088   1.0875631633e+02   3.0405548108e+01    0.2795592    0.2489372 -50.57 0.0007629571    1.356    0.262
        23 -11.5790    138.3406    171.5296   9.3519619973e+01   2.0590252175e+01    0.3659187    0.2529625  59.91  0.001935323    1.732    0.423
        24 -13.4884     58.0682    130.4785   1.0700528560e+02   4.1912485997e+01     2.645748    0.8225752 -77.47  0.006071395    7.868    0.873
        25 -14.9018     68.6020    144.3387   1.0608391684e+02   3.7209346840e+01     6.613132      1.87464  54.01  0.004855038    7.879    0.873
        26 -13.5432     68.7550    158.9822   1.0800116917e+02   3.3844943758e+01    0.5191763    0.4236468 -43.50  0.001186987    1.513    0.339
        27 -10.0789     83.9212    174.2238   1.0621141580e+02   2.8484491949e+01     0.235804    0.1597903 -36.19 0.0008114135    2.104    0.525
        28 -15.7125     63.8215    247.8038   1.1674037655e+02   1.7776393407e+01     7.144138     1.824451  27.54  0.003133021   11.390    0.912
        29 -13.0127     87.8553    156.1393   1.0280730659e+02   3.1774170611e+01     1.413472    0.7732795 -75.38  0.002569569    2.221    0.550
        30 -10.0458     35.7530    167.0044   1.1702766349e+02   3.5971245403e+01    0.1663907    0.1334518  76.86 0.0002562791    1.046    0.044
        31 -16.5465      7.6895    203.6914   1.2522751837e+02   3.1078913361e+01     6.863464     1.334303 -79.67  0.006296492    4.625    0.784
        32 -11.5648    192.2106    192.9513   8.6565612161e+01   8.5969071446e+00    0.5348223    0.3061941 -58.32  0.002367646    4.016    0.751
        33  -9.1546    125.9809    154.9658   9.3403579122e+01   2.5849270602e+01    0.1555364    0.1506518  50.60 0.0009491792    1.020    0.019
        34 -10.7888    134.0000    147.0497   9.0066874249e+01   2.6019689167e+01    0.5153576    0.2038408 -54.08  0.001904718    2.950    0.661
        35 -11.0956    133.4960    141.0046   8.8977339768e+01   2.7326353262e+01    0.4808189    0.2587994 -58.99  0.002018812    2.278    0.561
        36  -8.8141    112.6521    150.7289   9.5803264720e+01   2.8992377169e+01    0.1339933     0.108879  -0.55 0.0003711103    1.623    0.384
        37 -11.1863     54.3803    148.2409   1.1041499074e+02   3.8138104146e+01    0.4854919    0.2346282 -74.03    0.0022513    2.027    0.507
        38 -10.2989    174.8184    148.9330   8.1729998425e+01   1.8220052857e+01    0.2408257      0.19337 -56.78 0.0009118411    1.531    0.347
        39 -10.0960     39.0336    146.5148   1.1434277093e+02   4.0302261569e+01    0.2476212    0.1898923  69.25 0.0006887205    1.143    0.125
        40 -10.9467    209.7267    199.4729   8.4619479997e+01   5.2061332921e+00    0.2001437    0.1885465 -21.16 0.0006829239    1.457    0.314
        41 -10.3073    100.6909    142.3227   9.7287594471e+01   3.2808744326e+01    0.2833375    0.2429059 -69.94  0.000906212    1.169    0.145
        42 -10.0289    103.4971    139.0077   9.5957922609e+01   3.3075708722e+01    0.3664306    0.2320665 -35.14  0.001018999    2.064    0.516
        43  -9.9809     83.4223    143.0404   1.0192102849e+02   3.5378492556e+01     0.249648    0.1706522  56.94  0.000557773    1.469    0.319
        44 -12.4071     89.2560    140.9073   1.0002009315e+02   3.4969184333e+01    0.2650456    0.2479407 -56.90 0.0004490342    1.152    0.132
        45 -10.6441    112.1913    197.7120   1.0287131399e+02   1.9921069769e+01    0.2010558    0.1320738  50.98  0.001146499    1.413    0.292
        46 -10.7415     25.5852    137.4461   1.1716521881e+02   4.3805174554e+01    0.2863069    0.1782647  51.04  0.001031094    1.492    0.330
        47 -12.0785     69.2137    133.5596   1.0428691497e+02   3.9670644257e+01    0.6258006    0.4133288  73.90  0.003090741    1.699    0.411
        48 -10.3097    105.9740    130.7247   9.3698684922e+01   3.4497588779e+01    0.3275338    0.2863888 -87.00   0.00113957    1.183    0.155
        49 -10.3419    111.3446    130.8456   9.2325644823e+01   3.3517952899e+01    0.2992091     0.241898  14.91 0.0007258292    1.535    0.349
        50 -10.7026    136.0000    124.0010   8.4692699048e+01   3.0327145922e+01    0.4449021    0.1566569 -41.64  0.001094509    2.993    0.666
        51 -10.5984    135.0000    120.0141   8.3998151373e+01   3.1348789686e+01    0.5005444   0.08257546 -45.72  0.001162288    5.994    0.833
        52 -12.8182     81.0884    163.0152   1.0545170339e+02   3.1259826482e+01    0.9384902    0.4129825  54.28 0.0004579918    2.524    0.604
        53  -9.9624    126.4286    128.1620   8.7949065068e+01   3.1310724925e+01    0.2808876    0.1918962  78.78  0.001201204    2.262    0.558
        54 -10.7442    117.2100    125.7690   8.9735984456e+01   3.3561365508e+01     0.407717    0.2170889 -59.11  0.001672056    2.109    0.526
        55  -9.9611    160.6108    127.8207   8.0042089272e+01   2.4692047267e+01     0.210778    0.1308881 -50.64 0.0009562161    1.756    0.431
        56 -10.5241    121.1461    121.6610   8.7810638872e+01   3.3712003810e+01    0.3273583    0.1652129 -30.35  0.001094694    3.397    0.706
        57  -9.9631    107.8181    119.7508   9.0867255750e+01   3.6637404583e+01    0.1990994     0.194845  -8.04 0.0004125842    1.120    0.107
        58 -10.1474     45.1558    117.8504   1.0901595414e+02   4.6603354797e+01    0.1855449     0.147893 -54.04 0.0003887698    1.317    0.241
        59 -11.1988     24.0543    114.5362   1.1527621038e+02   4.9574557032e+01    0.3467154    0.1581602 -82.25  0.001557049    2.019    0.505
        60  -9.6592    168.3763    113.3547   7.4951539376e+01   2.5781187340e+01    0.2905229    0.2124909 -76.34  0.001138003    2.087    0.521
        61 -10.5855    135.0000    112.0446   8.2053045809e+01   3.3001469923e+01    0.4050291   0.08337613 -44.69  0.001031584    4.757    0.790
        62  -9.8377    205.6172    110.1199   6.7324612361e+01   1.8691998180e+01    0.2459345    0.1964445  32.63 0.0007134802    1.330    0.248
        63 -11.0910     98.4667    127.1387   9.4976189981e+01   3.6613632892e+01    0.2943893    0.2551379 -20.81 0.0009293542    1.415    0.293
        64 -11.1861     18.0906    110.8593   1.1679282373e+02   5.0997773532e+01    0.3222374    0.1571132 -89.84  0.001074882    1.942    0.485
        65 -10.9513     22.2576    108.8261   1.1519039939e+02   5.1165449946e+01    0.2155614    0.1639732  51.84 0.0005513507    1.337    0.252
        66 -11.8293     41.8747    104.1334   1.0790955303e+02   5.0430220808e+01    0.4295905    0.2595096  51.10  0.001544096    1.743    0.426
        67 -10.2690     66.4310    103.7345   9.9627324491e+01   4.7363616301e+01    0.2710044     0.202124  40.52  0.001405897    1.422    0.297
        68 -10.3780     91.7105    102.8208   9.1471319294e+01   4.3474539043e+01    0.2567895    0.2168058  72.58 0.0004197099    1.271    0.213
        69 -10.3603     32.7305     99.8068   1.1036182177e+02   5.2492200082e+01    0.2741316     0.172341  45.84  0.001423442    1.667    0.400
        70  -9.0417    129.6925     96.3197   7.9203280284e+01   3.7392058857e+01    0.1547056    0.1205077 -80.92 0.0007032325    1.638    0.389
        71 -10.7304     53.2253     90.7236   1.0130764759e+02   5.2446060668e+01    0.3258836    0.1937997 -68.69  0.001308705    1.587    0.370
        72 -10.7670     41.8693     91.8134   1.0566288806e+02   5.3558376499e+01     0.246778    0.2224961  84.66  0.000526578    1.093    0.085
        73  -9.1554    158.4895     81.4558   6.8284589604e+01   3.3791207500e+01    0.1518245    0.1443014 -35.90 7.760246e-05    1.004    0.004
        74  -8.9386     70.2810     81.6989   9.2918206282e+01   5.2177004397e+01    0.1443928    0.1115663  86.29  0.000192131    1.547    0.354
        75  -9.7619     54.9075     65.8871   9.4089285478e+01   5.8320122269e+01    0.2186046    0.1959548 -74.54 0.0009262759    1.125    0.111
        76 -10.5432      1.5868     61.6648   1.1687737295e+02   6.4469406459e+01    0.2566305   0.09208202 -69.67  0.001125579    2.086    0.521
        77 -10.8897     13.4660     59.9692   1.1097583305e+02   6.4202900092e+01    0.2693602    0.1927881 -69.56   0.00042335    1.155    0.134
        78  -8.9040     73.3319     59.6709   8.4767209342e+01   5.6753131972e+01     0.149413    0.1158738 -87.38 0.0007051788    1.717    0.418
        79 -10.5513    172.7317    243.4857   9.7081266783e+01   4.8930600693e+00    0.2754479    0.1869581 -68.72  0.001667814    3.360    0.702
        80 -12.4371    191.9409     42.5866   5.0865381740e+01   3.1775059438e+01      0.60403    0.4911239  60.42  0.001117171    1.331    0.249
        81 -10.4176    198.6646    222.8397   9.0020775193e+01   3.9194628217e+00    0.1808918    0.1200371  22.79 0.0004464629    1.220    0.180
        82  -9.9452    146.4343     42.9449   5.8065443575e+01   4.3161304535e+01    0.2573631    0.2078629 -85.54 0.0003749316    1.394    0.283
        83 -10.9652      5.9745     38.9615   1.0995916966e+02   6.9793345862e+01    0.1929664    0.1597169 -64.31 0.0004241894    1.046    0.044
        84 -11.5688    163.0434    216.8717   9.5415656858e+01   9.5636891703e+00    0.3670064    0.1319345  27.98  0.001461186    3.561    0.719
        85  -9.6008    130.5433    213.0598   1.0105678918e+02   1.4735616359e+01    0.1454101    0.1174835 -55.25 0.0004490213    1.499    0.333
        86  -9.6264    137.1946     13.8780   4.8613509483e+01   4.9282469336e+01    0.2192467    0.1809484 -55.80 0.0004232161    1.229    0.186
        87 -11.0948    143.6584     48.5784   6.0622480433e+01   4.3005611355e+01    0.4225712    0.2817652 -75.02  0.001774676    2.051    0.512
        88  -9.5934    189.7245     15.0097   4.2658235307e+01   3.5564833491e+01    0.1989815    0.1686504 -37.54 0.0004499593    1.090    0.083
        89  -9.8841     82.0991    194.7069   1.0893978019e+02   2.4655080825e+01    0.2352985     0.137182  35.09  0.001316078    1.575    0.365
        90 -10.3759    113.8576    208.1581   1.0377841368e+02   1.7884135405e+01    0.1845362    0.1415901  56.44 0.0007805277    1.264    0.209
