#   1 NUMBER                 Running object number                                     
#   2 MAG_AUTO               Kron-like elliptical aperture magnitude                    [mag]
#   3 X_IMAGE                Object position along x                                    [pixel]
#   4 Y_IMAGE                Object position along y                                    [pixel]
#   5 X_WORLD                Barycenter position along world x axis                     [deg]
#   6 Y_WORLD                Barycenter position along world y axis                     [deg]
#   7 A_WORLD                Profile RMS along major axis (world units)                 [deg]
#   8 B_WORLD                Profile RMS along minor axis (world units)                 [deg]
#   9 THETA_WORLD            Position angle (CCW/world-x)                               [deg]
#  10 FWHM_WORLD             FWHM assuming a gaussian core                              [deg]
#  11 ELONGATION             A_IMAGE/B_IMAGE                                           
#  12 ELLIPTICITY            1 - B_IMAGE/A_IMAGE                                       
         1 -12.9028    213.2354     50.4193   3.1845545001e+01   2.5949341387e+01     1.125722     0.965691  27.57  0.006257399    1.385    0.278
         2 -13.5908    231.7467     37.4765   2.6888600900e+01   2.3637127078e+01     1.201899    0.8841187  34.21  0.007239099    1.779    0.438
         3 -11.6890      2.2561     12.9439   9.2643976494e+01   7.7171085947e+01    0.8176494    0.2048369 -68.65  0.002946509    3.553    0.719
         4 -11.5026      2.3607      3.6362   8.8275942827e+01   7.9239165282e+01    0.5930683    0.4249382 -35.08  0.003658377    1.211    0.174
         5  -8.9203     57.6708      3.6553   4.4753600684e+01   7.0587572898e+01    0.1496976   0.09675289  24.28 0.0007050576    1.751    0.429
         6 -11.4024    101.8992    238.6575   9.0271799695e+01   1.4824863557e+01    0.3253508    0.1989475 -79.09  0.001984592    2.597    0.615
         7 -10.9312    134.1579    249.2826   8.4877572911e+01   9.4878639668e+00    0.3068277    0.1896801  53.52  0.001932587    2.188    0.543
         8 -11.7450     51.0724    169.3184   9.6000077290e+01   3.3942274624e+01    0.3636861    0.2895613  45.61 0.0007323898    1.083    0.077
         9 -12.6146     43.5762    175.1072   9.8524550471e+01   3.3481320474e+01    0.8723744    0.6760535  -7.54  0.001585063    1.734    0.423
        10 -15.2683     15.2789    243.7139   1.0825597970e+02   2.3026678466e+01     8.431413      2.78008  17.79   0.03542641    4.463    0.776
        11 -14.4851     18.1147    193.7123   1.0608157129e+02   3.1963554700e+01     2.147063    0.8097318  50.71  0.007127561    2.041    0.510
        12  -9.9892    104.5678    172.3824   8.2129291782e+01   2.6128370591e+01    0.2890606   0.08252936  43.85 0.0009597788    3.387    0.705
        13  -9.4765    110.7989    167.5968   7.9835483423e+01   2.6136404264e+01    0.2256957    0.1963074 -73.40 0.0004453906    1.349    0.259
        14 -10.1567     89.7390    167.3542   8.5262730403e+01   2.9359303374e+01    0.3496864    0.1699774  47.52  0.001536366    1.999    0.500
        15 -12.2807     77.0648    139.7920   8.4777658692e+01   3.7417031553e+01    0.7518585    0.4090333 -78.04 0.0008776576    2.400    0.583
        16 -12.7089     53.4278    116.8135   8.8835517679e+01   4.6345612407e+01     2.815315    0.7832554 -75.86  0.005847005    8.743    0.886
        17 -12.5950     72.5731    153.8351   8.8174708912e+01   3.4776737729e+01    0.9544963    0.6431829  54.42  0.001982835    1.452    0.311
        18 -13.3426     68.2804    143.9725   8.8079915657e+01   3.7669468385e+01       1.6446    0.8030079  63.31  0.003129863    2.918    0.657
        19 -10.9927     63.6149    160.1807   9.1541032962e+01   3.4503654788e+01    0.2549544    0.2467504 -66.96 0.0003645006    1.172    0.147
        20 -13.1520     49.0276    155.9484   9.5292057713e+01   3.7234935242e+01    0.5410522    0.3923064 -30.57  0.001913484    1.856    0.461
        21 -13.6266     10.4279    206.6054   1.0830584537e+02   3.0048115676e+01    0.9595371    0.7196412  10.92  0.003833361    1.625    0.385
        22 -10.5833     89.5867    141.4038   8.1311930502e+01   3.5129486432e+01    0.3784026    0.3134554  -9.10 0.0008655816    1.488    0.328
        23  -9.5435     93.7451    138.0679   7.9507851522e+01   3.5225243588e+01    0.3028355    0.1959013 -33.34  0.001355581    2.010    0.502
        24  -8.8644    131.8849    140.9339   6.9727889265e+01   2.7951682192e+01    0.2252732    0.1760855  72.40  0.001123019    1.719    0.418
        25  -9.6557    242.3198    136.6544   4.7856116519e+01   9.6063693816e+00    0.1109702   0.08612102 -47.54 0.0007049366    1.729    0.422
        26 -10.3926    105.1757    130.5220   7.4743059265e+01   3.4986578522e+01    0.4170376     0.328188  32.49  0.001055968    1.239    0.193
        27 -11.2449     66.7802    126.8170   8.5911584190e+01   4.2041950571e+01    0.5376799    0.2793047 -75.82  0.002182475    2.304    0.566
        28 -10.0648    244.4847    124.4932   4.5122961862e+01   1.0789195845e+01    0.1204182   0.09561709 -14.57 0.0008104395    1.010    0.010
        29 -10.6285     25.3921    119.8819   9.9274864528e+01   4.8515450175e+01    0.2312856     0.168843  45.47 0.0005166128    1.300    0.231
        30  -9.3513    102.9480    118.9630   7.2926351295e+01   3.8002540477e+01    0.2143795    0.2062744  33.33  0.001181387    1.034    0.032
        31 -10.4082    244.3914    115.1982   4.3219493107e+01   1.1957815946e+01    0.1777338   0.09117121 -36.22 0.0009562669    1.703    0.413
        32  -9.4132    204.4891    110.9686   4.8000123076e+01   1.9376678162e+01    0.2703259    0.1718204  30.18  0.001380677    1.787    0.440
        33 -10.1088     90.6971    126.3681   7.8201243726e+01   3.8443242561e+01    0.3178304    0.2592099  -3.01 0.0009126986    1.529    0.346
        34  -9.4353     46.7097    109.6885   9.0131500528e+01   4.8997922711e+01    0.2453493    0.1392556  62.37  0.001040751    2.055    0.513
        35  -9.6544    245.3169    106.3372   4.1240508296e+01   1.2912190969e+01    0.1232453   0.08261338   2.21 0.0004298483    1.700    0.412
        36 -10.6029     52.8695     90.9861   8.4166806832e+01   5.3062133096e+01    0.3500654    0.2598128 -62.69  0.001230851    1.300    0.231
        37  -9.5116     41.5209     92.2057   8.9128355594e+01   5.4150822753e+01    0.2385751    0.1974846  31.74 0.0004570426    1.252    0.201
        38 -12.1035      2.2423     80.1402   1.0489267354e+02   6.0338467190e+01      1.30758    0.1323257 -77.23  0.003290076    6.250    0.840
        39  -9.6372    165.5280     85.5034   4.8483020369e+01   3.1478808182e+01    0.1450753    0.1396372 -27.48 2.031577e-05    1.005    0.005
        40  -8.9355    184.2217     77.7701   4.3010274643e+01   2.8532635159e+01    0.1998433    0.1643817   9.23  0.001070125    1.398    0.285
        41  -8.7273     67.4773     77.5673   7.4726828259e+01   5.4221623555e+01    0.1488512    0.1439992  79.64 0.0008059895    1.043    0.041
        42  -9.0500     55.8339     67.3983   7.6709490428e+01   5.8576790897e+01    0.1927513    0.1427723  15.44 0.0002705935    1.574    0.365
        43 -10.1049     13.4472     60.1933   9.6672607043e+01   6.4989085951e+01    0.2439551    0.2227951 -72.08 0.0004586866    1.024    0.024
        44 -10.5449    248.4070    247.8400   6.5270317743e+01  -2.9374651113e+00    0.1883246    0.1416661   7.72  0.001679805    1.377    0.274
        45 -12.9920      9.4912    200.4700   1.0834668446e+02   3.1322075364e+01    0.5305609    0.3192998  21.87 0.0007606411    1.672    0.402
        46 -10.4423     11.9580     53.1759   9.6212274787e+01   6.6881233140e+01    0.2462511    0.1777655 -69.37 0.0006838548    1.239    0.193
        47  -8.6158     94.5245     46.5188   5.3318247406e+01   5.5418240632e+01    0.1505063    0.1480954  66.64 1.147347e-05    1.023    0.022
        48 -10.2761      2.7139     38.4872   9.9281994693e+01   7.1022279144e+01    0.2170172    0.1832894 -65.16  0.001355414    1.044    0.042
        49 -10.1443      2.1564     50.2866   1.0163106639e+02   6.8064637365e+01    0.2621678    0.1418408  88.30  0.001259954    1.860    0.462
        50 -10.9973    115.9362     24.1135   3.7890828765e+01   5.3465033793e+01    0.3448201    0.2672992 -64.25  0.000432788    1.413    0.292
        51  -8.5230    198.7919    222.8808   6.9715606269e+01   4.9127461539e+00    0.1355288    0.1106886  19.91 0.0004323243    1.306    0.234
        52 -15.5259     22.7349    176.9380   1.0416743692e+02   3.5102753636e+01     7.221343     2.273599  77.37   0.02597326    4.205    0.762
        53  -8.3608    189.6641     15.2922   2.4504063152e+01   3.5278670951e+01    0.1452191   0.08548773 -58.43 0.0005233897    1.640    0.390
