#   1 NUMBER                 Running object number                                     
#   2 MAG_AUTO               Kron-like elliptical aperture magnitude                    [mag]
#   3 X_IMAGE                Object position along x                                    [pixel]
#   4 Y_IMAGE                Object position along y                                    [pixel]
#   5 X_WORLD                Barycenter position along world x axis                     [deg]
#   6 Y_WORLD                Barycenter position along world y axis                     [deg]
#   7 A_WORLD                Profile RMS along major axis (world units)                 [deg]
#   8 B_WORLD                Profile RMS along minor axis (world units)                 [deg]
#   9 THETA_WORLD            Position angle (CCW/world-x)                               [deg]
#  10 FWHM_WORLD             FWHM assuming a gaussian core                              [deg]
#  11 ELONGATION             A_IMAGE/B_IMAGE                                           
#  12 ELLIPTICITY            1 - B_IMAGE/A_IMAGE                                       
         1 -11.7752     60.9240     24.4261   2.9124015265e+02   7.0509550623e+00    0.0247701   0.01356858 -74.93  0.002255888    2.281    0.562
         2 -11.4199     25.5493     20.0107   2.9162347314e+02   7.2906823418e+00   0.02827262   0.01632577 -21.46  0.002565035    2.332    0.571
         3 -11.8980     26.5873     13.8723   2.9157567094e+02   7.3541360546e+00   0.02275818   0.01402189  41.96 0.0005390873    1.701    0.412
         4 -11.5052     66.8414     21.6140   2.9115532929e+02   7.0507385017e+00   0.01972809   0.01080712  39.07  0.001910875    1.856    0.461
         5 -10.7841    108.0477     17.5740   2.9065549896e+02   6.8741341011e+00   0.01672007  0.009545145 -52.51 0.0003676683    1.682    0.405
         6 -10.0840    104.3047     18.7104   2.9070538624e+02   6.8815502861e+00   0.01367606   0.00598689 -43.35 0.0009999337    2.419    0.587
         7 -12.1040    130.9089     13.5127   2.9036767544e+02   6.7963697084e+00   0.02473127   0.01793433 -25.41  0.002712077    1.512    0.339
         8  -9.9959     99.7462     13.6379   2.9072841917e+02   6.9631517703e+00   0.01251424  0.008614879 -58.53  0.001356475    1.434    0.303
         9  -9.9828    175.7675     11.8828   2.8984029601e+02   6.5720835696e+00  0.009571529  0.008315179 -29.91 0.0004253979    1.149    0.130
        10 -11.4151    119.4033     11.1495   2.9048675584e+02   6.8850596229e+00   0.01608131   0.01131297  84.74  0.001663438    1.882    0.469
        11 -12.0702     80.6146      7.4104   2.9091315885e+02   7.1362597967e+00   0.03105491   0.01617115 -35.10 0.0007450791    2.277    0.561
        12  -9.9800      9.0285      7.7908   2.9174335329e+02   7.5167059818e+00   0.01837891   0.01156573  -5.53  0.001649295    2.014    0.503
        13 -10.8280    127.5025      6.1112   2.9036373563e+02   6.8979401253e+00   0.01601852   0.01124754 -86.57 0.0007941126    1.795    0.443
        14  -9.4573      1.2870      7.6126   2.9183189518e+02   7.5602014066e+00  0.006787265  0.004897776  66.56 0.0007009096    1.752    0.429
        15  -9.4524     59.9912      5.2436   2.9113895948e+02   7.2716362434e+00   0.01833271  0.005766653  22.38   0.00129008    3.463    0.711
        16 -10.6262     75.0981      5.0402   2.9096308966e+02   7.1926114606e+00   0.01862468  0.009126252 -61.80  0.001708501    2.036    0.509
        17  -9.8147     91.7398      4.0447   2.9076488952e+02   7.1141379241e+00  0.009012775  0.008113386 -50.74 0.0004443334    1.099    0.090
        18 -11.8061     27.3724      2.9735   2.9150301093e+02   7.4724517594e+00   0.02425882   0.01414024  23.80  0.001840389    1.712    0.416
        19  -9.2224    100.7447      3.6561   2.9065854071e+02   7.0699510127e+00  0.006787961  0.004590046 -33.54 0.0003696624    1.586    0.369
        20  -8.7978    124.2860      1.2713   2.9037258393e+02   6.9696926396e+00  0.006514342  0.004737569 -25.70            0    1.503    0.335
        21 -11.3178    177.6930    234.9471   2.9111924223e+02   4.0520150617e+00   0.01663654   0.01036489 -37.36  0.001250453    1.708    0.415
        22  -9.6686    243.0422    247.4956   2.9044051473e+02   3.5581850435e+00   0.01035531  0.009092798  73.37 0.0005410361    1.292    0.226
        23 -10.7418    247.0275    250.1309   2.9041003883e+02   3.5070213435e+00   0.01955203  0.009368815  24.07  0.001390726    2.094    0.522
        24 -10.7281    250.4950    244.7648   2.9033895365e+02   3.5486643014e+00    0.0286983  0.009634458 -63.75  0.002144602    3.109    0.678
        25 -12.2846    225.9796    246.2164   2.9062924877e+02   3.6646824229e+00   0.03480148   0.01869965 -35.98  0.003198412    2.136    0.532
        26 -11.3298    182.2523    246.2417   2.9113240988e+02   3.9002794297e+00   0.01543032  0.008473215 -23.10  0.001323723    2.567    0.611
        27 -10.3009    127.9236    249.6370   2.9177750355e+02   4.1547063726e+00   0.01164442  0.008337515 -48.82  0.001013672    1.362    0.266
        28  -9.8983     72.7912    249.9628   2.9241434324e+02   4.4474445900e+00   0.01062752  0.008059489 -31.96  0.001192313    1.371    0.270
        29 -11.6939     27.8767    246.0784   2.9290930202e+02   4.7321801961e+00   0.02607509   0.01209303 -64.36  0.002306415    2.231    0.552
        30 -12.3955     21.4104    248.8050   2.9299956427e+02   4.7361050696e+00   0.03399294   0.01451571  36.47  0.002954062    2.284    0.562
        31 -11.6002     14.4742    244.4729   2.9305444440e+02   4.8220782044e+00   0.01644356   0.01089155 -69.81  0.001725699    1.632    0.387
        32 -10.6833     11.4556    250.1126   2.9312180951e+02   4.7746906245e+00   0.01418871  0.007703108  42.38  0.001346254    1.951    0.487
        33 -10.8011    160.1686    235.6498   2.9132505193e+02   4.1385668866e+00   0.01306681   0.01013195 -36.26 0.0008028489    1.305    0.234
        34 -10.8764     73.6948    233.0636   2.9230604677e+02   4.6329871645e+00   0.01503086    0.0110822  48.95  0.001500777    1.487    0.327
        35 -10.5724    167.1210    233.8442   2.9123452415e+02   4.1214266227e+00   0.01122052   0.01085318 -25.41 0.0008380038    1.012    0.012
        36 -11.4039    153.4094    233.5969   2.9139094594e+02   4.1981044422e+00   0.01367083  0.009005898 -41.16 0.0007668795    1.542    0.351
        37  -9.6063     53.6566    234.7095   2.9254647611e+02   4.7220284968e+00  0.006884445  0.004737479 -24.18 0.0007025707    1.654    0.395
        38  -9.9026    127.6453    233.6610   2.9168800404e+02   4.3361364999e+00  0.007204812  0.004641155 -26.93 0.0007041694    1.807    0.446
        39 -10.0447     79.5297    231.2732   2.9222843933e+02   4.6218109091e+00   0.01158381  0.008722566  22.03  0.000572498    1.324    0.245
        40 -11.3236    178.7311    243.7258   2.9115831331e+02   3.9475861208e+00   0.02562907  0.006900791  30.83  0.001840958    3.262    0.693
        41 -12.1228    233.0292    246.0034   2.9054694915e+02   3.6290274240e+00   0.02208301   0.01671515 -72.57  0.002492711    1.437    0.304
        42 -10.0694    169.8261    229.1404   2.9117604713e+02   4.1598056429e+00  0.009500078  0.007404109 -27.46  0.001076063    1.346    0.257
        43  -9.2275    159.4832    229.5049   2.9129724205e+02   4.2114524214e+00  0.006455643  0.006212457 -18.51 0.0001362509    1.003    0.003
        44 -11.1089    116.0690    226.9708   2.9178251490e+02   4.4737977861e+00   0.02095076  0.009250265 -73.95  0.001604873    3.190    0.686
        45  -9.2516     93.6832    229.3517   2.9205422452e+02   4.5673887179e+00  0.006847456  0.004880787  62.41 0.0007047039    1.737    0.424
        46 -10.2289     86.2980    233.4717   2.9216320029e+02   4.5606716004e+00     0.011521  0.008096161  83.98  0.001182323    1.883    0.469
        47 -10.4563    129.8660    226.8550   2.9162291617e+02   4.4008368644e+00   0.01961836  0.009541733  42.96  0.001753775    2.221    0.550
        48 -10.2775    190.4195    226.4148   2.9092316200e+02   4.0794311326e+00   0.01222621   0.00965871 -52.08 0.0007032733    1.239    0.193
        49  -9.4612    139.9822    227.4429   2.9150981878e+02   4.3397390788e+00  0.009858171  0.006291876  23.32 0.0008680944    1.565    0.361
        50 -10.3409     88.0963    227.1354   2.9210574467e+02   4.6223900852e+00   0.01057712  0.008504444 -26.62  0.001224539    1.291    0.225
        51 -10.6547     66.3753    226.4854   2.9235227485e+02   4.7464156740e+00   0.01422327    0.0105195  17.34 0.0009319516    1.372    0.271
        52  -9.8687      6.6788    227.3170   2.9304511708e+02   5.0571615361e+00  0.006733872  0.004871844  59.84 0.0007042041    1.662    0.398
        53 -10.5479     81.4643    224.7275   2.9216820291e+02   4.6851623679e+00   0.01250027   0.01161246 -88.05 0.0009002946    1.170    0.145
        54  -9.7425     24.9563    226.0000   2.9282683056e+02   4.9740934024e+00   0.01074832  0.003651236  24.75 0.0008017941    2.938    0.660
        55 -10.3893    182.1698    222.6797   2.9099639289e+02   4.1659802948e+00   0.01912444   0.00290128 -57.61  0.001133221    4.669    0.786
        56  -9.1469    109.3605    223.2994   2.9183849153e+02   4.5512499319e+00   0.00700735  0.004716805 -24.17 0.0005561778    1.715    0.417
        57 -10.9336     13.1195    222.1675   2.9294109937e+02   5.0807031610e+00    0.0118901  0.009802597 -28.55 0.0003328709    1.238    0.192
        58 -11.3094    141.4802    221.3439   2.9145714029e+02   4.4003566286e+00   0.01959436   0.01234224 -13.11   0.00126359    2.039    0.510
        59  -9.2327    134.8697    223.0000   2.9154289841e+02   4.4173108903e+00    0.0103793  0.003652973  24.83 0.0007866969    2.834    0.647
        60 -11.0218    123.4409    221.4596   2.9166560030e+02   4.4961968595e+00   0.01383429   0.01247461  -2.69 0.0009870435    1.109    0.098
        61  -9.0636     51.6638    222.6814   2.9249978752e+02   4.8682542887e+00  0.007016873  0.004694651 -26.65 0.0007049075    1.702    0.412
        62 -10.0546    165.6855    220.4966   2.9117347399e+02   4.2794532836e+00   0.01120191  0.005867524 -61.65 0.0005667288    1.903    0.475
        63 -10.5928    174.2028    219.6861   2.9107069983e+02   4.2426521867e+00   0.01319383   0.01127458 -19.26 0.0009144602    1.198    0.165
        64  -9.5871     21.8207    220.3598   2.9283033972e+02   5.0544570636e+00  0.008655267  0.006078444   9.18 0.0003899313    1.534    0.348
        65  -9.7586    250.4694    219.0555   2.9018955274e+02   3.8380224041e+00  0.009729765  0.006253486 -59.23 0.0006408027    1.535    0.349
        66  -8.9121    233.6515    219.3149   2.9038445496e+02   3.9259628718e+00   0.00687039  0.004823125  58.34 0.0007047236    1.724    0.420
        67 -10.7559    191.5358    216.9974   2.9085553483e+02   4.1794203020e+00   0.01378789  0.009159712 -52.43  0.001271081    1.459    0.314
        68 -10.1966    194.6621    215.3189   2.9080978652e+02   4.1814447508e+00   0.01076874  0.007723614  44.46 0.0007801235    1.480    0.324
        69  -9.9001     50.3179    218.1300   2.9248893641e+02   4.9267638003e+00   0.01153472  0.008750004   5.64 0.0009524621    1.402    0.287
        70 -10.7567     10.0744    217.0125   2.9294638651e+02   5.1551064044e+00   0.01634733   0.01210878  48.13  0.001040914    1.469    0.319
        71 -10.7575    201.6171    215.8225   2.9073267169e+02   4.1382400181e+00   0.01208005   0.01020958 -15.97  0.001125044    1.223    0.183
        72  -9.2985    179.6735    215.7123   2.9098460870e+02   4.2578851464e+00  0.006799772  0.004749887 -24.61 0.0004465947    1.611    0.379
        73  -9.5740    137.1737    215.6412   2.9147361383e+02   4.4877786579e+00  0.009294113   0.00606972   8.13 0.0009402019    1.717    0.418
        74  -9.8456     31.1770    215.3875   2.9269370196e+02   5.0603403285e+00  0.009723187  0.005587102  36.02 0.0009548136    1.728    0.421
        75 -10.2848    169.9663    213.5706   2.9108391436e+02   4.3343540830e+00   0.01184184  0.008652821 -46.43  0.001191589    1.342    0.255
        76 -10.3280    208.9934    212.1591   2.9062646482e+02   4.1396533536e+00    0.0109298  0.009317735 -54.18 0.0004846926    1.160    0.138
        77  -9.7218    142.8131    213.2022   2.9139448350e+02   4.4848671745e+00  0.009262037  0.007249909 -26.84 0.0004886051    1.341    0.254
        78 -11.3111     20.5151    211.3752   2.9279339645e+02   5.1627037800e+00    0.0164965   0.01185489  75.79 0.0007521223    1.816    0.449
        79  -9.8987    217.8517    207.8793   2.9049961886e+02   4.1399857056e+00   0.02209631  0.005561206 -48.01  0.001458532    3.848    0.740
        80 -11.5596      5.1556    207.6528   2.9294895263e+02   5.2869274876e+00   0.02601552   0.01402999 -72.66  0.002385108    2.208    0.547
        81 -10.1608     10.6278    208.6929   2.9289187280e+02   5.2459022349e+00    0.0149548  0.007391735 -32.99  0.001070459    2.612    0.617
        82  -9.2421    139.7723    208.0105   2.9139934011e+02   4.5597193563e+00  0.008540603  0.005323571 -61.79 0.0007194703    1.609    0.378
        83  -9.8878    212.7139    211.3866   2.9057915662e+02   4.1282585406e+00   0.01427789  0.008712172 -84.76  0.001127147    2.269    0.559
        84  -9.5147    238.5268    201.4478   2.9022431007e+02   4.1006574358e+00  0.006566226  0.006059816 -22.20 0.0001206727    1.065    0.061
        85 -10.6347    210.6355    201.3113   2.9054441086e+02   4.2528768962e+00   0.01054702  0.007492885  62.05  0.001106281    1.744    0.427
        86  -9.6581     19.6639    200.0234   2.9273749252e+02   5.2951916317e+00   0.01146889  0.003171219 -44.11 0.0007045708    4.303    0.768
        87 -11.0728    227.3353    196.6929   2.9032534906e+02   4.2146373188e+00   0.01866022   0.01034564 -32.17 0.0009993595    2.174    0.540
        88 -11.4186    232.0028    191.7242   2.9024269815e+02   4.2453227192e+00   0.01810909   0.01128366 -15.81  0.001735478    2.074    0.518
        89 -11.8363    192.2560    195.0563   2.9071954923e+02   4.4225216731e+00   0.01886628   0.01446242  75.14  0.002090489    1.619    0.382
        90  -9.7854    202.8898    195.8894   2.9060198634e+02   4.3557297193e+00   0.01018771  0.008420709 -29.64  0.000732602    1.230    0.187
        91 -11.3042    215.4345    194.0747   2.9044703538e+02   4.3083996903e+00   0.01807497  0.008683477 -61.55  0.001640739    2.068    0.516
        92 -10.5091    163.3304    191.0809   2.9102951582e+02   4.6233645578e+00   0.01364454  0.004912842 -54.43  0.001096255    2.527    0.604
        93  -9.1611     60.2763    192.6971   2.9222669785e+02   5.1598734278e+00  0.006413983  0.004935799  62.81 0.0002312913    1.542    0.352
        94 -10.0374      1.4994    207.4769   2.9299009410e+02   5.3084842663e+00   0.01193421  0.008721346 -57.92  0.001175082    1.350    0.259
        95 -11.7334    187.7251    189.2063   2.9073765680e+02   4.5128349303e+00   0.02015889  0.009546603 -51.51  0.001839583    2.004    0.501
        96  -9.4141    205.6191    190.2319   2.9053762187e+02   4.4046671407e+00  0.009104939  0.005665767 -50.24 0.0005473581    1.556    0.357
        97  -9.3856    179.3316    189.3342   2.9083505614e+02   4.5566987197e+00  0.007084415  0.004671204 -27.64 0.0007052201    1.730    0.422
        98 -10.2817    218.3984    187.7042   2.9037581189e+02   4.3640780377e+00    0.0128114  0.006487928 -67.98   0.00114835    2.185    0.542
        99 -10.1769    166.5339    183.4733   2.9094834002e+02   4.6917404967e+00   0.01263517  0.008382156  19.28   0.00110919    1.538    0.350
       100  -9.5634     61.6293    184.8340   2.9216547705e+02   5.2412004703e+00   0.00924119   0.00625729 -77.41 0.0009496284    1.732    0.423
       101 -12.3778     16.9211    182.9206   2.9267006773e+02   5.5026213949e+00   0.02752235   0.02110426   9.35  0.003144144    1.359    0.264
       102  -9.8718    250.4735    190.0375   2.9002040576e+02   4.1644451813e+00  0.009808955  0.006350214 -62.00 0.0005186857    1.554    0.357
       103 -11.8581    224.2885    178.3641   2.9025359365e+02   4.4373493779e+00   0.01563295   0.01419257   0.10 0.0005373022    1.097    0.088
       104 -11.7344    244.4900    178.0138   2.9001912053e+02   4.3320643779e+00   0.01847562  0.007991779 -41.29  0.001337224    2.585    0.613
       105 -10.0799    236.4714    182.4641   2.9013731340e+02   4.3253569490e+00  0.006422492   0.00622137 -15.01  0.000227288    1.007    0.007
       106 -10.7079    200.2792    176.5786   2.9051955772e+02   4.5871801269e+00   0.01187281  0.007020011 -41.18 0.0008062419    1.749    0.428
       107  -9.3003     70.2195    177.5923   2.9202437379e+02   5.2766389184e+00   0.00842688  0.006156689   5.03 0.0004304501    1.484    0.326
       108  -9.9092    211.3719    174.8546   2.9038180593e+02   4.5466511727e+00  0.009870223  0.005361091 -49.38 0.0009430314    1.781    0.438
       109 -11.5436    248.6315    182.7616   2.8999916910e+02   4.2562559243e+00   0.02290375   0.01204162 -19.13  0.001826315    3.061    0.673
       110 -10.5273    241.6335    173.1915   2.9002385931e+02   4.4017645624e+00  0.009810263  0.005453489 -50.42 0.0009496539    1.733    0.423
       111 -10.4536      2.1662    180.1272   2.9282410557e+02   5.6131328869e+00   0.01108802  0.009414836  35.96 0.0005315668    1.197    0.165
       112 -10.0225    183.4813    173.0291   2.9069231796e+02   4.7178510427e+00  0.009897375  0.004434713 -40.70 0.0008097541    2.502    0.600
       113  -9.8254    193.3322    172.3349   2.9057482372e+02   4.6724686392e+00  0.007089775   0.00467024 -27.62 0.0007052207    1.733    0.423
       114  -9.3236     59.6280    171.8114   2.9211298032e+02   5.3986714515e+00  0.009040455   0.00625819 -76.94 0.0009432854    1.671    0.402
       115  -9.8771     74.7806    171.4893   2.9193632790e+02   5.3208796050e+00  0.009398519  0.006329217  22.97  0.000996008    1.483    0.326
       116 -10.4855    197.0030    169.2558   2.9051461178e+02   4.6872970715e+00   0.00863101  0.005521894  23.65 0.0006305821    1.559    0.359
       117  -9.8285      4.5865    167.7528   2.9272449666e+02   5.7396161775e+00   0.01297537  0.005793231 -57.50  0.001144745    2.118    0.528
       118 -10.0922    210.0989    166.1821   2.9034590943e+02   4.6511278741e+00   0.01035193  0.008426345 -27.99 0.0006764869    1.263    0.208
       119 -10.5651     54.8470    160.9603   2.9210513991e+02   5.5466013653e+00   0.02054488  0.009212394 -33.56  0.001573268    3.124    0.680
       120 -10.6974     40.9756    165.0786   2.9228909498e+02   5.5746702196e+00  0.009343713  0.009229824  16.59 0.0002772839    1.048    0.046
       121 -10.3872      9.9264    165.1601   2.9264784957e+02   5.7402294664e+00  0.009542663  0.008562337  56.28 0.0003621643    1.211    0.174
       122  -9.2203    229.5095    164.5358   2.9011288157e+02   4.5647136362e+00  0.006496437  0.006157941 -19.89 0.0001230865    1.025    0.025
       123 -10.6199     36.2297    161.7768   2.9232469777e+02   5.6373363785e+00    0.0194707  0.008445425 -57.37  0.001708715    2.172    0.540
       124 -11.2608    248.0925    159.1054   2.8986738122e+02   4.5252780613e+00   0.01849268   0.01438544 -88.54  0.002004234    1.534    0.348
       125  -9.4732    200.0438    162.7759   2.9044182941e+02   4.7437980736e+00   0.00855228  0.005242641  25.31 0.0004579895    1.615    0.381
       126  -9.4871     48.2731    158.9870   2.9216953572e+02   5.6041308581e+00  0.008293707  0.005655661 -61.64 0.0004982879    1.472    0.320
       127 -10.0371    238.4808    158.5250   2.8997458241e+02   4.5838113161e+00  0.006543247  0.006114785 -22.48 0.0001494321    1.046    0.044
       128  -9.9694      9.2032    158.4383   2.9261722996e+02   5.8198442314e+00   0.02174549  0.006297607  24.71  0.001526514    3.460    0.711
       129 -10.7670     23.1712    156.3462   2.9244388771e+02   5.7685590282e+00   0.02173334   0.01413058  27.14  0.002306957    1.515    0.340
       130  -9.4967     23.7002    152.6672   2.9241643875e+02   5.8071731703e+00   0.01072584  0.006811789 -31.63  0.000651152    1.764    0.433
       131  -9.6091    217.2425    154.7856   2.9019721439e+02   4.7407501309e+00   0.01040437  0.005315735  11.00 0.0008851412    2.445    0.591
       132 -10.4595     10.2014    152.4555   2.9257101814e+02   5.8819063891e+00   0.01468209  0.009692401  54.23 0.0008765068    1.807    0.447
       133 -10.1730    205.4147    152.3419   2.9031914840e+02   4.8321934392e+00   0.01267501  0.005711238 -56.21  0.001122753    2.091    0.522
       134  -9.9296    197.0458    153.5183   2.9042238666e+02   4.8641846789e+00   0.01012908  0.006306237  24.46  0.001034409    1.597    0.374
       135  -9.3899    151.5084    153.0307   2.9094422799e+02   5.1155539327e+00  0.009039896  0.005639872  80.78 0.0008092252    2.466    0.595
       136 -10.4856    178.3566    151.4362   2.9062553893e+02   4.9885826873e+00   0.01431732   0.01085576  45.34  0.001529464    1.403    0.287
       137  -9.5179     92.8236    148.1600   2.9159260924e+02   5.4866240286e+00  0.009350161  0.007426146 -23.32 0.0009344453    1.327    0.246
       138  -9.4659    233.5343    146.9890   2.8996419612e+02   4.7403462639e+00    0.0100036  0.006297413 -60.67  0.001027304    1.581    0.367
       139 -10.3346    206.8921    145.9744   2.9026499807e+02   4.8958572009e+00   0.01116852  0.009286178  22.02 0.0007528419    1.195    0.163
       140  -9.2509     37.5003    146.4867   2.9222128541e+02   5.8027818159e+00    0.0064585    0.0062049 -18.68 9.111939e-05    1.005    0.005
       141 -11.1594      7.6306    145.2940   2.9255916039e+02   5.9763666115e+00   0.01434526  0.009802354  37.80 0.0008715181    1.483    0.326
       142 -10.7849      3.2748    143.7961   2.9260075793e+02   6.0165739376e+00   0.01309116   0.01043742 -21.70 0.0008486382    1.324    0.245
       143  -9.7215    215.6694    145.6840   2.9016223419e+02   4.8516642972e+00   0.00697827  0.004709204 -26.56 0.0007046202    1.682    0.405
       144 -10.3780    212.5007    141.7401   2.9017571154e+02   4.9131746845e+00   0.01658279   0.01068819  -7.57  0.001635579    1.946    0.486
       145  -9.9068     37.4698    142.3278   2.9219748918e+02   5.8497973424e+00   0.01133271  0.005891922  25.26  0.001061088    1.903    0.475
       146 -11.3335     12.2105    141.3212   2.9248323980e+02   5.9965882474e+00   0.01717696   0.01045599 -14.65  0.001391703    2.176    0.540
       147 -10.0097    236.1330    138.8048   2.8988652042e+02   4.8183452223e+00  0.009748772   0.00868131  52.38   0.00064562    1.209    0.173
       148 -11.1055     57.6103    138.5365   2.9194299191e+02   5.7843632090e+00    0.0180841   0.01141643  56.58   0.00068481    1.992    0.498
       149 -10.1125     19.5607    139.4887   2.9238774773e+02   5.9778383384e+00  0.006394375  0.006219579 -21.92 3.055208e-05    1.015    0.015
       150  -9.7312     44.2428    138.2720   2.9209575133e+02   5.8591321803e+00   0.01023845  0.005632537 -77.74 0.0008992048    2.402    0.584
       151 -11.7308      3.4409    136.1464   2.9255446815e+02   6.1018672054e+00   0.03112227   0.01392423 -42.71  0.002108652    2.387    0.581
       152 -11.8660      9.1221    136.7928   2.9249262206e+02   6.0641517100e+00   0.01291237   0.01103915 -19.95 0.0002523045    1.195    0.164
       153 -10.4353     22.1695    136.2368   2.9233875327e+02   6.0004853043e+00    0.0149053  0.007913128  34.20  0.001429035    1.841    0.457
       154  -9.9172    138.3273    135.2726   2.9099275118e+02   5.3865867905e+00    0.0118067  0.007911363   6.08 0.0007429207    1.681    0.405
       155  -9.5718     79.6670    133.3026   2.9165799894e+02   5.7247426802e+00  0.006741805  0.004848242  58.03 0.0007035918    1.657    0.396
       156  -9.2437     67.6693    133.7254   2.9179892510e+02   5.7844951596e+00  0.006738439  0.004758342 -23.17 0.0006990307    1.594    0.373
       157 -11.9318     36.4154    130.9146   2.9214337160e+02   5.9840220490e+00   0.01916021   0.01622662 -62.78  0.001766967    1.202    0.168
       158 -10.3997    249.6797    130.2893   2.8968090544e+02   4.8407795209e+00   0.01170599   0.01018461  61.41   0.00141188    1.281    0.219
       159 -10.1212    125.2542    129.9930   2.9111276691e+02   5.5165202510e+00   0.01787616  0.008667536   1.51  0.001314612    3.538    0.717
       160 -10.1860     74.0958    129.3217   2.9169914111e+02   5.7995403173e+00   0.01121573  0.008468197 -43.33 0.0007066252    1.308    0.236
       161  -9.4791     29.1450    130.6162   2.9222558007e+02   6.0263913397e+00  0.008692018  0.006066958   4.15            0    1.597    0.374
       162  -9.4563    243.1483    128.3941   2.8974499888e+02   4.8974606943e+00  0.008924545  0.005721897  36.88 0.0004574022    1.566    0.361
       163  -8.9096     60.2642    128.6694   2.9185500143e+02   5.8812404557e+00  0.006451001  0.004959182  66.80 0.0002594045    1.575    0.365
       164  -9.8368      1.3341    126.8088   2.9252461751e+02   6.2183413312e+00   0.01247539  0.006198714 -66.60  0.001117166    2.162    0.538
       165  -9.3103     68.3251    126.3372   2.9174838984e+02   5.8641806090e+00   0.00707209  0.004661541 -28.21 0.0007051369    1.721    0.419
       166 -10.9963     44.4670    125.8020   2.9202070532e+02   5.9983903977e+00   0.01567675  0.009136097  37.94 0.0005640838    1.730    0.422
       167 -10.5684    219.6256    124.5605   2.8999340552e+02   5.0679042452e+00   0.01168197   0.01131346 -24.71 0.0005573147    1.012    0.012
       168 -10.6699     17.9261    116.1397   2.9227104877e+02   6.2496155974e+00   0.01329304   0.01010315 -60.79 0.0009103905    1.319    0.242
       169 -12.3023     16.5512    109.0023   2.9224546508e+02   6.3373735275e+00   0.02750006     0.020223  62.84   0.00193493    1.658    0.397
       170  -9.5571     20.5445    121.5491   2.9227222958e+02   6.1746491845e+00  0.006416896  0.006189944 -17.10 0.0001108026    1.002    0.002
       171 -11.7868     10.3890    122.4250   2.9239459874e+02   6.2192173216e+00    0.0266995   0.01729099   2.12  0.002701871    1.825    0.452
       172 -10.3047     54.3490    117.6928   2.9185946450e+02   6.0366462373e+00   0.01246059  0.009863656   0.54 0.0009734086    1.339    0.253
       173 -10.1100    179.3089    116.2114   2.9040914756e+02   5.3798648763e+00   0.01059607  0.008643948   3.64 0.0004854919    1.273    0.214
       174  -9.7368    107.7797    115.7707   2.9123152551e+02   5.7708197971e+00  0.009342345   0.00827188 -24.46 0.0003815286    1.128    0.114
       175 -10.3078     35.2448    114.3185   2.9206044980e+02   6.1772306086e+00   0.01653278   0.00816816 -62.61  0.001393154    2.037    0.509
       176 -10.2596     38.2992    111.3296   2.9200780039e+02   6.1944985312e+00   0.01212285  0.008902292 -26.72 0.0007620068    1.472    0.321
       177 -10.5171     35.5736    109.4794   2.9202852195e+02   6.2299637482e+00   0.01200801  0.009217696 -61.94 3.356274e-05    1.315    0.240
       178  -9.0549     66.7332    113.0042   2.9168920406e+02   6.0228879621e+00  0.007726867    0.0056044 -60.71 0.0002088061    1.380    0.275
       179  -9.2552    166.4139    118.8585   2.9057323176e+02   5.4197468406e+00  0.009116841  0.005621398 -48.09 0.0005862486    1.583    0.368
       180 -10.0161     42.5216    110.5527   2.9195451957e+02   6.1805796664e+00   0.01067952  0.009011864 -47.99 0.0005493394    1.160    0.138
       181  -9.7866    167.4678    109.0214   2.9050369432e+02   5.5247531397e+00   0.00976029  0.006277208 -59.91 0.0004679692    1.541    0.351
       182 -10.3187    241.9994    108.1702   2.8964008653e+02   5.1311029593e+00   0.01114081  0.006631888  49.32 0.0006820702    1.947    0.486
       183 -10.9336     23.2740    107.2428   2.9215758457e+02   6.3211410299e+00   0.01121498   0.01079537  58.18 0.0002828584    1.110    0.099
       184 -10.4087      6.2840    106.3226   2.9234850349e+02   6.4225768485e+00   0.01774882   0.01080126 -32.90  0.001472631    1.853    0.460
       185 -10.6276      2.7673    105.3887   2.9238370611e+02   6.4519331136e+00   0.01196093   0.01147977  24.24  0.000520218    1.059    0.056
       186  -9.4364    133.3095    107.3515   2.9088789826e+02   5.7279582360e+00  0.007076888  0.004635137 -29.67 0.0007044191    1.718    0.418
       187 -10.0631    126.9793    106.7500   2.9095742338e+02   5.7688740926e+00  0.008790223  0.008008447  16.20            0    1.088    0.081
       188  -9.1622     49.6274    107.3135   2.9185361844e+02   6.1788964099e+00  0.006980897  0.004756516  57.27 0.0007033223    1.784    0.440
       189  -9.7727    223.2970    103.9749   2.8983090780e+02   5.2795645009e+00  0.009056708  0.008114406 -53.26  0.000433936    1.109    0.098
       190 -11.0759     70.2060    102.6039   2.9158857572e+02   6.1213203841e+00   0.01874737   0.01004961  12.75  0.001047919    2.177    0.541
       191 -10.6464    247.6033    102.1917   2.8954064774e+02   5.1679591457e+00  0.009572955  0.005566032 -49.63 0.0007273733    1.666    0.400
       192  -9.7658    120.1932    101.2781   2.9100382560e+02   5.8670584828e+00   0.01046718  0.007886781 -10.04 0.0008580342    1.474    0.322
       193 -10.1719     36.6805    101.3584   2.9196851599e+02   6.3154752062e+00    0.0123768  0.007780674  21.53 0.0006978152    1.606    0.378
       194  -9.9090     27.9656    100.9631   2.9206688655e+02   6.3666926743e+00  0.009252058  0.008762973  -4.98  0.001169775    1.033    0.032
       195 -10.7028      4.0522    100.6891   2.9234156137e+02   6.4979770794e+00   0.01759181  0.009230515  35.61  0.001280028    1.877    0.467
       196 -11.5427     20.5235     98.0413   2.9213587509e+02   6.4395126103e+00   0.02510037   0.01261026 -63.60  0.002010284    2.032    0.508
       197 -10.6153     61.9928     98.5193   2.9165964321e+02   6.2114697227e+00   0.01595586  0.009254025  19.46  0.001514206    1.788    0.441
       198  -9.9422     79.8659     96.7739   2.9144308700e+02   6.1349904134e+00  0.008623349  0.007449956  61.88  0.000356971    1.296    0.228
       199 -10.1734     92.6325     96.1803   2.9129222921e+02   6.0729496443e+00  0.009893444  0.005427947 -50.43 0.0009520344    1.754    0.430
       200 -12.1750      8.6034     94.3696   2.9225225582e+02   6.5447566574e+00   0.02055406   0.01225794 -43.71   0.00207103    1.687    0.407
       201  -9.8081      7.1605     88.8189   2.9223666754e+02   6.6149893919e+00  0.009321487  0.008403257  57.47 0.0003187988    1.208    0.172
       202 -10.8511    109.2473     93.2835   2.9108354863e+02   6.0160482716e+00   0.01503599  0.008246518 -57.75 0.0006455096    1.764    0.433
       203 -10.2510      1.8565     93.4161   2.9232467630e+02   6.5916397906e+00   0.01894375  0.007374811 -43.48   0.00148958    2.780    0.640
       204  -9.2922    171.3103     91.3378   2.9035617860e+02   5.7029491576e+00  0.007008894  0.004666545 -28.96 0.0007044527    1.686    0.407
       205 -10.4781     96.3094     90.5398   2.9121690950e+02   6.1166396005e+00   0.01436752  0.008452391 -19.65  0.001307131    2.284    0.562
       206  -9.0926     73.3041     88.7146   2.9147192026e+02   6.2610219453e+00  0.006507836  0.004881417  58.25  0.000227883    1.561    0.359
       207 -11.2114     46.5093     84.0512   2.9175427226e+02   6.4575599373e+00   0.02824847   0.01922334 -79.06   0.00250484    1.753    0.430
       208 -10.9148     85.5961     82.6494   2.9129462751e+02   6.2631402713e+00   0.01984732   0.01117627 -67.94  0.001575948    1.926    0.481
       209 -10.7395    118.3644     83.1476   2.9091920829e+02   6.0809671781e+00   0.01329377  0.009578293 -32.02  0.001080223    1.469    0.319
       210 -11.2899     24.1763     78.7624   2.9198154700e+02   6.6369845071e+00   0.01794085   0.01356891 -85.62   0.00110314    1.577    0.366
       211 -11.6951     19.9280     82.0738   2.9204990516e+02   6.6224913759e+00   0.01623812   0.01301442  88.79 0.0009342696    1.475    0.322
       212 -11.3322     15.9736     81.6498   2.9209313710e+02   6.6484696025e+00   0.01632043   0.01225675 -26.71   0.00113939    1.423    0.297
       213 -11.1933     75.5102     81.3804   2.9140371427e+02   6.3317087216e+00   0.01669263  0.009013228 -60.50  0.001609118    1.826    0.452
       214 -11.7460     72.2484     78.4986   2.9142459714e+02   6.3816943977e+00   0.02339871   0.01362091 -31.60  0.001023574    2.021    0.505
       215 -10.1720      2.4505     72.0489   2.9219360322e+02   6.8290275829e+00   0.01323217  0.008446092 -33.47 0.0008003995    1.717    0.418
       216 -10.9319      3.2993     78.6754   2.9222232386e+02   6.7498820005e+00   0.03611119    0.0161881  52.80  0.002725022    3.402    0.706
       217 -12.0369      5.7345     73.9921   2.9216694271e+02   6.7895585729e+00   0.02836987    0.0271032 -23.96  0.003648936    1.013    0.013
       218 -10.0115    136.6957     77.9801   2.9067749193e+02   6.0402055730e+00   0.01124851  0.003162686 -44.29 0.0007032349    4.145    0.759
       219 -10.0148    100.8117     78.3849   2.9109406784e+02   6.2291834736e+00  0.009365206  0.006150156   7.98  0.000951433    1.705    0.414
       220  -9.7896     36.0805     77.6923   2.9183775523e+02   6.5851472652e+00  0.008880348  0.008192051  -1.06 0.0003783088    1.072    0.067
       221 -11.2807    150.8838     78.6024   2.9051741874e+02   5.9565918815e+00   0.01147813   0.01069979  85.20 0.0003781828    1.174    0.148
       222  -9.7229    193.4863     77.3264   2.9001867554e+02   5.7406067144e+00   0.01124071  0.005949949  23.97  0.001057387    1.892    0.471
       223 -11.8020     62.7421     72.1058   2.9149716598e+02   6.5047764030e+00   0.02040632   0.01744596 -80.50   0.00210583    1.289    0.224
       224 -11.1063     59.0939     76.4919   2.9156486556e+02   6.4750249661e+00   0.01993474   0.01357526  59.99  0.001572889    1.835    0.455
       225 -10.0513     54.5612     72.4598   2.9159374765e+02   6.5447724868e+00   0.01032124  0.009421049 -84.94 8.291919e-05    1.195    0.163
       226  -9.7888    121.6032     76.2176   2.9084139477e+02   6.1414769622e+00  0.009502802  0.005613466 -50.06 0.0009468624    1.637    0.389
       227 -10.5098    107.8287     76.0587   2.9099948370e+02   6.2175422682e+00   0.01591339   0.01041157 -35.96 0.0003903479    1.624    0.384
       228 -11.0321    109.0021     71.7577   2.9096084740e+02   6.2596130843e+00   0.01523621  0.009679404  66.87  0.001447246    2.232    0.552
       229 -10.5973     40.4334     73.0733   2.9176056574e+02   6.6137680965e+00   0.01515252   0.01233428 -87.25 0.0008116602    1.420    0.296
       230 -11.1977     25.9282     68.3798   2.9190087883e+02   6.7444582507e+00   0.01735923   0.01246721 -21.09  0.001878955    1.564    0.360
       231 -10.9611     31.2197     66.3655   2.9182799358e+02   6.7387338575e+00   0.01423327   0.01183165 -60.33 0.0008959988    1.211    0.174
       232 -10.7161     20.8026     66.1507   2.9194714963e+02   6.7970447337e+00   0.01649858  0.009161663  28.57   0.00161955    1.756    0.430
       233 -10.9795    152.1860     72.1158   2.9046452122e+02   6.0225241901e+00   0.01501175  0.009540909  19.36  0.001097114    1.614    0.380
       234 -10.2826    115.9233     70.8712   2.9087576782e+02   6.2322670533e+00   0.01395204  0.009281939 -68.26  0.001226971    1.603    0.376
       235 -11.1005     77.5035     71.7110   2.9132433943e+02   6.4298077022e+00   0.01979947  0.009751471  43.36   0.00136486    2.208    0.547
       236 -10.1153    145.2938     71.6757   2.9054147348e+02   6.0647047747e+00  0.006604061  0.004930629  62.76 0.0005519019    1.619    0.382
       237 -11.6670     49.4745     70.5636   2.9164147727e+02   6.5934503151e+00   0.02256369  0.009726822  31.08  0.001484151    2.203    0.546
       238 -10.2069     50.7021     67.6634   2.9161039892e+02   6.6194951959e+00   0.01183598  0.008499341 -45.32 0.0007552807    1.370    0.270
       239 -11.4409     69.0745     67.4292   2.9139675439e+02   6.5233488518e+00   0.01528011   0.01385958 -37.94 0.0008129481    1.078    0.072
       240 -11.2974    130.3920     65.5902   2.9067792168e+02   6.2136162451e+00    0.0217696    0.0121791 -76.46  0.001989202    2.282    0.562
       241 -10.7678     94.4801     69.0194   2.9111256673e+02   6.3686854608e+00   0.01493639  0.007855688 -36.65  0.001238827    2.177    0.541
       242 -11.2134     98.2480     65.8491   2.9105056013e+02   6.3840567294e+00    0.0213191  0.005439118  30.61  0.001496126    3.403    0.706
       243 -10.3737     37.2926     67.7003   2.9176557757e+02   6.6911088280e+00   0.01678916  0.009976052 -44.23  0.001686423    1.686    0.407
       244 -10.2321     14.5002     66.8286   2.9202394593e+02   6.8232115547e+00   0.01724843   0.01293348  10.79  0.001101468    1.390    0.281
       245 -10.1579      6.9276     67.9691   2.9211812011e+02   6.8509641830e+00  0.009977749   0.00919434  -1.52  0.001246453    1.073    0.068
       246 -10.4040    156.3930     66.6414   2.9038401227e+02   6.0613673669e+00  0.009860463     0.007408  60.31 0.0006960284    1.579    0.367
       247 -11.0634      2.4287     65.0887   2.9215337271e+02   6.9074912402e+00   0.02354378  0.007605232 -46.60  0.001733984    3.132    0.681
       248  -9.0003    146.6903     66.2709   2.9049379836e+02   6.1179563656e+00  0.006482458  0.004849002  56.30 0.0002606999    1.546    0.353
       249 -11.5473    120.3384     64.4949   2.9078758564e+02   6.2801885010e+00   0.02849818   0.01354198 -32.58    0.0022938    2.860    0.650
       250 -10.0823    165.5963     64.7206   2.9026662057e+02   6.0332231968e+00   0.01177829  0.005817982 -56.50  0.000562105    1.929    0.482
       251 -10.8696    105.8923     64.2867   2.9095316767e+02   6.3604359748e+00   0.01550637  0.009179123 -75.42  0.001481417    2.050    0.512
       252 -10.6762     76.4823     65.2262   2.9129833227e+02   6.5082799920e+00   0.01654635  0.007824664  37.44  0.001493463    2.101    0.524
       253 -10.9113    174.3633     63.8164   2.9016021765e+02   5.9959831219e+00   0.01373708   0.01058193  48.20 0.0005841356    1.405    0.288
       254 -10.7346    170.0715     61.2939   2.9019497744e+02   6.0475600042e+00   0.01083462  0.008426417 -46.43 0.0002908049    1.259    0.206
       255 -11.3736     41.0423     63.7408   2.9169918301e+02   6.7155359816e+00   0.01699407   0.00932926  64.84  0.001380835    3.077    0.675
       256 -11.2928     84.0452     62.8836   2.9119730717e+02   6.4939264146e+00   0.02130193   0.01644656  80.59  0.001937949    1.601    0.375
       257 -10.6570     51.8715     62.3918   2.9156617310e+02   6.6725374150e+00   0.01290383  0.009328809 -39.99  0.001168239    1.393    0.282
       258 -11.2208     10.9344     62.3434   2.9203906757e+02   6.8928103809e+00   0.01382092   0.01186453 -35.23 0.0004653226    1.153    0.133
       259 -10.9886     64.5327     59.9905   2.9140587101e+02   6.6314865103e+00   0.02790914  0.007621991  29.57  0.002009686    3.261    0.693
       260 -10.1079     71.9270     61.7207   2.9133052176e+02   6.5722392267e+00    0.0134336   0.01049853  31.01 0.0001981141    1.274    0.215
       261 -10.3196     70.4874     58.4774   2.9132824620e+02   6.6164786302e+00   0.01185022  0.009241042 -43.36 0.0008491401    1.263    0.208
       262 -10.5095     32.6022     61.1802   2.9178182097e+02   6.7896716011e+00   0.01844783   0.01039074 -37.40  0.001624324    1.949    0.487
       263 -10.8825     27.1747     61.2659   2.9184505662e+02   6.8178357697e+00   0.02202837  0.009256511  24.53  0.001613385    2.377    0.579
       264  -9.1120    183.6927     61.2872   2.9003784821e+02   5.9739518169e+00    0.0065336  0.004881009  58.31 0.0002491268    1.571    0.363
       265 -11.2853     57.5805     59.4342   2.9148296501e+02   6.6751317702e+00    0.0169282   0.01272228 -59.03  0.001924166    1.323    0.244
       266 -11.1336    137.0307     57.9644   2.9055676726e+02   6.2635518983e+00   0.02326109   0.01278676 -16.32  0.001822759    2.770    0.639
       267 -10.8210    137.5385     54.5201   2.9053078938e+02   6.2995469921e+00   0.01196321   0.01099931 -19.43 0.0004887845    1.073    0.068
       268 -12.2974    136.0079     50.7586   2.9052648577e+02   6.3501146101e+00   0.01952048    0.0132548  59.19 0.0009094679    1.830    0.454
       269  -9.9661     18.2536     59.5361   2.9193811372e+02   6.8851624686e+00    0.0114754   0.00804659 -79.94  0.000574806    1.693    0.409
       270 -10.8932    122.8332     56.5830   2.9071259536e+02   6.3557266418e+00   0.02111937    0.0104453  48.23  0.001815287    2.450    0.592
       271 -10.2539    114.1012     57.4464   2.9081845768e+02   6.3931233908e+00   0.01792301  0.006881258  16.37  0.001296221    3.396    0.706
       272  -9.7354    117.5411     54.5357   2.9076174460e+02   6.4073083060e+00   0.01074005  0.006266348 -60.38 0.0001661528    1.696    0.410
       273  -9.5072     80.7985     57.1484   2.9120136659e+02   6.5759357790e+00  0.008753085  0.007164147 -28.63 0.0003758597    1.250    0.200
       274 -10.0364     46.9985     58.0000   2.9159690120e+02   6.7481449660e+00   0.01075583   0.00364988  24.81 0.0008020568    2.940    0.660
       275 -10.8461     99.7654     55.9075   2.9097503161e+02   6.4877272812e+00   0.02457939  0.009825927  18.81  0.001837674    2.890    0.654
       276 -11.6583     38.1726     51.7224   2.9166234014e+02   6.8661915610e+00    0.0293227   0.01931083 -39.28  0.003098805    1.563    0.360
       277 -12.5021    127.9671     51.4586   2.9062339954e+02   6.3856542893e+00   0.01831376   0.01241522 -49.20 0.0003259739    1.436    0.304
       278 -11.2036      4.5516     52.7392   2.9205697312e+02   7.0351048531e+00   0.05092845   0.02462501   2.26   0.00382396    3.453    0.710
       279 -11.0624     12.9909     49.8994   2.9194285833e+02   7.0218272765e+00   0.01685054   0.00879551 -55.62  0.001508435    1.827    0.453
       280 -12.0568      8.6819     45.6706   2.9196806433e+02   7.0925097705e+00   0.02542707   0.02034277   8.61  0.001486716    1.287    0.223
       281  -9.9622      7.0023     40.9605   2.9196006346e+02   7.1545068684e+00  0.009688611  0.009158346 -37.38 0.0005808512    1.035    0.034
       282 -10.0941     87.0906     52.7804   2.9110319589e+02   6.5911945599e+00   0.01212634  0.008419224  40.74 0.0009666497    1.488    0.328
       283  -9.9593     83.0296     51.5088   2.9114269339e+02   6.6273700184e+00  0.009769729    0.0085515 -57.16 0.0003251984    1.143    0.125
       284 -10.0305    157.7020     52.0959   2.9028392739e+02   6.2178647915e+00  0.009378449  0.008012104 -45.49 0.0004667359    1.146    0.128
       285  -9.8393     44.5273     51.5121   2.9158765806e+02   6.8344254513e+00   0.01236242  0.009522828 -29.54 0.0007581797    1.355    0.262
       286 -10.6878     46.0763     46.9978   2.9154344322e+02   6.8768939010e+00   0.01129769  0.009316406 -69.15 0.0003003816    1.275    0.216
       287 -11.5553     51.5388     48.3272   2.9148805010e+02   6.8325817395e+00    0.0276197   0.01364103 -70.23  0.002427501    2.369    0.578
       288  -9.3653     52.2712     42.3195   2.9144455872e+02   6.8962326289e+00  0.006734899  0.004657929 -31.03 0.0001772706    1.565    0.361
       289 -10.1284    141.6642     49.6898   2.9045495195e+02   6.3315844504e+00   0.01050554   0.00735808 -46.17 0.0004836472    1.402    0.287
       290 -12.1835    142.5572     46.4951   2.9042597856e+02   6.3626831922e+00   0.02504051   0.01462128  44.63  0.002467839    1.860    0.462
       291 -10.4632    114.8447     49.3428   2.9076256297e+02   6.4802614472e+00   0.01291417  0.009583906 -42.07 0.0009011846    1.340    0.254
       292 -11.0181    101.9504     49.5245   2.9091254211e+02   6.5477511989e+00    0.0194691  0.009150023  39.59  0.001741224    2.173    0.540
       293 -10.7857     86.0411     58.0251   2.9114591523e+02   6.5378434195e+00   0.01646189   0.01162329 -71.53 0.0006660268    1.547    0.354
       294 -11.7098    155.4195     47.4890   2.9028334160e+02   6.2820021294e+00   0.01695593   0.01180685  -4.24  0.001214301    1.672    0.402
       295 -10.0937    162.5744     47.5093   2.9020090207e+02   6.2430905138e+00  0.006455564  0.006138691 -26.40 0.0001107394    1.021    0.021
       296  -9.4458    104.3237     46.3068   2.9086634655e+02   6.5711477257e+00  0.006895577  0.004720251 -26.31 0.0006205333    1.645    0.392
       297 -10.0252     91.6908     46.1266   2.9101122492e+02   6.6412621182e+00   0.01010539  0.008121879  87.12 0.0009798165    1.478    0.323
       298  -9.4335     22.8590     46.1663   2.9180701618e+02   7.0109072917e+00  0.008897904  0.006957426 -35.63  0.000456494    1.293    0.227
       299  -9.9479     17.7472     45.4576   2.9186199506e+02   7.0463013424e+00   0.01593817  0.008957712  68.74  0.001298157    3.095    0.677
       300  -9.8881    233.1612     45.1688   2.8937343898e+02   5.8871212323e+00  0.009673649  0.008287546 -30.80 0.0004602793    1.169    0.145
       301 -10.9253    122.4299     44.2627   2.9064530495e+02   6.4964662970e+00   0.02066022   0.01251497 -64.36 0.0008022763    1.699    0.411
       302 -10.8119    119.3846     39.3034   2.9065150356e+02   6.5686684707e+00   0.01251311   0.01007671 -19.35 0.0005306497    1.312    0.238
       303 -10.0374     98.3689     44.6812   2.9092564123e+02   6.6215325379e+00   0.01335508  0.008120034 -26.91 0.0007449637    1.993    0.498
       304  -9.7183     86.7317     45.2001   2.9106311193e+02   6.6783980398e+00   0.01029421   0.00520859  12.16  0.000878361    2.414    0.586
       305 -10.8682     64.0690     41.5294   2.9130358385e+02   6.8416785748e+00   0.01295684  0.009866512 -58.75  0.001000099    1.306    0.234
       306 -11.0295     68.8018     38.0100   2.9122835118e+02   6.8558017401e+00   0.01843316   0.01000655 -52.69  0.001796011    1.761    0.432
       307  -9.8324    163.2996     42.3331   2.9016227616e+02   6.2973608218e+00  0.006933717  0.004671145 -29.39 0.0003073315    1.650    0.394
       308  -9.6718     56.3863     42.2341   2.9139649372e+02   6.8750692702e+00  0.009124971  0.006302833 -76.94 0.0009513258    1.680    0.405
       309 -10.1753     24.0162     41.6242   2.9176717590e+02   7.0558011166e+00   0.01177007   0.01108407 -56.21  0.001491723    1.077    0.071
       310 -10.5615     95.7319     40.3863   2.9093103224e+02   6.6840487104e+00   0.01425319  0.009865009  56.24  0.001258487    1.726    0.421
       311 -10.2661     44.1404     39.6931   2.9152324113e+02   6.9694733088e+00   0.01475426  0.009717439 -67.41 0.0009782615    1.606    0.377
       312 -10.3366    225.5377     39.9284   2.8943059300e+02   5.9873364245e+00   0.01526062  0.009132882  50.40  0.001483148    1.966    0.491
       313 -11.9083     82.5399     36.8695   2.9106292842e+02   6.7946731596e+00   0.01807166   0.01345501  36.34  0.001003786    1.355    0.262
       314  -9.3030     19.3631     37.8603   2.9179905553e+02   7.1231089366e+00  0.009216486  0.005482194 -49.38 0.0005224902    1.629    0.386
       315  -9.9415      1.3703     37.9830   2.9200786351e+02   7.2181846026e+00  0.009560644  0.005960374 -57.58 0.0004195832    1.564    0.361
       316 -10.8287    111.0746     33.8482   2.9071561492e+02   6.6748451865e+00   0.02082037   0.01330959 -61.47 0.0008681882    1.568    0.362
       317 -10.9574    102.2279     36.8575   2.9083538345e+02   6.6887167660e+00   0.01711888  0.008832801  29.01 0.0009747673    1.878    0.468
       318 -10.8357    105.9637     34.2641   2.9077708159e+02   6.6977357918e+00   0.01460131   0.01319873 -25.89 0.0008596331    1.093    0.085
       319 -11.0842     24.3882     35.5048   2.9172721827e+02   7.1226468769e+00   0.01451494   0.01137292  37.55 0.0005491543    1.299    0.230
       320 -10.8619      9.1986     33.5794   2.9189167362e+02   7.2257724626e+00   0.01985415   0.01563375  -2.61  0.001319581    1.358    0.264
       321 -10.8268      8.9372     25.6025   2.9184822485e+02   7.3168990407e+00   0.02083236   0.01214486 -22.03  0.001407268    2.270    0.559
       322 -10.1574      1.5088     31.5047   2.9196853689e+02   7.2903213974e+00   0.01867701   0.01199331 -88.33  0.001414062    2.141    0.533
       323 -11.6871      5.8783     29.9667   2.9190903422e+02   7.2842071908e+00    0.0250055   0.01470467 -45.94    0.0012462    1.681    0.405
       324 -10.8548     76.2578     33.5951   2.9111641623e+02   6.8653243402e+00   0.01409702   0.00989313 -10.73  0.001031236    1.664    0.399
       325 -10.0461     31.9906     33.8289   2.9162953734e+02   7.1006928374e+00   0.01522838  0.008443572  14.52  0.001147872    2.013    0.503
       326  -9.9816     14.1476     33.7100   2.9183519361e+02   7.1977691103e+00   0.01074974  0.007703062  45.53   0.00117183    1.496    0.332
       327 -10.5678     97.7484     32.1132   2.9085943051e+02   6.7662157413e+00   0.01205502  0.009516776 -31.53 0.0005617667    1.300    0.231
       328 -10.9222     56.4108     30.6399   2.9132858622e+02   7.0053488006e+00   0.02293195   0.00832621 -45.74  0.001781128    2.829    0.647
       329 -11.5494    144.8996     31.3685   2.9031053089e+02   6.5200892748e+00   0.01677238   0.01179278  55.08 0.0005378331    1.669    0.401
       330  -9.6376     49.6932     31.3079   2.9141014649e+02   7.0339517940e+00   0.00906281  0.008189175  63.89 0.0005456491    1.222    0.181
       331 -10.2596     50.1805     27.8448   2.9138431329e+02   7.0702802863e+00   0.01459393  0.007086186 -46.83 0.0009600761    2.034    0.508
       332 -10.8789     81.9305     29.1613   2.9102497543e+02   6.8846392103e+00   0.01740426   0.01038237  61.67  0.001593111    2.381    0.580
       333 -10.5613     66.1251     29.8449   2.9121164854e+02   6.9620364794e+00  0.009525189  0.008535384  46.92 0.0003575134    1.181    0.153
       334 -10.6354    152.7122     27.0880   2.9019532081e+02   6.5259713182e+00   0.01498172  0.009022627  52.90  0.001444659    2.029    0.507
       335  -9.5750    124.5391     28.0089   2.9052598435e+02   6.6678331207e+00  0.009396577  0.006182264 -57.22 0.0003450539    1.488    0.328
       336  -9.4031    196.3502     27.7479   2.8969573191e+02   6.2823790194e+00  0.006623087  0.004730045  52.36 0.0003429176    1.593    0.372
       337 -10.0030    172.9633     27.4785   2.8996390695e+02   6.4120390161e+00  0.009831001  0.004542122  46.60 0.0008100309    2.574    0.612
       338  -9.3202    168.4500    250.5537   2.9131629889e+02   3.9261308293e+00   0.00652623  0.006075798 -22.69 3.651902e-05    1.051    0.049
       339 -10.3382    131.8449     26.1406   2.9043069561e+02   6.6493854263e+00  0.009262258  0.008766098  58.15 0.0003797261    1.135    0.119
       340 -10.5913     70.8558     26.1370   2.9113532409e+02   6.9782755156e+00   0.01779858  0.009697297  11.36  0.001626855    2.175    0.540
       341  -9.5061    113.3042     25.2829   2.9063982013e+02   6.7591168521e+00  0.008938154  0.007658851  10.47 0.0005031532    1.172    0.147
       342  -9.8969    112.6861     22.0191   2.9062788761e+02   6.7991424461e+00   0.01207129  0.009913951 -63.09 0.0005871093    1.241    0.194
       343 -10.5183     17.0577     24.2238   2.9174625640e+02   7.2888617062e+00   0.01188332  0.009772533 -38.95  0.000415998    1.203    0.169
       344 -10.4066      1.3959     24.4198   2.9192857542e+02   7.3706174207e+00    0.0150221  0.006157094 -62.08  0.001255202    2.427    0.588
       345 -10.7224     99.7391     22.8880   2.9078254659e+02   6.8592069150e+00   0.01795607   0.01361153 -16.55  0.001535338    1.452    0.311
       346 -10.5506     54.1663     23.3333   2.9131190659e+02   7.0995863956e+00   0.01162857   0.01041066 -14.65 0.0004792318    1.119    0.106
       347 -10.4681     84.1327     22.3912   2.9095999409e+02   6.9489015491e+00   0.01246826   0.01010204 -29.60 0.0005082086    1.263    0.208
       348  -9.3886     86.7709     19.0191   2.9090980920e+02   6.9725995012e+00  0.009248342  0.008165681 -51.57 0.0005521813    1.119    0.106
       349 -10.1150    137.2722    247.0067   2.9165460243e+02   4.1340068822e+00  0.009444142  0.008260775 -51.47 0.0008489327    1.127    0.113
       350 -10.8342      6.2665    245.1593   2.9315298031e+02   4.8582944289e+00   0.01837541   0.01142229 -75.15 0.0009606124    1.892    0.471
       351 -10.7922    123.7244     21.7573   2.9049885462e+02   6.7425070013e+00   0.01548791   0.01034077  17.04 0.0002414611    1.549    0.355
       352 -11.6749      8.3031    241.4192   2.9310790494e+02   4.8895383619e+00   0.02373321    0.0160715  81.48  0.002379087    2.035    0.509
       353 -10.2223    136.9077     20.1020   2.9033693062e+02   6.6899081084e+00  0.009667032  0.008640447  59.85 0.0003263799    1.229    0.186
       354 -10.9748    156.3277    245.9724   2.9142922209e+02   4.0430286845e+00  0.009258078  0.008481294 -45.74 0.0007162733    1.073    0.068
       355  -9.2830     45.5065     20.5289   2.9139568039e+02   7.1776731096e+00  0.006473529  0.006172018 -19.00 0.0008098963    1.015    0.015
       356 -10.9272    217.4714     16.2935   2.8938517960e+02   6.2965514014e+00   0.02228923   0.01193824   6.85  0.001863331    2.450    0.592
       357  -9.7469    167.0511     19.2368   2.8998390944e+02   6.5366424233e+00    0.0087132  0.005405465  22.32 0.0008803434    1.622    0.384
       358  -9.8635    115.4560    244.6708   2.9189226663e+02   4.2777267959e+00   0.01158411  0.006529136 -67.94  0.001104837    1.921    0.480
       359  -9.6807     50.2470     18.9057   2.9133139054e+02   7.1704457269e+00  0.008640142  0.008031557 -34.67  0.000291197    1.049    0.047
       360  -9.9812     19.7412     18.7367   2.9168322954e+02   7.3361751479e+00   0.01210321   0.01003199  15.68 0.0006227695    1.208    0.172
       361  -9.7376     19.9834     15.4534   2.9166128579e+02   7.3717962203e+00   0.01041398  0.008033231 -12.26  0.000594698    1.415    0.293
       362  -8.9796    151.6480     18.7278   2.9015871038e+02   6.6256800890e+00  0.006803964  0.004757172 -21.70 0.0003460504    1.634    0.388
       363 -10.3363     75.9635     16.5673   2.9102041057e+02   7.0583764634e+00   0.01335671  0.008983701 -31.47  0.001282362    1.624    0.384
       364 -10.1524      9.6939     16.5048   2.9178645317e+02   7.4151570800e+00   0.01081651  0.009857947 -61.91 0.0003241032    1.122    0.108
       365 -10.0640     35.1453     20.4648   2.9151513280e+02   7.2340573065e+00   0.01289503  0.009100842  89.28   0.00096869    1.828    0.453
       366 -11.1976    146.9802    244.0463   2.9152564917e+02   4.1150683712e+00   0.01369732   0.00903705  23.34   0.00107095    1.512    0.339
       367  -9.5405    166.4827     14.5080   2.8996279987e+02   6.5928486346e+00  0.006530686  0.006126176 -22.20 9.307583e-05    1.040    0.039
       368 -10.4879    109.7950    243.2457   2.9194919963e+02   4.3242311709e+00   0.01461145   0.01009688  62.93  0.001272543    1.836    0.455
       369  -9.1278     35.6529     14.7587   2.9147597802e+02   7.2954937098e+00  0.006596914  0.004756511 -18.02 0.0002385166    1.569    0.363
       370  -9.3264    155.2672     13.3218   2.9008530819e+02   6.6668522840e+00  0.006725558  0.004654005 -31.39 0.0003061841    1.563    0.360
       371 -10.3533     72.0091    243.9492   2.9238852811e+02   4.5193969045e+00   0.01023214  0.009491365 -23.45 0.0006708194    1.057    0.054
       372 -11.5981     34.0884    241.6906   2.9281235749e+02   4.7483271030e+00   0.02459072   0.01550919  24.50  0.002550735    1.575    0.365
       373  -9.3590     24.4873    232.4865   2.9286975981e+02   4.9035094874e+00   0.01174435  0.006270037  25.38  0.001116565    1.852    0.460
       374  -9.0098     51.3170     11.3196   2.9127474425e+02   7.2499853747e+00  0.006936687  0.004692537 -27.59 0.0004201671    1.659    0.397
       375 -10.4909     81.6221     17.9307   2.9096296376e+02   7.0125735978e+00   0.01771427  0.006708523 -57.29  0.001461559    2.448    0.591
       376 -10.5512     31.7237    237.2222   2.9281375850e+02   4.8113570342e+00   0.01585856   0.01079527  72.15 0.0009229589    1.998    0.499
       377 -10.1756     29.1226    232.9053   2.9281876130e+02   4.8739464300e+00   0.01453279   0.01068491  38.49  0.001137139    1.386    0.279
       378 -12.0596    155.7822    241.5731   2.9140995454e+02   4.0955039882e+00   0.02052735   0.01304273   1.81  0.001379337    1.895    0.472
       379 -11.8266     19.4788    239.0424   2.9296538849e+02   4.8564668894e+00   0.02751704   0.02125435  38.91  0.003174982    1.324    0.245
       380  -9.0876    113.6629    240.2993   2.9188756233e+02   4.3366136760e+00  0.006751858  0.004836006  57.52   0.00047739    1.659    0.397
       381 -11.6090     73.9707    238.5097   2.9233442168e+02   4.5701453043e+00   0.03045247   0.01768224  32.75  0.003069381    1.685    0.407
       382  -9.4274     50.2734    240.3492   2.9261810733e+02   4.6766363408e+00  0.006901861  0.004609307 -32.35 0.0006824682    1.630    0.387
       383 -10.6310    174.2324    238.5802   2.9118018802e+02   4.0297702135e+00   0.01478392   0.01113142  -7.94   0.00125945    1.474    0.322
