#   1 NUMBER                 Running object number                                     
#   2 MAG_AUTO               Kron-like elliptical aperture magnitude                    [mag]
#   3 X_IMAGE                Object position along x                                    [pixel]
#   4 Y_IMAGE                Object position along y                                    [pixel]
#   5 X_WORLD                Barycenter position along world x axis                     [deg]
#   6 Y_WORLD                Barycenter position along world y axis                     [deg]
#   7 A_WORLD                Profile RMS along major axis (world units)                 [deg]
#   8 B_WORLD                Profile RMS along minor axis (world units)                 [deg]
#   9 THETA_WORLD            Position angle (CCW/world-x)                               [deg]
#  10 FWHM_WORLD             FWHM assuming a gaussian core                              [deg]
#  11 ELONGATION             A_IMAGE/B_IMAGE                                           
#  12 ELLIPTICITY            1 - B_IMAGE/A_IMAGE                                       
         1 -11.9250    230.7735     53.8179   7.6143381482e+01   2.0377303046e+01    0.8403772    0.5313514 -44.80  0.004319503    1.502    0.334
         2 -10.0258    155.3780     21.2570   7.6104784278e+01   4.3694996754e+01     0.279538    0.1887122 -36.70  0.001265285    1.491    0.329
         3  -9.6639     29.7370     13.1368   1.1666404334e+02   7.3648956255e+01    0.2090309    0.1792969 -11.35 0.0003040397    1.102    0.093
         4  -9.9590    241.4686     10.5009   6.4210895471e+01   2.2654021484e+01    0.5017907   0.07919188 -26.51  0.001598433    4.266    0.766
         5  -9.7556     15.7803     10.9826   1.2596543541e+02   7.5478559848e+01    0.1915865    0.1695527  -1.40 0.0002898329    1.190    0.160
         6  -8.9754    214.3182      9.8643   6.5920824089e+01   2.9104745440e+01    0.2812087   0.09137109 -31.54  0.001084138    2.523    0.604
         7 -10.5181    117.1861      9.1672   7.8090879675e+01   5.5625242792e+01     0.303176    0.2439219 -42.85 0.0009014478    1.327    0.246
         8  -8.7357     96.5757      9.7882   8.3391465856e+01   6.0996131357e+01    0.2030528    0.1300739 -37.56 0.0009438609    1.654    0.395
         9  -8.0023    237.3286      9.3114   6.4173397584e+01   2.3696364507e+01    0.1242956   0.09505557  33.71 0.0004468636    1.667    0.400
        10  -8.5813    155.3105      9.6598   7.1866454503e+01   4.4938395364e+01    0.1611497    0.1026574 -59.34 0.0007045057    1.692    0.409
        11 -10.5303     16.9780      5.3726   1.2198939759e+02   7.6504446469e+01    0.3308982    0.2140053  10.08   0.00193905    1.685    0.407
        12  -9.7229     12.0060      5.6357   1.2637396528e+02   7.6864856460e+01    0.2091424    0.1632421 -47.89 0.0003317535    1.120    0.107
        13  -9.9863    132.9276      7.8133   7.4525354427e+01   5.1410223876e+01    0.3047996    0.1617317 -49.27  0.001020777    2.116    0.527
        14 -10.9821    110.7485      4.4608   7.7254866449e+01   5.7837323127e+01    0.4117173    0.3380761 -43.96            0    1.317    0.241
        15  -9.1172      4.8085      5.1578   1.3251916918e+02   7.7419132177e+01    0.3868931    0.0538556 -45.02  0.001300844    4.407    0.773
        16  -8.7639    236.0000      3.9659   6.2908986547e+01   2.4494290075e+01    0.3477024   0.06662491 -22.08  0.001045403    4.881    0.795
        17 -10.1427    128.0213      3.2027   7.3395448609e+01   5.3210025082e+01    0.4014727    0.2205726  -1.74   0.00133426    2.322    0.569
        18  -8.2675     64.5466      4.9736   9.1762944794e+01   6.9085692620e+01    0.1967817    0.1288692 -26.86 0.0003998009    1.518    0.341
        19  -9.2287    153.1420      3.2486   6.9771579512e+01   4.6141517159e+01    0.2881781    0.1547206 -50.16 0.0006942887    1.967    0.492
        20  -8.6248      2.5106      3.4729   1.3387630159e+02   7.7884757079e+01    0.1209601   0.09330878 -43.15 -7.234456e-05    1.053    0.051
        21  -9.5637     50.8937      3.7183   9.7497899884e+01   7.1976712826e+01    0.2121255    0.1742712 -22.63 0.0002686994    1.166    0.142
        22  -8.3013    143.6931      2.3005   7.0643889479e+01   4.8888008756e+01    0.1538976    0.1037227 -61.74 0.0002312643    1.596    0.373
        23  -9.6414    121.7946      1.8986   7.3898713205e+01   5.5054877543e+01    0.2257299    0.1854021  41.77 0.0004153114    1.202    0.168
        24  -8.3459     69.8701     12.2124   9.3890340965e+01   6.6976431226e+01    0.1905919    0.1533525   9.82  0.001037628    1.282    0.220
        25  -8.6441    200.7584    215.7122   1.1501864800e+02   4.9166300524e+00    0.1433194   0.09322303 -45.79 0.0008832467    2.353    0.575
        26 -11.1949    229.5618    249.0524   1.1485555864e+02  -2.2210574901e+00    0.9010983     0.458396  38.18  0.005705254    1.717    0.418
        27 -13.2922    248.0548     22.9669   6.6833892748e+01   1.9989820656e+01     2.990368     2.808585  65.39   0.02038224    1.232    0.188
        28 -13.4430    242.5691    189.6493   1.0393250753e+02   1.6519116080e+00     2.740511     1.215006 -39.86   0.01378345    3.220    0.689
        29  -9.5974    167.9653    249.9582   1.2515984807e+02   5.7245309062e+00    0.2158066    0.1141827  30.49 0.0003760431    1.404    0.288
        30  -8.7359    216.9277    212.2918   1.1174157685e+02   2.9495850238e+00    0.1725541    0.1463683  -7.71  0.001312851    1.354    0.261
        31 -10.7144      9.4696    208.5001   1.5278574247e+02   3.1692472797e+01    0.2401845    0.1694694  88.97  0.001175336    1.426    0.299
        32 -11.1468      8.1690    203.7401   1.5292070110e+02   3.2664579194e+01     0.424507    0.1669476 -66.77  0.002355843    3.021    0.669
        33  -9.1537    206.3727    206.4609   1.1265531172e+02   5.1370951924e+00     0.271135    0.1019658 -27.07  0.001224062    3.535    0.717
        34  -8.1623    217.6582    205.3202   1.1054477808e+02   3.5949630571e+00    0.1014072   0.08723842  48.75 0.0007049948    1.720    0.419
        35  -8.2847    197.0000    204.0997   1.1394946128e+02   6.8360576229e+00    0.1647925    0.0663977 -36.28 0.0008010528    2.933    0.659
        36  -9.5051    223.2590    201.0820   1.0893535006e+02   3.2368010996e+00    0.2280707     0.176584 -14.86  0.001633588    1.354    0.261
        37  -9.8336      5.0173    199.5182   1.5345613186e+02   3.3706139186e+01    0.2180837    0.1045123  69.21  0.001379857    1.650    0.394
        38  -8.5927    215.4599    197.4741   1.0966652753e+02   4.7970589548e+00    0.1754086    0.1069121 -41.34 0.0008498348    2.251    0.556
        39  -8.0399    209.2657    194.3573   1.1022873146e+02   6.1085855830e+00    0.1216554   0.07737949   8.31 0.0006798665    1.633    0.387
        40  -9.8389    224.3460    192.0119   1.0726703348e+02   4.0731758255e+00    0.3680333    0.1713634 -28.79  0.001994692    2.278    0.561
        41  -7.9445    198.6634    191.3224   1.1161912497e+02   8.1542842072e+00    0.1112225   0.09390477  58.66 0.0007050628    1.713    0.416
        42  -8.6618    210.0000    188.9263   1.0919829891e+02   6.6448931133e+00    0.1725469   0.06604964 -33.82 0.0007301806    2.892    0.654
        43  -8.2304    219.4895    194.4731   1.0849057128e+02   4.5287587388e+00    0.1188705   0.09194097  18.08  0.000111523    1.030    0.029
        44  -8.3497    215.3434    187.1754   1.0797364409e+02   6.0135549870e+00    0.1542367     0.105768 -36.95 0.0009463156    1.801    0.445
        45  -9.0174    223.8951    184.0292   1.0598132080e+02   5.0485106486e+00    0.2485333    0.1533574 -37.50  0.001160268    1.987    0.497
        46  -8.9842    210.7567    181.8306   1.0785009121e+02   7.3926634969e+00    0.2734856    0.1349171 -25.30  0.001390844    2.272    0.560
        47  -8.5351    203.0000    183.0815   1.0944729307e+02   8.4988770090e+00    0.1799647   0.06847086 -35.11  0.000799902    2.925    0.658
        48 -13.4432    245.3254    159.3176   9.8039361142e+01   4.5293380271e+00      2.53343     1.150585 -40.66    0.0121405    2.875    0.652
        49  -9.2337    219.0383    177.9595   1.0573435459e+02   6.5309858851e+00    0.2841533    0.1578243 -33.09  0.001585243    1.948    0.487
        50  -8.5595    210.5491    175.2973   1.0673007221e+02   8.2458375489e+00    0.2082106     0.116185 -34.53  0.001124322    1.966    0.491
        51 -13.5145    242.3235    133.8403   9.3404253828e+01   8.0198959206e+00     3.234718    0.9501178 -38.79   0.01203179    3.768    0.735
        52 -10.2562    186.3117    248.1611   1.2179060541e+02   3.4392761734e+00     0.627686     0.253403  29.07  0.003448646    2.060    0.515
        53  -8.8623    223.2762    173.3997   1.0419645022e+02   6.3985626245e+00    0.2268666    0.1518112 -36.05  0.001113407    1.754    0.430
        54  -9.0258    218.2379    167.6912   1.0399965132e+02   7.9261681040e+00    0.2951742    0.1713438 -26.01  0.001629266    1.759    0.431
        55  -8.5110    204.8349    168.9976   1.0660169828e+02   1.0030270018e+01    0.1805721    0.1461409 -56.55  0.001068386    1.913    0.477
        56  -8.2896    199.3729    164.8045   1.0681828442e+02   1.1552748169e+01    0.1730644    0.1151342 -18.45    0.0009229    1.628    0.386
        57  -9.4240    212.7591    163.1554   1.0409446535e+02   9.4363259734e+00    0.3405166    0.1545351 -33.01  0.001625423    2.298    0.565
        58  -8.7062    221.1386    161.6606   1.0236628485e+02   8.1969485993e+00    0.2029562    0.1593628 -25.93 0.0009478714    1.349    0.259
        59  -8.9343    205.0291    161.2026   1.0509810628e+02   1.1047268045e+01    0.2882279    0.1865839 -27.86  0.001601611    1.608    0.378
        60  -9.7564    223.4190    146.2823   9.8945030011e+01   9.7701086152e+00    0.4117993     0.253021  -9.54  0.002150664    1.790    0.441
        61  -8.7724    221.7951    156.0875   1.0117618857e+02   8.7917281912e+00     0.227391    0.1361973 -35.33  0.001177961    1.791    0.441
        62  -8.8120    221.1815    152.1893   1.0050928709e+02   9.3990642809e+00    0.2435002    0.1680661 -24.52 0.0008665565    1.423    0.297
        63  -8.7720    216.2938    156.0189   1.0209978110e+02   9.7561644713e+00    0.2529589    0.1464004 -36.67  0.001331181    1.878    0.468
        64  -8.1621     57.0307    151.5168   1.3812106005e+02   3.8237963098e+01    0.1929527   0.07719683  51.93 0.0008073664    2.362    0.577
        65  -8.6450    215.6698    149.6917   1.0094740305e+02   1.0704318462e+01    0.2459987    0.1472099 -50.15   0.00116609    2.578    0.612
        66  -8.8063    207.5021    145.0262   1.0142758045e+02   1.2839345802e+01    0.1976865    0.1252597 -28.53 0.0009005645    1.600    0.375
        67  -8.5909    218.5144    144.1034   9.9320386174e+01   1.0937268245e+01    0.1873008    0.1202041 -27.57 0.0007182465    1.536    0.349
        68  -8.6633    214.2248    142.3936   9.9699670284e+01   1.1954666468e+01     0.212897     0.154471 -47.23 0.0008822465    1.781    0.438
        69  -7.9931    194.3204    143.6913   1.0357862726e+02   1.5538753889e+01     0.125639    0.1105527  87.97 0.0003141067    1.642    0.391
        70  -9.2866    224.1355    139.9718   9.7525077556e+01   1.0464861578e+01    0.2902997    0.1713693 -27.56  0.001124623    1.641    0.391
        71  -9.6144    218.7048    137.8944   9.7990934752e+01   1.1736267188e+01    0.3091757    0.1978077 -22.66  0.001656419    1.537    0.350
        72  -9.2008    225.3094    133.3585   9.5936571051e+01   1.1120188708e+01    0.2829182    0.1648281 -23.70  0.001168408    1.672    0.402
        73  -8.5019    201.4749    131.5173   9.9631524906e+01   1.5953398667e+01    0.2398066    0.1279987 -20.71  0.001033281    2.249    0.555
        74  -9.3602    220.5845    128.6746   9.5694117967e+01   1.2632489628e+01    0.2506931    0.1222447 -25.95  0.001133095    2.070    0.517
        75  -9.6289    227.5300    124.8510   9.3738155925e+01   1.1829851687e+01    0.3063359    0.2083459 -32.89  0.001056614    1.449    0.310
        76 -11.9896    247.8924    243.1169   1.1127333365e+02  -3.9429941139e+00     0.514631    0.2673797 -14.00  0.002127849    1.964    0.491
        77 -14.1318    242.0247    227.1409   1.0991480096e+02  -1.8769389841e+00     1.923501    0.8050838 -28.87  0.007285158    2.621    0.619
        78  -8.1943    212.7558    110.9681   9.2963014879e+01   1.6659872066e+01     0.184258    0.1113612 -28.55 0.0008852029    1.602    0.376
        79  -8.7503    218.4973    109.0351   9.1573783884e+01   1.5751524373e+01    0.2070601    0.1270825 -26.93 0.0008454273    1.560    0.359
        80 -10.1661    218.3211    247.5966   1.1643759069e+02  -6.9226696121e-01    0.3088002    0.2340243 -31.22  0.002129395    1.908    0.476
        81  -9.0659    222.2739    104.7933   8.9980836198e+01   1.5565142677e+01    0.2463381    0.1514908 -31.87  0.000799538    1.531    0.347
        82  -9.0718    213.5418    104.2644   9.1234085035e+01   1.7452529339e+01    0.2624297    0.1233394 -35.49  0.001121215    2.033    0.508
        83  -8.6627     11.3425    104.6600   1.4749576682e+02   5.3636543533e+01    0.1373932   0.07352015  60.71  0.000704897    1.775    0.437
        84  -9.7872    214.9970     98.4888   8.9596830933e+01   1.7962609472e+01    0.4786295     0.322845 -73.58  0.002113855    2.603    0.616
        85  -8.6167    225.1710     99.1796   8.8206946294e+01   1.5733976492e+01     0.190668    0.1467201 -43.35 0.0008160583    1.382    0.276
        86 -11.2733    209.5408    247.7224   1.1786887964e+02   4.1993978934e-01    0.6142762    0.3562035  29.90  0.004108526    1.202    0.168
        87  -9.3311    235.0200     95.4802   8.5919914173e+01   1.4223580762e+01    0.2619796    0.1636509 -40.27 0.0008130838    1.596    0.373
        88  -8.8156    221.0000     97.8964   8.8523803221e+01   1.6774762463e+01     0.223558   0.07324221 -30.19 0.0007054596    2.875    0.652
        89  -9.8400    229.0872     95.2996   8.6708269441e+01   1.5448352905e+01    0.1851618    0.1742646  -9.36  0.001155564    1.063    0.060
        90 -10.1860    224.5616     93.0877   8.6826401322e+01   1.6681992848e+01    0.3601789    0.2568167 -37.46  0.001533081    1.363    0.266
        91  -8.6543    215.5381     94.0060   8.8406872943e+01   1.8477097625e+01    0.2163782    0.1291102 -29.89  0.001027455    1.585    0.369
        92  -9.1683    217.6291     90.1353   8.7124452216e+01   1.8563827566e+01    0.2044894    0.1708983 -35.58 0.0008731849    1.172    0.147
        93  -9.4109    230.7299     90.9267   8.5426379857e+01   1.5686520808e+01     0.254253    0.2191568  -8.43  0.001212102    1.087    0.080
        94 -13.6528    248.7492     85.2263   8.1746992229e+01   1.2801736848e+01     5.743778    0.6224967 -28.83   0.01410174    6.967    0.856
        95  -8.7342    236.4991     90.0002   8.4420754625e+01   1.4630004761e+01    0.2620517    0.1122525 -32.54 0.0009382922    2.057    0.514
        96 -11.3195    230.5621     82.0430   8.3285036234e+01   1.6879458751e+01    0.9438562    0.2885036 -38.74  0.003420411    2.992    0.666
        97 -11.0818    230.8908     45.8314   7.4071256505e+01   2.1297401060e+01    0.4673779    0.3454285 -16.22     0.002309    1.378    0.275
        98 -11.1405    229.3286     61.0480   7.8163715196e+01   1.9815763980e+01    0.8455203    0.2926783 -37.43  0.003288434    2.486    0.598
        99  -7.7950    151.3038    249.6871   1.2807253303e+02   8.0223048867e+00    0.1048464   0.06730106  50.72 0.0007021378    1.615    0.381
       100  -8.7762    193.5328    243.4816   1.1999721882e+02   2.9479335028e+00    0.1559001    0.1265358  -7.22 0.0006941774    1.419    0.295
       101  -8.9394    221.9715     85.4631   8.5319739426e+01   1.8262150810e+01    0.3610739    0.1871148  -8.01  0.001360831    3.004    0.667
       102  -8.4913    225.1582     81.6510   8.3919263670e+01   1.8083616538e+01    0.2391794    0.1686167 -36.45 0.0006668269    1.335    0.251
       103  -8.9261    218.0300     85.0456   8.5786420168e+01   1.9177563631e+01    0.2176246    0.1560277 -52.64 0.0006332378    1.593    0.372
       104  -9.2396      9.6763     84.0029   1.4627108025e+02   5.8736878374e+01    0.1730948    0.1375572 -87.06 0.0004183095    1.068    0.064
       105  -9.4658     13.0151     90.7425   1.4565791353e+02   5.6899062220e+01    0.2448031   0.07708087 -47.94 0.0009084639    3.678    0.728
       106  -8.8404    200.8883     78.5156   8.6713597140e+01   2.4003150782e+01    0.3097953    0.1659272 -45.43  0.001159266    1.986    0.497
       107  -9.2058      3.0001     78.9904   1.4846612076e+02   6.0284057412e+01    0.1511709    0.1195083 -84.35 0.0003466417    1.053    0.050
       108 -11.6850    231.5911     73.2547   8.0973840502e+01   1.7788621204e+01     1.473287    0.4032075 -42.76  0.004736465    3.913    0.744
       109  -8.9230     28.8390     75.8119   1.3726599275e+02   5.9413239679e+01    0.1911535    0.1636529 -49.92 0.0003604249    1.185    0.156
       110  -8.6112     16.6865     76.2961   1.4250557821e+02   6.0203736845e+01    0.1300713   0.08465061  63.35 0.0003202248    1.601    0.375
       111  -9.4293    214.6111     69.8430   8.2343871354e+01   2.2013635268e+01    0.5805924    0.2156263 -47.47  0.001961224    3.352    0.702
       112  -8.3171    195.4186     68.2633   8.4765285167e+01   2.6801135659e+01    0.2165728    0.1272427 -41.16 0.0009484778    1.673    0.402
       113  -8.5773     30.8198     62.3573   1.3369388082e+02   6.2533084073e+01    0.1607642    0.1250351  -0.14 0.0009153796    1.535    0.348
       114  -8.6559    206.5426     59.0455   8.0538987885e+01   2.5365267440e+01    0.2238933    0.1351524 -28.75  0.001027276    1.584    0.369
       115  -8.0824     48.5337     59.5154   1.2468320222e+02   6.1282004540e+01    0.1373723     0.126847 -53.24 0.0001078278    1.017    0.017
       116  -8.6971     32.9471     57.9697   1.3163523739e+02   6.3394449781e+01    0.1937421    0.1751403 -67.97  0.001207582    1.031    0.030
       117  -8.7693     10.0000     56.0308   1.4259431372e+02   6.5525770083e+01    0.2054284   0.06139784 -74.72 0.0004334346    2.843    0.648
       118  -9.0248     99.9859     54.1028   1.0217280840e+02   5.3193551933e+01     0.220161    0.2160577  36.89 0.0003170637    1.007    0.007
       119  -8.1782     41.3253     54.3388   1.2656365986e+02   6.3375072116e+01    0.1442625   0.09476352 -32.21  0.000705137    1.725    0.420
       120  -8.5520     95.5391     52.2697   1.0297745405e+02   5.4543278969e+01    0.2129996    0.1462152 -28.28 0.0006750097    1.642    0.391
       121  -8.3921     41.4754     44.4511   1.2331857139e+02   6.5639012635e+01    0.1338218    0.1223194 -44.79 0.0001130484    1.004    0.004
       122  -9.4332    225.9538     87.7781   8.5327562134e+01   1.7099872081e+01    0.2496564     0.177486 -27.27 0.0009425285    1.298    0.230
       123  -8.3784     92.3405     36.7995   9.7724619267e+01   5.8114444079e+01    0.2057901    0.1387418 -25.31 0.0004698309    1.632    0.387
       124  -8.6551    149.2388     34.7228   8.2076203522e+01   4.3723065024e+01    0.2372329    0.1339211 -11.20  0.000693779    2.382    0.580
       125  -8.5931    127.9872     34.0195   8.6297047664e+01   4.9606120700e+01    0.1807621    0.1804818  -1.43 0.0003206687    1.043    0.041
       126  -9.4282     54.8592     30.2960   1.1056195565e+02   6.6746925635e+01    0.2634393    0.2102885 -73.99  0.001401847    1.685    0.406
       127  -7.9055     21.2924     30.6686   1.3012009565e+02   7.0783774388e+01    0.1219487    0.0948539  73.64 0.0005394249    1.631    0.387
       128  -9.0338     83.5767     27.9752   9.6815096641e+01   6.1577556219e+01    0.2821599    0.1905669  34.68 0.0008557338    1.559    0.358
       129  -8.7238     42.1813     27.9100   1.1629017981e+02   6.9124522162e+01    0.1836222    0.1733816 -62.97 0.0003029399    1.197    0.164
       130  -8.9280      7.8210     23.1109   1.3669911825e+02   7.3355998928e+01    0.2112654    0.1480244 -77.62   0.00041952    1.415    0.293
       131  -9.6873      8.9979     27.0246   1.3702455208e+02   7.2411216057e+01    0.1942469    0.1773806 -22.91  0.001358879    1.171    0.146
       132  -9.8389      4.9291     27.5132   1.3988989542e+02   7.2483311888e+01    0.2147925    0.1766941 -50.27 0.0007153242    1.066    0.061
       133  -9.4463    136.8793     24.5711   8.0619294519e+01   4.8451359792e+01     0.306225    0.2064461 -17.21  0.001030525    1.660    0.398
       134  -7.8996     68.2972     23.3248   1.0068363221e+02   6.5575906890e+01    0.1439692    0.1064733   4.91 0.0004495773    1.627    0.385
       135  -9.3005    175.5640    247.2822   1.2353523651e+02   4.9843500096e+00    0.2101424    0.1609811 -52.58  0.001590041    2.124    0.529
       136  -8.1862     59.9458     21.0409   1.0334618856e+02   6.7569342233e+01    0.1613905    0.1496602   7.56 0.0004153954    1.038    0.037
       137  -9.6859     83.6661     21.0584   9.3345439443e+01   6.2639614199e+01    0.4534817    0.2996363  78.42  0.001953136    2.306    0.566
       138  -8.6445     23.3234     15.8892   1.2266374159e+02   7.3795889637e+01    0.1759289    0.1368451 -39.86 0.0004115892    1.108    0.097
       139  -8.5820      2.6768     15.9882   1.3834865593e+02   7.5171508356e+01    0.1633756    0.1289709 -58.84 0.0005055883    1.062    0.058
       140  -8.8636    131.3109     14.6562   7.7670640560e+01   5.1154982370e+01    0.1604415    0.1089196 -61.33 0.0007045645    1.702    0.412
       141  -9.5319    121.0159     13.6981   7.9318362777e+01   5.4095805468e+01    0.2173719     0.188338  61.77 0.0004241955    1.082    0.076
       142  -7.7508     46.2608     14.3051   1.0680649656e+02   7.1106546604e+01    0.1311492   0.09544735  -9.62 0.0002347222    1.520    0.342
       143  -9.5644    201.9811    242.2869   1.1842654713e+02   1.9345960635e+00    0.2331781    0.1537844 -40.91  0.001662471    2.272    0.560
       144  -8.6641    177.5202    242.9966   1.2269378049e+02   5.1832585626e+00     0.181424    0.1155209  22.98 0.0006029119    1.308    0.235
       145  -8.9801    214.2474    240.8466   1.1621815059e+02   4.5278764626e-01    0.1679209     0.138206  31.45  0.000822994    1.465    0.317
       146 -10.1423    192.6915    248.3486   1.2073398417e+02   2.5685481191e+00     0.293633    0.2688899   0.13  0.002554919    1.496    0.332
       147  -8.6856    219.7272    239.9422   1.1521167582e+02  -1.7577029739e-01    0.1623887    0.1208585 -18.80  0.001174886    1.586    0.369
       148  -9.7038    206.2789    236.8401   1.1700340327e+02   1.8991309295e+00    0.2854665    0.2429338 -33.62  0.002296375    1.774    0.436
       149  -8.5230     34.0390     10.4738   1.1215810450e+02   7.3601910768e+01    0.1787013    0.1223365  26.80 0.0007069249    1.523    0.343
       150  -9.6759    202.2411    232.1380   1.1705710711e+02   2.9279346283e+00    0.2657052    0.2107746  29.61  0.001951728    1.259    0.206
       151  -9.2025    189.3738    234.6673   1.1959887349e+02   4.4469504022e+00    0.2315449    0.1974759 -61.36   0.00167777    2.107    0.525
       152  -9.6547    215.6881    233.5450   1.1500475820e+02   9.6088299520e-01    0.3058285    0.2162386 -28.04  0.002299659    1.774    0.436
       153  -9.5482    145.4810    228.1081   1.2679828923e+02   1.1551637705e+01    0.2563628    0.2415711 -41.46   0.00203506    1.443    0.307
       154 -11.4618      4.2008    227.6888   1.5423701997e+02   2.8851895770e+01    0.4276178    0.2841351  51.66  0.003455763    1.064    0.060
       155  -9.5548    206.2222    225.8689   1.1552426010e+02   3.0293132657e+00    0.2255268    0.1834125 -20.93   0.00123332    1.517    0.341
       156  -9.0563    198.7600    226.5008   1.1688884158e+02   4.0120368046e+00    0.1867294    0.1340932 -45.50  0.001279763    2.170    0.539
       157  -8.8568    190.4722    226.4846   1.1833122299e+02   5.1951331908e+00    0.1582225    0.1093569 -50.25  0.001029548    2.373    0.579
       158  -9.0679    216.7337    223.4297   1.1341634643e+02   1.8214734597e+00    0.2192805    0.1658305 -50.91  0.001471123    2.564    0.610
       159  -8.7757    211.7742    227.7169   1.1484780849e+02   2.0691020845e+00    0.1738266    0.1438863 -24.39 0.0009509367    1.600    0.375
       160  -9.0083    210.8226    218.2267   1.1365352457e+02   3.1887013246e+00    0.2726364    0.1380348 -32.80  0.001634824    2.333    0.571
       161  -8.8579    224.4940    207.5647   1.0975733196e+02   2.3682984152e+00    0.2463549    0.1434528 -39.65  0.001311619    2.397    0.583
       162  -9.3016    227.9515    216.9573   1.1063012124e+02   9.2965309588e-01    0.2411669    0.1494621 -34.51  0.001196302    2.081    0.519
       163  -8.6040    225.7784    212.9775   1.1038145134e+02   1.6287125793e+00    0.1838334    0.1116461 -14.29   0.00119899    1.703    0.413
       164  -8.6358    219.4636    216.8379   1.1200103742e+02   2.1154014258e+00    0.1727589     0.103075 -33.60  0.001116568    2.059    0.514
