#   1 NUMBER                 Running object number                                     
#   2 MAG_AUTO               Kron-like elliptical aperture magnitude                    [mag]
#   3 X_IMAGE                Object position along x                                    [pixel]
#   4 Y_IMAGE                Object position along y                                    [pixel]
#   5 X_WORLD                Barycenter position along world x axis                     [deg]
#   6 Y_WORLD                Barycenter position along world y axis                     [deg]
#   7 A_WORLD                Profile RMS along major axis (world units)                 [deg]
#   8 B_WORLD                Profile RMS along minor axis (world units)                 [deg]
#   9 THETA_WORLD            Position angle (CCW/world-x)                               [deg]
#  10 FWHM_WORLD             FWHM assuming a gaussian core                              [deg]
#  11 ELONGATION             A_IMAGE/B_IMAGE                                           
#  12 ELLIPTICITY            1 - B_IMAGE/A_IMAGE                                       
         1 -14.2215    208.3400      4.1539   4.7708553142e+01   3.1910483068e+01     2.159757    0.9060456  61.68  0.005891046    2.242    0.554
         2 -15.2032    186.8761     33.2803   5.9398591667e+01   3.4335989294e+01     3.363697     1.890674  20.34   0.01229769    2.832    0.647
         3  -9.2615    115.5105     31.4425   7.2949737911e+01   5.2741619618e+01    0.1442552    0.1369663  -4.53 0.0001310225    1.011    0.011
         4 -19.7447     32.0467    162.3323   1.2556151041e+02   3.8083685654e+01     16.86935     4.735214 -78.32   0.07041326    3.501    0.714
         5 -11.4605    155.8445    199.7379   1.0532685124e+02   1.3402430943e+01     0.432006    0.2641857 -66.44   0.00226892    2.441    0.590
         6 -11.4808    204.1518    197.5806   9.6443410983e+01   5.4404256496e+00    0.2571137    0.1855118 -46.46  0.001601598    1.818    0.450
         7 -11.0740    208.9656    197.5263   9.5617222771e+01   4.6302526985e+00    0.1915738     0.170508 -51.05 0.0006252138    1.540    0.350
         8  -9.8007    121.2439    197.9322   1.1150225447e+02   1.9372826596e+01    0.1587649    0.1390169  72.40 0.0007324845    1.115    0.103
         9 -10.3827    111.7068    217.7310   1.1545108171e+02   1.7629299676e+01    0.1740811    0.1494958  47.53 0.0005649416    1.235    0.190
        10 -10.5919    121.1648    212.4969   1.1321738662e+02   1.7028244561e+01    0.2018464    0.1376461  89.22 0.0006545382    1.800    0.445
        11 -11.7426    113.0720    195.7900   1.1278430522e+02   2.1016288666e+01    0.3993139    0.2880537   0.69  0.002048453    3.139    0.681
        12 -10.3546    129.9649    211.3328   1.1150921948e+02   1.5847875621e+01    0.1780302    0.1455467  80.35 0.0007303042    1.302    0.232
        13 -10.8666    127.2921    208.1303   1.1161424676e+02   1.6765170142e+01    0.1789852    0.1498642  35.47  0.001253178    1.307    0.235
        14 -11.2612    101.8805    198.3500   1.1518937108e+02   2.2273509217e+01    0.2946781    0.2439962   9.26  0.001221975    1.963    0.490
        15 -11.2571    109.4984    189.4250   1.1270044728e+02   2.2681957613e+01     0.282062    0.1996106   8.28  0.001424491    3.000    0.667
        16 -11.0053     58.9021    188.4293   1.2237904301e+02   2.9932349487e+01    0.2815741    0.1859495 -54.12  0.001646429    2.006    0.501
        17 -10.6902    152.1356    184.8803   1.0383951101e+02   1.6366544725e+01    0.2361243    0.1680873 -55.45  0.001181212    1.648    0.393
        18 -11.6400    105.5425    203.3027   1.1504716620e+02   2.0882917815e+01    0.4201726    0.1928944  52.73  0.002072053    1.869    0.465
        19  -9.5081    110.4964    211.5065   1.1502168580e+02   1.8794504960e+01    0.1801973   0.08415232  51.40 -0.000144711    1.762    0.432
        20 -11.7185    144.9872    179.0776   1.0432790966e+02   1.8588470260e+01    0.3131565    0.2297572  35.23  0.001268926    1.369    0.269
        21 -10.0721    206.1719    179.1796   9.2956983347e+01   7.4916741198e+00    0.2688881    0.1401418  31.81   0.00130651    1.937    0.484
        22  -9.7932    210.1698    176.2008   9.1721177609e+01   7.1712503713e+00    0.1856633    0.1503075  32.04 0.0007200894    1.071    0.066
        23  -9.7014    167.9049    175.8488   9.9372859026e+01   1.4989704262e+01    0.2317066    0.1677144 -79.86 0.0009436173    2.135    0.532
        24 -10.6415     99.4643    180.7261   1.1361117745e+02   2.5808691133e+01    0.2089953    0.1823555  56.16  0.000567204    1.156    0.135
        25 -11.5452    106.3099    209.0771   1.1552114050e+02   1.9809343709e+01     0.359644    0.2612725 -75.89  0.001553421    1.520    0.342
        26 -11.3276    189.2848    155.2500   9.1503770869e+01   1.4192718143e+01    0.3971694    0.3559496  33.40  0.001440203    1.019    0.019
        27 -11.9822    195.1380    168.5428   9.2981616056e+01   1.1030673739e+01    0.3699619    0.3359652  66.37 0.0008216571    1.313    0.239
        28 -11.4328    140.8997    169.1886   1.0356972140e+02   2.1039342037e+01    0.3094405      0.27684 -18.73  0.001486955    1.406    0.289
        29 -11.3452    230.1713    166.4830   8.6488128031e+01   4.8280781753e+00    0.3665135    0.1608853 -44.02  0.001563804    3.108    0.678
        30 -10.1829    202.6589    170.8394   9.2054060216e+01   9.2901666472e+00    0.1961895    0.1549119  -3.41 0.0005769716    1.367    0.269
        31 -11.5400     74.7079    182.0396   1.1870151914e+02   2.9108567104e+01     0.276197    0.2406942  85.23 0.0009853094    1.179    0.151
        32 -10.7874    191.1815    161.0638   9.2289390886e+01   1.2914595700e+01    0.3786345    0.2708768 -52.68  0.001848592    1.744    0.427
        33 -10.1929    162.1423    167.6486   9.9071231897e+01   1.7403104011e+01    0.2633989    0.1996347  87.17 0.0009589827    1.826    0.452
        34 -10.4099    198.5450    222.7504   1.0117765731e+02   3.3321772175e+00     0.202375    0.1244444  40.81 0.0004981548    1.278    0.217
        35  -9.4286    203.6642    164.3153   9.0637978068e+01   1.0035740099e+01     0.124324    0.1053054  84.17 0.0007047278    1.693    0.409
        36 -10.4174    114.2085    208.8167   1.1406324161e+02   1.8671583042e+01    0.1478408     0.129332  38.07  0.001069851    1.331    0.249
        37 -12.6671    193.0748    193.4771   9.7694623069e+01   7.8822077681e+00    0.9275295    0.4673601 -54.95  0.004124013    3.577    0.720
        38 -12.4305     98.5256    154.3073   1.1021518586e+02   3.1129270247e+01    0.5470226    0.4131824 -37.82  0.002165438    1.813    0.448
        39 -11.6324    133.8463    144.9649   1.0080518794e+02   2.6878907362e+01     1.190707    0.2974647 -55.32  0.003113555    6.217    0.839
        40  -9.3578    113.3872    151.1521   1.0642030995e+02   2.9322483047e+01    0.1904498    0.1205632 -72.11  0.000946582    1.806    0.446
        41  -9.3757    152.2744    150.3202   9.7885021343e+01   2.2334552582e+01    0.1311415    0.1080747   3.46 0.0001890285    1.572    0.364
        42 -10.5035    174.4592    148.9751   9.3108151589e+01   1.8178993806e+01    0.2672704    0.2251807  60.62 0.0007958126    1.249    0.199
        43 -11.1039    144.3352    146.4261   9.8812419471e+01   2.4598843718e+01    0.4073828    0.2384293 -78.31  0.001493851    3.591    0.721
        44  -9.5665     93.4752    205.3276   1.1747430193e+02   2.2295529568e+01    0.2023271    0.1235861  38.40 0.0009676365    1.650    0.394
        45 -11.9286    109.1043    139.7449   1.0542587205e+02   3.2398885932e+01     0.481716    0.3331004 -37.83  0.002461111    1.869    0.465
        46 -12.6157     97.6944    139.6654   1.0807290509e+02   3.4317275245e+01    0.2509117    0.2321218  88.05 0.0006648778    1.081    0.075
        47 -10.3885     95.1974    200.6560   1.1668455266e+02   2.2851506489e+01    0.2987599    0.1786641 -89.50 0.0009133621    1.960    0.490
        48 -11.3481    106.0778    130.7047   1.0447833558e+02   3.4829753040e+01    0.3465959    0.2898881 -76.19   0.00130248    1.156    0.135
        49 -11.4590    103.7868    126.4426   1.0421646589e+02   3.6138347768e+01    0.2798578     0.258487 -37.39  0.001035509    1.280    0.219
        50 -11.0687    115.9155    130.1724   1.0202888301e+02   3.3204103315e+01    0.2923232    0.2720925 -19.35 0.0008723105    1.318    0.242
        51 -11.3558    135.8708    127.7375   9.6880020803e+01   2.9916158851e+01    0.4611319    0.1889452 -51.45  0.001741241    2.584    0.613
        52 -10.8709    160.3553    127.6516   9.1454058545e+01   2.4909878563e+01    0.3909271    0.2600106 -59.35  0.001741546    1.813    0.448
        53 -10.7004    120.6108    124.0794   9.9665231121e+01   3.3617372907e+01    0.3408026    0.2032323 -37.98  0.001276992    2.039    0.510
        54  -9.7971    163.0834    203.5152   1.0455061355e+02   1.1625940794e+01     0.162719    0.1552751  45.02 0.0003626702    1.164    0.141
        55 -10.3710    110.9634    119.0955   1.0095585472e+02   3.6457300719e+01    0.2065758    0.1925746  85.07 0.0003286002    1.018    0.018
        56 -11.0142     68.3021    116.0461   1.1134688422e+02   4.3900759834e+01    0.2671249     0.202942 -49.44 0.0009685063    1.418    0.295
        57 -10.5107    168.1794    113.1127   8.6358618948e+01   2.5918224488e+01    0.3184834    0.2601565 -81.91 0.0008688244    1.531    0.347
        58 -11.0551    135.0000    111.9512   9.3496893961e+01   3.3300338528e+01    0.5608198   0.08240875 -45.69  0.001239759    6.797    0.853
        59 -11.4166    118.6638    110.1242   9.7037491796e+01   3.6938920644e+01    0.5489146    0.2708815  57.32  0.002126001    2.512    0.602
        60 -11.1956     85.8160    201.2959   1.1848914722e+02   2.4066295951e+01    0.4895014    0.2027613  63.87  0.002201155    3.051    0.672
        61 -10.4234    205.5002    110.1425   7.8350813243e+01   1.8022774594e+01    0.3174804    0.2029375  41.64  0.001033949    1.578    0.366
        62 -12.2416     64.2641    107.9265   1.1098971595e+02   4.6279546063e+01    0.8729115    0.4781513 -49.02  0.004309798    1.873    0.466
        63  -9.3969     73.6178    102.7159   1.0737294655e+02   4.6185221215e+01    0.1309578    0.1029844 -25.29 0.0007010858    1.731    0.422
        64  -9.1931    128.6335     95.2743   9.0821043406e+01   3.8049164226e+01    0.1517373     0.116213  86.48 0.0002843058    1.671    0.401
        65 -11.1660     81.9443    195.0772   1.1860829145e+02   2.5704941660e+01    0.3501568     0.245195  52.22  0.001827081    1.209    0.173
        66 -11.5185     65.4950    194.6238   1.2166359486e+02   2.7961594457e+01    0.3240856    0.1503933  49.97  0.001857715    1.755    0.430
        67  -9.5030    152.6061     80.2208   8.0836600540e+01   3.5644696486e+01    0.2059454    0.1465106 -26.75 0.0004240118    1.514    0.340
        68 -13.6271     72.9326    189.4201   1.1977888197e+02   2.7956433557e+01    0.6853263    0.6069857  51.98  0.003938469    1.326    0.246
        69 -12.3108    168.4932     68.2763   7.3812540348e+01   3.3890852985e+01    0.9556484    0.5172789 -65.71 0.0007595695    3.739    0.733
        70  -9.1281    168.2718    248.2964   1.0926287300e+02   5.0504444294e+00   0.09842911    0.0689914  25.01 0.0001608435    1.522    0.343
        71 -13.6621    172.3517     47.9315   6.6584849798e+01   3.6137224856e+01    0.9293738    0.7918318 -20.85   0.00076162    1.188    0.158
        72  -9.9031     76.7678    233.8869   1.2277822907e+02   1.9927784853e+01    0.1865096    0.1186655 -89.54  0.001361939    1.605    0.377
