#   1 NUMBER                 Running object number                                     
#   2 MAG_AUTO               Kron-like elliptical aperture magnitude                    [mag]
#   3 X_IMAGE                Object position along x                                    [pixel]
#   4 Y_IMAGE                Object position along y                                    [pixel]
#   5 X_WORLD                Barycenter position along world x axis                     [deg]
#   6 Y_WORLD                Barycenter position along world y axis                     [deg]
#   7 A_WORLD                Profile RMS along major axis (world units)                 [deg]
#   8 B_WORLD                Profile RMS along minor axis (world units)                 [deg]
#   9 THETA_WORLD            Position angle (CCW/world-x)                               [deg]
#  10 FWHM_WORLD             FWHM assuming a gaussian core                              [deg]
#  11 ELONGATION             A_IMAGE/B_IMAGE                                           
#  12 ELLIPTICITY            1 - B_IMAGE/A_IMAGE                                       
         1 -16.8215     13.5548     42.4444   1.0153869150e+02   6.6382628502e+01     5.797303     1.093948 -49.38   0.02263599    3.161    0.684
         2 -13.2365    169.7413     56.2693   5.4968483240e+01   3.5661742074e+01     2.487127     1.420278  27.43  0.007381119    2.836    0.647
         3 -12.6564    184.9757     40.6430   4.7934063725e+01   3.4106103975e+01    0.8682222    0.7192058 -81.71  0.002612324    1.220    0.180
         4 -13.4135    207.6893      9.1862   3.6982281310e+01   3.2298906047e+01     1.019099    0.9108536  67.84  0.004111584    1.204    0.169
         5 -11.2599    190.3448     16.1737   4.0564563533e+01   3.5703326478e+01    0.3923102    0.2794264 -86.66  0.002077922    1.370    0.270
         6  -8.3281    235.4725     12.0167   3.5240957774e+01   2.5731675316e+01    0.1662788    0.1124014 -35.43 0.0004163074    1.488    0.328
         7 -12.4897    123.4419      8.2832   4.8201350063e+01   5.2849004101e+01    0.7966643    0.2156349  63.44   0.00275731    3.292    0.696
         8 -12.8465    127.0514      3.9973   4.5990502040e+01   5.2352649433e+01     1.490367    0.5212879  70.52  0.005484142    3.114    0.679
         9 -10.2214    247.1867      5.6898   3.3046405725e+01   2.3928688779e+01    0.2773943    0.1615612 -61.23  0.001417436    1.477    0.323
        10 -11.3405    241.3530      2.7557   3.2836667236e+01   2.5459145572e+01    0.9426785    0.2049692  74.22  0.003421989    4.346    0.770
        11 -11.6139     84.5825      2.2238   5.4877595028e+01   6.2053112632e+01     0.691911    0.2296548  58.59  0.002762054    2.947    0.661
        12  -9.0408     66.6664    105.9561   9.7892149373e+01   4.7044331045e+01    0.2432491     0.156807 -43.46  0.001171399    1.466    0.318
        13 -12.2865    248.1645    232.6620   8.0597880254e+01  -9.2834075259e+00     1.159764     0.625286  -2.10  0.006176198    2.139    0.533
        14 -11.9800    248.6140    248.2195   8.3098226747e+01  -1.1187563455e+01      1.01636    0.5804577  20.28  0.006438887    1.447    0.309
        15 -11.6934    244.3120    244.9789   8.3313953651e+01  -1.0265801087e+01    0.5677262     0.356912  31.62   0.00311911    1.489    0.329
        16 -18.3934     29.1854    239.7098   1.2372164108e+02   2.0945570413e+01     5.502304     4.737175  36.75   0.03928601    1.498    0.333
        17  -9.2539    230.1766    198.1926   7.7597756523e+01  -1.9639061398e+00    0.1590951    0.1489714   7.42 0.0002722468    1.299    0.230
        18 -10.4085    170.9493    196.8863   8.9178334469e+01   8.3044618892e+00    0.2402694    0.2313584 -29.67 0.0003616721    1.158    0.136
        19 -10.3532     97.2502    193.6407   1.0529005309e+02   2.1584457791e+01    0.4049845    0.2990724 -26.82  0.001335173    1.947    0.486
        20 -10.5974     74.2701    208.1061   1.1224757497e+02   2.1809073903e+01    0.4572243    0.3646067  78.44  0.002859297    1.157    0.136
        21 -13.4616     46.4468    217.6751   1.1895214164e+02   2.3335322566e+01    0.4916639    0.4255911  74.20  0.003007891    1.125    0.111
        22 -10.8452    150.0644    196.1231   9.3609364853e+01   1.2168660795e+01    0.5134442    0.1722131  44.76   0.00179271    2.924    0.658
        23 -11.2630     61.1010    206.6086   1.1492605260e+02   2.3864811597e+01    0.3835974     0.286564 -40.00  0.001079752    1.876    0.467
        24  -8.6304    159.4908    195.5035   9.1416724772e+01   1.0609856862e+01    0.1405489    0.1289712  29.11 3.252798e-05    1.023    0.022
        25 -10.1440     57.3838    189.6836   1.1398641309e+02   2.8051821162e+01    0.4703168    0.3440902 -85.15  0.002789503    1.263    0.208
        26 -10.4764    233.2426    210.1987   7.9278199058e+01  -4.2018634180e+00    0.2066705    0.1822139   7.08 0.0001962124    1.212    0.175
        27  -8.6963    201.7809    211.2067   8.5416399272e+01   5.7130291618e-01    0.1834398    0.1608513  25.48 0.0006057216    1.164    0.141
        28 -10.2819     31.2805    186.5218   1.1953216666e+02   3.1714992106e+01     0.293619    0.1494123  39.14  0.000971227    1.918    0.478
        29 -11.1722     24.9750    200.4645   1.2197896444e+02   2.9287321342e+01    0.2666841    0.1965656 -81.39  0.001040323    1.211    0.174
        30 -10.0176    153.3497    184.8744   9.0854618920e+01   1.3820040967e+01    0.3094166    0.1815668 -60.26  0.001325097    2.216    0.549
        31 -13.6889     11.2711    207.3300   1.2514918940e+02   2.9146250821e+01    0.4103774    0.2734942  54.28  0.002821003    1.313    0.238
        32  -9.4564     90.1205    183.8723   1.0557951496e+02   2.4856667664e+01    0.2246242    0.1708143  69.31  0.001157795    1.348    0.258
        33  -9.0266     32.8396    182.7481   1.1885067532e+02   3.2407831390e+01    0.2526854    0.1275339  40.85  0.001336294    1.913    0.477
        34  -9.2987    187.9983    174.4736   8.1198246350e+01   9.3677424772e+00    0.2585435    0.2099916 -67.56   0.00106613    1.692    0.409
        35  -9.0047    192.0412    181.5378   8.1784894737e+01   7.3114035513e+00    0.2495843    0.2062401  58.49 0.0004987933    1.529    0.346
        36  -9.6923    188.8152    178.5835   8.1863802415e+01   8.4481919974e+00    0.3112192    0.2861809 -24.11 0.0009463983    1.117    0.104
        37 -10.6736    240.9954    177.9018   7.1672662741e+01  -5.5789815120e-01    0.3523599    0.1518228  29.26  0.001441484    2.850    0.649
        38  -8.7694    195.6062    173.7379   7.9461443855e+01   8.0788756893e+00    0.1964997     0.133372 -47.03 0.0009493535    1.619    0.382
        39  -9.1045     26.3059    177.4532   1.1985141180e+02   3.4262366640e+01    0.3160113    0.1332674  65.78  0.001367038    2.801    0.643
        40 -11.8265      5.8248    207.4469   1.2619635461e+02   2.9610025567e+01    0.2085945    0.1343236  64.97 0.0007757808    1.249    0.199
        41  -8.5110     64.2674    171.2388   1.1012996888e+02   3.1446288644e+01    0.1879802    0.1411472  72.04 0.0005139866    1.321    0.243
        42  -9.4142     39.6942    167.5495   1.1572602035e+02   3.5217157531e+01    0.2482922    0.1476062  52.77 0.0007160003    1.674    0.403
        43  -9.5404    202.8126    206.5164   8.4369234664e+01   1.1509564645e+00    0.2177374    0.1733001 -26.78 0.0002460955    1.272    0.214
        44  -8.9450    186.5466    166.4405   7.9828022346e+01   1.1171342886e+01    0.2974698    0.1409518 -41.63  0.001190203    2.111    0.526
        45  -8.4256      5.9060    165.8068   1.2353120558e+02   3.8672122408e+01    0.1178845   0.09255049  30.46 0.0002705387    1.562    0.360
        46  -8.8911      1.3355    164.1065   1.2444169512e+02   3.9393981817e+01    0.1670779   0.08695725 -77.28 0.0006166201    1.520    0.342
        47  -8.7869      7.1201    161.8951   1.2295285084e+02   3.9476736395e+01    0.1552054    0.1541069  57.62 0.0002949716    1.343    0.255
        48 -10.7597     93.7683    158.5610   1.0062089181e+02   3.0205141596e+01    0.2992247     0.259276 -64.91 0.0002973048    1.121    0.108
        49 -12.0897     99.5990    151.6344   9.7806254247e+01   3.0910931731e+01    0.8016319    0.5995832 -19.36  0.003793182    1.823    0.451
        50 -11.7288    108.6386    139.3315   9.2862614168e+01   3.2287795125e+01    0.8351094    0.5600853 -20.25  0.003457024    2.233    0.552
        51 -10.7470    113.1511    152.3654   9.4365218110e+01   2.8388813994e+01    0.4940706    0.3006419  58.13  0.001787085    2.014    0.504
        52 -11.0189    133.6831    145.7510   8.7653210619e+01   2.6054989802e+01     1.371806    0.3744097 -55.11  0.003242738    5.685    0.824
        53  -9.1507    128.1676    139.9061   8.7767227523e+01   2.8476527388e+01    0.2977793     0.229095  35.05 0.0007660571    1.334    0.251
        54 -10.6968    109.2783    149.2515   9.4759767953e+01   2.9813859696e+01    0.4737022    0.2731075 -53.35  0.001938028    1.705    0.413
        55  -9.7978    144.0052    147.9727   8.5558617716e+01   2.3501413965e+01    0.4411248    0.2296649 -56.26  0.001666741    2.251    0.556
        56  -9.8450     91.3059    147.5269   9.9262603567e+01   3.3257595721e+01    0.3934214    0.2087513  63.32   0.00140384    3.056    0.673
        57 -11.5787     98.0525    137.8897   9.5480933656e+01   3.4482456072e+01    0.3138024    0.3094018 -81.70 0.0004451667    1.033    0.032
        58 -10.6742    135.9312    129.3673   8.3269116878e+01   2.9318158478e+01    0.9297408    0.2071924 -50.02  0.002207522    5.193    0.807
        59 -10.6477     21.2736    133.3040   1.1654250397e+02   4.5153615277e+01    0.2317633    0.1837316  12.57 0.0008769029    1.615    0.381
        60 -10.3072    116.0177    129.4467   8.8611222435e+01   3.3260417820e+01    0.3496115    0.3039487   3.22 0.0007172414    1.315    0.240
        61  -9.0622    160.8173    128.9215   7.6999310963e+01   2.4128992835e+01    0.2862879    0.2476449  64.92  0.001417964    1.304    0.233
        62  -8.8464    139.9477    128.9113   8.2124388730e+01   2.8586610628e+01    0.2265473    0.2204206 -40.04 0.0003486936    1.023    0.023
        63  -9.4172    196.3814    127.9569   6.9013756801e+01   1.6611133329e+01    0.2428566    0.2088606  30.88 0.0002386213    1.208    0.172
        64 -10.4480    103.8938    125.1359   9.1003204038e+01   3.6525396903e+01    0.3595654    0.2853744 -46.46  0.001086594    1.219    0.180
        65 -10.7151    121.1516    123.1361   8.5680355945e+01   3.3730905487e+01    0.5171296    0.3151103 -19.01  0.001831657    2.855    0.650
        66  -9.3291    111.0185    118.9736   8.7481672956e+01   3.6661239199e+01    0.2258738    0.2208563 -51.18 0.0003202301    1.023    0.022
        67  -8.8846     68.2005    116.5015   9.9753924939e+01   4.4287077498e+01    0.2230235    0.1788728 -37.88 0.0006335075    1.261    0.207
        68 -10.5027    134.7562    112.7808   7.9359662406e+01   3.3261068301e+01    0.6058456    0.1501259 -43.88  0.001611474    3.986    0.749
        69 -10.3230    134.4854    105.4962   7.7464411194e+01   3.4901905043e+01    0.4855331    0.2040521 -43.61  0.001688314    2.342    0.573
        70  -9.0385    167.5325    113.4582   7.1510367070e+01   2.5854338961e+01    0.3420708    0.2401349 -82.37  0.001351544    2.352    0.575
        71 -11.4420    118.6917    111.0661   8.3280896240e+01   3.6978190143e+01    0.7056149    0.4372165  66.97   0.00262198    2.638    0.621
        72 -10.4182    149.4867    248.1963   1.0153836160e+02   3.0572503309e+00    0.2591912    0.2362328 -84.93  0.001816995    1.406    0.289
        73  -9.8385    128.4244     96.5404   7.6573110258e+01   3.8121529725e+01    0.3723944    0.2561995 -89.44  0.001400079    2.688    0.628
        74 -10.2284    113.4125     95.6380   8.0541486403e+01   4.1458778268e+01    0.2716787    0.2519288  45.99 0.0006745131    1.132    0.117
        75  -8.9975    190.1925     90.2054   6.0626277158e+01   2.5054697702e+01     0.218779    0.1809985 -74.58  0.001089177    1.389    0.280
        76 -10.4209    103.0581     82.0582   7.9599671928e+01   4.6392535639e+01    0.2267661    0.2136277 -12.43  0.001239302    1.006    0.006
        77  -8.4090    152.5911     82.2206   6.6266762979e+01   3.5455514100e+01    0.2094053    0.1487163 -24.96 0.0003215764    1.552    0.356
        78  -8.0543    199.0000     80.9823   5.6603121000e+01   2.4590444825e+01    0.2414213   0.08106305 -35.53 0.0004332447    2.862    0.651
        79 -11.1200    204.0010    201.3271   8.3180257161e+01   1.7953744527e+00    0.3780561    0.2587003 -11.74 0.0009535417    1.596    0.373
        80 -11.4028     69.6572    209.7569   1.1341587150e+02   2.2082269471e+01    0.2472371    0.2018484 -88.74 0.0003950567    1.159    0.137
        81 -12.3628    190.0083     34.1970   4.5442252011e+01   3.3700203052e+01    0.5932921    0.5109263  69.46  0.001115417    1.115    0.103
        82 -10.1268    131.4902     40.4771   5.7864923312e+01   4.7315746250e+01    0.2666361    0.1204093 -41.62  0.001045457    2.430    0.589
        83  -9.8360    131.0325     35.5039   5.6254473675e+01   4.8085782811e+01    0.2191686     0.132138  56.28 0.0005320141    1.551    0.355
        84  -8.1307    161.9998     27.7105   4.7759617102e+01   4.1425074235e+01    0.1653847    0.1162248  65.07 0.0003232135    1.315    0.240
        85 -10.1463    129.9630     23.0629   5.2147353286e+01   4.9829590995e+01    0.2081397    0.1872935  43.87  0.000373497    1.018    0.018
        86 -12.9245     20.5435    205.3983   1.2321557185e+02   2.8674835031e+01    0.2589444    0.2067974  26.93 0.0007129536    1.626    0.385
        87  -8.6890    167.9229    231.6835   9.5567332887e+01   2.7884291404e+00    0.1738953    0.1426973  30.66 0.0005267483    1.036    0.034
        88 -11.0550     97.1152    201.1263   1.0634513796e+02   1.9987191230e+01    0.4271221     0.343407 -38.38  0.001129282    1.546    0.353
        89  -9.0484     87.8125    203.0575   1.0868169910e+02   2.0967654190e+01     0.219051     0.174735  44.09 0.0008157949    1.186    0.157
        90  -9.1826     73.3042    218.7859   1.1357139720e+02   1.9723459979e+01    0.2077681    0.1487736  44.09 0.0006568654    1.272    0.214
        91 -10.0215      8.6348    218.5916   1.2626355803e+02   2.7096751373e+01    0.1496627    0.1088997 -41.74 0.0009957228    2.227    0.551
        92 -10.6659    193.0633    196.0592   8.4392158123e+01   4.5507501377e+00    0.9259374    0.4731162 -60.68  0.002912389    5.386    0.814
        93  -8.5954    213.7662    216.9653   8.4116922477e+01  -2.2198898897e+00    0.1762168     0.151153 -66.50  0.001054336    1.951    0.488
