#   1 NUMBER                 Running object number                                     
#   2 MAG_AUTO               Kron-like elliptical aperture magnitude                    [mag]
#   3 X_IMAGE                Object position along x                                    [pixel]
#   4 Y_IMAGE                Object position along y                                    [pixel]
#   5 X_WORLD                Barycenter position along world x axis                     [deg]
#   6 Y_WORLD                Barycenter position along world y axis                     [deg]
#   7 A_WORLD                Profile RMS along major axis (world units)                 [deg]
#   8 B_WORLD                Profile RMS along minor axis (world units)                 [deg]
#   9 THETA_WORLD            Position angle (CCW/world-x)                               [deg]
#  10 FWHM_WORLD             FWHM assuming a gaussian core                              [deg]
#  11 ELONGATION             A_IMAGE/B_IMAGE                                           
#  12 ELLIPTICITY            1 - B_IMAGE/A_IMAGE                                       
         1 -13.7990    175.3267     29.0068   7.4781776712e+01   3.8200032825e+01     1.216188    0.9075055  19.21  0.004646644    1.666    0.400
         2 -12.6263    179.0914     22.2371   7.2083150138e+01   3.8006423391e+01    0.6084028    0.4662309  56.91  0.001263688    1.244    0.196
         3 -11.4860    164.1503    234.1102   1.2477036851e+02   5.1534571714e+00    0.1890211    0.1729639 -78.15  0.001368506    1.381    0.276
         4 -19.4305     45.8165    152.3512   1.3883489714e+02   3.9114776117e+01      19.0571     3.698971 -69.89   0.05926142    4.991    0.800
         5 -11.2376    101.8855    216.5650   1.3422785893e+02   1.8191977970e+01    0.2722663    0.1691027 -65.43  0.001619308    1.790    0.441
         6 -10.8181     98.8368    213.6371   1.3449247699e+02   1.9191230706e+01    0.2147729    0.1267763  68.92  0.001180945    1.733    0.423
         7 -10.1770     22.2417    214.1377   1.4859391282e+02   2.8978577525e+01    0.2798345    0.1450392  28.46  0.001632933    2.862    0.651
         8  -9.9058     16.1765    212.5691   1.4955114644e+02   2.9885622903e+01    0.1469091   0.09965786  78.72 0.0002700593    1.076    0.071
         9 -12.0072    114.3644    211.7304   1.3127533525e+02   1.7080760317e+01    0.2695676    0.1986467  49.40  0.001679513    1.154    0.134
        10 -12.7456     12.2418    206.1931   1.4990165891e+02   3.1462246820e+01    0.5407567    0.2272923  36.92  0.003239482    2.421    0.587
        11 -12.6579    102.9795    208.7035   1.3313863638e+02   1.9453880057e+01    0.4633391     0.241969  58.27  0.002396859    1.787    0.440
        12 -10.0989    130.4046    206.1372   1.2741364406e+02   1.5397007964e+01    0.1648151    0.1185663 -78.53 0.0009404717    1.658    0.397
        13 -11.6237    107.4117    206.7672   1.3204079372e+02   1.9108900295e+01    0.2281825    0.1775507 -49.70  0.001273704    1.655    0.396
        14 -11.9730    199.0499    199.6270   1.1307733810e+02   4.0425188113e+00    0.3962283    0.2641925  37.23  0.001455154    1.293    0.227
        15 -11.6009    192.2514    193.3570   1.1326267709e+02   6.2505893904e+00    0.7518668    0.3930193 -64.34  0.002241687    6.769    0.852
        16  -9.7739      1.3752    250.2775   1.5343667411e+02   2.4810592710e+01    0.1182974   0.06131735  78.37 0.0002551806    1.395    0.283
        17  -9.5388    134.9720    195.4674   1.2498713875e+02   1.6528945729e+01    0.1899565   0.09712671  60.78 0.0006592979    2.367    0.577
        18 -10.4148    208.7739    188.4232   1.0926040381e+02   3.9089112549e+00    0.1953807    0.1104354  34.19 0.0009509935    1.661    0.398
        19 -11.2560     93.0193    187.4595   1.3260468480e+02   2.5136625001e+01    0.3417794     0.182717  55.71  0.001114193    1.727    0.421
        20 -10.5269    201.3521    182.1686   1.0948249239e+02   6.2704575881e+00    0.2622772    0.2462053   8.75 0.0009373976    1.094    0.086
        21 -11.4039     92.4392    179.6031   1.3171435801e+02   2.6841658953e+01    0.3548353    0.2114161 -49.49  0.001218091    2.038    0.509
        22 -11.5684     95.0837    174.1723   1.3039445291e+02   2.7563230393e+01    0.3002094    0.2486149 -52.17 0.0009868857    1.434    0.303
        23 -11.7344    168.9982    233.2023   1.2377663696e+02   4.4697266579e+00    0.1873272    0.1823609  43.13   0.00131008    1.238    0.193
        24 -10.1544    137.6528    170.6859   1.2042959064e+02   2.0792464915e+01    0.1376249    0.1120014   7.21 0.0001106239    1.718    0.418
        25 -10.3595    226.5305    168.7374   1.0218727221e+02   3.4934339718e+00    0.1779048    0.1254792 -43.63  0.000940447    1.634    0.388
        26 -10.2095    113.2379    169.2112   1.2559845977e+02   2.5570609040e+01    0.1917491    0.1453248  71.09 0.0003749471    1.313    0.238
        27 -10.7202    100.0766    165.0349   1.2792460242e+02   2.8702210779e+01    0.2350381    0.2013618 -68.12 0.0004248701    1.199    0.166
        28 -12.6370     89.3103    159.9624   1.2963882614e+02   3.1541588158e+01    0.3795819    0.3347716 -10.61 0.0009002257    1.658    0.397
        29 -11.2085    104.0155    157.6544   1.2582692708e+02   2.9641407376e+01    0.5052173    0.2665464 -43.58  0.001594251    2.426    0.588
        30 -10.0005     10.7796    226.2452   1.5109476607e+02   2.7946901143e+01    0.1189907   0.09485517  81.09 0.0004123623    1.305    0.234
        31 -11.0009    133.7768    146.3522   1.1671951517e+02   2.6571562925e+01    0.4851671    0.2202254 -55.82  0.001857299    2.446    0.591
        32 -13.6364     69.1593    143.2108   1.3196475825e+02   3.8269786676e+01     0.728142    0.6057778  72.55  0.002929559    1.120    0.107
        33 -11.2862    139.7973    217.4911   1.2710249681e+02   1.1836671805e+01     0.228812    0.1600828 -85.27  0.001165442    1.910    0.477
        34 -11.4225    102.3282    141.9701   1.2347205437e+02   3.3409357441e+01     0.250851    0.2294794 -85.95 0.0003452865    1.033    0.032
        35 -10.3925    113.0263    141.1526   1.2067024467e+02   3.1684175435e+01    0.3538206    0.1872869 -38.93    0.0014059    2.544    0.607
        36 -10.0774    118.4777    131.5038   1.1733571316e+02   3.2802356892e+01    0.2497836    0.2050991 -12.72 0.0007975867    1.682    0.405
        37 -10.9261    106.3676    129.0443   1.1989774141e+02   3.5611829326e+01    0.4563436    0.2379572 -46.76  0.001502683    1.993    0.498
        38 -12.3841     71.9959    126.5799   1.2849355845e+02   4.1706944847e+01     0.384628    0.3292493 -78.57  0.001599982    1.037    0.036
        39  -9.3273    112.9614    120.0392   1.1621181492e+02   3.6416097427e+01    0.1766215    0.1648532  65.95 0.0004314859    1.064    0.060
        40 -12.3777    162.6303     43.9703   8.1835457537e+01   3.9554478657e+01    0.4242618    0.3862542  40.56  0.001064687    1.110    0.099
        41 -11.3244    162.1159    249.3733   1.2703997718e+02   3.3918656392e+00    0.2460718    0.1154889  51.37  0.001197074    1.893    0.472
