#   1 NUMBER                 Running object number                                     
#   2 MAG_AUTO               Kron-like elliptical aperture magnitude                    [mag]
#   3 X_IMAGE                Object position along x                                    [pixel]
#   4 Y_IMAGE                Object position along y                                    [pixel]
#   5 X_WORLD                Barycenter position along world x axis                     [deg]
#   6 Y_WORLD                Barycenter position along world y axis                     [deg]
#   7 A_WORLD                Profile RMS along major axis (world units)                 [deg]
#   8 B_WORLD                Profile RMS along minor axis (world units)                 [deg]
#   9 THETA_WORLD            Position angle (CCW/world-x)                               [deg]
#  10 FWHM_WORLD             FWHM assuming a gaussian core                              [deg]
#  11 ELONGATION             A_IMAGE/B_IMAGE                                           
#  12 ELLIPTICITY            1 - B_IMAGE/A_IMAGE                                       
         1 -11.0083    228.7798     25.6396   3.2122759749e+01   2.6671308100e+01    0.6370298    0.4656414 -57.38   0.00292708    1.150    0.131
         2 -11.6797    217.4752     36.1353   3.5363420428e+01   2.7711647803e+01     1.215351    0.7884467  38.67  0.004255522    2.482    0.597
         3  -8.3568    164.0233     10.5360   3.5123367403e+01   4.2585128521e+01    0.1707107     0.156027 -71.44 1.961696e-05    1.141    0.124
         4  -9.1605    120.0486      9.3660   4.1309780517e+01   5.2956918906e+01    0.3270766    0.2734986  21.32  0.002085155    1.341    0.254
         5  -9.5053    249.4129      6.2114   2.6937602182e+01   2.4858662559e+01    0.3428671    0.1891083 -48.82  0.001790813    1.465    0.318
         6  -9.2447    248.4913      2.4946   2.6322478085e+01   2.5427979184e+01    0.2920242    0.1793929  77.72   0.00172889    1.556    0.357
         7  -8.6402     75.7020    235.6184   1.0735713895e+02   1.4347334065e+01    0.2498916     0.117353  29.96  0.001137334    2.137    0.532
         8 -11.6557     25.4540    222.5299   1.1712111058e+02   2.3219617722e+01     1.219308    0.8442709  -2.74  0.006721132    2.468    0.595
         9 -11.5883     54.0020    239.8548   1.1242625196e+02   1.6247242738e+01    0.9723299    0.7938912  39.08  0.005870055    1.228    0.186
        10  -8.9172    175.3198    233.5626   8.5127424930e+01   3.7467008243e-02    0.2848462    0.2018918  37.26  0.001003499    1.401    0.286
        11  -9.0767    176.9973    229.0666   8.4040608732e+01   5.7342248115e-01    0.2193277    0.1832323 -26.22 0.0003292779    1.207    0.171
        12 -10.5948     89.5542    227.7479   1.0338050094e+02   1.4096918183e+01    0.8212577    0.4252139 -89.59  0.003142792    3.518    0.716
        13  -9.6848     70.4239    232.3706   1.0818870031e+02   1.5737377152e+01    0.3460659    0.2376846  36.96  0.001649378    1.350    0.259
        14 -10.3162    123.1392    230.2646   9.6063596109e+01   8.5898805285e+00     0.536616    0.2668985  41.64   0.00245412    1.831    0.454
        15  -9.8750    105.2899    229.4378   1.0000368055e+02   1.1448661847e+01    0.3681978    0.1642902  27.38  0.001500333    2.445    0.591
        16 -10.1262     97.7861    225.9137   1.0127014905e+02   1.3298013494e+01    0.6019422    0.3699504 -24.54  0.002283818    2.827    0.646
        17  -8.7234     45.3515    223.1448   1.1286098915e+02   2.0886288556e+01    0.4056875    0.1725597  88.22  0.001589461    3.285    0.696
        18 -13.0558     15.1169    247.3450   1.2071555346e+02   1.9039880006e+01     2.745017    0.7917709  27.43   0.01117916    4.145    0.759
        19  -7.3300    188.0130    225.2717   8.1105437948e+01  -3.9981938367e-01    0.1570405      0.10528  27.35  0.000294483    1.377    0.274
        20  -8.6509    177.9674    224.5043   8.3074381188e+01   1.2366130293e+00    0.2262968    0.1858153 -32.76 0.0003132462    1.254    0.203
        21  -9.2260     82.0096    224.4910   1.0472391485e+02   1.5865636461e+01    0.2058675    0.1218546  34.80  0.001027588    1.575    0.365
        22  -7.6546    204.8604    222.2118   7.7170254903e+01  -2.3207287308e+00    0.1757412    0.1277168 -11.18 0.0002809422    1.283    0.221
        23  -8.4053     74.2190    219.2491   1.0592205394e+02   1.8100107739e+01    0.3881268    0.1685682 -63.09   0.00169027    2.336    0.572
        24 -10.1393    144.6879    217.9741   8.9308738658e+01   7.6870684325e+00    0.2664085    0.2413513 -38.00 0.0004848659    1.177    0.150
        25  -8.2639     13.2596    219.4108   1.1948006564e+02   2.5119383568e+01    0.1673926   0.09200401  45.81 0.0009486866    1.610    0.379
        26  -9.2045     51.2628    210.2748   1.1031652168e+02   2.3114197034e+01    0.2441144    0.1715537  47.01 0.0004438541    1.316    0.240
        27 -11.5710     55.3620    209.6061   1.0928569449e+02   2.2767877329e+01      1.73411    0.5879784  58.40  0.005105085    5.152    0.806
        28 -11.4477     17.9358    169.9083   1.1454863826e+02   3.6456100642e+01     2.042859    0.7341677  74.51  0.005592208    6.234    0.840
        29 -12.1958     39.6720    191.4946   1.1119323627e+02   2.8951980837e+01     1.266965    0.9357424  87.03  0.005605372    1.255    0.203
        30  -9.3028     24.1799    202.9942   1.1593055900e+02   2.7809779508e+01    0.2957154    0.1972107  65.65  0.000669655    1.362    0.266
        31 -10.7885     28.9616    200.3523   1.1460567444e+02   2.7951819044e+01    0.4179998    0.2818921 -72.22  0.002396918    1.361    0.266
        32  -9.7174     12.4979    214.0021   1.1929866952e+02   2.6398332931e+01    0.3114073    0.2083848 -87.28  0.000835354    1.283    0.221
        33 -11.8311      9.6759    207.5855   1.1949107197e+02   2.8111573556e+01    0.8414674    0.6260243  26.58  0.004486156    1.601    0.375
        34  -8.6602    167.7201    203.9886   8.1704560053e+01   6.7329974905e+00    0.2170038     0.185747  13.85  0.000396888    1.095    0.087
        35  -7.5978    152.9680    200.0828   8.4344472898e+01   1.0000902517e+01    0.2147047    0.1748063  71.38 0.0006465841    1.661    0.398
        36  -9.1570     20.4050    195.5750   1.1620531705e+02   2.9934627923e+01    0.2774612      0.25966  66.06  0.001189328    1.189    0.159
        37  -8.1714     96.5989    212.7883   9.9824582629e+01   1.6349976736e+01    0.2148424    0.1772135  26.32 0.0007879814    1.247    0.198
        38  -7.1243    196.6896    195.7261   7.3958886488e+01   3.5979593806e+00    0.1397028   0.09900813  -4.44 0.0004305857    1.552    0.356
        39  -9.0376     39.5695    210.1799   1.1301608510e+02   2.4500120476e+01    0.3653097     0.157311  33.83  0.001682444    2.214    0.548
        40  -7.6398     95.0378    189.4625   9.6795859781e+01   2.2043538375e+01    0.2089858    0.1398535  35.83 -2.016996e-05    1.466    0.318
        41  -7.4439     75.9223    189.1761   1.0169811248e+02   2.4957170757e+01    0.1863339    0.1669476 -21.46 0.0004521828    1.327    0.246
        42  -7.1975    100.6724    185.7103   9.4730947180e+01   2.2062474782e+01    0.1475424    0.1157063 -16.65 0.0007015367    1.617    0.382
        43  -8.2373     15.5992    183.6847   1.1637179816e+02   3.3246297194e+01    0.3621421    0.1238932  48.38  0.001486508    2.877    0.652
        44 -10.2724     30.9517    183.0807   1.1251374834e+02   3.1949624674e+01    0.4626042    0.3812988  83.53 0.0007062338    1.070    0.066
        45  -7.0297    136.4888    176.5192   8.3872135679e+01   1.8097838365e+01    0.1520117    0.1453655  -5.49 -3.611346e-05    1.034    0.033
        46  -9.2595     58.2001    175.1294   1.0443106748e+02   3.0863797232e+01    0.3857756     0.265014 -30.86   0.00138654    1.913    0.477
        47  -9.1181    102.3816    174.7872   9.2399855160e+01   2.4460613986e+01    0.3295645    0.2612849 -63.50 0.0006536455    1.279    0.218
        48  -7.8957    127.2507    172.5387   8.5432734293e+01   2.0698054270e+01    0.2070584    0.1482746  20.83 0.0009292311    1.582    0.368
        49  -7.6730    115.6814    171.9977   8.8344737170e+01   2.2881701346e+01    0.2439216    0.1299906 -77.78 0.0007039635    4.204    0.762
        50  -9.4301     63.8396    170.0565   1.0216123255e+02   3.1432888808e+01    0.3017222    0.2528364 -42.74 0.0005298491    1.288    0.224
        51  -8.7277      6.3188    165.0019   1.1710963860e+02   3.8603375639e+01    0.2921616     0.143216  47.41  0.001167585    2.096    0.523
        52  -8.3065      1.8273    162.0181   1.1801706794e+02   3.9660893036e+01     0.225494    0.1655577  57.13 0.0006078802    1.380    0.275
        53  -9.7091     74.5039    160.9368   9.7697413482e+01   3.2311335378e+01    0.5394327    0.3498899  15.50 0.0004391547    1.968    0.492
        54 -10.9980     60.9519    156.7586   1.0091768981e+02   3.5251085887e+01    0.5107304    0.2992247 -41.13  0.001444123    1.923    0.480
        55  -9.9324     81.6341    154.8242   9.4547219203e+01   3.2831628160e+01    0.5169047    0.3660517  -5.53  0.001599975    2.006    0.501
        56  -9.6790    175.1523    151.1541   6.9295577934e+01   1.6428575983e+01    0.2486463    0.2325932 -20.74 -0.0006383859    1.021    0.021
        57 -11.5501     67.7213    144.7233   9.6812173244e+01   3.7478361589e+01    0.9966463    0.6998525  74.66    0.0036261    1.808    0.447
        58  -8.1387    248.4919    149.5170   5.5391035348e+01   3.7307129287e+00     0.132496    0.1065967 -29.49 -6.805148e-05    1.057    0.054
        59  -9.6918      6.3686    146.7270   1.1539314862e+02   4.3183868818e+01    0.5740101    0.2116068  55.29  0.002166625    3.597    0.722
        60  -7.8836    180.6738    148.0557   6.7400470330e+01   1.6003752434e+01    0.2126122    0.1847679 -34.35  0.000265678    1.077    0.071
        61  -8.2904     96.9475    141.7473   8.7414467565e+01   3.3688751789e+01    0.2171714    0.2132639  56.86  0.001160927    1.054    0.052
        62  -8.5518    118.6329    147.4915   8.2497622511e+01   2.8343715479e+01    0.2519094    0.2424946 -28.89 0.0001986265    1.033    0.031
        63 -10.0229     84.2325    139.5282   9.0748456277e+01   3.6361575552e+01    0.3786178    0.3203678  86.84 0.0008249145    1.340    0.254
        64 -10.2299      3.5444    129.9638   1.1442823222e+02   4.7586052613e+01     0.465009    0.3678767  79.12   0.00287524    1.281    0.220
        65  -9.4788      6.5006    137.4595   1.1437841909e+02   4.5516613793e+01    0.1994503     0.172164 -35.69  0.000654271    1.304    0.233
        66  -7.8290    108.6752    130.8682   8.1490287838e+01   3.4283378357e+01     0.253489    0.1921935 -31.82 0.0006625521    1.418    0.295
        67 -10.5657     59.3089    133.9906   9.7409462028e+01   4.1391520245e+01    0.5284158    0.3860051  75.58  0.002526475    1.704    0.413
        68  -7.4312    124.6261    122.1819   7.4814974762e+01   3.3225719950e+01    0.2082991    0.1452362 -37.60 0.0001296754    1.463    0.316
        69  -7.4673    105.7968    119.6323   7.9572734640e+01   3.7540553132e+01    0.1974025    0.1475458  46.84 0.0002609063    1.415    0.293
        70  -8.7352     67.9262    115.0503   9.0547787712e+01   4.5037780808e+01    0.2189938    0.2024971 -44.95  0.001201341    1.012    0.012
        71  -8.8385    182.0123    104.8011   5.6849113611e+01   2.4511460315e+01    0.3454615    0.2464281 -27.92   0.00101656    1.550    0.355
        72  -7.5603    102.0818    105.2831   7.6916424824e+01   4.1602274376e+01    0.2800882    0.1752068  -6.52  0.000966177    3.032    0.670
        73 -10.1760     86.2339     97.3452   7.9784090532e+01   4.6326629447e+01     0.273589    0.2455721 -10.96 0.0003293267    1.114    0.102
        74  -7.0168    239.2811     97.2739   4.5946002447e+01   1.4219385650e+01    0.1166198   0.09899984 -11.70 0.0006906174    1.499    0.333
        75  -7.3218    135.2402     76.9947   5.9477092464e+01   4.0350901304e+01    0.1808916    0.1255859 -39.10 0.0001967995    1.465    0.317
        76  -7.2934    158.1876     51.1110   4.7109945789e+01   3.9151493495e+01    0.1854541    0.1519507 -77.57 0.0002757392    1.278    0.217
        77 -12.0167      6.3696    232.4239   1.2161111985e+02   2.2954906604e+01     1.242299    0.6940706  65.65    0.0070118    1.490    0.329
        78 -11.0633    204.0833     46.1739   3.9085511569e+01   2.9271290551e+01    0.6794482    0.4863539  75.91  0.003652559    1.351    0.260
        79  -9.0104    116.8277    246.4822   9.9597630224e+01   6.3745363612e+00    0.3396882    0.1917695 -67.30  0.001676182    2.341    0.573
        80  -8.2085    150.9274     49.0345   4.7849042174e+01   4.1168148688e+01    0.2026443    0.1902091  76.21            0    1.011    0.011
        81  -8.6336    119.4534     41.4916   5.2139883887e+01   4.9583949278e+01    0.2349104    0.2097739  48.60 0.0005052564    1.024    0.024
        82  -8.9593    224.3089     39.9508   3.5503147795e+01   2.5791487721e+01    0.2072931    0.1647494  76.79 0.0003076159    1.269    0.212
        83  -7.7827    236.8528     35.2196   3.3370441265e+01   2.3869500952e+01    0.1424929    0.1352496  87.07 0.0004499139    1.345    0.256
        84  -7.6028    186.9896     23.9664   3.5825044920e+01   3.5887057701e+01    0.1524509    0.1266639  89.65            0    1.042    0.040
        85  -9.1373    187.6343    239.6653   8.3565930560e+01  -2.7613951068e+00    0.2605809    0.2346507 -75.91 0.0009534764    1.762    0.433
        86  -9.4812     25.2625    233.6888   1.1792041669e+02   2.0819019330e+01    0.3339412    0.2116519 -87.64   0.00189641    1.442    0.307
        87 -10.3060    208.0939    233.9623   7.8553366059e+01  -4.6687850348e+00    0.2207188    0.1870076  -8.05 0.0003808802    1.118    0.106
