#   1 NUMBER                 Running object number                                     
#   2 MAG_AUTO               Kron-like elliptical aperture magnitude                    [mag]
#   3 X_IMAGE                Object position along x                                    [pixel]
#   4 Y_IMAGE                Object position along y                                    [pixel]
#   5 X_WORLD                Barycenter position along world x axis                     [deg]
#   6 Y_WORLD                Barycenter position along world y axis                     [deg]
#   7 A_WORLD                Profile RMS along major axis (world units)                 [deg]
#   8 B_WORLD                Profile RMS along minor axis (world units)                 [deg]
#   9 THETA_WORLD            Position angle (CCW/world-x)                               [deg]
#  10 FWHM_WORLD             FWHM assuming a gaussian core                              [deg]
#  11 ELONGATION             A_IMAGE/B_IMAGE                                           
#  12 ELLIPTICITY            1 - B_IMAGE/A_IMAGE                                       
         1 -12.3377      3.0025     49.6763   8.7522206122e+01   6.9728527848e+01      1.25835    0.5616593 -66.94  0.005517937    2.014    0.504
         2 -12.0889     57.0292     35.0936   4.6833826655e+01   6.5770045723e+01    0.6464549     0.478588 -19.99  0.003192131    1.696    0.410
         3 -12.2771     83.6448     35.9054   3.6610384579e+01   5.9505946627e+01    0.8100664    0.5821061  12.38 0.0009893696    2.127    0.530
         4 -10.8891     69.6149     21.6292   3.4628267902e+01   6.5056809914e+01    0.3301853    0.2305103  77.67  0.001611498    1.614    0.380
         5 -12.1856    128.4513     23.6481   2.1455739105e+01   4.9739372502e+01    0.4682197    0.2332511 -39.85 0.0003022972    1.925    0.480
         6 -12.2126    133.0423     18.8989   1.9133234153e+01   4.9116719727e+01    0.2895136    0.2432577  83.00 0.0003163886    1.092    0.084
         7 -11.9517    137.8580     16.5105   1.7697507765e+01   4.8156790310e+01    0.8095816    0.2586227 -32.93   0.00132333    2.834    0.647
         8 -11.0903      8.8005     24.9777   7.5556380545e+01   7.5334724524e+01     1.039085    0.3430577  26.12  0.004133676    2.726    0.633
         9 -10.7027     37.1286      7.7319   4.1458277089e+01   7.4302320306e+01     0.378886    0.2633048  23.47  0.002002292    1.621    0.383
        10 -10.4590     22.1597     18.7137   6.0147310466e+01   7.5131177431e+01    0.6953704     0.396497  56.61  0.002957231    2.849    0.649
        11 -10.7039     34.3095     14.7161   4.8211115241e+01   7.3812515747e+01    0.5813177    0.3020251  38.11  0.002195027    1.826    0.452
        12 -11.2861     13.7050     16.1513   6.6366926812e+01   7.6734642113e+01    0.5543962    0.4240913  67.39  0.003061525    1.890    0.471
        13 -10.5219      9.7670      9.3711   6.6245364349e+01   7.8521781007e+01    0.4497868    0.2909521  37.40  0.001639171    1.604    0.377
        14 -12.1441      3.3732     13.1651   7.5764303465e+01   7.8339878161e+01    0.5231245    0.2734751 -41.44  0.001657892    1.796    0.443
        15 -12.1527    161.5873     18.2664   1.5666981274e+01   4.2120391488e+01    0.4371478    0.3369793 -83.91  0.002615034    1.155    0.134
        16 -12.4237    238.0218     17.8552   1.0404927551e+01   2.6331251983e+01    0.3498934    0.2806776   4.91  0.001461925    1.990    0.498
        17 -12.4285    232.2720     14.5968   9.9981249259e+00   2.7688418786e+01    0.3577842    0.3166884  83.11  0.001770715    1.413    0.293
        18 -12.2992    235.2151     10.1285   8.9367871327e+00   2.7616285834e+01    0.3498552    0.1718054 -60.34  0.002158156    1.645    0.392
        19  -9.9660     50.8159     17.6420   4.0408749426e+01   6.9980969885e+01    0.2997183    0.2286895 -78.17 0.0007130543    1.822    0.451
        20 -12.5577     54.2764     13.8897   3.6482274877e+01   6.9729063037e+01     0.355418    0.3050317  69.53 0.0004011893    1.188    0.158
        21 -11.0848     82.1814      7.0292   2.3298900146e+01   6.3620333014e+01    0.2269316    0.2081435  51.84 0.0002946765    1.138    0.121
        22 -11.5572     75.8342     10.3833   2.6693294411e+01   6.4901662668e+01    0.7209123    0.3339504  50.77  0.003094445    1.986    0.497
        23 -11.5583     74.2146      3.3813   2.3363301333e+01   6.6022099122e+01    0.5091705    0.2923835 -28.04  0.001336286    1.928    0.481
        24 -10.7074     60.5178     14.1705   3.3993476905e+01   6.8234597187e+01    0.3805352    0.2197957 -24.50  0.001151721    2.057    0.514
        25  -9.8436     64.3871     12.3055   3.1437644981e+01   6.7535216267e+01    0.3016024    0.1827153  40.40  0.001240114    1.724    0.420
        26 -11.8288    242.2849      3.2573   7.2709822966e+00   2.7052525895e+01    0.2850107    0.1693055  80.85  0.001597993    1.869    0.465
        27 -10.8574    102.1025      9.2393   2.0217897178e+01   5.8194163807e+01    0.4845803    0.2786388 -20.22  0.001717249    2.085    0.520
        28 -10.1113     27.0457     11.5390   5.1366594331e+01   7.5643235668e+01    0.3716386    0.1852706 -35.79  0.001700933    2.235    0.553
        29 -11.2613    176.0040     10.2367   1.2201836382e+01   3.9610527125e+01    0.5436542    0.2247371 -42.51  0.002622331    1.949    0.487
        30 -11.3735    179.1152      4.0421   1.0332358665e+01   3.9520154869e+01    0.3041216    0.1912661 -47.55 0.0003622848    1.319    0.242
        31 -12.0924    145.4813      8.6181   1.4266381473e+01   4.7060583500e+01    0.4719394    0.3565585 -21.76 0.0009271484    1.559    0.359
        32 -10.7523    141.6640      1.5481   1.2321057096e+01   4.8678967369e+01    0.5696073    0.1254382  75.18  0.001410961    3.823    0.738
        33 -11.0592    119.5554     11.5059   1.8343590530e+01   5.3393281638e+01     0.268699    0.2550696 -35.31  0.001087906    1.231    0.187
        34 -11.6101    159.7465      8.8543   1.3060291814e+01   4.3549749168e+01    0.3668923    0.2550176 -61.00  0.001217982    1.228    0.186
        35 -10.9224    154.1847      8.4603   1.3414891541e+01   4.4932706881e+01    0.2971117    0.2470652 -30.45 0.0006546205    1.351    0.260
        36 -11.1004    248.1251      8.0509   8.0150967244e+00   2.5593935419e+01    0.2226917    0.1349075  70.25  0.001559935    2.045    0.511
        37 -10.3373    215.4031      7.2435   9.1882179174e+00   3.1592475408e+01    0.2194322    0.1528275 -68.47 0.0007089317    1.198    0.166
        38 -10.7009     26.7286      2.3760   4.4500425336e+01   7.7096205209e+01    0.2571254    0.2040683  46.83 0.0006298535    1.207    0.172
        39 -10.4741     22.2171      1.6209   4.7582604402e+01   7.8030344434e+01    0.2522752    0.2151455  30.63  0.001350264    1.048    0.046
        40 -10.8780     19.8683      7.2731   5.4357191350e+01   7.7538225831e+01    0.3818036    0.3108747 -30.33  0.001461297    1.273    0.215
        41 -11.0244     16.0687      2.7767   5.4420623323e+01   7.8869624695e+01     0.475384      0.30771  49.75  0.002550356    1.816    0.449
        42 -11.1193    223.0376      5.4025   8.4455400920e+00   3.0313576268e+01    0.2184476     0.132909 -35.94  0.001422402    1.405    0.288
        43 -11.3438    164.6297      4.7813   1.1495009165e+01   4.2786558826e+01    0.2620351    0.1790676 -57.57 0.0003735919    1.228    0.186
        44 -10.8414    168.3168      1.9105   1.0426785087e+01   4.2193284520e+01    0.2229488    0.1577584 -82.67 0.0002882291    1.224    0.183
        45  -9.9911     60.4656      5.8198   2.9001438932e+01   6.9226732431e+01    0.2414921     0.178614  65.92 0.0009831062    1.228    0.186
        46  -8.6713    109.5224      5.4879   1.7436970819e+01   5.6604114223e+01    0.1386752    0.1198507  85.63   0.00081001    1.025    0.025
        47  -9.8766     68.7446      5.2939   2.5966199853e+01   6.7226927919e+01    0.1846291    0.1390964  45.82 0.0006073914    1.291    0.225
        48 -10.5448    125.9466      3.2168   1.4449548336e+01   5.2529732639e+01    0.2670893    0.2279676  -9.31 0.0008923925    1.475    0.322
        49 -11.6237     91.3260      2.6407   1.9207875684e+01   6.1643539749e+01    0.2961234    0.2201946 -70.05 0.0006171578    1.357    0.263
        50 -10.0398    114.0141      2.9988   1.5808786540e+01   5.5651694330e+01    0.2087569    0.1770864 -85.76 0.0004430423    1.015    0.015
        51  -9.8019     98.0083      3.3125   1.8328105924e+01   5.9828482834e+01    0.1901829    0.1596074  83.37 0.0004154925    1.030    0.029
        52 -10.2061     10.9397      2.6840   5.9930493814e+01   7.9615616094e+01    0.2045528     0.171798 -25.82 0.0006437769    1.181    0.154
        53 -10.0748    230.0782      1.4309   7.3248105117e+00   2.9393396279e+01    0.1445422   0.09332393 -85.60  0.000415507    1.516    0.340
        54  -9.6477    102.8556      1.4381   1.6730128976e+01   5.8716044285e+01    0.2037058    0.1193218  80.96 0.0005456394    1.521    0.342
        55  -9.4890     34.7870      1.4777   3.8117742338e+01   7.5599432446e+01    0.2631795     0.122282  58.36  0.001148123    2.197    0.545
        56 -10.1630    226.0159    188.4835   4.4745872017e+01   5.6797670492e+00    0.1452621   0.07927343   4.74 0.0004431887    2.301    0.565
        57 -11.5963    248.1605    248.8492   5.0273381249e+01  -3.3842703501e+00    0.3733859     0.182738  -1.14  0.002624291    1.860    0.462
        58  -9.4323    155.6825    250.3242   6.5938399305e+01   4.8322551771e+00    0.1030659   0.07698448  39.53 0.0007044292    1.671    0.401
        59  -9.8673    109.9621    250.0338   7.5297328486e+01   9.7473046718e+00    0.1870268    0.1400514  22.55 0.0006827442    1.023    0.023
        60 -10.4913     91.0539    249.4433   7.9387657345e+01   1.1880781434e+01    0.1876349    0.1832119  69.14 0.0006744027    1.330    0.248
        61  -9.4088     38.3130    250.6391   9.1391724240e+01   1.7006441313e+01    0.1296051   0.06150386  48.62 0.0005029769    1.751    0.429
        62 -12.1770     21.1551    248.3895   9.5187688410e+01   1.8951836449e+01     0.619085    0.1607148  36.55    0.0028876    2.264    0.558
        63 -10.8910      5.4407    244.4609   9.8626933085e+01   2.0976739057e+01    0.2750716     0.169212  46.60  0.001054256    1.215    0.177
        64  -9.9418     13.3163    249.7000   9.6985485693e+01   1.9373345730e+01    0.1929451    0.1413911  34.84 0.0007212059    1.068    0.064
        65 -10.6286      6.8510    249.1839   9.8410527170e+01   1.9991772857e+01    0.2259683    0.1852542 -84.47 0.0007815612    1.511    0.338
        66 -10.8387     10.4410    248.4995   9.7596795735e+01   1.9828411338e+01    0.1980327    0.1934112 -44.92 0.0008810039    1.409    0.290
        67  -9.9956     61.8533    184.3643   8.0592929391e+01   2.8257600178e+01    0.2365608    0.1873994  81.63  0.001299976    1.384    0.278
        68 -11.0427     23.1096    180.1277   9.1674070796e+01   3.3385855007e+01    0.4424828    0.1508638  48.82  0.001519627    2.528    0.604
        69 -10.4751      1.6535    180.4388   9.8022547773e+01   3.5001993436e+01    0.2288617    0.1764328 -12.49  0.001115827    1.616    0.381
        70 -10.9510    249.4428    179.6476   4.0019364431e+01   4.3199537875e+00    0.2393844   0.07992958 -36.90  0.001260814    2.403    0.584
        71 -10.5448    186.6168    193.2349   5.2068157171e+01   9.6322706287e+00    0.4642467    0.2434594   8.24  0.002209827    2.652    0.623
        72 -10.2465     54.0879    175.9008   8.1995688575e+01   3.1210511442e+01    0.2215469    0.2043159 -82.64 0.0006189267    1.171    0.146
        73 -10.3375    172.1490    175.1747   5.1776051742e+01   1.4464019311e+01    0.1588461    0.1560288  45.53 0.0007233238    1.340    0.254
        74  -9.0524      1.4729    175.4893   9.7927472609e+01   3.6218828825e+01    0.1341643    0.1125827  53.61 4.072419e-05    1.002    0.002
        75 -10.6716     18.0594    172.8758   9.2788154642e+01   3.5615337169e+01    0.3370419    0.1359465  45.44  0.001415632    2.071    0.517
        76 -11.4807      8.1646    172.9168   9.5820659973e+01   3.6382596357e+01    0.2417964    0.1798306 -80.26  0.001364783    1.388    0.280
        77  -9.0747    116.6506    170.6775   6.3553838690e+01   2.3675022627e+01    0.1479771    0.1060566  -9.79 0.0007048846    1.746    0.427
        78  -9.1482     93.3239    166.7376   6.9226248467e+01   2.8108789776e+01    0.1478933      0.10335  54.89  0.000251501    1.558    0.358
        79 -10.2250     67.8366    165.7584   7.6622851359e+01   3.1969589410e+01    0.2841571    0.1742805  69.77  0.001227482    2.047    0.512
        80 -10.0186    186.9711    165.7737   4.7299351109e+01   1.3917496466e+01      0.16125   0.09832349  33.34 0.0008874135    1.697    0.411
        81 -10.5223     51.0154    159.9577   8.1211924641e+01   3.5564596457e+01    0.3645039    0.2522924 -71.92  0.001596423    1.517    0.341
        82 -10.9060      7.7478    163.6353   9.5554581937e+01   3.8751831725e+01    0.3147896    0.2143221 -15.48  0.001435196    1.873    0.466
        83  -9.3356    132.5915    161.2577   5.7918809243e+01   2.3118201917e+01    0.1995256    0.1264079 -37.36 0.0009515884    1.670    0.401
        84 -10.5032      1.4351    164.6781   9.7591826569e+01   3.8915605952e+01    0.2575589    0.1186544  84.54  0.001132818    2.112    0.526
        85 -10.7614     19.7382    157.0831   9.1277500605e+01   3.9516277875e+01    0.4052619    0.2956913 -82.74  0.001115793    1.370    0.270
        86 -10.8111    247.5496    156.3637   3.6398268752e+01   7.4763061308e+00    0.2275917    0.1594517 -14.12  0.001118914    1.268    0.212
        87  -9.9952     35.1585    165.8371   8.6916706062e+01   3.5814210435e+01    0.4227884    0.1649863  10.30   0.00137771    3.662    0.727
        88  -8.9063      7.6510    157.3245   9.5297904589e+01   4.0383192570e+01    0.1582936   0.08010025  51.75 0.0004013572    1.750    0.429
        89  -9.8399    214.8685    154.4302   4.0587177705e+01   1.1810621096e+01    0.2965762    0.1132153  40.72  0.001414436    2.991    0.666
        90 -10.2567    158.8294    153.7761   5.0548182921e+01   2.0304185701e+01    0.3265461    0.1851097  30.36  0.001180663    1.874    0.466
        91 -10.0382     40.9165    152.8380   8.3764871263e+01   3.8577618305e+01    0.2419767    0.1968278 -79.78 0.0005771963    1.258    0.205
        92 -10.0823     10.9624    152.9067   9.3967560539e+01   4.1301197753e+01    0.3985585     0.111642  32.25  0.001447804    2.722    0.633
        93  -9.1934    176.6856    150.2680   4.6288808006e+01   1.8068813231e+01    0.1165644    0.1043007 -89.45 0.0002836896    1.549    0.355
        94 -11.6946     13.9263    147.9081   9.2652882335e+01   4.2404093467e+01    0.2622746    0.2111351  71.24            0    1.149    0.130
        95  -9.4310    143.8886    148.2065   5.2744757018e+01   2.3877410994e+01    0.1907132    0.1571845 -13.72 0.0006831439    1.295    0.228
        96  -9.8823     98.7177    147.3041   6.4368310474e+01   3.1812806765e+01    0.2732399    0.1787176  37.73  0.001253806    1.438    0.305
        97 -10.9367    217.3823    145.2519   3.8515603519e+01   1.2822000073e+01    0.2858804    0.1753828  24.90  0.001663545    1.991    0.498
        98 -10.5153      7.7574    145.9491   9.4692564716e+01   4.3366974491e+01     0.268206    0.1842339  45.20    0.0012764    1.311    0.237
        99  -9.1568    182.2765    145.3122   4.4275434216e+01   1.8036477052e+01     0.128769   0.09320953 -10.16 0.0001959611    1.560    0.359
       100  -9.2826    126.4857    142.4647   5.5803254469e+01   2.8110216637e+01    0.1450329    0.1378419   4.57 9.242919e-05    1.043    0.041
       101 -11.1306     33.3139    141.5881   8.5218995658e+01   4.2387158086e+01    0.3522472    0.1426128  19.64  0.001284873    2.541    0.607
       102  -9.9359     14.0003    140.2207   9.2114323518e+01   4.4461784529e+01    0.1959721    0.1745815  46.99  0.001118307    1.061    0.057
       103  -9.6860    188.4862    139.5088   4.2014504132e+01   1.8027161825e+01    0.1271716    0.1133552 -29.74 0.0008097372    1.060    0.057
       104  -9.8951     65.3024    139.0175   7.3532482223e+01   3.9123491966e+01    0.2093367    0.1919127 -79.11 0.0004221992    1.122    0.108
       105 -10.0603    236.2999    138.0043   3.4578285687e+01   1.1308639112e+01    0.1597867     0.119606 -29.75  0.000605115    1.047    0.045
       106  -9.9264    144.2495    136.9576   5.0345704978e+01   2.6071599744e+01    0.2007696     0.178724 -28.79 0.0004148046    1.108    0.098
       107 -10.3032     44.0617    136.8331   8.0743024913e+01   4.2494433034e+01    0.2408437    0.1862655  58.36   0.00047867    1.261    0.207
       108 -13.1885     37.4780    135.3331   8.2977629851e+01   4.3646713918e+01    0.4331679    0.3629339  86.94 0.0006409461    1.183    0.155
       109 -11.7276     37.6516    126.5481   8.1781268649e+01   4.6032009147e+01     1.356921    0.4795622   9.66  0.003470802    5.491    0.818
       110 -10.5474      2.8787    136.1619   9.5940506080e+01   4.6295794440e+01    0.3515811    0.1868056 -77.79 0.0008694858    1.794    0.443
       111 -10.7436     20.8363    135.2435   8.9195651354e+01   4.5273833213e+01    0.2618499    0.1817284  82.83 0.0008137196    1.422    0.297
       112  -9.2167      9.4182    136.4454   9.3545237732e+01   4.5809304396e+01    0.1416747    0.1260082  65.01 8.731232e-05    1.017    0.016
       113 -10.0254    241.3013    134.0180   3.3222959733e+01   1.1201649044e+01    0.1616145    0.1183102 -30.51 0.0005650698    1.055    0.052
       114 -11.1530     53.4268    132.4596   7.6688806088e+01   4.2504071478e+01    0.3572747    0.3098588  52.84 0.0006798715    1.096    0.088
       115 -10.9001     59.0263    131.3174   7.4470082732e+01   4.2047389798e+01    0.2950406    0.2371806   6.86  0.001014134    1.422    0.297
       116 -11.2586     24.2794    126.8859   8.7064662174e+01   4.7273395962e+01    0.4695109    0.3232384  39.53  0.001961673    1.369    0.269
       117 -10.9725      4.4649    130.2708   9.5038523042e+01   4.7799349962e+01     0.253102    0.2412469 -41.01 0.0005166534    1.171    0.146
       118 -10.9638     73.6731    129.0361   6.8882026096e+01   4.0452334735e+01    0.3588538    0.2770867  50.96 0.0008137909    1.276    0.216
       119 -10.9786     56.5806    126.8766   7.4617109117e+01   4.3576095667e+01    0.3026382    0.2276971 -11.93  0.000728417    1.698    0.411
       120 -11.7580     10.2215    121.3084   9.2179684594e+01   4.9902463944e+01    0.5771217    0.3453725  75.63  0.001654093    1.663    0.399
       121 -10.5461     16.3184    125.5852   9.0086689695e+01   4.8289707465e+01    0.3888269    0.1668722  16.92   0.00102865    2.390    0.582
       122 -11.1627     22.0797    120.3134   8.7245793342e+01   4.9285639187e+01    0.7492931    0.3390517 -33.63  0.002625143    3.155    0.683
       123 -10.7850      4.4505    126.0170   9.4799785568e+01   4.8961203423e+01    0.2722369    0.1686301 -80.00 0.0004908068    1.531    0.347
       124 -10.2794    229.5282    125.0813   3.3022592491e+01   1.4037368860e+01    0.1861363   0.09344999 -36.37  0.001032826    1.595    0.373
       125 -10.0013     82.9768    124.5072   6.4809521918e+01   4.0070066458e+01    0.2324414    0.1475198  37.19 0.0005086783    1.507    0.337
       126  -9.9159     30.4867    124.4888   8.4334906395e+01   4.7351781417e+01    0.1490563     0.138508  64.33 0.0008104204    1.010    0.010
       127  -9.4265    243.4762    122.4775   3.0835947021e+01   1.2471827672e+01    0.1132011    0.0868216 -29.72 0.0008096009    1.029    0.029
       128  -9.6959     87.3337    121.9428   6.2814389332e+01   3.9951604063e+01     0.208472    0.2030501 -68.42 0.0008616813    1.058    0.055
       129 -11.0365     68.9124    121.2998   6.9055305827e+01   4.3222153103e+01    0.6248127    0.3089622  35.09   0.00242862    1.904    0.475
       130 -11.2501     72.0300    115.9277   6.6812709723e+01   4.4117250484e+01    0.4600874    0.3451363 -61.00  0.002170847    1.362    0.266
       131 -10.3949     56.7780    121.1505   7.3536258366e+01   4.5086462548e+01    0.2392699    0.1984367  65.84 0.0004900481    1.228    0.186
       132 -10.5518      1.3969    118.5508   9.5588789382e+01   5.1172168735e+01    0.2543646    0.1269517 -82.72 0.0002803886    1.879    0.468
       133 -10.5711     19.4651    108.7671   8.7050979596e+01   5.2716175297e+01    0.3825262    0.2492597 -10.95   0.00174093    1.862    0.463
       134 -10.3744     32.5319    104.4536   8.0637926149e+01   5.2696564431e+01    0.3154316    0.2219395 -75.46  0.001002892    1.415    0.293
       135 -11.0158     31.0300    108.0747   8.1869943754e+01   5.1849928199e+01    0.7008028    0.3255337  72.42  0.002345538    3.154    0.683
       136 -12.4919     25.5129    106.3962   8.4062701312e+01   5.2854349876e+01    0.9990998    0.6285057 -89.42  0.004508491    1.670    0.401
       137 -11.7620     16.2081    115.5526   8.9193346482e+01   5.1079321673e+01    0.4426875    0.3073716  57.59 0.0006764767    1.413    0.292
       138 -12.0375     13.3136    110.2405   8.9911927078e+01   5.2765501652e+01    0.5873657     0.521875  17.84  0.003303965    1.182    0.154
       139 -10.0902    249.5297    117.4991   2.9234130835e+01   1.2327262498e+01      0.11174   0.08418718 -33.68 4.533964e-05    1.021    0.020
       140 -10.3125    100.3068    117.0475   5.7567960907e+01   3.8747135182e+01    0.2212262    0.2049008 -60.74 0.0007006711    1.101    0.092
       141 -10.8515    181.5878    114.9013   3.8015753608e+01   2.3367833699e+01    0.4477252    0.2476865  35.17  0.001442791    2.289    0.563
       142  -9.6717     86.1462    116.1169   6.1911604872e+01   4.1615093402e+01    0.2162263    0.1820043  83.11 0.0003844353    1.316    0.240
       143 -10.2768     52.3627    116.1198   7.4331713392e+01   4.7061328589e+01    0.2520661    0.2129168   9.23 0.0006965768    1.309    0.236
       144  -9.3619     31.9466    117.0000   8.2768518321e+01   4.9278631436e+01    0.2404019   0.08395515  21.43 0.0007931072    2.878    0.653
       145 -10.0468    250.3571    112.5646   2.8231079429e+01   1.2863905709e+01    0.2249604   0.06205831 -44.12 0.0009428031    3.289    0.696
       146 -11.5282     55.3695    109.7612   7.1905090321e+01   4.8351028600e+01    0.3893206    0.2906201  40.29 0.0009422842    1.289    0.224
       147 -11.0017     52.3400    104.6361   7.2093379701e+01   5.0166128723e+01    0.4262361    0.2728991  46.80  0.001524422    1.559    0.358
       148  -8.8089     42.2815    108.3631   7.7059607076e+01   5.0496164925e+01    0.1603238     0.110307 -36.93 0.0003650253    1.679    0.404
       149 -10.2284      3.3980    107.9326   9.4066414475e+01   5.3998145908e+01    0.2486749    0.1744291  34.43 0.0006958991    1.409    0.290
       150 -10.6629     62.1576    106.6333   6.8531909366e+01   4.8151911844e+01    0.3026807     0.240574 -61.08 0.0002464331    1.274    0.215
       151  -9.4909    109.0638    105.5491   5.2103626213e+01   3.9677540456e+01    0.2289071    0.1490667  44.72 0.0004610489    1.513    0.339
       152  -9.4504     70.3222    108.0482   6.5698480668e+01   4.6444799760e+01    0.2120347    0.1976891 -78.64 0.0004333729    1.084    0.078
       153 -10.7985     38.4708    103.2119   7.7785550025e+01   5.2371679529e+01    0.3064781    0.2329224 -25.53 0.0009181763    1.546    0.353
       154 -10.5505    118.2628    102.0059   4.8587423242e+01   3.8542696559e+01    0.2809289    0.2559009  23.81 0.0006499048    1.209    0.173
       155 -10.7674     75.5207    101.5280   6.2185128986e+01   4.7200879655e+01    0.3368984    0.2652268 -89.43  0.001069205    1.476    0.322
       156 -10.6856     76.7065     97.4535   6.0699645537e+01   4.8004105607e+01    0.3047811    0.2337383 -31.88 0.0005010879    1.552    0.356
       157 -11.7729     62.1843     98.3074   6.6594402054e+01   5.0329550015e+01    0.6198628    0.3246614 -48.46  0.002429828    1.997    0.499
       158 -11.4526     15.7289     97.5564   8.7401829238e+01   5.6123336316e+01    0.4929238    0.3025959 -58.06  0.001775991    1.567    0.362
       159  -8.9078    144.6994     99.3215   4.1431808632e+01   3.3474715495e+01    0.1479773    0.1126039 -77.76 0.0005187361    1.627    0.385
       160 -10.8924     32.3115     96.7405   7.9420279029e+01   5.4848620048e+01    0.4211056    0.2485636  78.94 0.0009331598    2.099    0.524
       161 -10.0866     31.5529     92.5565   7.9012250072e+01   5.6078433012e+01    0.3277562    0.1857347  76.72  0.001281695    2.305    0.566
       162  -9.8315      9.7702     99.1222   9.0405371268e+01   5.6086951853e+01    0.2068751     0.174686  66.69 0.0003403543    1.159    0.137
       163 -10.0581    225.7974     98.0117   2.8111305531e+01   1.8436367511e+01    0.1698189    0.1617647 -55.28 0.0003377194    1.201    0.167
       164  -9.6942     87.8685     97.3364   5.6662139684e+01   4.5888629304e+01    0.2373147    0.1446881  30.19  0.000950473    1.870    0.465
       165  -9.1748     81.7170     97.6574   5.8915720013e+01   4.7009282017e+01    0.1572047    0.1242998 -19.16 0.0005405973    1.636    0.389
       166 -10.1069    102.3154     95.6476   5.1486490102e+01   4.3322133685e+01    0.2557049     0.188234  81.31  0.001115055    1.771    0.435
       167  -9.5475    112.8941     94.1142   4.7940849234e+01   4.1397935902e+01    0.1945927    0.1810604   4.12  0.001012494    1.239    0.193
       168 -10.0383    226.3422     93.1130   2.7043832035e+01   1.9035979026e+01    0.1905303    0.1671666 -80.85 0.0005151302    1.349    0.259
       169  -9.7629     52.4636     93.5039   6.9557525674e+01   5.3116639652e+01    0.2649074     0.130325  41.16 0.0005759379    1.967    0.492
       170 -11.1910     57.3815     90.1949   6.6591345101e+01   5.3215966264e+01    0.5620435     0.381317  -1.75    0.0013092    2.181    0.541
       171  -9.1309      1.4940     93.4484   9.3853056752e+01   5.8085715993e+01    0.1386696    0.1305549 -80.83 0.0002807188    1.019    0.018
       172  -9.8508    231.6009     91.7156   2.6181239930e+01   1.8391048797e+01    0.1707456   0.08569475 -42.42 0.0007728994    1.585    0.369
       173  -9.4738    249.9898     91.0288   2.4200338155e+01   1.5710201808e+01    0.1357476    0.1009872 -38.36 0.0004377818    1.010    0.010
       174 -10.9203    160.3486     89.6778   3.5801637460e+01   3.1940882735e+01    0.3954786    0.3259895 -34.71  0.002190443    1.216    0.178
       175 -11.3552     10.5681     90.7397   8.9093166157e+01   5.8359227221e+01    0.2554514    0.2321255 -44.00 0.0003409739    1.123    0.110
       176 -10.1699    152.8906     89.2110   3.7107251131e+01   3.3617621800e+01    0.2343602    0.1802496 -55.68 0.0005083039    1.278    0.218
       177 -10.6990     49.1430     89.9833   7.0197052705e+01   5.4537355926e+01    0.2385597    0.2139342  36.41 0.0002897262    1.100    0.091
       178 -11.4415     21.5846     84.1472   8.2476681422e+01   5.9353117299e+01    0.4873842    0.2374626 -78.52  0.001292811    2.160    0.537
       179  -9.7948    177.3803     89.0167   3.2699203495e+01   2.8536460444e+01     0.192105     0.153079 -42.04 0.0004077718    1.136    0.120
       180 -11.3879     94.9192     88.5842   5.1833095856e+01   4.6485272814e+01    0.4825512    0.2650017  48.33  0.001934379    1.796    0.443
       181 -10.2575     83.7332     88.4983   5.5652424285e+01   4.8818700023e+01    0.3558032     0.212697  37.33  0.001173771    1.698    0.411
       182  -9.6966     73.9969     89.2144   5.9496945775e+01   5.0546643190e+01    0.2090144    0.1953643  52.82  0.001082157    1.035    0.034
       183  -8.9601     17.6495     87.9527   8.5130912563e+01   5.8634776429e+01    0.2481109   0.09782523  74.88 0.0007040209    4.353    0.770
       184 -12.2095    107.5358     84.9053   4.6836997299e+01   4.4550298979e+01    0.4278206    0.3038102  73.51 0.0004927949    1.732    0.423
       185 -10.8009     65.1070     85.5204   6.2036595195e+01   5.3091824693e+01    0.4289384    0.3286164 -64.22  0.002039517    1.361    0.265
       186  -9.7455     62.1592     79.8847   6.1661886726e+01   5.5013113363e+01    0.2431249    0.2006553  68.12 0.0004655247    1.322    0.243
       187 -10.7184    116.9123     84.4028   4.4061127932e+01   4.2552673443e+01    0.4831216      0.22382 -45.29  0.001606911    2.163    0.538
       188  -9.4726     39.0069     86.4542   7.4137100748e+01   5.6858510713e+01    0.2064405    0.1275371 -12.24 0.0004191812    2.344    0.573
       189  -9.9649     30.1860     85.7617   7.8362990654e+01   5.8076621253e+01    0.2439418    0.1926101  63.05   0.00119081    1.343    0.255
       190 -10.7033     30.3064     81.4761   7.7407142610e+01   5.9220174963e+01    0.3511336    0.2696676 -46.53 0.0009886355    1.317    0.241
       191 -10.2942    156.6584     84.3973   3.5118322023e+01   3.3661393482e+01    0.3480198    0.2543338  84.76  0.001733954    1.666    0.400
       192 -10.0488     68.9103     82.4108   5.9561726335e+01   5.3163567206e+01      0.27646     0.212919 -78.63  0.000297738    1.509    0.337
       193 -10.4667     42.7760     82.8195   7.1436627592e+01   5.7326307320e+01    0.2141316    0.1729014  61.72 0.0005598435    1.322    0.244
       194  -9.6816    167.1622     82.6271   3.2788171726e+01   3.1711084735e+01    0.1924431    0.1259291  46.47 0.0009502501    1.728    0.421
       195 -10.7851     76.4079     82.0603   5.6475523261e+01   5.1804577389e+01    0.4561117    0.2054639  46.71  0.001575612    2.216    0.549
       196 -10.3097      7.3021     81.1280   8.9628102679e+01   6.1187579988e+01    0.3543538     0.198881 -44.43   0.00129565    1.789    0.441
       197 -10.2348     50.5121     78.4925   6.6558332538e+01   5.7310976681e+01    0.4066692     0.267852  48.74  0.001815499    1.573    0.364
       198 -10.2713     44.9052     74.8903   6.8278106464e+01   5.9078846950e+01    0.4269692    0.2389358  68.10   0.00114521    3.003    0.667
       199  -9.8698    165.0424     78.4820   3.2074774963e+01   3.2857181337e+01    0.1863054    0.1368212  62.18 0.0009816771    1.443    0.307
       200 -10.7659     88.3006     77.3753   5.0653489071e+01   5.0414457607e+01    0.2944334    0.2513082  82.79 0.0001393618    1.272    0.214
       201 -11.4592     20.9864     76.1467   8.1310536853e+01   6.1573026385e+01    0.5593253    0.4081244 -18.67  0.002772747    1.529    0.346
       202 -11.7618    167.7834     73.4464   3.0306726572e+01   3.3089060581e+01    0.3291621    0.2055925 -47.06 0.0002933248    1.464    0.317
       203  -9.1880    155.0067     77.2348   3.3508967056e+01   3.5268287423e+01    0.1681134    0.1181625  59.80 0.0002898222    1.478    0.324
       204  -9.3479    149.2184     77.6251   3.4708040425e+01   3.6496464270e+01    0.1919423    0.1316301  47.25 0.0005055646    1.588    0.370
       205 -10.9863     99.6873     75.8911   4.6432441864e+01   4.8217716037e+01    0.3692712    0.2846816 -69.92  0.001140727    1.461    0.315
       206 -10.9114    102.7564     72.9932   4.4564051266e+01   4.8118435611e+01    0.3889275    0.2423754 -21.71 0.0008459059    2.673    0.626
       207 -10.7574     38.1473     75.5878   7.1921777145e+01   5.9838341732e+01    0.3707003    0.2525438 -20.47 0.0009754698    1.868    0.465
       208 -10.6719     55.3160     74.9201   6.3249183967e+01   5.7424586559e+01    0.3469414     0.261882  30.18  0.001662875    1.337    0.252
       209 -10.5405      6.7002     68.3222   8.8222533652e+01   6.4679034797e+01    0.3276528    0.2298561  68.22  0.001058368    1.552    0.355
       210 -11.4061      2.6791     63.3563   8.9980035816e+01   6.6187967916e+01    0.5146121    0.3061896  84.44  0.002314575    1.806    0.446
       211 -10.2569      7.0794     73.3686   8.8731897001e+01   6.3304995396e+01    0.3747703    0.2187348   3.79  0.001212856    1.846    0.458
       212  -9.7470      1.7084     73.0246   9.1790110434e+01   6.3646899378e+01    0.2148515    0.2001085 -56.32  0.001282147    1.032    0.031
       213  -9.6047     61.5124     73.4826   5.9979185005e+01   5.6687055511e+01    0.1531615    0.1472694  58.86 -7.307397e-06    1.016    0.016
       214  -9.1598     67.7330     72.3062   5.6900437022e+01   5.5797026643e+01    0.1516196    0.1195142  80.06 0.0006168243    1.533    0.347
       215 -10.1278     25.8516     71.9826   7.7697096890e+01   6.2220058208e+01    0.2425004    0.1881854 -31.71  0.001230339    1.364    0.267
       216 -13.8768     16.6914     67.2891   8.2003563183e+01   6.4294699021e+01    0.5126444    0.4303773 -40.15 0.0009251253    1.176    0.150
       217  -9.8301     93.6419     71.0432   4.6783375770e+01   5.0598997385e+01    0.4368859    0.2200894  61.61  0.001534797    2.583    0.613
       218 -10.1685     38.9701     70.8121   7.0190204963e+01   6.0959324852e+01    0.2548073    0.2126164 -60.17 0.0005819644    1.202    0.168
       219 -11.6552     46.1716     60.8486   6.3226300528e+01   6.2349540203e+01    0.4476797    0.3735833 -17.30 0.0002981249    1.363    0.266
       220 -11.6137     50.4183     68.2898   6.3530638315e+01   5.9866929806e+01    0.3568954    0.2871615 -48.00 0.0005011343    1.272    0.214
       221 -11.6453     55.8179     60.0623   5.8051606312e+01   6.0868838042e+01     1.093789     0.596816  15.38   0.00351392    3.726    0.732
       222 -12.5579     38.7776     50.3129   6.3528220113e+01   6.5976375530e+01    0.6998017    0.6599076  16.79  0.003155523    1.032    0.031
       223 -11.2900     44.9491     38.2421   5.4735597247e+01   6.7551758076e+01    0.2658815    0.2527816  76.33            0    1.160    0.138
       224  -9.6341    244.8000     69.1264   2.0379742817e+01   1.9270790302e+01    0.1409566    0.1157578 -25.80 0.0004267608    1.294    0.227
       225 -11.7684    122.6613     67.4516   3.7428231108e+01   4.4506942655e+01    0.2874202    0.2563147 -56.69 0.0002214174    1.105    0.095
       226 -12.6341    147.1266     65.6910   3.1724347681e+01   3.9016738325e+01    0.3428142    0.2745205 -70.91 0.0007204014    1.252    0.201
       227 -11.0075    105.1724     65.5932   4.1411497932e+01   4.9024478074e+01    0.4084218    0.3475922  -6.53  0.002037995    1.534    0.348
       228 -10.5102    110.4503     64.5217   3.9584308180e+01   4.7971770617e+01    0.3886001    0.2659559 -78.12  0.001329605    1.934    0.483
       229  -9.9454     93.7765     66.7862   4.5299415059e+01   5.1446851601e+01    0.2166116    0.2104464  18.67 0.0004503747    1.147    0.128
       230 -12.6206     30.1138     63.2029   7.2978270125e+01   6.4025155540e+01    0.5437456    0.5138567 -69.02  0.001059884    1.079    0.073
       231 -11.3542     80.1225     64.0506   4.9107603754e+01   5.5075588601e+01    0.6243857    0.3760011  61.54  0.002545139    1.956    0.489
       232  -9.9825     83.5557     60.8663   4.6693770999e+01   5.4974779983e+01    0.3201453    0.1995592  64.35  0.001325694    1.888    0.470
       233 -10.2532    210.0098     63.0867   2.2311923488e+01   2.6041309063e+01    0.1807231    0.1492721 -48.07 0.0003588731    1.029    0.028
       234 -10.4663    202.0380     62.1687   2.2945998351e+01   2.7692994573e+01    0.2364609    0.1506186 -37.52 0.0008328718    1.360    0.265
       235  -9.7105    193.4385     62.7854   2.4070269568e+01   2.9314420643e+01    0.1858506    0.1521428  66.24 0.0007510727    1.367    0.268
       236 -10.6022    155.0704     62.8351   2.9501772552e+01   3.7638013116e+01    0.3000309    0.2761916 -41.22  0.001761484    1.153    0.133
       237 -10.5962    150.7275     60.9856   2.9713695603e+01   3.8941561212e+01    0.2511321    0.2038659  73.25 0.0003203028    1.230    0.187
       238 -13.3378     12.4671     47.5811   8.0133198526e+01   6.9687234796e+01     0.541486    0.4883646 -34.00 0.0008038725    1.051    0.049
       239 -10.3357    180.9936    250.0000   6.1171533736e+01   2.3323339913e+00    0.1760132   0.04869793  27.08 0.0008080965    2.982    0.665
       240 -10.2637     90.1529     61.0721   4.4482190323e+01   5.3428924524e+01    0.2546588    0.2109359  58.01 0.0003443775    1.157    0.135
       241 -10.8969    135.6339     58.5733   3.1795333127e+01   4.2926832809e+01    0.4493348    0.2757291 -86.03  0.001866248    2.250    0.556
       242  -9.8374    114.6310     60.2804   3.7071488701e+01   4.7741486974e+01    0.2494681    0.1681662  40.64   0.00060515    1.705    0.414
       243 -10.5205    169.3234     58.8891   2.6202296259e+01   3.5011150567e+01    0.2485056    0.2107471   6.52 0.0008483095    1.619    0.382
       244 -10.6604    127.1746     58.4130   3.3508306250e+01   4.5008754852e+01     0.289727    0.2364666 -49.72 0.0005364739    1.206    0.171
       245 -10.3325     87.5207     57.4722   4.4050656902e+01   5.4745557431e+01    0.2967677    0.2363514   6.67 0.0006972668    1.763    0.433
       246 -10.8266     89.6673     53.3226   4.1767067247e+01   5.5034310607e+01    0.4936135    0.3215098 -63.32  0.002134652    1.898    0.473
       247  -9.9847     89.2919     50.3238   4.0732926976e+01   5.5675851521e+01    0.2638502    0.2425968  49.79 0.0007314214    1.098    0.089
       248 -11.2385     80.0886     56.3908   4.6287096769e+01   5.6656370450e+01    0.5391677    0.3767262  -8.76  0.001466932    2.442    0.590
       249  -9.8555     79.7990     51.2937   4.4405434025e+01   5.7717510580e+01    0.3678231    0.1371834  49.18  0.001263077    2.534    0.605
       250  -9.8361     74.0378     49.5954   4.5913594173e+01   5.9347635446e+01     0.355852     0.297126  55.60  0.001419515    1.142    0.124
       251  -9.7695     78.3647     47.7897   4.3516901468e+01   5.8707807331e+01    0.3339252    0.1894477 -36.44 0.0008448699    1.980    0.495
       252 -10.1140     82.0822     46.7758   4.1756446147e+01   5.8028649038e+01    0.2715703    0.2401728  57.19  0.000539738    1.063    0.059
       253 -11.2390     45.1154     44.9377   5.7660013597e+01   6.6129962079e+01    0.7098437    0.3869282 -63.37  0.002516665    2.463    0.594
       254  -9.9761    177.1303     56.0300   2.4383197278e+01   3.3707315451e+01    0.1828256    0.1761428 -18.72 0.0003854204    1.258    0.205
       255 -10.0634    115.8834     55.7725   3.5233207061e+01   4.8227771617e+01    0.2616828    0.1936243  71.37 0.0009765476    1.354    0.261
       256 -10.0311    106.9735     54.7573   3.7156882140e+01   5.0593511270e+01    0.2337895    0.2180048  87.05 0.0005112375    1.012    0.012
       257 -11.2873    103.8756     52.1038   3.7041535078e+01   5.1819285704e+01    0.5970919    0.4044018  11.27  0.002335433    2.830    0.647
       258 -10.5846    144.7033     53.8048   2.8633923385e+01   4.1500425374e+01    0.3824818    0.1966223  75.69  0.001548661    2.336    0.572
       259  -9.2781     47.9308     54.7420   6.0076914262e+01   6.3477764024e+01    0.1918267    0.1247344  33.63 0.0007924006    1.509    0.337
       260  -9.8594     27.7922     53.8417   7.1553575091e+01   6.6635485019e+01    0.2498281    0.1887843   4.60 0.0008825514    1.424    0.298
       261 -11.6658     11.2018     58.2586   8.3571042820e+01   6.7062201104e+01    0.7760365    0.5066431 -75.32  0.002342194    1.539    0.350
       262 -10.1355     62.0052     52.7499   5.2321646089e+01   6.1278060533e+01     0.238621    0.2094264 -48.46 0.0003459328    1.192    0.161
       263 -11.8764    129.9706     49.9166   3.0158031854e+01   4.5706474652e+01    0.6402165    0.3140906  61.22  0.001103331    1.967    0.492
       264  -9.3005     96.0384     51.9948   3.9257838022e+01   5.3751297989e+01     0.178438    0.1650766  72.85 0.0009572944    1.010    0.010
       265 -11.4160     51.8582     47.3760   5.5049795216e+01   6.4388689407e+01    0.7726641    0.4532751 -54.08  0.003413036    1.859    0.462
       266 -10.5147     61.6057     40.7964   4.7380414778e+01   6.3744847104e+01    0.3741723    0.2847904  37.66  0.001706945    1.301    0.231
       267 -11.5835     64.9662     36.7069   4.3990984575e+01   6.3757910390e+01    0.4369775    0.3023663  64.48 0.0002054069    1.586    0.369
       268  -9.9515     55.6985     43.4542   5.1394531293e+01   6.4450151184e+01    0.3614062    0.2074161  56.82  0.001505764    2.042    0.510
       269 -10.0994    148.4820    248.4686   6.7134361720e+01   5.8419460527e+00    0.1144782   0.08672099  13.88 3.231501e-05    1.036    0.035
       270 -11.2253    140.8828     45.5345   2.6734547032e+01   4.3676822348e+01    0.4500377    0.2988186  60.30  0.002243517    1.496    0.331
       271  -9.7652    164.0470     48.3145   2.4029626857e+01   3.7746628014e+01    0.1894901    0.1625502 -80.08 0.0003734701    1.083    0.076
       272 -10.0219    104.7717     46.7826   3.4834185256e+01   5.2501884877e+01     0.254976    0.2046003  68.26 0.0009480408    1.180    0.153
       273 -10.1129    100.3015     43.9657   3.4962359888e+01   5.4080141813e+01     0.284339    0.2255769 -82.61 0.0008286152    1.361    0.265
       274 -10.8915     96.3328     42.3257   3.5427172597e+01   5.5336577970e+01    0.3539589     0.281601  17.80 0.0008071904    1.693    0.409
       275  -9.6809     62.2285     47.3830   4.9999802526e+01   6.2333643395e+01    0.2058852    0.1343995  53.57 0.0003525616    1.551    0.355
       276  -9.3465    191.6124     45.8174   2.0098997761e+01   3.2006830240e+01    0.1846856   0.09631731 -44.39 0.0005797463    1.593    0.372
       277  -9.1883    121.3370     46.7374   3.0874220257e+01   4.8357731034e+01    0.1508181    0.1067282 -78.93 0.0002268024    1.585    0.369
       278 -10.1404    152.2665     45.4070   2.4875574545e+01   4.0931775160e+01      0.36397    0.1082338  59.37  0.001281647    3.141    0.682
       279 -10.0946    112.4658     45.1309   3.2305128729e+01   5.0840834389e+01    0.2533266     0.193173  46.42 0.0007167165    1.407    0.289
       280 -10.3442     23.8423     41.7417   6.9960332578e+01   6.9992275119e+01    0.4343226    0.1909069 -59.57  0.001262086    2.290    0.563
       281 -12.8192     27.6255     37.6617   6.5594763511e+01   7.0440020850e+01    0.2983482    0.2892413 -53.14 0.0003681776    1.112    0.101
       282 -11.1811     24.2481     34.9864   6.6888485470e+01   7.1474737950e+01    0.2754733      0.21601 -39.53 0.0004245338    1.271    0.213
       283  -9.7647    163.7538     44.5873   2.3017749658e+01   3.8335260570e+01    0.1856236    0.1221492  87.83 0.0009409064    1.593    0.372
       284 -10.0873     72.9082     42.8337   4.3501761529e+01   6.0869894343e+01    0.2639714    0.1872717 -73.25 0.0002525624    1.906    0.475
       285  -9.6171     34.3102     43.5820   6.3596775352e+01   6.8175538456e+01    0.1908748    0.1340681  18.04 0.0005171202    1.513    0.339
       286  -9.9242    131.0249     41.9478   2.7313956876e+01   4.6649287193e+01    0.2244139    0.1984731 -78.07 0.0006518379    1.031    0.030
       287  -9.3594    121.3252     42.3076   2.9333116585e+01   4.9039923008e+01    0.1446574     0.111721  33.47  0.000703663    1.651    0.394
       288 -11.2602     89.1951     41.3218   3.7147769357e+01   5.7265081478e+01    0.3427637    0.2816423 -79.97  0.001048444    1.326    0.246
       289 -10.0742     83.6195    248.2900   8.0954692147e+01   1.2867585966e+01    0.2354329    0.1026063  34.46 0.0008038409    1.713    0.416
       290  -9.9432     73.4782     31.5247   3.8132694740e+01   6.2658646951e+01    0.2810052     0.207999  45.69 0.0006689125    1.304    0.233
       291 -11.0613    226.2337     39.7935   1.5730533171e+01   2.5993891139e+01    0.3044151    0.1285546 -34.34  0.001589622    1.914    0.478
       292 -10.2412    186.9734     41.0423   1.9368429012e+01   3.3610094807e+01    0.1744755    0.1690663 -52.88 0.0003106011    1.240    0.194
       293  -9.5016    189.2633     38.6425   1.8531337545e+01   3.3424710845e+01    0.1773606    0.1507721 -81.75 0.0004549973    1.144    0.126
       294 -10.3112    109.7210     38.3018   3.0416483490e+01   5.2586404850e+01    0.5528401    0.1887561 -38.23  0.001951729    2.863    0.651
       295 -10.8526    110.9537     34.8815   2.8839712232e+01   5.2770127764e+01    0.3007908    0.2580233  60.17 0.0007808084    1.155    0.134
       296 -10.1852    236.2329     40.0715   1.5103196660e+01   2.4195392582e+01    0.1586695     0.130054 -36.94  0.000450852    1.228    0.186
       297  -9.1801    155.2154     38.0441   2.2258243443e+01   4.1239980145e+01    0.1793051     0.106302 -34.13 0.0008641766    1.673    0.402
       298 -10.1450    135.4345     36.3149   2.4668388974e+01   4.6337277978e+01    0.4611015     0.206564 -42.27  0.001927373    2.098    0.523
       299 -10.9914    247.9683     36.3934   1.3630083346e+01   2.2643582608e+01    0.2005189    0.1272834 -43.86 0.0003276037    1.140    0.123
       300 -10.0597    201.9916     37.2922   1.7045804816e+01   3.0943405626e+01    0.1689254    0.1362748 -68.11 0.0004166214    1.106    0.096
       301 -11.0390     95.1886     35.9068   3.3146279070e+01   5.6634793614e+01    0.6484522    0.2552239  59.88  0.002131429    2.367    0.577
       302 -10.2508    119.6077     61.0947   3.6114996728e+01   4.6387109818e+01    0.2579675    0.1963304  74.77  0.000735109    1.349    0.259
       303 -10.3460    193.8153     34.6828   1.7117206067e+01   3.2950202769e+01    0.3813186    0.1117645 -45.19  0.001163567    2.638    0.621
       304  -9.5943    129.1490     35.8733   2.5595505762e+01   4.7983722152e+01    0.1869365    0.1626976  49.70 0.0003642322    1.293    0.227
       305 -10.8614      9.6407     34.6919   7.8457292319e+01   7.3030662189e+01    0.3827699    0.2840196  45.75  0.001718994    1.515    0.340
       306 -11.2600    240.1988     34.6228   1.3729395905e+01   2.4137957689e+01    0.1917315    0.1644536 -48.63 0.0003075571    1.195    0.163
       307  -9.6473     34.0426     33.6765   5.9311465561e+01   7.0348810292e+01    0.1961865    0.1640393  34.34 0.0007490906    1.146    0.128
       308 -11.2004    121.7318     32.3374   2.5703112085e+01   5.0357271326e+01    0.5547656     0.326976  60.53  0.002598751    1.597    0.374
       309 -10.7237    121.9728     20.5995   2.1376579628e+01   5.1770387322e+01    0.4628118    0.2650459  42.40   0.00206173    2.211    0.548
       310 -11.3575    118.0883     27.4235   2.4580362408e+01   5.1941502368e+01    0.4939145    0.2883592  77.40   0.00226183    1.686    0.407
       311 -11.4032    112.1432     27.1340   2.5615512182e+01   5.3517261844e+01    0.4030269     0.374953 -63.27  0.001097435    1.114    0.102
       312 -10.4839     15.7721     31.9818   7.2297085084e+01   7.3116787557e+01    0.2772232    0.1828764 -42.42 0.0006433647    1.475    0.322
       313 -10.2372     19.2635     30.9812   6.8995785561e+01   7.2963183012e+01    0.2408624    0.2329129  12.01 0.0007862891    1.089    0.081
       314  -9.4817     30.3323     32.2122   6.1154138144e+01   7.1226473527e+01     0.183167    0.1305925 -62.02 0.0005595832    1.636    0.389
       315 -10.2551    177.9786     30.6836   1.7555033295e+01   3.6880711777e+01    0.2498549    0.1441169 -50.04  0.000402951    1.484    0.326
       316 -10.5702    176.7970     26.9066   1.6651762881e+01   3.7598351515e+01    0.2353737    0.2066449  87.30  0.000640327    1.184    0.155
       317  -9.4467    162.6902     31.3141   1.9349666198e+01   4.0326632800e+01    0.1368897    0.1241063 -74.57 0.0004372041    1.097    0.089
       318  -9.4082     94.3253     31.3066   3.1455207261e+01   5.7534232224e+01    0.1480274    0.1086478  34.10 0.0004794401    1.649    0.393
       319  -9.0515      1.3743     31.2922   8.4650007112e+01   7.4345318309e+01    0.1467795   0.08134004 -33.31 0.0004995958    1.732    0.423
       320 -11.3850    198.3728     28.3724   1.5185257787e+01   3.2748225560e+01    0.3358807    0.1992684  89.72  0.001582168    1.733    0.423
       321 -10.8451    156.4284     28.2840   1.9187882249e+01   4.2194787385e+01    0.3090599    0.1803743  59.66   0.00114436    1.777    0.437
       322  -9.8530    145.1474     27.1960   2.0261557851e+01   4.5089462546e+01    0.3149067    0.2278419 -26.11  0.001684589    1.568    0.362
       323 -10.2925    101.4674     28.4279   2.8452106165e+01   5.6107124446e+01    0.3400633     0.214017 -84.90 0.0008570902    1.935    0.483
       324  -9.4615      6.5038     29.5354   7.9438048072e+01   7.4465661909e+01    0.1347609    0.1165133 -27.05 1.166756e-05    1.063    0.059
       325 -10.9558     72.7997    244.4300   8.3114929595e+01   1.4681493293e+01    0.2838728    0.2201873  21.46  0.001187535    1.113    0.102
       326 -11.0629     60.9503     26.2615   4.0529906372e+01   6.6406193144e+01    0.4870984    0.3179024  46.12  0.002380922    1.425    0.298
       327 -10.6359     60.0376     21.4376   3.8323109115e+01   6.7348175313e+01    0.5411179    0.2475056  62.68  0.001614015    2.493    0.599
       328 -11.8382    216.1654     25.4952   1.3254718263e+01   2.9518324944e+01    0.2805719    0.2082264  76.06 0.0009841733    1.508    0.337
       329  -9.6657    180.6302     27.3825   1.6425556099e+01   3.6682169496e+01     0.210298    0.1170554 -59.96 0.0008292969    1.638    0.389
       330 -12.4250     75.3389    240.0101   8.2185402123e+01   1.5196662524e+01    0.5332668     0.474344 -60.13  0.003440169    1.422    0.297
       331  -9.4646    102.4656    243.4767   7.6306963109e+01   1.1626397045e+01    0.1219979   0.09470402  22.77 0.0002029495    1.002    0.002
       332 -10.5737     88.8661    240.9083   7.9137814393e+01   1.3564434508e+01    0.1820631    0.1471016   3.87  0.001206812    1.258    0.205
       333 -10.2343    239.8801     25.7720   1.1935441999e+01   2.5168379612e+01    0.2424871   0.08040282 -49.01  0.001244693    2.166    0.538
       334 -10.4865    226.9825     25.9804   1.2698725950e+01   2.7434782046e+01     0.138624     0.104657 -54.27            0    1.021    0.021
       335 -10.1337     87.1304     20.1094   2.8404523255e+01   6.0878723720e+01    0.2113467    0.1784892  48.68  0.000314031    1.200    0.167
       336  -9.9493     80.3677     25.7911   3.3048455181e+01   6.1833978566e+01    0.2702886    0.1871136 -28.15 0.0008342543    1.652    0.395
       337 -10.6367     83.0452     21.9534   3.0412018626e+01   6.1683077520e+01    0.3680941    0.3062424 -76.01  0.001214813    1.272    0.214
       338 -10.6315     64.9659     19.5044   3.5245009269e+01   6.6467277018e+01    0.2630237    0.2184359  67.66 0.0009047009    1.162    0.139
       339  -8.9429     51.4382     26.4888   4.5174530388e+01   6.8452597920e+01    0.1405624    0.1304417  39.18 0.0007665388    1.010    0.009
       340 -10.4261     60.1803    241.0147   8.5802555560e+01   1.6611048545e+01    0.2315008    0.1424247  26.42  0.001202779    1.282    0.220
       341 -10.7902     22.1121     24.0849   6.3259050871e+01   7.4073379557e+01    0.3163236    0.2623149   5.09 0.0008935088    1.178    0.151
       342 -12.1053     34.3131     22.6209   5.3180968869e+01   7.2452663180e+01    0.2829971    0.2558588   5.44 0.0001578684    1.093    0.085
       343  -9.7170    114.2493    239.8839   7.3339093389e+01   1.0901012390e+01     0.366088   0.06777395  36.85  0.001258092    4.117    0.757
       344 -10.3345    195.6720    238.4532   5.7096512736e+01   2.3501409021e+00    0.2065593    0.1537085  -6.38 0.0009851907    1.082    0.076
       345 -12.0241     28.7551     19.7483   5.5469586531e+01   7.3921347234e+01    0.2907811    0.2180927  20.88 0.0003350447    1.331    0.249
       346 -10.8552     35.1552    237.8750   9.1528378798e+01   1.9663603543e+01    0.2002371    0.1278948  46.23  0.001230932    1.270    0.213
       347 -10.0285     18.8345    237.4125   9.5359731142e+01   2.1215149690e+01    0.2776155     0.107683  11.85  0.001157092    3.205    0.688
       348  -9.0530      3.5655    237.5208   9.8912309352e+01   2.2441307691e+01     0.119499   0.08772463  43.09 0.0001163532    1.013    0.012
       349 -11.2820      3.7338     18.4756   7.7861348432e+01   7.7162563311e+01    0.3781317    0.2549959  11.15  0.001561428    1.424    0.298
       350 -11.0224    160.3746    235.2170   6.3171706085e+01   6.4525796664e+00    0.2306898    0.1458082   1.75 0.0007581846    1.495    0.331
       351 -10.6259    159.9919     24.0247   1.7521233649e+01   4.1847596084e+01    0.2918741    0.1854427 -35.80 0.0009283155    1.522    0.343
       352 -10.1722     67.5888    236.0770   8.3702664943e+01   1.6744673266e+01    0.2568266     0.156831  19.34   0.00145768    1.449    0.310
       353 -11.3908     74.6836     35.1135   3.9365379175e+01   6.1793537826e+01     0.527358    0.3637968  46.08  0.001860345    1.395    0.283
       354 -10.4571     54.5869     24.1436   4.2312199904e+01   6.8159877303e+01    0.3284868    0.2269148 -65.74 0.0007676774    2.042    0.510
       355 -10.1404    189.8484     24.2048   1.4818765461e+01   3.5030360671e+01    0.1855147    0.1491092 -61.20 0.0003401533    1.005    0.005
       356 -10.5567    193.1064     20.9724   1.3756760197e+01   3.4695861194e+01    0.2023491    0.1860676  86.84 0.0003371601    1.269    0.212
       357 -10.4460    194.0217     16.6421   1.2613360176e+01   3.4973559759e+01    0.2766888    0.1616393 -78.75  0.001563269    1.625    0.384
       358  -9.6404     48.1576     22.9030   4.4892446187e+01   6.9733863389e+01    0.1909616    0.1759954  76.79 0.0002666232    1.213    0.176
       359 -10.0407    155.9186     21.8420   1.7309142065e+01   4.3080697031e+01    0.1880528    0.1722766  73.15 0.0005028622    1.226    0.184
       360 -11.3721    248.8091     20.8301   1.0502647256e+01   2.4185800353e+01    0.2253902    0.1721846 -76.57 0.0007050874    1.326    0.246
       361  -9.7933    224.8725     21.3604   1.1820209339e+01   2.8327055694e+01     0.149326    0.1229645 -67.38 0.0006996396    1.156    0.135
       362 -10.9980    183.0014    234.1542   5.8763491927e+01   4.1838590930e+00    0.2943259    0.1739064  17.40  0.001313541    1.408    0.290
       363 -11.7115    185.2251    228.0035   5.7523480860e+01   4.7781220553e+00    0.5052977    0.2871016  -0.00  0.003015518    1.814    0.449
       364  -9.2369     24.0355    232.4472   9.3945400008e+01   2.1731087121e+01    0.3341763    0.1115177  14.53  0.001255983    3.654    0.726
       365  -9.3881     99.0555     20.0320   2.5473263486e+01   5.7805812716e+01    0.1609137    0.1510903 -73.89 0.0002988103    1.098    0.089
       366  -9.7566     45.0822     19.2664   4.4433815388e+01   7.0956540141e+01    0.2227951    0.1601994  76.58  0.001075491    1.988    0.497
       367  -9.5256     41.3733     19.2907   4.6609227748e+01   7.1704116939e+01    0.1741759    0.1307302 -47.33 0.0007652924    1.502    0.334
       368 -11.1111     30.7960    234.7367   9.2421461134e+01   2.0672748074e+01    0.3725675    0.2432022  73.64  0.001725274    1.637    0.389
       369  -9.8331     32.0546    230.4554   9.1921401868e+01   2.1397534423e+01    0.1788869    0.1571725  11.13  0.001228519    1.280    0.219
       370 -10.7887    169.4377     16.9862   1.4583143101e+01   4.0411321181e+01    0.2281671    0.1827197 -41.11  0.001252905    1.236    0.191
       371  -9.5736    108.6376     16.6000   2.2113271559e+01   5.5701652041e+01    0.1941477    0.1495801  41.31 0.0006130252    1.500    0.333
       372  -9.4033     94.5228     17.4880   2.5378769620e+01   5.9286642008e+01    0.1433868    0.1265726  64.27 0.0001030422    1.088    0.081
       373  -9.3281      6.1932    235.1688   9.8253529064e+01   2.2691576884e+01    0.1693324   0.09900206  46.65 0.0004745988    1.289    0.224
       374 -10.2755     76.7006     15.8983   2.9307249594e+01   6.4048517283e+01    0.2633707    0.1912955  41.83 0.0002050936    1.430    0.301
       375 -10.3896     72.0241     16.1875   3.0933899937e+01   6.5182650769e+01    0.3935701    0.2032371  51.39 0.0009464218    1.750    0.429
       376 -11.0204     39.7957    229.4609   8.9981905290e+01   2.0859837811e+01    0.2950642    0.1680071  56.00  0.001462136    1.651    0.394
       377  -9.6351    169.2627    228.9662   6.0628054256e+01   6.3726264888e+00    0.1313557   0.09234387 -34.41  0.000481613    1.496    0.331
       378  -9.6861    215.8420     16.3191   1.1206220576e+01   3.0576771198e+01    0.2689804   0.06532025  65.37  0.001105815    4.188    0.761
       379  -9.9216     59.0563    229.4651   8.5269044374e+01   1.8905341452e+01    0.1957567    0.1012184  27.01 0.0006999699    1.541    0.351
       380 -12.5379    227.7927    245.9765   5.2882487941e+01  -1.4504197345e+00    0.5609881    0.3316536  -2.06  0.004269695    1.321    0.243
       381  -9.3886    131.3095    226.3316   6.8054150353e+01   1.1151396004e+01    0.1253538   0.08290502  -7.35 0.0005672728    1.669    0.401
       382  -9.6372     99.7153     13.6938   2.2595418116e+01   5.8358072747e+01    0.1994628    0.1456716 -21.89 0.0004606984    1.608    0.378
       383 -10.2186      3.9227    225.7292   9.8578987418e+01   2.4748338161e+01    0.1910927    0.1599545 -47.16  0.001189074    1.602    0.376
       384  -9.6097     45.4740    244.4631   8.9442434702e+01   1.7447072445e+01    0.1230815   0.09172197  36.14 5.655778e-05    1.021    0.020
       385  -9.9332     16.3118    222.0394   9.5444086093e+01   2.4504138508e+01    0.1710469    0.1366149  54.00 0.0005557057    1.109    0.098
       386 -11.3825     48.0444    218.6511   8.7262202342e+01   2.2224442388e+01    0.6003389     0.229668  16.68  0.002373413    2.889    0.654
       387  -9.5613    211.6228    218.8161   5.1671820061e+01   3.2484527210e+00    0.1356371   0.09007657 -37.28 0.0009404802    1.629    0.386
       388  -9.9110     91.6665    235.6966   7.8017736260e+01   1.4165289485e+01    0.1226338    0.0855476  -5.43 0.0002397227    1.660    0.397
       389 -10.1585    247.8434     25.9111   1.1554281128e+01   2.3809187708e+01    0.1515594    0.1262588 -39.47 0.0004463642    1.261    0.207
       390 -10.1616     70.0302    218.3470   8.1660021890e+01   1.9898879011e+01    0.2349445     0.126214 -45.03  0.001151726    2.345    0.574
       391  -9.9499    236.8171    218.6049   4.7745898122e+01   8.5025872758e-01    0.1231071   0.08402624  25.64 0.0006749105    1.638    0.389
       392  -9.7572    136.0825    216.8400   6.5798650028e+01   1.2158738822e+01    0.1884614    0.1545697  34.14  0.001194744    1.264    0.209
       393 -12.6109      4.9833    208.4947   9.7894723059e+01   2.8300372444e+01    0.7728321    0.3480371  78.97   0.00378275    2.250    0.556
       394 -11.8026     12.0007    210.4632   9.6139241182e+01   2.7318298720e+01    0.4595962    0.2055278  75.11  0.001525796    2.313    0.568
       395 -10.8983     29.2802    215.4163   9.1883759456e+01   2.4745558351e+01     0.252336    0.2024433  28.24  0.001100133    1.139    0.122
       396 -10.0544     23.9490    215.9792   9.3278903861e+01   2.5111401623e+01    0.2093765    0.1107165  51.15 0.0004216343    1.591    0.371
       397 -11.9494     20.1317    201.0843   9.3613101886e+01   2.8714664921e+01     0.606926    0.2236511 -61.31  0.002558494    3.064    0.674
       398 -10.2678    216.9838    209.0197   4.9354389199e+01   3.9567223309e+00     0.176563    0.1026039 -11.74 0.0007365871    1.626    0.385
       399  -9.9363    148.0268    205.8135   6.1680589384e+01   1.2519409658e+01    0.2495168    0.1588491   7.94  0.001365095    1.632    0.387
       400  -9.9931     28.1271    205.3794   9.1668931146e+01   2.7033736708e+01    0.1914997   0.09066932  35.80 0.0004245854    1.636    0.389
       401  -9.9091    205.5002    203.9765   5.0459613941e+01   5.8581782254e+00    0.1701929   0.09484001 -34.39  0.001045675    1.628    0.386
       402 -10.3733     67.3419    202.8163   8.0928504660e+01   2.3446071231e+01    0.2571047    0.2101016  44.50 0.0007132189    1.104    0.095
       403  -9.9851    110.2893    212.0043   7.1070281597e+01   1.6262332206e+01    0.1739443    0.1594653   3.41 0.0007486768    1.120    0.107
       404  -9.2358    120.3181    200.3277   6.7152163846e+01   1.7161832254e+01    0.1357038    0.0945852  -9.69 0.0007046365    1.680    0.405
       405 -10.7225    175.3409    202.2035   5.5598220241e+01   9.6541151335e+00    0.2156483    0.1725217   7.06 0.0004447902    1.062    0.058
       406  -9.8592    134.9507    196.4857   6.3189836010e+01   1.5898686686e+01    0.1848225    0.1638345 -20.97 0.0004712385    1.157    0.136
       407  -9.6114     56.7005    197.2586   8.3298723090e+01   2.5904054349e+01    0.2105026    0.1419863 -22.59  0.001037777    2.019    0.505
       408 -11.9877     15.7776    191.9163   9.4404218699e+01   3.1194574536e+01    0.4304609    0.3952722 -21.01  0.001964447    1.340    0.254
       409 -11.8973     16.0974    182.1747   9.3862139780e+01   3.3488782667e+01    0.4890937    0.2514069  54.23  0.001890108    1.715    0.417
       410  -9.8472    145.1495    190.1281   5.9924924366e+01   1.5651718255e+01    0.1985442      0.15651  -3.46 0.0005163415    1.241    0.194
       411 -10.1092    244.6913    188.0614   4.1999051767e+01   3.7649007843e+00    0.1511287    0.1035748 -19.60  0.000505634    1.084    0.078
