#   1 NUMBER                 Running object number                                     
#   2 MAG_AUTO               Kron-like elliptical aperture magnitude                    [mag]
#   3 X_IMAGE                Object position along x                                    [pixel]
#   4 Y_IMAGE                Object position along y                                    [pixel]
#   5 X_WORLD                Barycenter position along world x axis                     [deg]
#   6 Y_WORLD                Barycenter position along world y axis                     [deg]
#   7 A_WORLD                Profile RMS along major axis (world units)                 [deg]
#   8 B_WORLD                Profile RMS along minor axis (world units)                 [deg]
#   9 THETA_WORLD            Position angle (CCW/world-x)                               [deg]
#  10 FWHM_WORLD             FWHM assuming a gaussian core                              [deg]
#  11 ELONGATION             A_IMAGE/B_IMAGE                                           
#  12 ELLIPTICITY            1 - B_IMAGE/A_IMAGE                                       
         1  -8.1963     30.0938     16.0543   9.5677251403e+01   7.3443187290e+01    0.1829301    0.1640069  80.46 0.0006876963    1.674    0.403
         2  -8.6132     55.7050     10.1225   7.7688225473e+01   6.9396465608e+01    0.2145403    0.1773168  64.20 0.0007113081    1.316    0.240
         3  -7.9131     47.5520     10.0889   8.1478019937e+01   7.1127675066e+01    0.1758537    0.1080985 -53.50 0.0008068366    2.520    0.603
         4  -8.4380     90.7877      8.9641   6.5733062070e+01   6.1082001858e+01     0.221197     0.139396 -54.24 0.0006714978    1.909    0.476
         5  -7.7912    101.4127      8.2577   6.3102073969e+01   5.8394221265e+01    0.1783712    0.1246771 -41.91 0.0004471212    1.567    0.362
         6  -8.5547     33.1012      5.0534   8.6279495889e+01   7.4556471498e+01    0.2558958    0.1689067 -55.05  0.001157557    2.487    0.598
         7  -8.6107     79.1552      4.0281   6.6206232290e+01   6.4470802279e+01    0.3046094    0.1667529 -36.09  0.001112472    2.037    0.509
         8  -7.5326     44.5013      3.4907   7.8662910985e+01   7.2530190641e+01    0.1291808    0.1148057  34.03 0.0002362795    1.071    0.066
         9  -8.3446     62.3105      1.5044   6.9900209839e+01   6.8778397276e+01    0.2248859    0.1230202  67.17 0.0004813974    1.822    0.451
        10  -7.4340     52.6317      1.2654   7.3431652300e+01   7.1013354719e+01    0.1246677    0.1007422 -85.95 0.0006625716    1.656    0.396
        11  -7.4891     39.2905      1.3269   7.9886325333e+01   7.3827095847e+01    0.1338303   0.08674254  21.39 0.0002164708    1.617    0.382
        12  -9.4828    211.2231    246.4238   9.9924674812e+01  -1.8843731712e+00    0.2498667    0.1758024 -38.25   0.00113022    1.917    0.478
        13  -8.5354    248.8078    249.8816   9.4335616159e+01  -6.0933552720e+00    0.2095397    0.1074012  -3.06  0.001394708    1.768    0.435
        14  -8.9759    232.5913    247.9206   9.6586535628e+01  -4.3088762692e+00    0.2427685    0.1646352 -36.75  0.001730714    2.025    0.506
        15  -8.3725     93.9331    249.7520   1.2358034163e+02   1.2076883599e+01    0.2192424    0.1284424  60.27  0.001215457    2.132    0.531
        16  -7.2782     86.2830    250.6652   1.2531159272e+02   1.2865011282e+01    0.1210299   0.07253348  51.84 0.0007009709    1.619    0.382
        17  -9.0975    103.7132    246.8456   1.2119416391e+02   1.1327773609e+01    0.3143749    0.2087675  86.03  0.001777398    2.449    0.592
        18  -8.9755    120.4003    245.5003   1.1746912234e+02   9.4063391300e+00    0.3234128    0.2051174  61.25   0.00178078    2.352    0.575
        19  -7.8729     13.3391    247.3115   1.4074744459e+02   2.1351660080e+01   0.09636146   0.08350632 -14.08 0.0007045565    1.692    0.409
        20  -8.4731     67.5656    245.2694   1.2897083765e+02   1.6030926900e+01    0.1810315    0.1170213 -84.08 0.0009986262    1.963    0.491
        21  -9.8355    248.5770    241.9098   9.3236052307e+01  -5.2626037052e+00    0.3375284    0.1569745 -32.43  0.001543451    2.082    0.520
        22  -9.3359    247.7224    234.9819   9.2354882606e+01  -4.4532499476e+00    0.1864709    0.1435509  20.56  0.001186758    1.532    0.347
        23  -8.8978     78.3562    243.5869   1.2645734763e+02   1.5037617712e+01    0.4070138    0.1559039  52.88  0.001754196    2.990    0.666
        24  -8.8549    201.9099    243.1544   1.0109441434e+02  -4.5005702616e-01    0.2134832    0.1487392 -41.29 0.0009839307    1.971    0.493
        25  -8.8321    169.1559    243.5483   1.0724769032e+02   3.4402835888e+00    0.1953067    0.1701963  50.36 0.0007098268    1.710    0.415
        26  -7.3087     58.3549    244.6690   1.3095594239e+02   1.7201232618e+01    0.1327838   0.06496719  51.42 0.0007045115    1.784    0.440
        27  -9.2216    194.4525    240.3554   1.0204253028e+02   7.6712534212e-01    0.3369501    0.1765364 -43.46  0.001641703    2.459    0.593
        28  -9.8074    160.2240    240.4447   1.0860230337e+02   5.0031825668e+00    0.3341786    0.2607979 -89.93  0.001829566    2.815    0.645
        29  -9.1990    183.1304    239.8894   1.0407546198e+02   2.1959801057e+00     0.322371    0.2661532  51.47  0.002034296    1.963    0.491
        30  -8.0636    153.4116    242.1754   1.1019701934e+02   5.6319950660e+00    0.1351328    0.1185532 -64.73 0.0006966986    1.759    0.432
        31  -7.9069     88.3244    242.1424   1.2412370808e+02   1.4058916302e+01    0.1457597    0.1102923  85.69 0.0005894697    1.714    0.417
        32  -8.5593    240.5462    240.3261   9.4242559144e+01  -4.3035530186e+00    0.1684151   0.08636042 -33.08 0.0009841891    1.978    0.495
        33  -8.6345    214.1286    241.1397   9.8679872961e+01  -1.5933104450e+00    0.1753115     0.115309   0.80 0.0008770118    1.225    0.183
        34  -8.4940    146.8598    240.2318   1.1129066891e+02   6.7669603465e+00    0.2849347     0.167562  57.63  0.001344148    3.300    0.697
        35  -8.6561    209.1546    238.0476   9.9094078113e+01  -6.6558465665e-01      0.20819    0.1485121 -19.73  0.001211342    1.343    0.255
        36  -8.7413    135.3752    238.9334   1.1353056475e+02   8.4750801069e+00    0.2091752    0.1414499  43.64  0.000713071    1.498    0.332
        37  -8.1421    128.9977    238.5537   1.1484334839e+02   9.3791935281e+00    0.1878265    0.1507853  59.62 0.0009343072    1.621    0.383
        38  -7.9870     41.2848    239.6608   1.3441978053e+02   1.9995994810e+01    0.1265249   0.06566797  53.86 0.0005677725    1.632    0.387
        39  -8.3743      2.0014    239.7529   1.4290043403e+02   2.3737895831e+01    0.1447269    0.0754642  31.00 0.0008801707    1.571    0.363
        40  -9.5813    230.7673    236.8601   9.5291045095e+01  -2.9135338232e+00    0.2654356     0.181223 -40.21  0.001223562    2.120    0.528
        41  -9.9504    214.8469    233.2497   9.7410254526e+01  -7.3967906891e-01    0.3901763    0.3298626 -81.24  0.002336714    3.630    0.724
        42  -8.1778    189.6171    236.7957   1.0242899228e+02   1.8050350424e+00     0.190248      0.09976 -32.95 0.0006922905    2.015    0.504
        43  -8.3345     25.6233    236.8506   1.3773686338e+02   2.2125133482e+01    0.2533711   0.09052102  64.55  0.001145808    2.935    0.659
        44  -9.3466    203.4514    233.8312   9.9486328251e+01   5.1638607780e-01    0.3987323    0.1836785 -34.86   0.00175767    2.240    0.554
        45  -9.9419    175.8136    233.4970   1.0458313864e+02   3.9766025523e+00    0.3785408    0.2237061 -53.59  0.002083069    2.746    0.636
        46  -8.2137    170.0299    235.4871   1.0599047448e+02   4.4418978126e+00    0.1718001    0.1247922 -46.84 0.0006445206    1.850    0.460
        47  -7.9111     57.5555    237.0000   1.3061309128e+02   1.8691385855e+01     0.271176   0.05606764  28.65 0.0009258902    3.864    0.741
        48  -8.4103    152.9700    235.3162   1.0939976074e+02   6.6954806863e+00    0.1746762    0.1285227  24.25 0.0004632873    1.077    0.071
        49  -9.3376    108.5377    234.3484   1.1884352711e+02   1.2793312503e+01    0.3016777    0.2127881  54.01 0.0009956544    1.555    0.357
        50  -8.4575     99.7001    234.4527   1.2083727381e+02   1.3940797781e+01    0.2382267    0.1582622  59.62  0.001234122    1.775    0.437
        51  -8.6932     78.6813    234.4678   1.2561089046e+02   1.6627661621e+01    0.2393645    0.1484712  60.07 0.0009589287    1.747    0.428
        52  -9.3073    194.8573    232.0887   1.0078503989e+02   1.7753512227e+00    0.3550381    0.2174987 -23.04  0.001558295    1.620    0.383
        53  -8.2525    122.8736    234.1380   1.1564861227e+02   1.0911496627e+01    0.1872163    0.1442163  43.49 0.0006506778    1.287    0.223
        54  -8.9221     68.5732    232.7265   1.2778046997e+02   1.8190168141e+01    0.4514268    0.1587773  53.65  0.001783474    3.326    0.699
        55  -8.2200    145.0101    233.2226   1.1078059787e+02   8.0752603472e+00    0.2569559    0.1241141  47.95   0.00117993    2.698    0.629
        56  -8.6273    140.0951    230.2005   1.1143046312e+02   9.2152414601e+00    0.2305202    0.1855128  54.22  0.001016798    1.579    0.367
        57  -8.5838    132.8028    232.7589   1.1332269299e+02   9.7962566989e+00    0.2055197    0.1534728  66.43 0.0009726204    2.025    0.506
        58  -9.2219    186.3700    230.7040   1.0216263691e+02   3.0152937683e+00    0.2397876    0.2131497 -69.43  0.001089619    2.081    0.519
        59  -8.3910    157.9902    232.0473   1.0793346374e+02   6.5159098238e+00    0.1765772    0.1357151  49.18 0.0006603767    1.691    0.409
        60  -8.2001     92.4534    231.6107   1.2219445924e+02   1.5392080516e+01    0.2432733    0.1423587  61.61 0.0008537105    2.168    0.539
        61  -9.5220    246.6244    228.9060   9.1615983384e+01  -3.6877276525e+00    0.3244646    0.1469999 -28.45  0.001456019    1.933    0.483
        62  -9.0177    235.9879    230.8435   9.3562289542e+01  -2.7929088331e+00     0.175307    0.1214252 -16.72 0.0004771552    1.243    0.196
        63  -9.1378      1.8886    230.9698   1.4270817580e+02   2.5411516292e+01    0.2486553     0.108978  53.63  0.001035091    1.695    0.410
        64  -9.5989    148.8491    224.7347   1.0883412860e+02   8.8808860562e+00    0.3838788    0.2835774  72.36   0.00150588    2.561    0.609
        65  -8.8687    229.9675    228.7066   9.4207585180e+01  -1.8983985352e+00    0.2319636    0.1260105 -25.54  0.001298188    1.656    0.396
        66  -8.8411    162.5082    227.9782   1.0645002548e+02   6.5173719866e+00    0.3005839    0.2000585  53.57  0.001030709    2.319    0.569
        67  -8.8977    127.8781    227.2585   1.1371012349e+02   1.1374487368e+01    0.3008525    0.1909871  53.98  0.001091463    1.989    0.497
        68  -8.1354    119.9054    227.5802   1.1552262383e+02   1.2418498280e+01    0.2284512    0.1408519  59.11   0.00115607    2.291    0.563
        69  -7.7552    223.3597    227.1836   9.5063710212e+01  -9.8188355143e-01    0.1349585   0.09234031 -33.38    0.0004423    1.654    0.395
        70  -8.4238    215.0271    227.0439   9.6451427753e+01  -5.0768771503e-03    0.1749457    0.1186246   1.78 0.0004083201    1.199    0.166
        71  -8.9538    216.6407    223.6620   9.5659514613e+01   2.2362159459e-01    0.1986683    0.1826993 -12.90 0.0009108062    1.578    0.366
        72  -8.5455    206.1452    226.4007   9.7903824144e+01   1.1327388771e+00    0.1851717    0.1437182 -43.80  0.000749086    1.891    0.471
        73  -8.1981     49.1561    226.6846   1.3183633679e+02   2.1616927017e+01    0.2235947    0.1228808  75.66 0.0009995106    2.110    0.526
        74  -8.9718    151.3426    229.0159   1.0889487453e+02   7.8692460091e+00    0.2448394    0.1804769  70.89  0.001205801    2.616    0.618
        75  -8.5254    200.0808    225.6029   9.8870289326e+01   1.9783187481e+00    0.2647167    0.1443343 -27.02  0.001366572    1.831    0.454
        76  -8.8508     94.2346    224.3871   1.2103935443e+02   1.6479669710e+01     0.427401    0.1796061  52.59  0.001742096    2.976    0.664
        77  -9.1030    180.5415    223.9816   1.0228993159e+02   4.6974387969e+00    0.2735206    0.2273708 -45.91  0.001147515    1.678    0.404
        78  -8.8260    104.7712    223.7801   1.1852131382e+02   1.5167035450e+01    0.3097089    0.2132192  73.57  0.001503132    2.083    0.520
        79  -9.0136    172.9655    223.1322   1.0365030176e+02   5.8277418627e+00    0.2291945    0.1737831 -52.33 0.0008049565    1.902    0.474
        80  -8.0184    113.9473    224.0048   1.1643842473e+02   1.3864052774e+01    0.1959651    0.1369752  56.21 0.0007041081    1.670    0.401
        81  -7.8681     59.7206    223.9558   1.2915052226e+02   2.0934619344e+01    0.2462893   0.07396971  51.61  0.000887892    3.563    0.719
        82  -7.5872     38.2937    224.6368   1.3424499056e+02   2.3207713894e+01    0.1342136   0.06877195  55.46 0.0007029704    1.708    0.414
        83  -9.2938    192.5607    221.5831   9.9643137925e+01   3.4664363591e+00    0.2518125    0.2325708  71.70  0.001181298    1.960    0.490
        84  -9.2206    160.3051    221.3571   1.0595710405e+02   7.8228001158e+00     0.474787    0.2259444  49.28  0.001901919    3.334    0.700
        85  -8.3926    140.4878    222.9485   1.1038386104e+02   1.0334795971e+01    0.1623405    0.1280948 -48.07  0.001015797    1.567    0.362
        86  -9.2984    239.1745    221.5563   9.1645192178e+01  -2.0776972812e+00    0.2393421    0.1824687 -22.13  0.001025082    1.383    0.277
        87  -9.0796    225.5414    221.7833   9.3874098942e+01  -5.8162242992e-01    0.2016975    0.1730227  16.91 0.0009602364    1.468    0.319
        88  -8.3782    202.8617    220.3326   9.7563130084e+01   2.3260456753e+00    0.1793093    0.1456389 -25.51 0.0005997889    1.386    0.278
        89  -8.5976     82.8167    220.7339   1.2336041436e+02   1.8681714541e+01    0.3025425    0.1429973  52.76  0.001300658    2.264    0.558
        90  -8.1707     73.0395    220.7263   1.2569915926e+02   1.9939527751e+01    0.2513224    0.1303615  67.22  0.001065787    2.629    0.620
        91  -7.6903     27.5063    221.5044   1.3659402383e+02   2.4944664536e+01    0.1237051   0.09552202  49.58 0.0001756767    1.007    0.007
        92  -8.9699    249.3409    218.7988   8.9657943385e+01  -2.8501183240e+00    0.2212848    0.1849873  46.05  0.001627836    2.370    0.578
        93  -8.2896    210.0482    219.4650   9.6151680621e+01   1.5482418962e+00    0.1797985    0.1491911 -29.34 0.0005393605    1.493    0.330
        94  -9.1721    120.4340    219.0709   1.1434443949e+02   1.3832142422e+01    0.3997518    0.2324991  60.86  0.001821247    2.762    0.638
        95  -8.6448    179.5301    216.8957   1.0141719190e+02   5.8548234649e+00    0.2676134    0.1177925 -43.67  0.001307014    2.600    0.615
        96  -9.3383    132.8445    215.9369   1.1111445331e+02   1.2607558108e+01    0.4334529    0.2849723  70.15  0.002029289    2.934    0.659
        97  -8.6211     62.3043    217.7360   1.2802609851e+02   2.1864727353e+01    0.3501915    0.1547259  53.41  0.001590675    2.251    0.556
        98  -8.7744     51.8184    217.5679   1.3055573012e+02   2.3138943134e+01    0.2452801    0.1422352  69.36 0.0007959528    1.872    0.466
        99  -8.6860    169.3126    216.4391   1.0338398400e+02   7.3279589254e+00    0.2360025    0.1830626  57.01 0.0008844845    1.988    0.497
       100  -8.7974    142.8504    216.5631   1.0898364719e+02   1.1059728518e+01    0.2591257    0.2143246 -88.76  0.001403429    1.914    0.478
       101  -7.9748     41.4764    215.9253   1.3294602935e+02   2.4634075306e+01    0.1797832   0.08119126  66.53 0.0008073464    2.500    0.600
       102  -8.5463    232.1979    214.7073   9.1679378953e+01  -4.8931504937e-01    0.1891518    0.1636391 -34.89  0.001024689    1.743    0.426
       103  -8.8125    194.0211    215.2962   9.8397993029e+01   4.1458864803e+00    0.2094934    0.1242533  24.51 0.0006622339    1.457    0.314
       104  -8.4058    185.4726    214.4740   9.9888297760e+01   5.4024516648e+00    0.1777673    0.1623919  51.16 0.0006222613    1.653    0.395
       105  -8.4899    154.1055    215.0509   1.0633561101e+02   9.6944855903e+00    0.1835897    0.1477027  55.14 0.0006793644    1.670    0.401
       106  -7.8589     18.6085    215.1880   1.3838678612e+02   2.7095095400e+01     0.156563    0.1038249 -70.05 0.0009506125    1.714    0.417
       107  -9.5251    214.1140    212.3688   9.4322252543e+01   1.9683600351e+00     0.307821    0.2337466  44.45  0.001618044    1.944    0.486
       108  -9.1045     92.8892    213.9635   1.2021840044e+02   1.8647635249e+01    0.2940964    0.1639945  51.86  0.001112535    1.857    0.461
       109  -9.3568     72.9512    211.7765   1.2487315619e+02   2.1743860186e+01    0.6477048    0.2246074  53.54  0.002249446    3.791    0.736
       110  -8.2221    224.9067    212.8869   9.2579004511e+01   5.8777799581e-01    0.1444349     0.139554  -5.95  0.000902979    1.719    0.418
       111  -8.7891    161.7218    212.5461   1.0435467115e+02   9.0067114821e+00    0.2070627    0.1961517  40.75  0.000766479    1.376    0.273
       112  -8.0559    106.6733    213.0977   1.1680441041e+02   1.6886444638e+01    0.1992665    0.1544806  65.47  0.001150428    1.550    0.355
       113  -9.1360    204.4167    210.9761   9.5807792395e+01   3.3852469321e+00    0.2318313    0.1981655 -40.44 0.0008594527    1.633    0.388
       114  -9.5794    175.6522    210.3294   1.0116376162e+02   7.3734243768e+00    0.3725958    0.2714179  62.57   0.00165389    2.624    0.619
       115  -9.1671      8.0334    211.5520   1.4073918291e+02   2.8795275833e+01    0.2191292   0.08889238  49.89   0.00111258    1.869    0.465
       116  -8.4757    192.1698    210.7754   9.8028510236e+01   5.0310468631e+00    0.1884525      0.15592 -33.35 0.0007540449    1.436    0.304
       117  -8.8636    147.8263    210.6480   1.0703660246e+02   1.1333178741e+01    0.2638767    0.2043213  47.37  0.001136746    1.475    0.322
       118  -8.9095    116.3771    210.6255   1.1418719700e+02   1.5955349196e+01    0.3085683    0.1856497  52.64  0.001077118    1.915    0.478
       119  -8.6986     85.8983    209.8253   1.2146558494e+02   2.0424514323e+01    0.4000409    0.2049091  63.63  0.001440095    2.890    0.654
       120  -9.0560    236.8147    208.8300   9.0003706022e+01  -3.0736151100e-01    0.2255599     0.217115 -54.96  0.001194895    2.009    0.502
       121  -7.9888     32.3162    210.6494   1.3484866099e+02   2.6706023975e+01    0.1400941   0.07051761  55.21 0.0007047167    1.732    0.423
       122  -7.9454     46.2429    209.2587   1.3130826776e+02   2.5502294126e+01    0.1877119    0.0952687  83.33 0.0005386566    2.402    0.584
       123  -9.4021    250.0925    201.9567   8.6859731167e+01  -9.8914312717e-01    0.3095151     0.133226 -32.95  0.001318877    2.021    0.505
       124  -9.8760    246.1648    206.6437   8.8208772423e+01  -1.1054866699e+00    0.3067628    0.1786942 -33.89  0.001265909    1.682    0.406
       125  -9.2540    242.9151    200.7250   8.7734402396e+01  -2.5338045332e-02    0.2782954    0.1373269 -32.68 0.0008866448    1.803    0.445
       126  -8.1330    156.4245    208.2401   1.0481436070e+02   1.0473936004e+01    0.1533413    0.1274989 -55.17 0.0005739888    1.603    0.376
       127  -8.4745    139.2270    208.1087   1.0856595162e+02   1.3040864137e+01    0.2342547    0.1505223  51.89  0.000744648    1.916    0.478
       128  -9.3533     99.3423    206.1048   1.1771078717e+02   1.9291877507e+01    0.3683433    0.2485497  75.01  0.001618663    2.086    0.521
       129  -8.6049     56.4130    205.4054   1.2843632982e+02   2.5139799458e+01    0.3001189    0.1382694  56.62 0.0008796606    2.267    0.559
       130  -9.4433    194.8247    203.5042   9.6347576062e+01   5.7179095787e+00    0.3362648    0.3070774   2.18  0.001789784    1.285    0.222
       131  -9.3288    192.4021    197.4344   9.5787103004e+01   6.9522167208e+00    0.3395754    0.2506034 -41.97  0.001242724    1.600    0.375
       132  -9.0749    183.7320    203.9577   9.8542608103e+01   7.2008604320e+00    0.2720819    0.2023123  54.14 0.0009793002    2.067    0.516
       133  -8.5955    131.4230    204.2313   1.0977569912e+02   1.4906146339e+01    0.2706935    0.1900796  61.92  0.001124283    2.001    0.500
       134  -8.1963    109.2073    205.2282   1.1518703176e+02   1.8033500577e+01    0.1797431    0.1460894  59.87  0.000679406    1.377    0.274
       135  -9.6573    163.7552    203.1161   1.0245493542e+02   1.0235856950e+01    0.3474201    0.2328975  47.92 0.0008881549    1.809    0.447
       136  -8.7606    238.8621    203.5804   8.8828461322e+01   9.6299208527e-02     0.198578   0.09272858  27.69  0.001131776    2.087    0.521
       137  -8.3690    211.1253    202.3775   9.3209352291e+01   3.6864697852e+00    0.1979052    0.1850637 -75.36 0.0008788884    1.940    0.485
       138  -8.9929    140.4204    200.9544   1.0721851777e+02   1.4133334534e+01    0.3319034    0.2511809  84.03  0.001220528    2.281    0.562
       139  -8.4597     79.9836    201.4217   1.2201637067e+02   2.2962917283e+01    0.3044774    0.1653775  61.61  0.001356075    2.295    0.564
       140  -8.2243     73.3512    202.1471   1.2379409751e+02   2.3698515673e+01    0.1770426    0.1216145  87.99 0.0005982403    1.752    0.429
       141  -8.2499     48.0315    202.0044   1.3029571527e+02   2.6858912041e+01    0.2359119    0.1110999  69.58  0.001005701    2.631    0.620
       142  -7.9920     10.4759    202.5004   1.3980975539e+02   3.0513848524e+01    0.1248094   0.09750634  55.32 0.0001931484    1.016    0.016
       143  -7.9468    221.8405    201.5820   9.1243136441e+01   2.4157986190e+00    0.1418227    0.1008637  35.76 0.0004506366    1.625    0.385
       144  -8.8234    237.0865    198.6094   8.8282151913e+01   9.2275596559e-01    0.2505333    0.1359671 -39.65  0.001074117    2.021    0.505
       145  -9.5227    149.6203    198.7471   1.0480627634e+02   1.3114492944e+01    0.3662828    0.2779456  74.65  0.001423285    2.278    0.561
       146  -9.0089    124.0154    199.3012   1.1079108279e+02   1.6955183261e+01     0.286436    0.2205332 -87.69  0.001282855    1.915    0.478
       147  -9.5698    112.8711    198.5189   1.1337550835e+02   1.8805364852e+01    0.4358831    0.2557318  59.14  0.001606531    2.353    0.575
       148  -9.1958     88.8786    198.6895   1.1941974924e+02   2.2300654756e+01    0.4252847    0.2375662  59.32  0.001557188    2.203    0.546
       149  -8.9257    176.8809    198.8716   9.9059716324e+01   8.9787513422e+00    0.2156639    0.1769805 -48.24  0.000626931    1.576    0.366
       150  -8.4168    202.3107    197.9958   9.4044651747e+01   5.4839960656e+00    0.1930294    0.1649217  45.09 0.0008479959    1.641    0.391
       151  -9.1045     61.5494    197.2136   1.2635475374e+02   2.6286010608e+01    0.4079652    0.1826118  57.37  0.001504482    2.551    0.608
       152  -8.3140     12.6743    197.6972   1.3905928522e+02   3.1375185675e+01    0.2585789    0.1036384  66.44  0.001164548    2.412    0.585
       153  -8.0406     53.6651    196.9185   1.2839867274e+02   2.7317290534e+01    0.2568172   0.08419981  52.78 0.0008917191    3.380    0.704
       154  -8.8097    215.9050    195.5205   9.1224669409e+01   3.9975925593e+00    0.2030848    0.1517739 -40.97 0.0006563259    1.648    0.393
       155  -8.0901    209.4193    195.8984   9.2415779288e+01   4.8126832706e+00    0.1436369     0.103589 -55.85 0.0008030224    2.406    0.584
       156  -8.1321    133.0141    196.0180   1.0816481633e+02   1.6185972547e+01    0.2028349     0.157854  61.39 0.0005998918    1.646    0.393
       157  -9.6565    245.8174    193.6344   8.6114465268e+01   5.0537625862e-01    0.2300233     0.202288 -51.13  0.001350466    1.995    0.499
       158  -8.6508    224.5807    194.0966   8.9524549530e+01   3.0588115682e+00    0.2146057    0.1528434 -36.08  0.001017134    1.531    0.347
       159  -8.9091    185.2989    194.9036   9.6721319618e+01   8.3639336787e+00    0.2127474    0.1947138  23.12 0.0006504252    1.284    0.221
       160  -8.9049    161.0050    194.4963   1.0162727245e+02   1.2095978181e+01    0.2663981    0.2068594  55.31 0.0007410742    1.718    0.418
       161  -8.4225    230.9616    194.2806   8.8520474021e+01   2.2253988463e+00    0.1614595    0.1245377  -0.37 0.0004972678    1.049    0.047
       162  -8.7765     77.0463    193.8075   1.2190977938e+02   2.4998077621e+01    0.2678694    0.1976349  65.05 0.0007374242    1.435    0.303
       163  -8.8189     43.7413    193.2726   1.3071185102e+02   2.9283687137e+01    0.4281514    0.1802288  57.63  0.001784493    2.501    0.600
       164  -8.3004    198.8912    192.0395   9.3648408297e+01   6.8327409951e+00    0.1719986    0.1591307  -5.83 0.0006074971    1.285    0.222
       165  -8.3244    178.9902    191.5269   9.7388511069e+01   9.8368980678e+00    0.1911371    0.1597339 -17.82 0.0004794843    1.162    0.139
       166  -8.4861    172.3767    191.9854   9.8811386813e+01   1.0768103437e+01    0.2181378    0.1752926  52.36  0.001028365    1.639    0.390
       167  -9.1080    139.6077    190.7826   1.0579148294e+02   1.6127719513e+01    0.3446182    0.2457617  64.77  0.001066177    2.101    0.524
       168 -10.5292     92.2517    188.8322   1.1727750809e+02   2.3910329170e+01     1.018939    0.2632142  43.84  0.003167804    3.712    0.731
       169  -8.7915    148.6618    189.7250   1.0354335842e+02   1.4877430027e+01    0.2273298    0.1892259 -72.03  0.001286224    1.698    0.411
       170  -9.9262    120.8488    186.8219   1.0965879148e+02   1.9902753945e+01    0.5405214    0.3241816 -75.18   0.00226678    2.897    0.655
       171  -8.1704      6.3124    190.6628   1.4038004952e+02   3.3473797443e+01    0.1388322   0.06820389  55.43 0.0004786219    1.690    0.408
       172  -8.4724    237.2193    188.5126   8.6548596862e+01   2.1915585578e+00    0.2054068    0.1303169 -27.37  0.000669839    1.354    0.261
       173  -9.0130    216.7887    188.1052   8.9790503179e+01   4.9069610969e+00     0.249562    0.2255207 -56.12  0.001011635    1.760    0.432
       174  -8.8296    191.5607    187.6797   9.4257751947e+01   8.5603276209e+00    0.2796302    0.2267948  73.66    0.0012565    2.342    0.573
       175  -9.4229    156.0808    187.5485   1.0151928162e+02   1.4082865860e+01    0.3525158    0.2355956 -58.57 0.0008879454    2.070    0.517
       176  -9.0044    129.2682    188.6320   1.0788914806e+02   1.8193587285e+01    0.2635911    0.2329119  63.92 0.0008824517    1.348    0.258
       177  -9.4411    241.1490    181.6888   8.4763968053e+01   2.5819471857e+00    0.3617648     0.214665 -50.12  0.001943405    2.815    0.645
       178  -8.8851    165.0686    187.0414   9.9485094961e+01   1.2740018402e+01    0.2779258    0.2292253 -80.63 0.0008681058    1.986    0.496
       179  -9.3021    109.7110    186.1978   1.1236747237e+02   2.1800154660e+01    0.4060342     0.268949  67.93  0.001257038    2.150    0.535
       180  -9.0386     54.9297    187.1925   1.2714461913e+02   2.9357964084e+01    0.4456985    0.1909208  55.13  0.001793171    2.515    0.602
       181  -8.4698     34.1645    187.9509   1.3286824444e+02   3.1533808885e+01    0.3048254    0.1316243  56.97  0.001303719    2.268    0.559
       182  -7.9249    230.6934    187.1989   8.7344599820e+01   3.1902237206e+00    0.1685934    0.1298773 -34.17 0.0007260079    1.439    0.305
       183  -8.6918    249.3713    185.5720   8.4221231115e+01   1.0826086990e+00    0.2083059    0.1593542 -34.85 0.0009950761    1.505    0.335
       184  -8.9994    210.2730    184.2255   9.0227046058e+01   6.3629609133e+00    0.2613727    0.1449132 -32.33 0.0005265296    1.680    0.405
       185  -9.0066    202.8977    184.6952   9.1622364094e+01   7.3501401845e+00    0.2165825    0.1685628 -36.28 0.0007629252    1.397    0.284
       186  -9.1118    182.9505    184.7336   9.5404807398e+01   1.0328756568e+01    0.2357224    0.1824184 -42.89 0.0008445018    1.483    0.326
       187  -9.0125    174.3131    183.7309   9.6966398024e+01   1.1840868885e+01    0.2546785    0.2199471 -74.77 0.0008646318    1.786    0.440
       188  -9.0144     66.5694    184.5154   1.2366338225e+02   2.8490006063e+01    0.3839601    0.2150583  59.57  0.001184124    1.963    0.491
       189  -8.3260    224.1539    183.7324   8.7791300007e+01   4.5186842597e+00    0.1943143    0.1368344 -32.75 0.0006138576    1.384    0.277
       190  -8.4104    197.1037    183.6330   9.2493834735e+01   8.3607197771e+00    0.2047392    0.1611778 -38.35 0.0006660794    1.415    0.293
       191  -8.9322     44.1943    182.2701   1.2964716210e+02   3.1765742919e+01    0.3293508    0.1894547  68.60 0.0008473858    1.851    0.460
       192  -8.2484      2.2154    183.6140   1.4117099880e+02   3.5391504745e+01    0.2357256   0.09411819  29.35  0.001120506    2.148    0.534
       193  -8.4274    235.3016    181.9672   8.5705015382e+01   3.2898993119e+00    0.1674446      0.12225 -16.77 0.0005045506    1.112    0.100
       194  -9.3405    147.7390    180.8801   1.0223304835e+02   1.6661278011e+01    0.3590351    0.2625796  64.00  0.001243339    2.002    0.500
       195  -7.9989     83.3526    182.2016   1.1877146573e+02   2.6680574929e+01    0.1865246    0.1325976 -84.21 0.0005080653    1.697    0.411
       196  -9.5154     25.5672    178.7619   1.3457576841e+02   3.4540735442e+01    0.7261831    0.2379449  68.59  0.002305556    4.513    0.778
       197  -8.6981    137.5860    179.4268   1.0435369138e+02   1.8630174891e+01    0.2832385    0.2144639  74.69  0.001106614    2.016    0.504
       198  -8.8030    205.0562    177.9714   9.0017589989e+01   8.0420547685e+00    0.2484835    0.1583576 -33.54 0.0009370185    1.486    0.327
       199  -9.3760    191.5195    178.4031   9.2592998030e+01   1.0022110205e+01    0.2542135    0.2393239  62.23 0.0007477981    1.510    0.338
       200  -8.4081    169.3023    178.6908   9.7096737202e+01   1.3504894835e+01    0.2262783    0.1665158 -53.60 0.0009043918    1.725    0.420
       201  -9.1101     35.9406    176.8334   1.3150152705e+02   3.3957135285e+01    0.5119269    0.2014584  71.26  0.001781498    3.653    0.726
       202  -8.8819     13.1792    177.2444   1.3792737996e+02   3.6007524454e+01    0.3582492     0.145896  66.24  0.001273904    2.458    0.593
       203  -9.4623    248.4544    176.6852   8.2810930580e+01   2.3127529867e+00    0.3948877    0.1984367 -38.77   0.00175909    1.930    0.482
       204  -8.5011    250.5148    172.7862   8.1829104337e+01   2.5538877151e+00    0.2015388   0.09097181 -32.71 0.0006703248    1.841    0.457
       205  -8.5436    217.2896    177.1077   8.7740082537e+01   6.3968539443e+00    0.2047905    0.1525628 -41.18  0.000773761    1.538    0.350
       206  -8.8128    129.2654    177.5814   1.0605213620e+02   2.0390070501e+01    0.2953576    0.2190612  64.66  0.001045958    1.787    0.440
       207  -9.3245     89.1307    177.0911   1.1647874970e+02   2.6974266322e+01    0.3345341    0.2211522  72.02 0.0009164278    1.982    0.495
       208  -8.5278    231.1631    176.7824   8.5427501280e+01   4.5294641570e+00    0.1996603    0.1356515 -35.07  0.000685448    1.436    0.303
       209  -9.4346    182.9990    176.2200   9.3843942160e+01   1.1713638656e+01    0.2661721    0.2248502 -41.83 0.0006784436    1.362    0.266
       210 -10.8851    101.7660    175.7136   1.1283503490e+02   2.5311826133e+01    0.4943381    0.2971753  28.76 -5.119154e-05    1.589    0.371
       211  -9.3559     58.3492    175.0273   1.2489744864e+02   3.1775811430e+01    0.5035118    0.2242358  63.90  0.001793312    3.245    0.692
       212  -9.3885     55.8307    171.0080   1.2517040384e+02   3.3058511624e+01    0.6918093    0.3075322  65.84  0.002412943    3.392    0.705
       213  -9.3608    158.9200    175.1586   9.8684849011e+01   1.5852700914e+01    0.3550093     0.273492  73.85  0.001380726    2.128    0.530
       214 -10.7843     75.9718    169.5029   1.1910892696e+02   3.0687114030e+01     1.370429    0.5779766 -72.93  0.004742917    3.222    0.690
       215  -8.1520    240.9919    174.4921   8.3514505056e+01   3.5418702097e+00    0.1551081   0.08505336  11.60  0.000712726    2.355    0.575
       216  -8.2272    224.4650    174.0809   8.6004840486e+01   5.8184348727e+00    0.1781057    0.1030452 -33.15 0.0007000867    1.551    0.355
       217  -9.5737    175.7604    172.3167   9.4570891383e+01   1.3547039671e+01    0.3276147    0.2398967 -36.98 0.0008893714    1.388    0.280
       218  -8.2468    143.0322    173.0470   1.0192353361e+02   1.8953113678e+01    0.2146903    0.1735889  72.07 0.0007526492    1.716    0.417
       219  -8.5149    153.8161    172.0858   9.9254504295e+01   1.7287404075e+01    0.1998093    0.1824418  43.81 0.0003967208    1.211    0.174
       220  -8.8287    149.8315    169.5375   9.9686531772e+01   1.8457741815e+01     0.323862    0.2575175 -79.68  0.001053703    1.888    0.470
       221  -8.4934    134.7940    171.9043   1.0369347969e+02   2.0596016802e+01    0.2387086    0.2028165 -87.62 0.0008065514    1.568    0.362
       222  -9.7324    121.4323    170.1085   1.0672068334e+02   2.3262979649e+01    0.4810084    0.3044534 -65.12  0.001120294    2.055    0.513
       223  -7.9742     87.1124    172.1954   1.1632345168e+02   2.8398517290e+01    0.2038089    0.1745929  38.19 0.0004363461    1.057    0.054
       224  -8.4777     88.3445    168.6795   1.1544605161e+02   2.9021452419e+01    0.2935702    0.2056767  57.41 0.0008185907    1.513    0.339
       225  -9.1300     44.9083    170.6067   1.2833345603e+02   3.4470703992e+01    0.4257629    0.2267763  73.52  0.001573188    2.225    0.551
       226  -8.9721    230.7717    170.1634   8.4286866042e+01   5.4909069384e+00    0.2175286    0.1379397 -24.05  0.001319662    1.361    0.265
       227  -8.5383    205.8134    170.4729   8.8490363455e+01   9.0657172174e+00    0.2274791    0.1564401 -49.25  0.000921606    1.850    0.460
       228  -8.6029    198.5430    170.4928   8.9803797442e+01   1.0182773722e+01     0.219843    0.2060654 -49.08  0.000721088    1.413    0.292
       229  -8.3627    237.1402    169.7034   8.3227505157e+01   4.6880508965e+00    0.1936151    0.1348937 -34.34 0.0006112237    1.368    0.269
       230  -7.9579    244.2092    169.2283   8.2096499403e+01   3.8175491871e+00    0.1440423     0.120738 -31.84 0.0004695309    1.352    0.261
       231  -9.1229    167.0325    168.5319   9.5676087510e+01   1.5678095983e+01    0.2727313    0.2213761 -56.54 0.0008673953    1.548    0.354
       232  -7.9796     35.9086    170.0000   1.3092139429e+02   3.5609850189e+01    0.2210728   0.07258216  24.83 0.0008002052    2.927    0.658
       233  -8.2865    218.8087    168.1321   8.5828757582e+01   7.4767393383e+00    0.1777391    0.1526833 -29.77 0.0006050906    1.258    0.205
       234  -8.0695    211.4207    168.2338   8.7091390175e+01   8.5566071009e+00    0.1690709    0.1089418 -43.00 0.0006158486    1.683    0.406
       235  -8.9860    191.8793    166.7901   9.0338178848e+01   1.1834500651e+01     0.268752    0.1729446 -40.58 0.0007176403    1.579    0.367
       236  -9.0016    111.6910    167.3722   1.0879412295e+02   2.5512864937e+01    0.3605145    0.2457633  72.61  0.001293598    2.164    0.538
       237  -9.1557    185.0117    166.4810   9.1600519839e+01   1.3009027989e+01    0.2323917    0.1802074 -50.47 0.0006328707    1.568    0.362
       238 -10.1398     94.9964    162.9497   1.1264129355e+02   2.9292372953e+01    0.8449351    0.4600858  72.80  0.002709548    4.058    0.754
       239  -9.0130     20.3367    166.1606   1.3520271464e+02   3.8059842006e+01    0.3825611    0.1650384  55.24  0.001210099    2.190    0.543
       240  -8.1542     13.3111    167.6858   1.3735301305e+02   3.8284656042e+01    0.1429036    0.0781443  56.31 0.0003023307    1.634    0.388
       241  -9.9824    136.7224    164.3181   1.0181475997e+02   2.1794745551e+01    0.6451747    0.3365249  53.26  0.002222983    2.515    0.602
       242  -7.9272    250.6170    165.2796   8.0473546398e+01   3.5056137954e+00    0.1592269   0.08703661 -24.45 0.0006212913    1.555    0.357
       243  -8.4927    233.7973    164.7724   8.2827052134e+01   5.8177686090e+00    0.2236462     0.138795 -38.58 0.0006413674    1.567    0.362
       244  -8.7846    159.4971    164.3204   9.6500448444e+01   1.7755318166e+01    0.2649933    0.2279822  62.41 0.0007514177    1.467    0.318
       245  -9.5632     33.7673    163.5199   1.3097576258e+02   3.7426435890e+01    0.6651392    0.1771397  47.55   0.00220348    3.502    0.714
       246  -9.4806    246.0693    163.2661   8.0747410653e+01   4.3601296910e+00    0.2349174    0.1365698 -34.94 0.0005521132    1.504    0.335
       247  -8.4290    239.8838    164.1017   8.1793839787e+01   5.0750876315e+00    0.1705858    0.1380243 -29.56 0.0004671002    1.240    0.193
       248  -8.5383    213.0871    163.7377   8.5953079283e+01   8.9796682117e+00    0.2098236    0.1533776 -38.82 0.0006939204    1.402    0.287
       249  -7.4042    211.6783    176.3305   8.8553981563e+01   7.3153178767e+00     0.109088    0.1005449 -67.54 0.0007049253    1.696    0.410
       250  -8.6536    204.9100    162.7999   8.7184906652e+01   1.0388610352e+01    0.2250646    0.1612952 -29.16 0.0004869005    1.277    0.217
       251  -9.4088      3.5586    162.4761   1.3990835517e+02   4.0288241773e+01    0.4455635    0.1643302  46.66  0.001961648    2.270    0.559
       252  -9.2156    177.4703    160.7637   9.1982215847e+01   1.5262121569e+01    0.2854472    0.2571953  89.29  0.000992914    1.563    0.360
       253  -8.8107    151.5262    160.8501   9.7620007471e+01   1.9833497478e+01    0.2587925    0.2241674  77.68 0.0009312546    1.533    0.348
       254  -8.7534     60.7009    160.4285   1.2241093028e+02   3.5013740175e+01     0.393708    0.2035165  62.63  0.001553328    2.432    0.589
       255  -8.5295    227.3824    159.1658   8.2759993445e+01   7.5190523663e+00    0.2654772    0.1559006 -47.19   0.00112801    2.064    0.515
       256  -9.8785    105.8717    157.5341   1.0863041960e+02   2.8710829272e+01    0.5770653     0.443084  85.09  0.001599334    1.689    0.408
       257  -9.6163    250.1753    157.9212   7.9195781569e+01   4.5223836842e+00    0.2617239    0.1323854 -34.89 0.0008556867    1.657    0.397
       258  -8.4171    237.1910    159.2090   8.1282007955e+01   6.1125243525e+00    0.1550965    0.1269617 -36.70 0.0006420304    1.339    0.253
       259  -8.4786    128.3279    159.0473   1.0290612730e+02   2.4393963147e+01    0.2652144    0.1960455  60.19 0.0008907702    1.632    0.387
       260  -8.5779    196.7814    157.9306   8.7690717131e+01   1.2473441540e+01    0.2223103    0.1754439 -52.04 0.0007456575    1.574    0.365
       261  -8.4630    188.0769    157.7044   8.9277273330e+01   1.3969441512e+01    0.2275807    0.1739231 -44.01 0.0007003222    1.411    0.291
       262  -9.2828    167.5956    157.4217   9.3366828679e+01   1.7594816716e+01    0.3035318    0.2583565 -82.72  0.001153933    1.691    0.409
       263  -8.5141    217.8629    156.6082   8.3784236015e+01   9.3175535780e+00    0.2361177    0.1464104 -47.17  0.000802013    1.887    0.470
       264  -9.2919    157.5367    155.7318   9.5225022279e+01   1.9728995993e+01    0.3865673    0.2311056 -52.00  0.001734157    1.943    0.485
       265  -9.4218    119.5556    155.4516   1.0450153737e+02   2.6754504554e+01     0.421371    0.2965887 -88.54  0.001712602    2.244    0.554
       266  -9.6478     81.7316    155.0476   1.1521356783e+02   3.3287682987e+01    0.5572107    0.3189821  65.94  0.001407868    2.476    0.596
       267  -9.2662     49.5968    155.2787   1.2519929351e+02   3.7715523795e+01    0.4457739    0.2229869  58.04   0.00178712    2.240    0.554
       268  -9.5138    241.4602    154.2190   7.9726026085e+01   6.2005333981e+00    0.2958282    0.1961129  62.96  0.001617057    2.909    0.656
       269  -7.8281    204.5535    155.4991   8.5815431694e+01   1.1589406018e+01    0.1280317    0.1133635 -14.79  0.000152292    1.064    0.060
       270  -8.7861    144.6230    154.6029   9.7988083056e+01   2.2327666368e+01    0.3067581    0.2627196 -41.28  0.001485447    1.222    0.182
       271  -9.7741    132.8007    152.9478   1.0056148394e+02   2.4863342927e+01    0.4644454    0.3509669  76.22  0.001137147    1.904    0.475
       272  -8.9599    133.4899    148.5136   9.9476937920e+01   2.5669565139e+01    0.3421769    0.2413684 -44.61  0.001413597    1.482    0.325
       273  -9.7025     67.9773    153.8559   1.1924045254e+02   3.5639687462e+01    0.4634793     0.273302  63.61  0.001362465    2.053    0.513
       274  -8.0331    232.9954    154.0245   8.0923808571e+01   7.4322315754e+00    0.1776973    0.1398137 -54.53  0.000671427    1.761    0.432
       275  -8.8780    151.4897    152.5168   9.5943941845e+01   2.1467163108e+01    0.2448559    0.1395611 -56.23 0.0007092089    2.244    0.554
       276  -8.9613     20.1125    152.8170   1.3427934081e+02   4.1400504949e+01    0.2158895    0.1540834  56.54 0.0005978862    1.280    0.219
       277  -8.3372      8.7364    153.5597   1.3787895880e+02   4.2115924586e+01    0.2380302    0.1303348  11.14  0.001144405    2.146    0.534
       278  -9.0892    189.4888    150.3087   8.7505893111e+01   1.4972983057e+01    0.3330184     0.210777 -55.44 0.0009277555    2.159    0.537
       279  -8.2016    182.4794    151.4248   8.9087680252e+01   1.6013583424e+01    0.2220982    0.1248796 -49.54 0.0006506324    2.072    0.517
       280  -9.6841     29.4315    150.8671   1.3114162821e+02   4.1043543873e+01    0.4829423    0.2068678  63.74  0.001829094    2.788    0.641
       281  -9.5384    248.9022    149.5692   7.7819648377e+01   5.7992694246e+00    0.3234997    0.1529277 -34.40 0.0007892081    1.740    0.425
       282  -9.0702    246.9943    143.8657   7.6998876081e+01   6.8307872500e+00    0.2452511    0.1368479 -28.76 0.0004681005    1.492    0.330
       283  -8.3895    250.4819    140.5860   7.5912947763e+01   6.7813555677e+00    0.1904404    0.1290134 -23.26 0.0005839751    1.230    0.187
       284  -8.8562    243.2488    150.0019   7.8677577941e+01   6.5251210709e+00    0.2434875      0.12748 -41.22  0.001038392    1.833    0.454
       285  -8.4073    162.4945    150.5438   9.3054516380e+01   1.9801149515e+01     0.234042    0.1349377 -53.60  0.000724805    2.131    0.531
       286  -8.8564     98.2137    150.6721   1.0955042329e+02   3.1623508993e+01    0.3078747    0.2268408  81.31  0.001005134    1.775    0.437
       287  -8.1654    212.9748    149.9608   8.3276856444e+01   1.1090896336e+01    0.1756267    0.1506843 -58.72 0.0003599574    1.555    0.357
       288  -9.9318     39.6240    147.4735   1.2747002837e+02   4.0858373348e+01     0.675447    0.3288011  65.20  0.002201902    2.514    0.602
       289  -8.7231      2.9975    150.0120   1.3945362062e+02   4.3397463879e+01    0.2336204    0.1197076  57.59  0.001134983    1.785    0.440
       290  -8.4869    198.8407    149.0806   8.5532894238e+01   1.3566546439e+01    0.1905979       0.1707 -44.06 0.0004954495    1.272    0.214
       291 -10.2842     89.0164    146.1324   1.1144959686e+02   3.4271487959e+01    0.7265469    0.4216446  81.96  0.002487252    3.361    0.702
       292  -8.9399    233.5916    147.4235   7.9563841209e+01   8.2782899107e+00    0.2616218    0.1251499 -29.09 0.0009488261    1.886    0.470
       293 -10.4067    106.8588    143.9624   1.0574145691e+02   3.1657887313e+01    0.8489565    0.6021298 -88.02  0.002111661    2.028    0.507
       294  -9.2892     78.2097    147.2436   1.1498392108e+02   3.5749870658e+01    0.3766784    0.2508143  80.94  0.001240076    1.985    0.496
       295 -10.3929     54.4431    143.9281   1.2211859629e+02   3.9996379125e+01     0.997291      0.47827  72.72  0.003062425    3.595    0.722
       296  -8.9702     56.8034    135.5897   1.2005172831e+02   4.1833333543e+01    0.4123919    0.1912475  18.43  0.001480924    2.772    0.639
       297  -8.2529    223.4706    147.0765   8.1020813541e+01   9.8660457339e+00    0.1827184    0.1615427 -39.65 0.0004540061    1.281    0.219
       298 -10.3399    149.0206    145.0798   9.4953235475e+01   2.3408757281e+01    0.5232543     0.386214 -86.16  0.001683585    2.246    0.555
       299  -8.9250    150.1421    136.8927   9.2893206430e+01   2.4827366165e+01    0.6412011    0.3795128  11.46  0.002230409    3.357    0.702
       300  -9.8439    139.1321    144.9997   9.7321847639e+01   2.5328460705e+01    0.4712669    0.3214306 -71.18   0.00149238    2.210    0.548
       301  -9.1434     13.4243    146.2213   1.3591200343e+02   4.3616247958e+01     0.420971    0.1739686  51.61  0.001324447    2.298    0.565
       302  -8.1562    206.6981    146.2809   8.3587619338e+01   1.2691863890e+01    0.1904619    0.1505462 -44.76 0.0006676745    1.370    0.270
       303  -8.1182    175.4059    146.2737   8.9426026350e+01   1.8200522637e+01     0.215335    0.1732588  66.01 0.0006997421    1.658    0.397
       304  -8.8046    240.3687    145.2345   7.8169848560e+01   7.5910529424e+00    0.1856389    0.1407825 -37.47 0.0004559573    1.281    0.219
       305  -9.7084    242.6785    143.3144   7.7479716044e+01   7.5219336805e+00    0.3205085    0.1812652 -19.55  0.001764627    1.791    0.441
       306  -9.9052     73.0771    128.8016   1.1327656849e+02   4.1187263558e+01    0.6159105    0.3225266 -69.24  0.001901989    2.233    0.552
       307 -10.9806     68.8842    141.4388   1.1697474114e+02   3.8624714687e+01    0.8151278    0.5486628 -87.94  0.003174699    1.793    0.442
       308  -9.4328     70.5464    134.1135   1.1513604939e+02   4.0232921409e+01    0.3890763    0.2238949  22.41   0.00125875    1.969    0.492
       309  -7.7300    194.4348    143.9424   8.5264880223e+01   1.5174153646e+01     0.171982    0.1119435 -58.68 0.0004547792    2.250    0.555
       310  -8.8159    165.5295    143.9210   9.0989480650e+01   2.0477417711e+01    0.2509417    0.2203034  74.32 0.0007102471    1.450    0.310
       311  -9.3038      2.5240    141.4695   1.3913608059e+02   4.5575112577e+01    0.4347397    0.1939261  66.72  0.001914076    2.209    0.547
       312  -8.3291    182.0597    141.7057   8.7124312814e+01   1.7786108734e+01    0.2318205    0.1788231 -46.58 0.0005485063    1.375    0.273
       313  -9.8638    125.0970    142.8787   1.0046916469e+02   2.8481136818e+01    0.5471451    0.3732252  81.59  0.001585944    2.553    0.608
       314  -8.6270    134.4212    140.0229   9.7426539995e+01   2.7288079452e+01    0.2269455    0.1472605 -45.81  0.001022047    1.598    0.374
       315 -10.0046     23.4455    138.2001   1.3189283122e+02   4.4858987923e+01    0.6176628    0.2607483  61.09  0.002011999    2.752    0.637
       316  -7.7545    218.6462    138.8454   8.0116124734e+01   1.1866687249e+01    0.1783388    0.1035525 -41.64 0.0004306157    1.641    0.391
       317  -8.8357    172.0838    138.2599   8.8376378541e+01   2.0277658363e+01     0.330963    0.2138767 -56.52 0.0009296247    1.969    0.492
       318  -8.2903    207.4870    137.9951   8.1741930872e+01   1.3869675522e+01    0.2141926     0.168078 -61.07 0.0007309519    1.697    0.411
       319  -8.6094    197.5027    137.7273   8.3400588756e+01   1.5660839131e+01    0.2340816    0.1988802 -63.29 0.0008871416    1.499    0.333
       320  -8.9709     85.6832    122.2818   1.0767616748e+02   4.0697643225e+01    0.5445122    0.2705387  20.84  0.001782408    3.116    0.679
       321  -8.6190     80.6042    137.8080   1.1252422208e+02   3.7709336886e+01    0.2198775    0.2009487 -85.19  0.001027421    1.133    0.117
       322 -10.5482     83.3391    132.5393   1.1061404457e+02   3.8564184091e+01     0.696906    0.3951191 -70.33  0.001281877    2.174    0.540
       323  -8.7126    162.7085    136.4230   8.9953720444e+01   2.2437432668e+01    0.2512563    0.1754334 -53.67 0.0007097634    1.633    0.388
       324  -9.2920     39.2769    136.4572   1.2623186774e+02   4.3750567139e+01    0.3222228    0.1800542  54.00 0.0007939588    1.849    0.459
       325  -8.7916    248.3745    135.3807   7.5188996060e+01   7.7823938073e+00    0.2149407    0.1408627 -33.95 0.0007125948    1.262    0.208
       326  -9.3144    139.7454    137.4615   9.5523119840e+01   2.6776089994e+01    0.3338087    0.2354247   3.61  0.001311316    2.016    0.504
       327  -7.9118    187.6636    135.7927   8.4774287192e+01   1.7776781365e+01    0.1891211    0.1189197 -44.69 0.0004195095    1.608    0.378
       328  -9.4769    113.0290    133.4983   1.0175365880e+02   3.2909383244e+01     0.432675    0.3103127  68.14  0.001329436    1.804    0.446
       329  -7.7548    237.5603    133.7851   7.6320408800e+01   9.6108887251e+00    0.1709775   0.09604715 -42.43 0.0009315678    1.684    0.406
       330  -7.7898    231.3968    134.1861   7.7264519502e+01   1.0509713187e+01    0.1708828    0.0990363 -41.32 0.0003863194    1.601    0.376
       331 -10.2214    132.5053    130.9527   9.5876736664e+01   2.9602297749e+01    0.6465164     0.468146 -74.49  0.001615605    1.939    0.484
       332 -10.3756     98.0324    130.3170   1.0550072933e+02   3.6499413296e+01    0.6799519    0.3527438 -56.07   0.00174522    2.045    0.511
       333  -8.7395     98.7931    121.0022   1.0315523678e+02   3.8580058332e+01     0.324087    0.2279206 -16.11  0.001337112    2.098    0.523
       334  -8.7761    250.7416    130.1946   7.3883570429e+01   8.1398125083e+00    0.3507681   0.08785457 -32.19  0.001298318    3.648    0.726
       335  -8.6253    246.8667    130.3238   7.4400715176e+01   8.6905140227e+00    0.2049511    0.1318319 -38.73  0.000643201    1.360    0.265
       336 -10.1245     12.8365    129.3620   1.3477216639e+02   4.8004199450e+01    0.5579424    0.2681744  71.09  0.002196246    2.258    0.557
       337  -7.9066    220.6127    130.1611   7.8023509056e+01   1.2853952520e+01    0.1716515    0.1070274 -25.87 0.0004470402    1.508    0.337
       338  -8.1242    211.8032    129.4892   7.9245522962e+01   1.4461151053e+01    0.2307568    0.1552108 -62.13  0.001015086    2.225    0.551
       339  -8.2782    192.9569    130.0734   8.2552487235e+01   1.7765325818e+01    0.2047278    0.1616331 -65.92  0.000634418    1.673    0.402
       340  -9.1341    168.3335    129.4733   8.7181829059e+01   2.2631964890e+01    0.2814277    0.2325093 -70.49 0.0007561201    1.532    0.347
       341  -9.0609    162.2123    130.2531   8.8663066923e+01   2.3710926617e+01    0.2600874     0.178636  40.12  0.001020725    1.461    0.316
       342  -9.7390    152.9396    127.9865   9.0204278065e+01   2.6034060914e+01     0.682485    0.2737354 -42.18  0.002341078    2.512    0.602
       343  -7.8814      1.6379    130.2842   1.3876608686e+02   4.8480119220e+01    0.1434734   0.08114229  53.60 0.0007019393    1.683    0.406
       344 -10.4666     59.9860    125.0875   1.1713116584e+02   4.4113893331e+01    0.8320009    0.4574374  72.83  0.002645572    2.907    0.656
       345 -10.7323     45.0246    123.6900   1.2232844386e+02   4.6441391273e+01     1.242496    0.5727977  69.45  0.003894942    3.918    0.745
       346  -8.0279    204.8910    130.8904   8.0669145115e+01   1.5456520624e+01    0.1996884    0.1562999 -65.15 0.0007764492    1.726    0.420
       347 -10.1508    117.9544    124.9492   9.8395890291e+01   3.3872647303e+01    0.6324694    0.4679655 -83.54  0.001680962    1.894    0.472
       348  -8.5898    179.4800    133.8642   8.5917692747e+01   1.9655479202e+01    0.2532111    0.2172688 -77.69 0.0008229131    1.532    0.347
       349  -9.2180    178.9067    125.1768   8.4068907744e+01   2.1312160105e+01    0.3232073    0.2621794  24.25  0.001756772    1.322    0.244
       350 -10.6669    130.9857    118.5806   9.3308411001e+01   3.2561503883e+01    0.8846564    0.5420696 -78.62  0.002892258    3.667    0.727
       351 -10.6381    133.6795    109.6753   9.0344823333e+01   3.3855567126e+01    0.7395149     0.360978 -45.47  0.002191655    2.090    0.521
       352 -10.4801     28.2109    121.6029   1.2830578342e+02   4.8783747714e+01     1.013033    0.4555247  77.27  0.003566758    3.205    0.688
       353  -8.0318    188.5187    124.0424   8.2006720762e+01   1.9630590061e+01    0.2081505    0.1277503 -39.54 0.0006233503    1.536    0.349
       354  -9.2316    158.7709    121.1028   8.7263177961e+01   2.6168307791e+01    0.4865484    0.2513539 -44.20   0.00180912    1.938    0.484
       355  -7.9624    203.3752    122.1999   7.9028538966e+01   1.7128629327e+01    0.1873203     0.112446 -44.48 0.0003931148    1.624    0.384
       356  -7.9841    194.9992    122.2152   8.0444621439e+01   1.8696322704e+01    0.1992931    0.1369382 -52.17 0.0004821225    1.618    0.382
       357  -8.6283    172.0175    121.5710   8.4591448742e+01   2.3344687076e+01    0.2546604    0.1907369 -53.69 0.0004033187    1.465    0.317
       358 -10.2763    141.6420    118.5087   9.0596423863e+01   3.0307333189e+01    0.6534435    0.3281823 -50.73  0.001020554    2.185    0.542
       359  -9.5628     71.0870    119.8621   1.1215246447e+02   4.3776856907e+01    0.4418131    0.2713399 -81.13   0.00130755    2.179    0.541
       360  -9.6489      2.9968    117.3645   1.3738554046e+02   5.1744943756e+01    0.5637398    0.2302963  65.22  0.002240703    2.714    0.632
       361  -9.3467    142.9324    131.3839   9.3359865749e+01   2.7393435545e+01    0.3766862    0.2614341 -57.92  0.001269445    1.683    0.406
       362  -7.7104    231.6526    117.3348   7.3778822174e+01   1.2904094154e+01     0.124912   0.08933969 -59.62 0.0007048472    1.774    0.436
       363  -8.1720    193.0870    115.5597   7.9261771099e+01   2.0174795312e+01    0.2329558    0.1721175 -45.80   0.00059157    1.330    0.248
       364  -8.0404    185.7799    116.3634   8.0739145298e+01   2.1485527133e+01     0.187959    0.1626948 -42.17 0.0003978246    1.122    0.109
       365 -10.3358    109.1916    113.2758   9.8075511236e+01   3.8310026808e+01    0.8465863    0.4157402 -55.32  0.002444526    2.295    0.564
       366  -8.7357     59.5320    115.2578   1.1540010405e+02   4.6726367092e+01    0.4564545    0.2661816   0.07  0.001634245    3.016    0.668
       367  -8.0082    250.0797    115.4416   7.1067923669e+01   1.0228550602e+01     0.151499    0.1158788  43.79  0.001017837    1.585    0.369
       368  -7.8760    153.3005    115.6655   8.7152826750e+01   2.8379277419e+01    0.1501969    0.1192237 -80.57 0.0007034346    1.656    0.396
       369 -10.2697     92.6644    112.2873   1.0301889698e+02   4.1840177111e+01    0.7259601    0.4298925 -71.72  0.001457887    2.441    0.590
       370  -9.0102     93.7659    104.4202   1.0063907962e+02   4.3494483861e+01    0.4563259    0.2740693  22.05  0.001660137    2.295    0.564
       371  -9.9693     78.7967    112.3939   1.0776733830e+02   4.4363629320e+01    0.5713799    0.3857918  82.02  0.001765393    2.165    0.538
       372  -8.7368     78.3715    105.7549   1.0630984584e+02   4.6082193356e+01    0.4521267    0.2947065  -7.46  0.001517524    2.709    0.631
       373  -8.0184    167.0623    114.2966   8.3855210774e+01   2.5707139900e+01    0.1994331    0.1913743  58.01 0.0006914595    1.094    0.086
       374 -10.4122    122.1809    112.0963   9.4033898438e+01   3.5837906674e+01    0.7630284    0.4561324 -60.13  0.002238761    2.077    0.519
       375 -10.9061    109.1850     99.0888   9.4290685002e+01   4.1500129985e+01     1.256571    0.6813377  68.94  0.001638203    4.076    0.755
       376  -9.0525    108.5622     92.3248   9.2540624832e+01   4.3113418736e+01    0.6008568    0.2747687  31.96  0.001874732    3.238    0.691
       377  -8.4790    174.7521    111.9271   8.1748257979e+01   2.4519784395e+01    0.2621951    0.1845831 -54.61 0.0006960796    1.572    0.364
       378  -8.5629    159.2182    111.8672   8.4903032491e+01   2.7836112737e+01    0.2660211     0.231807 -63.89  0.000766564    1.257    0.204
       379 -10.1253     66.4019    110.1709   1.1174863654e+02   4.6991319627e+01    0.6022984    0.4050181 -71.90  0.002091275    1.658    0.397
       380  -9.8377     14.2505    111.1220   1.3245089512e+02   5.2689813489e+01    0.5328822    0.2565113  56.65  0.002078567    2.295    0.564
       381  -9.8571    248.5984    108.5708   6.9867072810e+01   1.1386353336e+01    0.2757021     0.231815 -54.91  0.001571555    1.313    0.238
       382 -10.1332    249.0534    102.5454   6.8598333918e+01   1.2126108945e+01    0.4253975     0.189114 -20.81  0.001789769    3.206    0.688
       383  -9.2509     43.7113    109.4238   1.2037609691e+02   5.0353797135e+01    0.3607982    0.1957979  10.83  0.001429687    2.413    0.586
       384  -8.0049    189.3892    108.2419   7.8190382575e+01   2.2136103305e+01    0.1972424    0.1203371 -45.55 0.0004904324    1.599    0.374
       385 -10.6862     22.8382    102.6508   1.2783174713e+02   5.4271354797e+01     0.870986    0.4031093  66.49  0.002651173    3.053    0.672
       386  -9.7341    150.7713    103.3899   8.4589464215e+01   3.1312332240e+01    0.4985874    0.3174548 -64.88  0.001397159    2.200    0.545
       387  -9.8563    140.0137    104.5328   8.7408446517e+01   3.3500377208e+01    0.4899886    0.3234498 -57.52 0.0009396825    1.755    0.430
       388 -10.5904     45.7293    102.4580   1.1820053610e+02   5.1928488044e+01    0.8841585    0.4508909  63.76  0.003104883    3.105    0.678
       389  -9.2559     45.6920     92.3946   1.1602390520e+02   5.4534289907e+01    0.4711457    0.2755869  -4.30  0.001810493    2.703    0.630
       390  -9.3076    165.0601    103.8968   8.1671115568e+01   2.8045858857e+01    0.4082764    0.2436549  54.20 0.0007551985    1.756    0.431
       391  -9.1828      6.8600    103.2974   1.3461891381e+02   5.5207637505e+01    0.3059627    0.1688595  77.90  0.001208129    1.910    0.476
       392  -8.2758    175.6464    102.5035   7.9260579827e+01   2.5993001293e+01    0.2426247    0.1614648 -56.07 0.0007060979    1.701    0.412
       393 -10.5653    128.7131    101.5993   8.9477445612e+01   3.6637027887e+01    0.5592837    0.4185466 -42.72  0.001724935    1.366    0.268
       394  -8.3989    159.8168    101.1161   8.2034119416e+01   2.9716255467e+01    0.2259222    0.1934614 -67.81 0.0004711689    1.282    0.220
       395  -9.2587     81.9980     99.8764   1.0348935674e+02   4.6851053249e+01    0.4176452    0.2915583 -85.36  0.001044242    2.043    0.510
       396 -10.3437     64.2235     95.1408   1.0896934856e+02   5.1129778130e+01     1.132332    0.5436506 -56.52   0.00334144    2.080    0.519
       397  -9.6928    220.2579     97.6864   7.1074778104e+01   1.7777145228e+01    0.2243051    0.1981942 -38.19   0.00026581    1.021    0.020
       398  -9.4164     95.0190     96.8881   9.8164475378e+01   4.4992889449e+01    0.4154457    0.2792409 -62.59 0.0005683045    1.728    0.421
       399  -8.6076    151.1142     95.7462   8.2473902091e+01   3.2685986908e+01    0.3762165    0.2491925   2.61   0.00142557    2.809    0.644
       400  -7.8107    182.6075    109.5077   7.9692616219e+01   2.3310202503e+01    0.1398692    0.1292278 -35.28 5.979184e-05    1.026    0.025
       401  -8.4019    226.4339     94.4732   6.9571092928e+01   1.7108008372e+01    0.2564311    0.1208888  77.60 0.0008075371    6.297    0.841
       402  -8.3312    176.7582     93.6743   7.6828747874e+01   2.7271031858e+01    0.2754191    0.1673594 -59.00  0.001186163    2.035    0.509
       403  -8.3361    164.8537     94.1156   7.9178523660e+01   2.9851491181e+01    0.2278483    0.1890737 -67.61 0.0005653874    1.322    0.244
       404  -9.5069    138.9750     92.3678   8.4327101866e+01   3.6138850804e+01    0.4353235    0.2874524 -62.89 0.0009082825    1.913    0.477
       405  -7.6671    188.3677     93.6838   7.4840847548e+01   2.4756408539e+01     0.146282    0.1045499 -70.64 0.0007037623    1.778    0.438
       406 -10.5085    123.8992     91.0753   8.7788000851e+01   3.9898563901e+01    0.6391926    0.5663556   7.78  0.001897722    1.307    0.235
       407  -9.5022      5.2491     92.3994   1.3414195372e+02   5.8137583156e+01    0.3725456    0.1898217  54.39  0.001207057    2.184    0.542
       408  -9.7483     35.0038     90.1413   1.2026604655e+02   5.6385622623e+01    0.5189117    0.3045437  80.22  0.001635193    2.425    0.588
       409  -8.1666    157.6210     91.3256   7.9889398817e+01   3.2002097439e+01    0.2019335     0.141363 -30.59 0.0006963433    1.521    0.343
       410  -9.1013     22.9246     90.2506   1.2579914416e+02   5.7518841726e+01    0.3289122     0.239196 -12.81  0.001019363    1.574    0.365
       411  -8.3500    150.9901     89.0669   8.0667569378e+01   3.3952953781e+01    0.2393698    0.1787475 -72.07  0.000556045    1.649    0.394
       412 -10.1456     86.3124     85.9567   9.7967721713e+01   4.9268029103e+01    0.6633779    0.4211899 -59.11  0.001535122    1.787    0.440
       413  -7.3871    188.3186     87.6419   7.3348066365e+01   2.5742337146e+01    0.1484888    0.1014752 -64.93 0.0007044498    1.759    0.431
       414  -7.7936    164.1435     87.4020   7.7527548584e+01   3.1192375952e+01    0.1989129    0.1399398  71.64 0.0005395834    1.645    0.392
       415  -9.7088     48.5484     84.3807   1.1279044497e+02   5.6179910413e+01    0.5327536    0.3141249  62.55  0.001671861    2.479    0.597
       416  -9.8201    104.8952     83.3112   9.0941029410e+01   4.5853750969e+01    0.4903559    0.3500695 -76.38  0.001000502    1.966    0.491
       417  -8.5844    105.4836     77.0150   8.8756286634e+01   4.7019695700e+01    0.3508293     0.242868  13.25   0.00128192    2.264    0.558
       418  -8.2488    157.8536     84.0758   7.7853340840e+01   3.3236774385e+01    0.2246933    0.1919283 -64.96 0.0004204124    1.215    0.177
       419  -9.4268    140.9013     82.7163   8.1100816414e+01   3.7509983326e+01    0.3537408    0.2083126 -43.65 0.0008328486    1.707    0.414
       420  -7.4105    185.2903     82.6490   7.2569109801e+01   2.7199731554e+01    0.1472677    0.1010339 -63.17 0.0006905285    1.670    0.401
       421  -9.7244     24.6219     80.4930   1.2313769965e+02   5.9894273106e+01    0.4912957    0.2764763  83.77  0.001329896    2.449    0.592
       422  -9.4691      9.9161     81.1700   1.3048221502e+02   6.0795409019e+01    0.3502975    0.1875525  50.04  0.001201193    2.131    0.531
       423  -8.4190    150.1969     80.6984   7.8471606166e+01   3.5648029393e+01    0.2711228    0.1892191 -50.19 0.0006721425    1.463    0.317
       424  -9.0197    119.4223     80.5385   8.5833659973e+01   4.3056295151e+01    0.3326112    0.2536624 -78.35  0.000851719    1.670    0.401
       425  -8.8173     74.4636     80.4597   1.0070968363e+02   5.2850132741e+01    0.3357147     0.258907 -79.10  0.001163884    1.647    0.393
       426  -8.3491    166.7077     79.8965   7.5008675803e+01   3.1875291494e+01    0.2051042    0.1777649 -43.64 0.0005448593    1.121    0.108
       427  -7.8482    184.3398     78.2611   7.1592582732e+01   2.8102989640e+01    0.2014293    0.1165112 -43.70 0.0006154118    1.614    0.381
       428  -7.9326    174.7771     78.1967   7.3131461399e+01   3.0283067342e+01    0.2412331    0.1372447 -67.25 0.0006520851    2.671    0.626
       429  -8.0612     91.9967     79.0000   9.3788303943e+01   4.9615525786e+01    0.2655126   0.08655798  44.22 0.0008064578    2.970    0.663
       430 -10.0284     63.5921     74.3411   1.0322799159e+02   5.6240324865e+01    0.6753646    0.3515243 -66.88  0.002415333    2.880    0.653
       431  -9.5682    128.0450     74.9784   8.1838810467e+01   4.2046941316e+01    0.5008937    0.2774337 -46.99 0.0007806138    1.886    0.470
       432  -9.0210    140.3645     75.4412   7.9061768691e+01   3.8958550597e+01    0.2819685     0.181967 -43.47 0.0006507406    1.559    0.358
       433  -9.7148     82.1930     72.6989   9.5216078548e+01   5.3041962794e+01    0.4372073    0.3225556 -75.73 0.0009376445    1.844    0.458
       434  -8.2526    163.3390     72.9344   7.3691101945e+01   3.3819936135e+01    0.2871494    0.1162844 -43.15  0.001062669    2.386    0.581
       435  -7.9901    151.4389     73.4862   7.6124040131e+01   3.6598719030e+01    0.1485463     0.140986 -77.44 0.0001421017    1.020    0.019
       436  -9.4446     95.1501     70.3829   8.9846408424e+01   5.0717730671e+01    0.7053151    0.2631359 -46.38  0.002348558    2.842    0.648
       437  -7.9622     42.6019     72.8376   1.1239977807e+02   5.9829289918e+01    0.2014172    0.1384713 -75.35 0.0005539893    1.732    0.423
       438  -7.5807    175.4814     72.5463   7.1498741523e+01   3.1019128296e+01    0.1407821    0.1331885 -64.05  0.000115208    1.016    0.016
       439  -8.7056    105.8745     71.8395   8.6930747320e+01   4.7960991249e+01    0.2691665    0.2257397 -65.91 0.0006238142    1.325    0.246
       440  -9.5112     51.4508     69.8664   1.0725199793e+02   5.9275341368e+01    0.4917934    0.3058704 -78.50  0.001452832    2.495    0.599
       441  -9.2763     29.5454     70.2465   1.1827314497e+02   6.2003169090e+01    0.5435942    0.2720166 -16.69  0.001959512    3.296    0.697
       442  -7.6134    170.6319     71.2948   7.1961067331e+01   3.2351475050e+01    0.1524002    0.1060765 -72.81 0.0007028802    1.723    0.419
       443  -8.8186     16.8499     70.2674   1.2497930838e+02   6.3120580786e+01    0.2819718    0.1855028  87.17  0.000935566    1.790    0.441
       444  -7.8011    157.0199     69.9550   7.4007205329e+01   3.5829586260e+01    0.1778467    0.1647948 -55.00  0.000378864    1.058    0.055
       445  -8.7956    146.9478     68.4551   7.5540697171e+01   3.8546783668e+01    0.3220611     0.200879 -43.77 0.0006380141    1.598    0.374
       446  -8.9192    138.4690     66.1385   7.6621989637e+01   4.1040484599e+01    0.3211848     0.207216 -56.99 0.0008265722    1.755    0.430
       447  -8.9635    121.6014     65.9359   8.0557703864e+01   4.5270373509e+01    0.3533067    0.2421816 -57.16 0.0008283954    1.657    0.397
       448  -8.7366    121.4782     61.5340   7.9113556151e+01   4.6072627234e+01    0.2597999    0.2306914  49.68 0.0006376123    1.109    0.099
       449  -9.1049    115.6568     73.0456   8.4488717434e+01   4.5406497944e+01    0.3842649    0.2082621 -47.21  0.001329331    1.950    0.487
       450  -8.8623     64.5577     63.7359   9.9197370524e+01   5.8439618844e+01     0.557543    0.3471145  -8.83  0.002037187    3.033    0.670
       451  -8.8764    110.2021     63.7779   8.2907703755e+01   4.8453934031e+01    0.3237103    0.2226792 -61.19 0.0006865779    1.768    0.434
       452  -8.7186     37.2045     64.2903   1.1258134457e+02   6.2575621141e+01    0.3214722    0.2243944  70.65  0.001171288    2.049    0.512
       453  -7.7442    157.2805     76.6337   7.5875350488e+01   3.4654968006e+01    0.1560642    0.1097192 -66.70 0.0005591898    1.684    0.406
       454  -7.5380    187.5047     63.4920   6.7285894953e+01   2.9615902966e+01    0.1376613    0.1252794 -60.41 0.0008106223    1.004    0.004
       455  -8.2323    158.3747     62.1715   7.1486928308e+01   3.6738519781e+01    0.2096566    0.1245186 -46.69 0.0003999902    1.666    0.400
       456  -9.5211     97.6601     60.0951   8.5375223304e+01   5.2132550465e+01    0.4423041     0.333261 -28.47  0.001479418    1.490    0.329
       457  -9.7204     73.2760     59.3036   9.3880265854e+01   5.7673167909e+01    0.4845908    0.2619732 -53.58  0.001348913    2.164    0.538
       458  -7.8703    164.4631     59.5452   6.9681279245e+01   3.5646118600e+01    0.1426397    0.1343298 -77.99 6.685244e-05    1.020    0.020
       459  -7.7355    147.2304     59.5982   7.2778073436e+01   3.9912884288e+01    0.1552483    0.1040225 -60.16 0.0006894391    1.662    0.398
       460  -9.8626     23.4079     56.6257   1.1790408964e+02   6.5914458980e+01    0.5201102    0.3128603  77.61  0.002189627    2.806    0.644
       461  -8.1745    130.6781     57.9438   7.5712182164e+01   4.4359177025e+01     0.210517    0.1858161 -52.13 0.0004758768    1.156    0.135
       462  -9.2599      7.3881     57.1064   1.2754125774e+02   6.6986178392e+01    0.3350762    0.2219489  83.71  0.001139666    1.796    0.443
       463  -9.3799    119.2104     55.8646   7.7735420710e+01   4.7599877493e+01    0.4149259    0.2521019 -52.33 0.0007377205    1.855    0.461
       464  -9.4983     54.3405     55.6863   1.0089591626e+02   6.1984574272e+01    0.3756339    0.2549126 -64.34  0.001191551    1.862    0.463
       465  -8.5852    139.8456     56.1689   7.3165071068e+01   4.2315695347e+01    0.2316431    0.1911554 -71.41 0.0004416135    1.265    0.209
       466  -8.8211     43.9895     55.6116   1.0608954944e+02   6.3648600470e+01    0.2625917    0.2085923 -62.13 0.0007405978    1.393    0.282
       467  -8.7644    105.5240     52.9173   8.0342050502e+01   5.1507770273e+01    0.3148281    0.2408297 -56.66 0.0007273428    1.458    0.314
       468  -9.4986     92.3467     50.6968   8.3528836408e+01   5.5073579293e+01    0.4157116    0.2557792 -52.04  0.001167728    1.904    0.475
       469  -8.9287     92.6992     43.3416   8.0461593736e+01   5.6218164143e+01    0.4225652    0.2283414 -21.65   0.00162963    2.587    0.614
       470  -8.2774     88.8664     59.5509   8.8105713583e+01   5.4264623274e+01     0.241064    0.1779188 -47.25 0.0004249802    1.437    0.304
       471  -7.8481    217.7403     49.2846   6.0270036697e+01   2.4956468829e+01    0.1953933    0.1050962 -19.65 0.0009057431    2.392    0.582
       472  -8.0563    149.5595     48.9758   6.9041134611e+01   4.0922677458e+01    0.2107964    0.1415295 -34.77 0.0003905972    1.530    0.346
       473  -8.4876    144.5459     49.0724   6.9974387931e+01   4.2187868724e+01    0.2166893    0.1413221 -37.29 0.0005765141    1.556    0.357
       474  -8.1988    129.9663     49.2294   7.2934978975e+01   4.5909114768e+01     0.208818    0.1891052  77.33 0.0004059854    1.042    0.040
       475  -8.6290    120.9053     47.3854   7.4325562598e+01   4.8517203534e+01    0.2365186      0.19945 -53.22 0.0005057559    1.236    0.191
       476  -8.6267    112.1330     46.8035   7.6268250319e+01   5.0845484451e+01    0.2591779    0.1965062 -52.43 0.0006326971    1.424    0.298
       477  -9.0889     82.1425     46.2669   8.5250765556e+01   5.8210006819e+01     0.348822    0.2247349 -47.47  0.001028397    1.719    0.418
       478  -8.5787     45.0193     44.7837   1.0125939316e+02   6.5796723853e+01    0.2358018    0.1970661 -45.41  0.000484693    1.236    0.191
       479  -8.9535     16.6005     44.8921   1.1849952002e+02   6.9258972002e+01    0.2189246    0.1968113  83.37 0.0007082704    1.339    0.253
       480  -8.7215    132.8709     43.5425   7.0387381123e+01   4.5992305255e+01    0.2924215    0.2091356 -63.69 0.0008427397    1.540    0.351
       481  -9.2429     69.6622     41.8758   8.8197088398e+01   6.1723203664e+01    0.4249219     0.280432 -65.64  0.001471142    2.386    0.581
       482  -8.9327     58.1612     42.6185   9.3634266070e+01   6.3912057271e+01    0.3555384    0.2298441 -63.65  0.001408869    2.338    0.572
       483  -9.3982      5.2492     42.1999   1.2536543122e+02   7.0655858787e+01    0.3051389    0.2115822  82.42  0.001153039    1.836    0.455
       484  -8.7205    105.9073     41.3196   7.5808072486e+01   5.3258762806e+01    0.3176044     0.194643 -50.78 0.0009211978    1.864    0.464
       485  -7.8158    140.4381     41.4725   6.8250850966e+01   4.4318958189e+01    0.1461892    0.1338524 -88.47 0.0001328269    1.019    0.018
       486  -8.5053     36.8822     41.0606   1.0426467686e+02   6.7790713723e+01    0.2002782    0.1884447  68.69 0.0005853189    1.308    0.236
       487  -8.8677     95.3962     38.1139   7.7475005258e+01   5.6367878089e+01    0.2959447      0.21046 -57.47 0.0007512869    1.681    0.405
       488  -8.3414     80.6142     36.7547   8.1694791247e+01   6.0127945366e+01     0.194079      0.13597 -45.91 0.0003691119    1.589    0.371
       489  -9.4169     26.1434     35.4812   1.0857913404e+02   7.0353780914e+01    0.3363482    0.2513361 -71.18 0.0008796226    1.751    0.429
       490  -8.0697    133.4151     36.1983   6.7754349138e+01   4.6853897770e+01    0.2026285    0.1275551 -45.76 0.0007524742    1.631    0.387
       491  -8.0263    125.9779     35.7186   6.9026140826e+01   4.8862205448e+01    0.2048499    0.1727858  71.30 0.0003448994    1.094    0.086
       492  -8.6299    111.9423     34.5623   7.1654860360e+01   5.2673587470e+01    0.2757582    0.1913129 -52.16  0.000695621    1.587    0.370
       493  -8.5038    119.1783     33.2758   6.9539386493e+01   5.0961545307e+01    0.2715856    0.1670686 -58.58 0.0007082358    1.926    0.481
       494  -7.7910     88.7995     34.6150   7.8005181330e+01   5.8502469621e+01    0.2052757    0.1341963  67.16   0.00052679    1.641    0.391
       495  -8.9069     48.4412     33.3336   9.4146989853e+01   6.7409151301e+01    0.2669438    0.2401191 -61.35 0.0008005369    1.369    0.270
       496  -8.6413     60.7425     32.6818   8.7771012153e+01   6.5147437731e+01    0.2576674    0.1879057 -47.72 0.0005689361    1.571    0.363
       497  -8.0072    139.3834     32.1419   6.5313735585e+01   4.5811445908e+01    0.2064781    0.1211522 -44.22 0.0009406372    1.719    0.418
       498  -8.8680     13.0631     30.4978   1.1577589870e+02   7.2741772325e+01    0.2677194    0.2015911  89.21  0.001053394    1.903    0.475
       499  -8.6958    101.3252     29.4122   7.2196505724e+01   5.6089238397e+01    0.2368056    0.1607824 -53.01 0.0006848256    1.690    0.408
       500  -7.9026     42.0000     29.9713   9.6017460007e+01   6.9130838642e+01    0.2097097   0.07619782 -43.83 0.0004216923    2.838    0.648
       501  -8.7942     81.5537     27.6748   7.7215956052e+01   6.1235519626e+01    0.2913691    0.2092648 -69.38 0.0008426526    1.924    0.480
       502  -8.9359      3.5462     27.2904   1.2203182532e+02   7.4108340615e+01    0.2924993    0.2017447 -81.08  0.001173433    1.785    0.440
       503  -8.9089     71.8812     30.7019   8.2129266705e+01   6.3054979171e+01    0.3105964    0.1931113 -40.35 0.0008881212    1.751    0.429
       504  -8.8910     91.7287     26.4084   7.3502084073e+01   5.8906552954e+01    0.2998254    0.2151187 -47.32 0.0008234024    1.564    0.360
       505  -8.2241    104.4697     23.0003   6.8746380838e+01   5.6070060847e+01    0.1979396    0.1427058 -31.27  0.000463505    1.517    0.341
       506  -7.8923     34.7456     23.5391   9.6980766973e+01   7.1449712404e+01    0.1825596     0.119848  45.09  0.000940473    1.671    0.402
       507  -8.9295     63.6552     21.1542   8.0582944410e+01   6.6257402005e+01    0.2832557    0.2189632 -60.24 0.0008838478    1.713    0.416
       508  -8.8536     48.4745     21.7369   8.7989528512e+01   6.9326494958e+01    0.2314848    0.2197011 -58.17 0.0006805302    1.308    0.235
       509  -8.0938    120.5447     21.0869   6.4658620366e+01   5.2069001386e+01    0.2033444    0.1380802 -33.86  0.001011525    1.576    0.365
       510  -7.8529     19.5577     21.5034   1.0657226894e+02   7.3913289039e+01     0.127187    0.1132118  -8.77 0.0001482413    1.054    0.051
       511  -8.8551     74.0229     19.5556   7.5811497704e+01   6.4089095242e+01    0.2546599    0.1872577 -49.79 0.0007185007    1.622    0.383
       512  -8.4121     87.8739     17.6019   7.0552191904e+01   6.0933926400e+01    0.2639705    0.1672053 -47.12 0.0005221217    1.829    0.453
       513  -8.1713     38.5288     18.0602   9.1450111648e+01   7.1725536687e+01    0.1920057    0.1274447 -36.93  0.001023071    1.577    0.366
       514  -7.6660    112.9551     17.0345   6.4506626422e+01   5.4507395479e+01     0.169384     0.149864  73.49 0.0004310132    1.006    0.006
       515  -8.8975    218.8505    247.4462   9.8772475280e+01  -2.8278487369e+00    0.2805196    0.1235883 -30.45  0.001657388    2.240    0.554
       516  -7.9462     16.7743     14.0057   1.0455146073e+02   7.5627773748e+01    0.1595379   0.09761116 -44.95 0.0004489934    1.619    0.382
       517  -7.3477    119.7069     11.3333   6.1069908240e+01   5.3288031543e+01    0.1456714    0.0965337 -64.49 0.0007024528    1.637    0.389
       518  -8.5051    200.7189    249.0239   1.0211702542e+02  -1.0160600098e+00    0.2428639    0.1090414  11.27  0.001184918    2.760    0.638
       519  -8.5587    190.4577    246.0731   1.0356283392e+02   5.2489873047e-01    0.1884839    0.1414057  -6.21 0.0003846783    1.201    0.168
       520  -9.1964    175.8172    247.7887   1.0652437602e+02   2.0569756797e+00    0.2788678    0.2121184  49.65  0.001125758    2.016    0.504
       521  -7.7108      7.5164     15.5208   1.1349898777e+02   7.6277373588e+01    0.1222046    0.1076408 -15.45 7.061136e-05    1.075    0.070
       522  -8.6544    156.5772    248.4069   1.1034468790e+02   4.3490350890e+00    0.2768883    0.1478002  49.35  0.001108668    2.842    0.648
       523  -8.9979    147.1931    246.0499   1.1194218241e+02   5.8707734613e+00    0.2958407    0.2023935  64.59  0.001350977    2.852    0.649
       524  -8.7738    132.2721    247.8256   1.1522536031e+02   7.5206559602e+00    0.2437698    0.1720619  58.65 0.0007597103    2.004    0.501
       525  -8.3013    113.0663    248.7728   1.1937807380e+02   9.8303545722e+00    0.1828685    0.1477908  73.02  0.001086016    1.687    0.407
       526  -9.1108    242.8621    246.9424   9.4831149585e+01  -5.2264801535e+00    0.2736854    0.1196911 -29.55  0.001334434    2.102    0.524
       527 -10.1030    223.9466    244.2809   9.7477808931e+01  -3.0176123518e+00    0.3786348    0.2040475 -40.00  0.002403418    2.396    0.583
